Data from 2145_3_HRD10591_00040.txt Node
Date: Mon Jan 19 14:23:27 EST 2026
User: Yrep
Spectrometer: HR+D1059
Trigger mode: 1
Integration Time (sec): 1.000000E-1
Scans to average: 1
Electric dark correction enabled: true
Nonlinearity correction enabled: false
Boxcar width: 0
XAxis mode: Wavelengths
Number of Pixels in Spectrum: 2048
>>>>>Begin Spectral Data<<<<<
223.165	-8.31
223.4	-8.31
223.635	-8.31
223.869	-20.31
224.104	-16.31
224.338	-13.31
224.573	-15.31
224.808	-11.31
225.042	-11.31
225.277	4.69
225.511	-14.31
225.746	-2.31
225.98	4.69
226.215	18.69
226.449	16.69
226.683	25.69
226.918	27.69
227.152	14.69
227.387	23.69
227.621	43.69
227.856	53.69
228.09	39.69
228.324	39.69
228.559	56.69
228.793	64.69
229.027	76.69
229.262	68.69
229.496	62.69
229.73	66.69
229.964	76.69
230.199	63.69
230.433	78.69
230.667	92.69
230.901	75.69
231.136	74.69
231.37	88.69
231.604	78.69
231.838	77.69
232.072	87.69
232.306	82.69
232.541	89.69
232.775	77.69
233.009	83.69
233.243	74.69
233.477	81.69
233.711	66.69
233.945	79.69
234.179	81.69
234.413	93.69
234.647	79.69
234.881	79.69
235.115	90.69
235.349	71.69
235.583	74.69
235.817	76.69
236.051	60.69
236.285	61.69
236.519	74.69
236.753	82.69
236.987	69.69
237.221	90.69
237.455	75.69
237.689	67.69
237.922	72.69
238.156	83.69
238.39	65.69
238.624	68.69
238.858	71.69
239.091	73.69
239.325	75.69
239.559	79.69
239.793	75.69
240.027	78.69
240.26	78.69
240.494	88.69
240.728	81.69
240.961	88.69
241.195	68.69
241.429	84.69
241.662	74.69
241.896	80.69
242.13	69.69
242.363	87.69
242.597	86.69
242.83	77.69
243.064	70.69
243.298	77.69
243.531	75.69
243.765	85.69
243.998	87.69
244.232	84.69
244.465	72.69
244.699	68.69
244.932	75.69
245.166	67.69
245.399	84.69
245.633	71.69
245.866	78.69
246.099	83.69
246.333	97.69
246.566	76.69
246.8	83.69
247.033	87.69
247.266	77.69
247.5	75.69
247.733	71.69
247.966	68.69
248.2	79.69
248.433	85.69
248.666	73.69
248.899	89.69
249.133	82.69
249.366	88.69
249.599	71.69
249.832	77.69
250.066	97.69
250.299	71.69
250.532	70.69
250.765	65.69
250.998	89.69
251.231	75.69
251.465	88.69
251.698	77.69
251.931	73.69
252.164	73.69
252.397	85.69
252.63	85.69
252.863	75.69
253.096	74.69
253.329	83.69
253.562	59.69
253.795	91.69
254.028	91.69
254.261	85.69
254.494	71.69
254.727	81.69
254.96	73.69
255.193	73.69
255.426	78.69
255.659	78.69
255.892	78.69
256.124	72.69
256.357	91.69
256.59	77.69
256.823	69.69
257.056	78.69
257.289	75.69
257.521	79.69
257.754	73.69
257.987	71.69
258.22	77.69
258.452	79.69
258.685	82.69
258.918	93.69
259.151	78.69
259.383	82.69
259.616	76.69
259.849	85.69
260.081	83.69
260.314	64.69
260.547	79.69
260.779	84.69
261.012	91.69
261.244	78.69
261.477	93.69
261.71	77.69
261.942	82.69
262.175	78.69
262.407	85.69
262.64	92.69
262.872	73.69
263.105	68.69
263.337	83.69
263.57	84.69
263.802	77.69
264.035	70.69
264.267	87.69
264.499	89.69
264.732	85.69
264.964	87.69
265.197	82.69
265.429	88.69
265.661	80.69
265.894	88.69
266.126	88.69
266.358	85.69
266.591	72.69
266.823	89.69
267.055	79.69
267.287	82.69
267.52	83.69
267.752	86.69
267.984	70.69
268.216	71.69
268.448	71.69
268.681	87.69
268.913	83.69
269.145	77.69
269.377	76.69
269.609	94.69
269.841	77.69
270.073	78.69
270.306	68.69
270.538	72.69
270.77	84.69
271.002	69.69
271.234	86.69
271.466	80.69
271.698	77.69
271.93	85.69
272.162	87.69
272.394	72.69
272.626	97.69
272.858	71.69
273.09	87.69
273.322	86.69
273.553	77.69
273.785	80.69
274.017	85.69
274.249	76.69
274.481	97.69
274.713	97.69
274.945	93.69
275.176	91.69
275.408	88.69
275.64	89.69
275.872	70.69
276.104	86.69
276.335	70.69
276.567	82.69
276.799	96.69
277.031	75.69
277.262	69.69
277.494	86.69
277.726	81.69
277.957	63.69
278.189	85.69
278.421	88.69
278.652	93.69
278.884	74.69
279.115	77.69
279.347	89.69
279.579	73.69
279.81	84.69
280.042	87.69
280.273	95.69
280.505	78.69
280.736	75.69
280.968	90.69
281.199	70.69
281.431	73.69
281.662	75.69
281.894	72.69
282.125	91.69
282.356	95.69
282.588	76.69
282.819	73.69
283.051	79.69
283.282	78.69
283.513	92.69
283.745	83.69
283.976	87.69
284.207	87.69
284.439	82.69
284.67	88.69
284.901	81.69
285.132	89.69
285.364	83.69
285.595	97.69
285.826	87.69
286.057	81.69
286.288	93.69
286.52	79.69
286.751	76.69
286.982	80.69
287.213	82.69
287.444	95.69
287.675	67.69
287.906	103.69
288.138	98.69
288.369	105.69
288.6	95.69
288.831	73.69
289.062	84.69
289.293	95.69
289.524	86.69
289.755	75.69
289.986	87.69
290.217	88.69
290.448	90.69
290.679	90.69
290.91	82.69
291.141	76.69
291.371	83.69
291.602	85.69
291.833	93.69
292.064	80.69
292.295	101.69
292.526	91.69
292.757	77.69
292.987	82.69
293.218	82.69
293.449	96.69
293.68	82.69
293.91	101.69
294.141	91.69
294.372	73.69
294.603	80.69
294.833	83.69
295.064	84.69
295.295	69.69
295.525	81.69
295.756	89.69
295.987	93.69
296.217	86.69
296.448	85.69
296.679	76.69
296.909	82.69
297.14	85.69
297.37	91.69
297.601	77.69
297.831	82.69
298.062	80.69
298.292	104.69
298.523	88.69
298.753	79.69
298.984	93.69
299.214	89.69
299.445	89.69
299.675	87.69
299.905	88.69
300.136	75.69
300.366	90.69
300.597	82.69
300.827	109.69
301.057	97.69
301.288	88.69
301.518	92.69
301.748	84.69
301.979	95.69
302.209	92.69
302.439	77.69
302.669	88.69
302.9	73.69
303.13	82.69
303.36	74.69
303.59	95.69
303.82	81.69
304.051	94.69
304.281	96.69
304.511	81.69
304.741	92.69
304.971	100.69
305.201	91.69
305.431	77.69
305.661	82.69
305.891	83.69
306.121	89.69
306.352	86.69
306.582	76.69
306.812	79.69
307.042	85.69
307.272	100.69
307.502	83.69
307.731	86.69
307.961	90.69
308.191	78.69
308.421	95.69
308.651	92.69
308.881	95.69
309.111	101.69
309.341	97.69
309.571	96.69
309.8	84.69
310.03	73.69
310.26	101.69
310.49	82.69
310.72	88.69
310.949	96.69
311.179	90.69
311.409	103.69
311.639	81.69
311.868	84.69
312.098	77.69
312.328	61.69
312.557	91.69
312.787	81.69
313.017	75.69
313.246	92.69
313.476	87.69
313.706	90.69
313.935	97.69
314.165	67.69
314.394	86.69
314.624	84.69
314.853	91.69
315.083	107.69
315.312	104.69
315.542	87.69
315.771	90.69
316.001	89.69
316.23	75.69
316.46	95.69
316.689	88.69
316.919	73.69
317.148	85.69
317.377	80.69
317.607	95.69
317.836	94.69
318.065	100.69
318.295	105.69
318.524	84.69
318.753	81.69
318.983	93.69
319.212	83.69
319.441	89.69
319.67	74.69
319.9	74.69
320.129	86.69
320.358	88.69
320.587	84.69
320.816	82.69
321.046	91.69
321.275	82.69
321.504	81.69
321.733	84.69
321.962	78.69
322.191	96.69
322.42	87.69
322.649	91.69
322.878	94.69
323.108	91.69
323.337	70.69
323.566	85.69
323.795	84.69
324.024	76.69
324.253	73.69
324.482	80.69
324.71	87.69
324.939	87.69
325.168	91.69
325.397	98.69
325.626	87.69
325.855	80.69
326.084	78.69
326.313	81.69
326.542	81.69
326.77	95.69
326.999	75.69
327.228	85.69
327.457	100.69
327.686	88.69
327.914	85.69
328.143	100.69
328.372	90.69
328.6	81.69
328.829	85.69
329.058	81.69
329.287	84.69
329.515	82.69
329.744	85.69
329.972	91.69
330.201	95.69
330.43	93.69
330.658	88.69
330.887	87.69
331.115	84.69
331.344	82.69
331.572	90.69
331.801	88.69
332.03	85.69
332.258	77.69
332.486	77.69
332.715	80.69
332.943	72.69
333.172	87.69
333.4	84.69
333.629	80.69
333.857	90.69
334.085	72.69
334.314	86.69
334.542	93.69
334.771	99.69
334.999	101.69
335.227	85.69
335.455	85.69
335.684	103.69
335.912	99.69
336.14	113.69
336.369	100.69
336.597	101.69
336.825	81.69
337.053	90.69
337.281	88.69
337.51	90.69
337.738	84.69
337.966	82.69
338.194	86.69
338.422	71.69
338.65	86.69
338.878	92.69
339.106	83.69
339.334	90.69
339.562	85.69
339.79	87.69
340.018	80.69
340.246	82.69
340.474	89.69
340.702	91.69
340.93	91.69
341.158	84.69
341.386	76.69
341.614	73.69
341.842	88.69
342.07	85.69
342.298	83.69
342.526	74.69
342.754	63.69
342.981	78.69
343.209	87.69
343.437	95.69
343.665	92.69
343.893	95.69
344.12	84.69
344.348	98.69
344.576	93.69
344.804	102.69
345.031	93.69
345.259	87.69
345.487	80.69
345.714	88.69
345.942	72.69
346.17	91.69
346.397	86.69
346.625	97.69
346.853	83.69
347.08	95.69
347.308	84.69
347.535	87.69
347.763	90.69
347.99	93.69
348.218	81.69
348.445	68.69
348.673	97.69
348.9	84.69
349.128	94.69
349.355	78.69
349.583	92.69
349.81	87.69
350.037	87.69
350.265	102.69
350.492	97.69
350.72	92.69
350.947	77.69
351.174	87.69
351.402	80.69
351.629	77.69
351.856	81.69
352.083	79.69
352.311	86.69
352.538	106.69
352.765	91.69
352.992	100.69
353.22	84.69
353.447	82.69
353.674	81.69
353.901	93.69
354.128	72.69
354.355	74.69
354.583	84.69
354.81	90.69
355.037	78.69
355.264	98.69
355.491	94.69
355.718	87.69
355.945	90.69
356.172	88.69
356.399	88.69
356.626	88.69
356.853	90.69
357.08	84.69
357.307	115.69
357.534	89.69
357.761	90.69
357.988	104.69
358.215	92.69
358.441	107.69
358.668	84.69
358.895	80.69
359.122	84.69
359.349	90.69
359.576	94.69
359.802	83.69
360.029	81.69
360.256	81.69
360.483	89.69
360.709	96.69
360.936	91.69
361.163	101.69
361.39	77.69
361.616	98.69
361.843	90.69
362.07	115.69
362.296	111.69
362.523	107.69
362.749	109.69
362.976	132.69
363.203	140.69
363.429	114.69
363.656	95.69
363.882	95.69
364.109	123.69
364.335	154.69
364.562	154.69
364.788	122.69
365.015	101.69
365.241	85.69
365.468	108.69
365.694	87.69
365.92	83.69
366.147	76.69
366.373	85.69
366.599	86.69
366.826	79.69
367.052	87.69
367.278	83.69
367.505	93.69
367.731	97.69
367.957	93.69
368.184	105.69
368.41	82.69
368.636	85.69
368.862	94.69
369.089	84.69
369.315	80.69
369.541	99.69
369.767	83.69
369.993	88.69
370.219	92.69
370.445	75.69
370.672	103.69
370.898	91.69
371.124	80.69
371.35	78.69
371.576	93.69
371.802	102.69
372.028	103.69
372.254	103.69
372.48	81.69
372.706	97.69
372.932	103.69
373.158	98.69
373.384	93.69
373.61	100.69
373.835	104.69
374.061	81.69
374.287	94.69
374.513	92.69
374.739	97.69
374.965	105.69
375.191	89.69
375.416	101.69
375.642	89.69
375.868	100.69
376.094	93.69
376.319	93.69
376.545	91.69
376.771	84.69
376.997	82.69
377.222	89.69
377.448	84.69
377.674	95.69
377.899	75.69
378.125	91.69
378.35	91.69
378.576	76.69
378.802	85.69
379.027	87.69
379.253	70.69
379.478	99.69
379.704	95.69
379.929	101.69
380.155	81.69
380.38	73.69
380.606	83.69
380.831	87.69
381.057	73.69
381.282	64.69
381.507	84.69
381.733	90.69
381.958	86.69
382.184	106.69
382.409	93.69
382.634	96.69
382.86	87.69
383.085	106.69
383.31	95.69
383.535	99.69
383.761	92.69
383.986	93.69
384.211	96.69
384.436	106.69
384.662	80.69
384.887	89.69
385.112	82.69
385.337	89.69
385.562	95.69
385.787	86.69
386.013	96.69
386.238	89.69
386.463	91.69
386.688	102.69
386.913	87.69
387.138	85.69
387.363	110.69
387.588	95.69
387.813	89.69
388.038	81.69
388.263	107.69
388.488	92.69
388.713	99.69
388.938	94.69
389.163	107.69
389.387	95.69
389.612	101.69
389.837	94.69
390.062	87.69
390.287	92.69
390.512	87.69
390.736	91.69
390.961	95.69
391.186	88.69
391.411	88.69
391.636	85.69
391.86	94.69
392.085	93.69
392.31	92.69
392.534	101.69
392.759	123.69
392.984	147.69
393.208	273.69
393.433	349.69
393.658	277.69
393.882	145.69
394.107	119.69
394.331	150.69
394.556	147.69
394.78	111.69
395.005	102.69
395.229	92.69
395.454	102.69
395.678	109.69
395.903	136.69
396.127	164.69
396.352	188.69
396.576	172.69
396.801	243.69
397.025	289.69
397.249	179.69
397.474	141.69
397.698	111.69
397.922	89.69
398.147	93.69
398.371	98.69
398.595	92.69
398.82	89.69
399.044	81.69
399.268	78.69
399.492	99.69
399.717	85.69
399.941	96.69
400.165	96.69
400.389	90.69
400.613	77.69
400.837	90.69
401.062	100.69
401.286	91.69
401.51	91.69
401.734	90.69
401.958	80.69
402.182	85.69
402.406	76.69
402.63	77.69
402.854	93.69
403.078	99.69
403.302	79.69
403.526	90.69
403.75	105.69
403.974	112.69
404.198	121.69
404.422	181.69
404.645	183.69
404.869	178.69
405.093	105.69
405.317	93.69
405.541	98.69
405.765	77.69
405.988	89.69
406.212	94.69
406.436	94.69
406.66	85.69
406.883	95.69
407.107	85.69
407.331	98.69
407.555	109.69
407.778	131.69
408.002	125.69
408.226	108.69
408.449	99.69
408.673	99.69
408.896	100.69
409.12	95.69
409.344	93.69
409.567	113.69
409.791	107.69
410.014	101.69
410.238	119.69
410.461	111.69
410.685	100.69
410.908	105.69
411.132	94.69
411.355	99.69
411.578	98.69
411.802	78.69
412.025	94.69
412.249	103.69
412.472	82.69
412.695	83.69
412.919	83.69
413.142	87.69
413.365	87.69
413.589	89.69
413.812	78.69
414.035	72.69
414.258	92.69
414.482	88.69
414.705	79.69
414.928	83.69
415.151	87.69
415.374	97.69
415.597	76.69
415.821	92.69
416.044	87.69
416.267	108.69
416.49	89.69
416.713	80.69
416.936	101.69
417.159	69.69
417.382	90.69
417.605	90.69
417.828	85.69
418.051	78.69
418.274	95.69
418.497	103.69
418.72	93.69
418.943	90.69
419.166	90.69
419.389	90.69
419.611	98.69
419.834	91.69
420.057	89.69
420.28	82.69
420.503	76.69
420.726	95.69
420.948	109.69
421.171	102.69
421.394	124.69
421.617	123.69
421.839	128.69
422.062	165.69
422.285	250.69
422.507	367.69
422.73	505.69
422.953	468.69
423.175	290.69
423.398	177.69
423.621	156.69
423.843	113.69
424.066	118.69
424.288	96.69
424.511	104.69
424.733	93.69
424.956	98.69
425.178	98.69
425.401	95.69
425.623	95.69
425.846	91.69
426.068	96.69
426.291	88.69
426.513	95.69
426.735	111.69
426.958	103.69
427.18	96.69
427.402	95.69
427.625	89.69
427.847	100.69
428.069	118.69
428.292	154.69
428.514	169.69
428.736	133.69
428.958	159.69
429.181	163.69
429.403	93.69
429.625	131.69
429.847	151.69
430.069	206.69
430.292	238.69
430.514	239.69
430.736	176.69
430.958	174.69
431.18	109.69
431.402	104.69
431.624	119.69
431.846	149.69
432.068	170.69
432.29	98.69
432.512	93.69
432.734	101.69
432.956	91.69
433.178	77.69
433.4	89.69
433.622	89.69
433.844	84.69
434.066	99.69
434.287	94.69
434.509	84.69
434.731	86.69
434.953	75.69
435.175	92.69
435.397	86.69
435.618	87.69
435.84	100.69
436.062	90.69
436.284	77.69
436.505	94.69
436.727	95.69
436.949	97.69
437.17	88.69
437.392	86.69
437.614	96.69
437.835	76.69
438.057	100.69
438.278	93.69
438.5	100.69
438.721	101.69
438.943	99.69
439.165	97.69
439.386	92.69
439.608	108.69
439.829	84.69
440.05	81.69
440.272	86.69
440.493	96.69
440.715	89.69
440.936	83.69
441.158	106.69
441.379	92.69
441.6	70.69
441.822	99.69
442.043	98.69
442.264	111.69
442.486	189.69
442.707	244.69
442.928	171.69
443.149	138.69
443.371	208.69
443.592	372.69
443.813	326.69
444.034	162.69
444.255	106.69
444.476	90.69
444.698	97.69
444.919	115.69
445.14	217.69
445.361	287.69
445.582	453.69
445.803	389.69
446.024	167.69
446.245	114.69
446.466	93.69
446.687	100.69
446.908	84.69
447.129	81.69
447.35	87.69
447.571	103.69
447.792	112.69
448.013	97.69
448.234	77.69
448.455	80.69
448.675	87.69
448.896	102.69
449.117	73.69
449.338	95.69
449.559	66.69
449.779	85.69
450	87.69
450.221	88.69
450.442	71.69
450.662	77.69
450.883	79.69
451.104	75.69
451.324	82.69
451.545	92.69
451.766	82.69
451.986	92.69
452.207	72.69
452.428	85.69
452.648	96.69
452.869	105.69
453.089	104.69
453.31	99.69
453.53	101.69
453.751	98.69
453.971	91.69
454.192	82.69
454.412	77.69
454.633	92.69
454.853	92.69
455.073	93.69
455.294	85.69
455.514	83.69
455.734	85.69
455.955	91.69
456.175	83.69
456.395	86.69
456.616	69.69
456.836	74.69
457.056	92.69
457.276	89.69
457.497	100.69
457.717	111.69
457.937	134.69
458.157	141.69
458.377	160.69
458.598	141.69
458.818	161.69
459.038	107.69
459.258	101.69
459.478	88.69
459.698	90.69
459.918	93.69
460.138	78.69
460.358	81.69
460.578	108.69
460.798	136.69
461.018	147.69
461.238	99.69
461.458	87.69
461.678	87.69
461.898	95.69
462.118	96.69
462.338	95.69
462.558	94.69
462.777	72.69
462.997	77.69
463.217	71.69
463.437	87.69
463.657	83.69
463.876	86.69
464.096	87.69
464.316	77.69
464.536	85.69
464.755	82.69
464.975	82.69
465.195	86.69
465.414	77.69
465.634	92.69
465.854	88.69
466.073	85.69
466.293	94.69
466.512	89.69
466.732	84.69
466.951	98.69
467.171	97.69
467.391	97.69
467.61	88.69
467.829	67.69
468.049	87.69
468.268	80.69
468.488	78.69
468.707	94.69
468.927	95.69
469.146	100.69
469.365	87.69
469.585	107.69
469.804	85.69
470.023	82.69
470.243	91.69
470.462	90.69
470.681	102.69
470.901	86.69
471.12	91.69
471.339	73.69
471.558	80.69
471.777	91.69
471.997	96.69
472.216	85.69
472.435	91.69
472.654	85.69
472.873	87.69
473.092	95.69
473.311	89.69
473.53	99.69
473.749	91.69
473.968	84.69
474.187	82.69
474.406	95.69
474.625	82.69
474.844	83.69
475.063	77.69
475.282	91.69
475.501	84.69
475.72	81.69
475.939	115.69
476.158	83.69
476.377	85.69
476.596	80.69
476.814	94.69
477.033	67.69
477.252	87.69
477.471	85.69
477.69	80.69
477.908	88.69
478.127	99.69
478.346	99.69
478.564	99.69
478.783	90.69
479.002	69.69
479.22	97.69
479.439	109.69
479.658	100.69
479.876	86.69
480.095	99.69
480.313	86.69
480.532	90.69
480.751	89.69
480.969	78.69
481.188	76.69
481.406	108.69
481.624	97.69
481.843	84.69
482.061	86.69
482.28	93.69
482.498	81.69
482.717	96.69
482.935	91.69
483.153	92.69
483.372	83.69
483.59	100.69
483.808	87.69
484.027	90.69
484.245	99.69
484.463	101.69
484.681	97.69
484.9	82.69
485.118	73.69
485.336	95.69
485.554	99.69
485.772	83.69
485.99	103.69
486.209	82.69
486.427	79.69
486.645	92.69
486.863	103.69
487.081	108.69
487.299	113.69
487.517	107.69
487.735	147.69
487.953	221.69
488.171	184.69
488.389	121.69
488.607	98.69
488.825	90.69
489.043	100.69
489.261	106.69
489.479	93.69
489.696	89.69
489.914	102.69
490.132	98.69
490.35	93.69
490.568	83.69
490.786	83.69
491.003	84.69
491.221	93.69
491.439	84.69
491.657	87.69
491.874	83.69
492.092	92.69
492.31	90.69
492.527	94.69
492.745	92.69
492.963	111.69
493.18	97.69
493.398	90.69
493.615	99.69
493.833	84.69
494.05	81.69
494.268	93.69
494.485	91.69
494.703	102.69
494.92	92.69
495.138	101.69
495.355	87.69
495.573	97.69
495.79	95.69
496.008	88.69
496.225	93.69
496.442	107.69
496.66	86.69
496.877	95.69
497.094	102.69
497.312	103.69
497.529	86.69
497.746	80.69
497.963	92.69
498.181	99.69
498.398	104.69
498.615	91.69
498.832	116.69
499.049	99.69
499.267	114.69
499.484	93.69
499.701	87.69
499.918	89.69
500.135	91.69
500.352	87.69
500.569	95.69
500.786	100.69
501.003	95.69
501.22	91.69
501.437	98.69
501.654	88.69
501.871	92.69
502.088	95.69
502.305	98.69
502.522	96.69
502.739	94.69
502.956	98.69
503.172	109.69
503.389	99.69
503.606	97.69
503.823	103.69
504.04	120.69
504.256	147.69
504.473	154.69
504.69	115.69
504.907	99.69
505.123	95.69
505.34	115.69
505.557	89.69
505.773	87.69
505.99	93.69
506.207	91.69
506.423	106.69
506.64	92.69
506.856	99.69
507.073	86.69
507.289	105.69
507.506	87.69
507.722	89.69
507.939	98.69
508.155	71.69
508.372	85.69
508.588	95.69
508.805	98.69
509.021	92.69
509.238	99.69
509.454	97.69
509.67	83.69
509.887	87.69
510.103	104.69
510.319	104.69
510.536	92.69
510.752	94.69
510.968	96.69
511.184	99.69
511.401	100.69
511.617	97.69
511.833	96.69
512.049	82.69
512.265	87.69
512.481	86.69
512.698	85.69
512.914	111.69
513.13	100.69
513.346	80.69
513.562	91.69
513.778	92.69
513.994	83.69
514.21	97.69
514.426	89.69
514.642	78.69
514.858	87.69
515.074	77.69
515.29	94.69
515.506	87.69
515.721	92.69
515.937	92.69
516.153	98.69
516.369	87.69
516.585	100.69
516.801	96.69
517.016	106.69
