Data from 2145_3_HRD10591_00023.txt Node
Date: Mon Jan 19 14:23:18 EST 2026
User: Yrep
Spectrometer: HR+D1059
Trigger mode: 1
Integration Time (sec): 1.000000E-1
Scans to average: 1
Electric dark correction enabled: true
Nonlinearity correction enabled: false
Boxcar width: 0
XAxis mode: Wavelengths
Number of Pixels in Spectrum: 2048
>>>>>Begin Spectral Data<<<<<
223.165	-17.25
223.4	-17.25
223.635	-17.25
223.869	-25.25
224.104	-7.25
224.338	-16.25
224.573	-8.25
224.808	-27.25
225.042	-6.25
225.277	0.75
225.511	-7.25
225.746	8.75
225.98	9.75
226.215	-1.25
226.449	15.75
226.683	18.75
226.918	34.75
227.152	27.75
227.387	20.75
227.621	30.75
227.856	45.75
228.09	48.75
228.324	54.75
228.559	49.75
228.793	41.75
229.027	55.75
229.262	57.75
229.496	59.75
229.73	63.75
229.964	71.75
230.199	80.75
230.433	76.75
230.667	80.75
230.901	82.75
231.136	67.75
231.37	75.75
231.604	72.75
231.838	62.75
232.072	83.75
232.306	73.75
232.541	71.75
232.775	83.75
233.009	76.75
233.243	79.75
233.477	64.75
233.711	82.75
233.945	84.75
234.179	67.75
234.413	76.75
234.647	68.75
234.881	83.75
235.115	76.75
235.349	76.75
235.583	77.75
235.817	76.75
236.051	77.75
236.285	78.75
236.519	66.75
236.753	77.75
236.987	81.75
237.221	65.75
237.455	73.75
237.689	71.75
237.922	73.75
238.156	71.75
238.39	70.75
238.624	68.75
238.858	66.75
239.091	69.75
239.325	76.75
239.559	62.75
239.793	50.75
240.027	80.75
240.26	70.75
240.494	79.75
240.728	68.75
240.961	85.75
241.195	82.75
241.429	84.75
241.662	77.75
241.896	67.75
242.13	61.75
242.363	84.75
242.597	77.75
242.83	73.75
243.064	64.75
243.298	70.75
243.531	77.75
243.765	71.75
243.998	70.75
244.232	68.75
244.465	83.75
244.699	63.75
244.932	67.75
245.166	77.75
245.399	66.75
245.633	88.75
245.866	67.75
246.099	76.75
246.333	68.75
246.566	74.75
246.8	70.75
247.033	70.75
247.266	91.75
247.5	63.75
247.733	64.75
247.966	82.75
248.2	62.75
248.433	71.75
248.666	76.75
248.899	65.75
249.133	75.75
249.366	76.75
249.599	75.75
249.832	74.75
250.066	71.75
250.299	76.75
250.532	84.75
250.765	67.75
250.998	80.75
251.231	65.75
251.465	84.75
251.698	100.75
251.931	95.75
252.164	78.75
252.397	74.75
252.63	91.75
252.863	78.75
253.096	77.75
253.329	88.75
253.562	79.75
253.795	63.75
254.028	85.75
254.261	80.75
254.494	67.75
254.727	76.75
254.96	70.75
255.193	84.75
255.426	91.75
255.659	63.75
255.892	86.75
256.124	82.75
256.357	82.75
256.59	75.75
256.823	78.75
257.056	74.75
257.289	82.75
257.521	79.75
257.754	76.75
257.987	80.75
258.22	83.75
258.452	75.75
258.685	86.75
258.918	72.75
259.151	78.75
259.383	80.75
259.616	85.75
259.849	69.75
260.081	82.75
260.314	71.75
260.547	86.75
260.779	78.75
261.012	81.75
261.244	80.75
261.477	75.75
261.71	73.75
261.942	68.75
262.175	70.75
262.407	92.75
262.64	76.75
262.872	66.75
263.105	64.75
263.337	89.75
263.57	83.75
263.802	86.75
264.035	76.75
264.267	79.75
264.499	82.75
264.732	76.75
264.964	75.75
265.197	85.75
265.429	74.75
265.661	79.75
265.894	81.75
266.126	77.75
266.358	83.75
266.591	90.75
266.823	95.75
267.055	75.75
267.287	84.75
267.52	58.75
267.752	75.75
267.984	76.75
268.216	75.75
268.448	79.75
268.681	76.75
268.913	90.75
269.145	87.75
269.377	82.75
269.609	74.75
269.841	87.75
270.073	78.75
270.306	74.75
270.538	77.75
270.77	82.75
271.002	88.75
271.234	63.75
271.466	94.75
271.698	70.75
271.93	72.75
272.162	92.75
272.394	86.75
272.626	70.75
272.858	88.75
273.09	88.75
273.322	87.75
273.553	84.75
273.785	92.75
274.017	89.75
274.249	79.75
274.481	70.75
274.713	74.75
274.945	76.75
275.176	74.75
275.408	77.75
275.64	70.75
275.872	66.75
276.104	76.75
276.335	79.75
276.567	84.75
276.799	80.75
277.031	83.75
277.262	90.75
277.494	87.75
277.726	84.75
277.957	60.75
278.189	72.75
278.421	89.75
278.652	91.75
278.884	79.75
279.115	82.75
279.347	95.75
279.579	85.75
279.81	90.75
280.042	85.75
280.273	88.75
280.505	67.75
280.736	82.75
280.968	67.75
281.199	81.75
281.431	80.75
281.662	80.75
281.894	85.75
282.125	63.75
282.356	79.75
282.588	94.75
282.819	81.75
283.051	76.75
283.282	82.75
283.513	80.75
283.745	90.75
283.976	84.75
284.207	66.75
284.439	90.75
284.67	80.75
284.901	90.75
285.132	94.75
285.364	80.75
285.595	87.75
285.826	73.75
286.057	75.75
286.288	74.75
286.52	77.75
286.751	73.75
286.982	77.75
287.213	98.75
287.444	85.75
287.675	88.75
287.906	96.75
288.138	90.75
288.369	92.75
288.6	84.75
288.831	89.75
289.062	86.75
289.293	91.75
289.524	91.75
289.755	73.75
289.986	75.75
290.217	89.75
290.448	94.75
290.679	80.75
290.91	73.75
291.141	79.75
291.371	84.75
291.602	95.75
291.833	67.75
292.064	87.75
292.295	84.75
292.526	77.75
292.757	62.75
292.987	96.75
293.218	84.75
293.449	88.75
293.68	86.75
293.91	83.75
294.141	92.75
294.372	90.75
294.603	86.75
294.833	79.75
295.064	73.75
295.295	86.75
295.525	80.75
295.756	95.75
295.987	97.75
296.217	89.75
296.448	80.75
296.679	76.75
296.909	76.75
297.14	88.75
297.37	79.75
297.601	84.75
297.831	87.75
298.062	79.75
298.292	83.75
298.523	79.75
298.753	82.75
298.984	91.75
299.214	75.75
299.445	74.75
299.675	94.75
299.905	95.75
300.136	99.75
300.366	102.75
300.597	94.75
300.827	100.75
301.057	106.75
301.288	90.75
301.518	79.75
301.748	80.75
301.979	91.75
302.209	88.75
302.439	104.75
302.669	92.75
302.9	87.75
303.13	80.75
303.36	82.75
303.59	77.75
303.82	77.75
304.051	91.75
304.281	81.75
304.511	82.75
304.741	92.75
304.971	86.75
305.201	88.75
305.431	85.75
305.661	69.75
305.891	87.75
306.121	95.75
306.352	88.75
306.582	84.75
306.812	75.75
307.042	89.75
307.272	90.75
307.502	82.75
307.731	96.75
307.961	102.75
308.191	88.75
308.421	96.75
308.651	83.75
308.881	100.75
309.111	104.75
309.341	112.75
309.571	111.75
309.8	85.75
310.03	85.75
310.26	89.75
310.49	87.75
310.72	94.75
310.949	76.75
311.179	103.75
311.409	91.75
311.639	87.75
311.868	86.75
312.098	82.75
312.328	99.75
312.557	92.75
312.787	75.75
313.017	73.75
313.246	103.75
313.476	88.75
313.706	84.75
313.935	86.75
314.165	82.75
314.394	77.75
314.624	90.75
314.853	92.75
315.083	92.75
315.312	96.75
315.542	85.75
315.771	87.75
316.001	108.75
316.23	93.75
316.46	81.75
316.689	84.75
316.919	94.75
317.148	79.75
317.377	75.75
317.607	101.75
317.836	88.75
318.065	91.75
318.295	107.75
318.524	83.75
318.753	77.75
318.983	94.75
319.212	85.75
319.441	87.75
319.67	91.75
319.9	82.75
320.129	85.75
320.358	98.75
320.587	95.75
320.816	95.75
321.046	95.75
321.275	92.75
321.504	77.75
321.733	88.75
321.962	103.75
322.191	94.75
322.42	95.75
322.649	95.75
322.878	87.75
323.108	83.75
323.337	79.75
323.566	102.75
323.795	93.75
324.024	86.75
324.253	99.75
324.482	82.75
324.71	88.75
324.939	103.75
325.168	99.75
325.397	102.75
325.626	87.75
325.855	100.75
326.084	94.75
326.313	93.75
326.542	67.75
326.77	90.75
326.999	90.75
327.228	86.75
327.457	68.75
327.686	90.75
327.914	79.75
328.143	94.75
328.372	96.75
328.6	95.75
328.829	82.75
329.058	76.75
329.287	88.75
329.515	88.75
329.744	107.75
329.972	96.75
330.201	105.75
330.43	102.75
330.658	81.75
330.887	87.75
331.115	85.75
331.344	95.75
331.572	101.75
331.801	89.75
332.03	83.75
332.258	96.75
332.486	85.75
332.715	79.75
332.943	90.75
333.172	81.75
333.4	72.75
333.629	72.75
333.857	91.75
334.085	82.75
334.314	78.75
334.542	85.75
334.771	90.75
334.999	106.75
335.227	114.75
335.455	95.75
335.684	117.75
335.912	106.75
336.14	107.75
336.369	111.75
336.597	76.75
336.825	104.75
337.053	91.75
337.281	94.75
337.51	87.75
337.738	97.75
337.966	104.75
338.194	89.75
338.422	84.75
338.65	85.75
338.878	85.75
339.106	83.75
339.334	89.75
339.562	96.75
339.79	94.75
340.018	82.75
340.246	92.75
340.474	87.75
340.702	85.75
340.93	103.75
341.158	90.75
341.386	89.75
341.614	92.75
341.842	93.75
342.07	81.75
342.298	83.75
342.526	99.75
342.754	87.75
342.981	77.75
343.209	92.75
343.437	95.75
343.665	74.75
343.893	98.75
344.12	104.75
344.348	117.75
344.576	102.75
344.804	116.75
345.031	110.75
345.259	83.75
345.487	97.75
345.714	85.75
345.942	91.75
346.17	86.75
346.397	92.75
346.625	88.75
346.853	88.75
347.08	94.75
347.308	89.75
347.535	82.75
347.763	94.75
347.99	99.75
348.218	82.75
348.445	86.75
348.673	80.75
348.9	85.75
349.128	89.75
349.355	96.75
349.583	86.75
349.81	86.75
350.037	86.75
350.265	89.75
350.492	84.75
350.72	77.75
350.947	84.75
351.174	71.75
351.402	72.75
351.629	77.75
351.856	83.75
352.083	93.75
352.311	78.75
352.538	80.75
352.765	97.75
352.992	86.75
353.22	78.75
353.447	86.75
353.674	81.75
353.901	81.75
354.128	82.75
354.355	93.75
354.583	96.75
354.81	87.75
355.037	86.75
355.264	83.75
355.491	100.75
355.718	85.75
355.945	100.75
356.172	79.75
356.399	87.75
356.626	99.75
356.853	100.75
357.08	106.75
357.307	92.75
357.534	81.75
357.761	76.75
357.988	108.75
358.215	104.75
358.441	94.75
358.668	103.75
358.895	87.75
359.122	92.75
359.349	82.75
359.576	97.75
359.802	81.75
360.029	87.75
360.256	92.75
360.483	91.75
360.709	87.75
360.936	106.75
361.163	90.75
361.39	90.75
361.616	77.75
361.843	102.75
362.07	109.75
362.296	126.75
362.523	127.75
362.749	140.75
362.976	144.75
363.203	153.75
363.429	136.75
363.656	110.75
363.882	116.75
364.109	155.75
364.335	171.75
364.562	158.75
364.788	126.75
365.015	108.75
365.241	103.75
365.468	112.75
365.694	98.75
365.92	83.75
366.147	96.75
366.373	91.75
366.599	105.75
366.826	97.75
367.052	90.75
367.278	96.75
367.505	91.75
367.731	88.75
367.957	78.75
368.184	97.75
368.41	97.75
368.636	89.75
368.862	104.75
369.089	90.75
369.315	97.75
369.541	100.75
369.767	86.75
369.993	96.75
370.219	92.75
370.445	88.75
370.672	94.75
370.898	99.75
371.124	88.75
371.35	82.75
371.576	93.75
371.802	101.75
372.028	103.75
372.254	95.75
372.48	89.75
372.706	90.75
372.932	91.75
373.158	104.75
373.384	114.75
373.61	117.75
373.835	106.75
374.061	110.75
374.287	100.75
374.513	100.75
374.739	99.75
374.965	121.75
375.191	110.75
375.416	99.75
375.642	104.75
375.868	106.75
376.094	94.75
376.319	92.75
376.545	96.75
376.771	113.75
376.997	103.75
377.222	85.75
377.448	96.75
377.674	91.75
377.899	79.75
378.125	91.75
378.35	91.75
378.576	83.75
378.802	85.75
379.027	91.75
379.253	94.75
379.478	107.75
379.704	82.75
379.929	83.75
380.155	86.75
380.38	98.75
380.606	113.75
380.831	99.75
381.057	92.75
381.282	86.75
381.507	99.75
381.733	113.75
381.958	100.75
382.184	108.75
382.409	98.75
382.634	101.75
382.86	100.75
383.085	88.75
383.31	106.75
383.535	96.75
383.761	104.75
383.986	99.75
384.211	100.75
384.436	93.75
384.662	95.75
384.887	91.75
385.112	104.75
385.337	103.75
385.562	97.75
385.787	102.75
386.013	92.75
386.238	104.75
386.463	95.75
386.688	112.75
386.913	94.75
387.138	109.75
387.363	102.75
387.588	97.75
387.813	96.75
388.038	106.75
388.263	99.75
388.488	108.75
388.713	87.75
388.938	104.75
389.163	102.75
389.387	96.75
389.612	87.75
389.837	102.75
390.062	114.75
390.287	112.75
390.512	112.75
390.736	99.75
390.961	83.75
391.186	103.75
391.411	96.75
391.636	103.75
391.86	111.75
392.085	114.75
392.31	121.75
392.534	130.75
392.759	143.75
392.984	219.75
393.208	372.75
393.433	541.75
393.658	430.75
393.882	205.75
394.107	148.75
394.331	158.75
394.556	175.75
394.78	133.75
395.005	114.75
395.229	113.75
395.454	122.75
395.678	141.75
395.903	148.75
396.127	205.75
396.352	240.75
396.576	239.75
396.801	375.75
397.025	446.75
397.249	249.75
397.474	160.75
397.698	138.75
397.922	105.75
398.147	115.75
398.371	96.75
398.595	110.75
398.82	103.75
399.044	101.75
399.268	96.75
399.492	84.75
399.717	103.75
399.941	94.75
400.165	92.75
400.389	90.75
400.613	82.75
400.837	98.75
401.062	89.75
401.286	94.75
401.51	104.75
401.734	89.75
401.958	88.75
402.182	99.75
402.406	93.75
402.63	98.75
402.854	82.75
403.078	121.75
403.302	96.75
403.526	100.75
403.75	110.75
403.974	130.75
404.198	181.75
404.422	296.75
404.645	349.75
404.869	298.75
405.093	197.75
405.317	120.75
405.541	97.75
405.765	121.75
405.988	87.75
406.212	88.75
406.436	100.75
406.66	97.75
406.883	102.75
407.107	99.75
407.331	105.75
407.555	121.75
407.778	130.75
408.002	130.75
408.226	108.75
408.449	112.75
408.673	96.75
408.896	92.75
409.12	108.75
409.344	104.75
409.567	119.75
409.791	117.75
410.014	112.75
410.238	114.75
410.461	113.75
410.685	94.75
410.908	95.75
411.132	108.75
411.355	112.75
411.578	106.75
411.802	91.75
412.025	88.75
412.249	101.75
412.472	90.75
412.695	92.75
412.919	97.75
413.142	94.75
413.365	101.75
413.589	75.75
413.812	105.75
414.035	97.75
414.258	110.75
414.482	96.75
414.705	88.75
414.928	86.75
415.151	88.75
415.374	87.75
415.597	88.75
415.821	91.75
416.044	117.75
416.267	86.75
416.49	91.75
416.713	100.75
416.936	97.75
417.159	83.75
417.382	87.75
417.605	92.75
417.828	96.75
418.051	80.75
418.274	96.75
418.497	113.75
418.72	94.75
418.943	97.75
419.166	80.75
419.389	86.75
419.611	91.75
419.834	109.75
420.057	103.75
420.28	122.75
420.503	118.75
420.726	100.75
420.948	97.75
421.171	129.75
421.394	147.75
421.617	164.75
421.839	178.75
422.062	216.75
422.285	339.75
422.507	551.75
422.73	734.75
422.953	675.75
423.175	406.75
423.398	256.75
423.621	176.75
423.843	127.75
424.066	134.75
424.288	124.75
424.511	123.75
424.733	99.75
424.956	110.75
425.178	107.75
425.401	116.75
425.623	111.75
425.846	82.75
426.068	93.75
426.291	110.75
426.513	117.75
426.735	91.75
426.958	96.75
427.18	99.75
427.402	100.75
427.625	102.75
427.847	117.75
428.069	135.75
428.292	214.75
428.514	226.75
428.736	171.75
428.958	210.75
429.181	238.75
429.403	129.75
429.625	133.75
429.847	203.75
430.069	319.75
430.292	378.75
430.514	342.75
430.736	258.75
430.958	241.75
431.18	146.75
431.402	129.75
431.624	133.75
431.846	219.75
432.068	265.75
432.29	132.75
432.512	104.75
432.734	89.75
432.956	104.75
433.178	104.75
433.4	99.75
433.622	113.75
433.844	96.75
434.066	106.75
434.287	97.75
434.509	94.75
434.731	90.75
434.953	90.75
435.175	87.75
435.397	93.75
435.618	95.75
435.84	102.75
436.062	89.75
436.284	99.75
436.505	90.75
436.727	91.75
436.949	105.75
437.17	90.75
437.392	94.75
437.614	88.75
437.835	82.75
438.057	88.75
438.278	95.75
438.5	96.75
438.721	102.75
438.943	103.75
439.165	69.75
439.386	77.75
439.608	102.75
439.829	85.75
440.05	99.75
440.272	82.75
440.493	80.75
440.715	96.75
440.936	91.75
441.158	96.75
441.379	92.75
441.6	88.75
441.822	103.75
442.043	120.75
442.264	142.75
442.486	245.75
442.707	327.75
442.928	214.75
443.149	179.75
443.371	311.75
443.592	556.75
443.813	461.75
444.034	174.75
444.255	121.75
444.476	114.75
444.698	113.75
444.919	150.75
445.14	276.75
445.361	431.75
445.582	678.75
445.803	540.75
446.024	230.75
446.245	145.75
446.466	118.75
446.687	102.75
446.908	76.75
447.129	93.75
447.35	97.75
447.571	108.75
447.792	90.75
448.013	87.75
448.234	94.75
448.455	81.75
448.675	98.75
448.896	86.75
449.117	84.75
449.338	71.75
449.559	88.75
449.779	93.75
450	100.75
450.221	94.75
450.442	94.75
450.662	83.75
450.883	84.75
451.104	91.75
451.324	98.75
451.545	97.75
451.766	100.75
451.986	97.75
452.207	86.75
452.428	100.75
452.648	110.75
452.869	115.75
453.089	115.75
453.31	105.75
453.53	118.75
453.751	106.75
453.971	91.75
454.192	98.75
454.412	82.75
454.633	100.75
454.853	90.75
455.073	99.75
455.294	98.75
455.514	91.75
455.734	85.75
455.955	92.75
456.175	97.75
456.395	101.75
456.616	86.75
456.836	84.75
457.056	106.75
457.276	102.75
457.497	90.75
457.717	118.75
457.937	130.75
458.157	174.75
458.377	203.75
458.598	182.75
458.818	203.75
459.038	130.75
459.258	115.75
459.478	95.75
459.698	95.75
459.918	103.75
460.138	106.75
460.358	96.75
460.578	120.75
460.798	190.75
461.018	192.75
461.238	110.75
461.458	93.75
461.678	72.75
461.898	91.75
462.118	96.75
462.338	97.75
462.558	80.75
462.777	82.75
462.997	77.75
463.217	87.75
463.437	97.75
463.657	82.75
463.876	84.75
464.096	98.75
464.316	94.75
464.536	96.75
464.755	86.75
464.975	86.75
465.195	84.75
465.414	99.75
465.634	76.75
465.854	92.75
466.073	80.75
466.293	85.75
466.512	88.75
466.732	86.75
466.951	111.75
467.171	87.75
467.391	85.75
467.61	96.75
467.829	99.75
468.049	88.75
468.268	94.75
468.488	94.75
468.707	98.75
468.927	88.75
469.146	98.75
469.365	82.75
469.585	81.75
469.804	81.75
470.023	81.75
470.243	90.75
470.462	90.75
470.681	83.75
470.901	81.75
471.12	89.75
471.339	91.75
471.558	90.75
471.777	104.75
471.997	80.75
472.216	94.75
472.435	99.75
472.654	91.75
472.873	94.75
473.092	86.75
473.311	89.75
473.53	90.75
473.749	102.75
473.968	82.75
474.187	89.75
474.406	89.75
474.625	88.75
474.844	98.75
475.063	94.75
475.282	97.75
475.501	98.75
475.72	91.75
475.939	84.75
476.158	84.75
476.377	86.75
476.596	88.75
476.814	93.75
477.033	95.75
477.252	85.75
477.471	87.75
477.69	87.75
477.908	92.75
478.127	90.75
478.346	89.75
478.564	92.75
478.783	92.75
479.002	89.75
479.22	86.75
479.439	90.75
479.658	88.75
479.876	84.75
480.095	83.75
480.313	96.75
480.532	89.75
480.751	111.75
480.969	84.75
481.188	100.75
481.406	94.75
481.624	87.75
481.843	89.75
482.061	88.75
482.28	102.75
482.498	90.75
482.717	95.75
482.935	82.75
483.153	93.75
483.372	115.75
483.59	94.75
483.808	89.75
484.027	91.75
484.245	82.75
484.463	115.75
484.681	119.75
484.9	104.75
485.118	82.75
485.336	95.75
485.554	99.75
485.772	89.75
485.99	81.75
486.209	100.75
486.427	95.75
486.645	113.75
486.863	105.75
487.081	102.75
487.299	109.75
487.517	121.75
487.735	146.75
487.953	249.75
488.171	251.75
488.389	139.75
488.607	116.75
488.825	104.75
489.043	98.75
489.261	117.75
489.479	102.75
489.696	93.75
489.914	101.75
490.132	95.75
490.35	101.75
490.568	91.75
490.786	85.75
491.003	101.75
491.221	96.75
491.439	119.75
491.657	89.75
491.874	111.75
492.092	89.75
492.31	102.75
492.527	97.75
492.745	99.75
492.963	90.75
493.18	104.75
493.398	98.75
493.615	98.75
493.833	100.75
494.05	90.75
494.268	87.75
494.485	91.75
494.703	96.75
494.92	88.75
495.138	101.75
495.355	97.75
495.573	83.75
495.79	88.75
496.008	104.75
496.225	101.75
496.442	120.75
496.66	103.75
496.877	118.75
497.094	108.75
497.312	98.75
497.529	102.75
497.746	119.75
497.963	95.75
498.181	91.75
498.398	116.75
498.615	95.75
498.832	97.75
499.049	104.75
499.267	99.75
499.484	84.75
499.701	102.75
499.918	94.75
500.135	127.75
500.352	89.75
500.569	94.75
500.786	81.75
501.003	115.75
501.22	89.75
501.437	96.75
501.654	107.75
501.871	94.75
502.088	101.75
502.305	86.75
502.522	93.75
502.739	92.75
502.956	96.75
503.172	98.75
503.389	113.75
503.606	112.75
503.823	104.75
504.04	130.75
504.256	178.75
504.473	187.75
504.69	134.75
504.907	116.75
505.123	103.75
505.34	96.75
505.557	97.75
505.773	84.75
505.99	90.75
506.207	97.75
506.423	112.75
506.64	102.75
506.856	91.75
507.073	91.75
507.289	98.75
507.506	88.75
507.722	98.75
507.939	79.75
508.155	73.75
508.372	100.75
508.588	107.75
508.805	106.75
509.021	95.75
509.238	102.75
509.454	83.75
509.67	103.75
509.887	111.75
510.103	91.75
510.319	95.75
510.536	102.75
510.752	105.75
510.968	114.75
511.184	96.75
511.401	94.75
511.617	101.75
511.833	94.75
512.049	96.75
512.265	97.75
512.481	105.75
512.698	103.75
512.914	89.75
513.13	101.75
513.346	95.75
513.562	103.75
513.778	91.75
513.994	96.75
514.21	98.75
514.426	100.75
514.642	96.75
514.858	100.75
515.074	92.75
