Data from 2145_3_HRD10591_00047.txt Node
Date: Mon Jan 19 14:23:30 EST 2026
User: Yrep
Spectrometer: HR+D1059
Trigger mode: 1
Integration Time (sec): 1.000000E-1
Scans to average: 1
Electric dark correction enabled: true
Nonlinearity correction enabled: false
Boxcar width: 0
XAxis mode: Wavelengths
Number of Pixels in Spectrum: 2048
>>>>>Begin Spectral Data<<<<<
223.165	-14.75
223.4	-14.75
223.635	-14.75
223.869	-18.75
224.104	-22.75
224.338	-4.75
224.573	-11.75
224.808	-6.75
225.042	1.25
225.277	-14.75
225.511	2.25
225.746	-7.75
225.98	8.25
226.215	18.25
226.449	12.25
226.683	11.25
226.918	21.25
227.152	27.25
227.387	32.25
227.621	34.25
227.856	40.25
228.09	48.25
228.324	47.25
228.559	65.25
228.793	57.25
229.027	59.25
229.262	55.25
229.496	64.25
229.73	69.25
229.964	78.25
230.199	81.25
230.433	68.25
230.667	71.25
230.901	75.25
231.136	78.25
231.37	76.25
231.604	75.25
231.838	89.25
232.072	78.25
232.306	82.25
232.541	83.25
232.775	81.25
233.009	86.25
233.243	83.25
233.477	79.25
233.711	92.25
233.945	83.25
234.179	76.25
234.413	87.25
234.647	89.25
234.881	84.25
235.115	76.25
235.349	70.25
235.583	76.25
235.817	97.25
236.051	87.25
236.285	63.25
236.519	69.25
236.753	74.25
236.987	70.25
237.221	74.25
237.455	75.25
237.689	80.25
237.922	69.25
238.156	72.25
238.39	82.25
238.624	81.25
238.858	75.25
239.091	89.25
239.325	72.25
239.559	72.25
239.793	71.25
240.027	81.25
240.26	58.25
240.494	75.25
240.728	86.25
240.961	84.25
241.195	87.25
241.429	73.25
241.662	70.25
241.896	73.25
242.13	62.25
242.363	69.25
242.597	66.25
242.83	87.25
243.064	71.25
243.298	75.25
243.531	67.25
243.765	64.25
243.998	82.25
244.232	67.25
244.465	67.25
244.699	61.25
244.932	75.25
245.166	73.25
245.399	82.25
245.633	72.25
245.866	77.25
246.099	76.25
246.333	87.25
246.566	80.25
246.8	76.25
247.033	65.25
247.266	74.25
247.5	72.25
247.733	73.25
247.966	88.25
248.2	71.25
248.433	68.25
248.666	74.25
248.899	82.25
249.133	94.25
249.366	83.25
249.599	99.25
249.832	74.25
250.066	96.25
250.299	74.25
250.532	87.25
250.765	87.25
250.998	80.25
251.231	76.25
251.465	84.25
251.698	77.25
251.931	86.25
252.164	85.25
252.397	79.25
252.63	68.25
252.863	73.25
253.096	66.25
253.329	74.25
253.562	88.25
253.795	95.25
254.028	73.25
254.261	67.25
254.494	69.25
254.727	87.25
254.96	67.25
255.193	79.25
255.426	76.25
255.659	79.25
255.892	72.25
256.124	83.25
256.357	75.25
256.59	83.25
256.823	71.25
257.056	79.25
257.289	72.25
257.521	83.25
257.754	92.25
257.987	71.25
258.22	92.25
258.452	75.25
258.685	69.25
258.918	72.25
259.151	80.25
259.383	89.25
259.616	79.25
259.849	77.25
260.081	79.25
260.314	69.25
260.547	90.25
260.779	74.25
261.012	87.25
261.244	90.25
261.477	80.25
261.71	92.25
261.942	76.25
262.175	80.25
262.407	79.25
262.64	79.25
262.872	77.25
263.105	91.25
263.337	85.25
263.57	88.25
263.802	76.25
264.035	63.25
264.267	85.25
264.499	83.25
264.732	74.25
264.964	66.25
265.197	83.25
265.429	85.25
265.661	85.25
265.894	72.25
266.126	85.25
266.358	83.25
266.591	77.25
266.823	89.25
267.055	83.25
267.287	78.25
267.52	70.25
267.752	68.25
267.984	73.25
268.216	83.25
268.448	86.25
268.681	87.25
268.913	87.25
269.145	86.25
269.377	85.25
269.609	81.25
269.841	82.25
270.073	95.25
270.306	93.25
270.538	85.25
270.77	89.25
271.002	83.25
271.234	80.25
271.466	72.25
271.698	78.25
271.93	79.25
272.162	80.25
272.394	95.25
272.626	68.25
272.858	85.25
273.09	78.25
273.322	80.25
273.553	76.25
273.785	75.25
274.017	69.25
274.249	70.25
274.481	83.25
274.713	81.25
274.945	65.25
275.176	73.25
275.408	90.25
275.64	83.25
275.872	69.25
276.104	77.25
276.335	78.25
276.567	73.25
276.799	84.25
277.031	76.25
277.262	79.25
277.494	77.25
277.726	85.25
277.957	84.25
278.189	82.25
278.421	88.25
278.652	68.25
278.884	77.25
279.115	87.25
279.347	69.25
279.579	79.25
279.81	106.25
280.042	77.25
280.273	77.25
280.505	89.25
280.736	82.25
280.968	83.25
281.199	95.25
281.431	78.25
281.662	74.25
281.894	74.25
282.125	88.25
282.356	86.25
282.588	80.25
282.819	84.25
283.051	92.25
283.282	81.25
283.513	85.25
283.745	89.25
283.976	94.25
284.207	75.25
284.439	78.25
284.67	95.25
284.901	75.25
285.132	69.25
285.364	99.25
285.595	80.25
285.826	85.25
286.057	83.25
286.288	71.25
286.52	88.25
286.751	85.25
286.982	77.25
287.213	81.25
287.444	83.25
287.675	85.25
287.906	65.25
288.138	75.25
288.369	72.25
288.6	88.25
288.831	81.25
289.062	84.25
289.293	86.25
289.524	85.25
289.755	75.25
289.986	101.25
290.217	77.25
290.448	73.25
290.679	78.25
290.91	88.25
291.141	76.25
291.371	85.25
291.602	81.25
291.833	84.25
292.064	73.25
292.295	71.25
292.526	90.25
292.757	85.25
292.987	78.25
293.218	83.25
293.449	91.25
293.68	81.25
293.91	82.25
294.141	83.25
294.372	77.25
294.603	73.25
294.833	66.25
295.064	81.25
295.295	85.25
295.525	78.25
295.756	87.25
295.987	96.25
296.217	82.25
296.448	82.25
296.679	87.25
296.909	76.25
297.14	92.25
297.37	72.25
297.601	86.25
297.831	85.25
298.062	99.25
298.292	85.25
298.523	95.25
298.753	89.25
298.984	87.25
299.214	97.25
299.445	74.25
299.675	102.25
299.905	77.25
300.136	92.25
300.366	77.25
300.597	83.25
300.827	92.25
301.057	95.25
301.288	81.25
301.518	83.25
301.748	87.25
301.979	95.25
302.209	94.25
302.439	91.25
302.669	79.25
302.9	75.25
303.13	91.25
303.36	75.25
303.59	75.25
303.82	87.25
304.051	98.25
304.281	79.25
304.511	87.25
304.741	99.25
304.971	83.25
305.201	67.25
305.431	96.25
305.661	83.25
305.891	98.25
306.121	92.25
306.352	88.25
306.582	68.25
306.812	73.25
307.042	76.25
307.272	86.25
307.502	77.25
307.731	96.25
307.961	89.25
308.191	86.25
308.421	88.25
308.651	94.25
308.881	87.25
309.111	88.25
309.341	93.25
309.571	90.25
309.8	93.25
310.03	87.25
310.26	84.25
310.49	79.25
310.72	75.25
310.949	76.25
311.179	76.25
311.409	81.25
311.639	72.25
311.868	84.25
312.098	87.25
312.328	80.25
312.557	75.25
312.787	95.25
313.017	93.25
313.246	76.25
313.476	77.25
313.706	94.25
313.935	86.25
314.165	91.25
314.394	98.25
314.624	89.25
314.853	84.25
315.083	88.25
315.312	76.25
315.542	93.25
315.771	83.25
316.001	89.25
316.23	84.25
316.46	90.25
316.689	83.25
316.919	79.25
317.148	83.25
317.377	92.25
317.607	80.25
317.836	74.25
318.065	82.25
318.295	84.25
318.524	102.25
318.753	96.25
318.983	98.25
319.212	78.25
319.441	92.25
319.67	93.25
319.9	80.25
320.129	89.25
320.358	87.25
320.587	97.25
320.816	82.25
321.046	79.25
321.275	99.25
321.504	94.25
321.733	89.25
321.962	96.25
322.191	81.25
322.42	71.25
322.649	74.25
322.878	92.25
323.108	87.25
323.337	76.25
323.566	82.25
323.795	85.25
324.024	92.25
324.253	83.25
324.482	89.25
324.71	76.25
324.939	97.25
325.168	89.25
325.397	103.25
325.626	90.25
325.855	81.25
326.084	67.25
326.313	83.25
326.542	81.25
326.77	93.25
326.999	95.25
327.228	78.25
327.457	77.25
327.686	93.25
327.914	85.25
328.143	85.25
328.372	80.25
328.6	95.25
328.829	88.25
329.058	83.25
329.287	93.25
329.515	82.25
329.744	106.25
329.972	84.25
330.201	85.25
330.43	89.25
330.658	86.25
330.887	95.25
331.115	76.25
331.344	92.25
331.572	101.25
331.801	85.25
332.03	92.25
332.258	92.25
332.486	72.25
332.715	83.25
332.943	74.25
333.172	69.25
333.4	74.25
333.629	82.25
333.857	85.25
334.085	88.25
334.314	88.25
334.542	92.25
334.771	89.25
334.999	80.25
335.227	100.25
335.455	84.25
335.684	100.25
335.912	89.25
336.14	87.25
336.369	83.25
336.597	84.25
336.825	78.25
337.053	88.25
337.281	88.25
337.51	86.25
337.738	80.25
337.966	97.25
338.194	88.25
338.422	95.25
338.65	82.25
338.878	89.25
339.106	84.25
339.334	84.25
339.562	86.25
339.79	95.25
340.018	90.25
340.246	89.25
340.474	84.25
340.702	84.25
340.93	89.25
341.158	75.25
341.386	92.25
341.614	89.25
341.842	95.25
342.07	77.25
342.298	76.25
342.526	76.25
342.754	93.25
342.981	80.25
343.209	83.25
343.437	93.25
343.665	85.25
343.893	84.25
344.12	75.25
344.348	95.25
344.576	77.25
344.804	96.25
345.031	78.25
345.259	82.25
345.487	95.25
345.714	90.25
345.942	87.25
346.17	99.25
346.397	90.25
346.625	81.25
346.853	69.25
347.08	80.25
347.308	85.25
347.535	84.25
347.763	100.25
347.99	96.25
348.218	88.25
348.445	76.25
348.673	83.25
348.9	103.25
349.128	96.25
349.355	92.25
349.583	88.25
349.81	89.25
350.037	92.25
350.265	86.25
350.492	98.25
350.72	89.25
350.947	87.25
351.174	88.25
351.402	87.25
351.629	90.25
351.856	88.25
352.083	98.25
352.311	88.25
352.538	76.25
352.765	89.25
352.992	80.25
353.22	72.25
353.447	79.25
353.674	85.25
353.901	98.25
354.128	79.25
354.355	84.25
354.583	89.25
354.81	88.25
355.037	100.25
355.264	89.25
355.491	92.25
355.718	98.25
355.945	77.25
356.172	78.25
356.399	75.25
356.626	82.25
356.853	88.25
357.08	83.25
357.307	94.25
357.534	83.25
357.761	82.25
357.988	77.25
358.215	99.25
358.441	81.25
358.668	75.25
358.895	87.25
359.122	87.25
359.349	78.25
359.576	98.25
359.802	74.25
360.029	92.25
360.256	83.25
360.483	91.25
360.709	99.25
360.936	97.25
361.163	98.25
361.39	90.25
361.616	88.25
361.843	96.25
362.07	90.25
362.296	84.25
362.523	87.25
362.749	97.25
362.976	107.25
363.203	101.25
363.429	100.25
363.656	97.25
363.882	90.25
364.109	97.25
364.335	111.25
364.562	131.25
364.788	105.25
365.015	100.25
365.241	85.25
365.468	91.25
365.694	98.25
365.92	83.25
366.147	80.25
366.373	88.25
366.599	89.25
366.826	75.25
367.052	83.25
367.278	92.25
367.505	76.25
367.731	84.25
367.957	86.25
368.184	84.25
368.41	90.25
368.636	83.25
368.862	81.25
369.089	97.25
369.315	84.25
369.541	100.25
369.767	83.25
369.993	77.25
370.219	70.25
370.445	95.25
370.672	95.25
370.898	76.25
371.124	87.25
371.35	70.25
371.576	94.25
371.802	89.25
372.028	72.25
372.254	90.25
372.48	86.25
372.706	73.25
372.932	90.25
373.158	83.25
373.384	81.25
373.61	106.25
373.835	105.25
374.061	80.25
374.287	90.25
374.513	84.25
374.739	93.25
374.965	93.25
375.191	88.25
375.416	95.25
375.642	107.25
375.868	91.25
376.094	93.25
376.319	89.25
376.545	68.25
376.771	86.25
376.997	83.25
377.222	82.25
377.448	75.25
377.674	79.25
377.899	91.25
378.125	79.25
378.35	81.25
378.576	97.25
378.802	96.25
379.027	96.25
379.253	91.25
379.478	86.25
379.704	100.25
379.929	78.25
380.155	92.25
380.38	76.25
380.606	80.25
380.831	87.25
381.057	87.25
381.282	107.25
381.507	100.25
381.733	85.25
381.958	97.25
382.184	86.25
382.409	101.25
382.634	85.25
382.86	76.25
383.085	89.25
383.31	99.25
383.535	88.25
383.761	96.25
383.986	101.25
384.211	88.25
384.436	104.25
384.662	87.25
384.887	84.25
385.112	82.25
385.337	88.25
385.562	81.25
385.787	82.25
386.013	87.25
386.238	92.25
386.463	91.25
386.688	84.25
386.913	96.25
387.138	103.25
387.363	97.25
387.588	91.25
387.813	85.25
388.038	84.25
388.263	98.25
388.488	88.25
388.713	91.25
388.938	86.25
389.163	102.25
389.387	100.25
389.612	93.25
389.837	98.25
390.062	90.25
390.287	83.25
390.512	85.25
390.736	88.25
390.961	86.25
391.186	100.25
391.411	87.25
391.636	90.25
391.86	82.25
392.085	84.25
392.31	89.25
392.534	91.25
392.759	92.25
392.984	131.25
393.208	171.25
393.433	201.25
393.658	192.25
393.882	104.25
394.107	96.25
394.331	100.25
394.556	129.25
394.78	100.25
395.005	82.25
395.229	82.25
395.454	106.25
395.678	112.25
395.903	116.25
396.127	136.25
396.352	133.25
396.576	128.25
396.801	168.25
397.025	165.25
397.249	115.25
397.474	103.25
397.698	103.25
397.922	101.25
398.147	76.25
398.371	85.25
398.595	89.25
398.82	89.25
399.044	91.25
399.268	76.25
399.492	85.25
399.717	92.25
399.941	88.25
400.165	97.25
400.389	75.25
400.613	77.25
400.837	76.25
401.062	80.25
401.286	78.25
401.51	85.25
401.734	66.25
401.958	79.25
402.182	93.25
402.406	84.25
402.63	90.25
402.854	63.25
403.078	95.25
403.302	88.25
403.526	95.25
403.75	89.25
403.974	99.25
404.198	103.25
404.422	133.25
404.645	136.25
404.869	140.25
405.093	89.25
405.317	97.25
405.541	102.25
405.765	106.25
405.988	88.25
406.212	99.25
406.436	87.25
406.66	92.25
406.883	83.25
407.107	81.25
407.331	87.25
407.555	87.25
407.778	100.25
408.002	91.25
408.226	65.25
408.449	87.25
408.673	87.25
408.896	81.25
409.12	85.25
409.344	85.25
409.567	88.25
409.791	85.25
410.014	81.25
410.238	83.25
410.461	76.25
410.685	81.25
410.908	87.25
411.132	114.25
411.355	95.25
411.578	90.25
411.802	91.25
412.025	103.25
412.249	100.25
412.472	89.25
412.695	87.25
412.919	88.25
413.142	85.25
413.365	92.25
413.589	90.25
413.812	76.25
414.035	87.25
414.258	81.25
414.482	93.25
414.705	89.25
414.928	87.25
415.151	74.25
415.374	83.25
415.597	78.25
415.821	85.25
416.044	83.25
416.267	85.25
416.49	76.25
416.713	91.25
416.936	86.25
417.159	91.25
417.382	85.25
417.605	76.25
417.828	100.25
418.051	106.25
418.274	97.25
418.497	105.25
418.72	80.25
418.943	89.25
419.166	101.25
419.389	90.25
419.611	84.25
419.834	83.25
420.057	95.25
420.28	87.25
420.503	83.25
420.726	89.25
420.948	92.25
421.171	95.25
421.394	85.25
421.617	101.25
421.839	117.25
422.062	136.25
422.285	189.25
422.507	255.25
422.73	334.25
422.953	294.25
423.175	204.25
423.398	153.25
423.621	126.25
423.843	111.25
424.066	97.25
424.288	105.25
424.511	101.25
424.733	74.25
424.956	88.25
425.178	99.25
425.401	81.25
425.623	78.25
425.846	84.25
426.068	96.25
426.291	91.25
426.513	96.25
426.735	89.25
426.958	83.25
427.18	83.25
427.402	105.25
427.625	88.25
427.847	87.25
428.069	93.25
428.292	125.25
428.514	133.25
428.736	121.25
428.958	125.25
429.181	136.25
429.403	99.25
429.625	84.25
429.847	117.25
430.069	155.25
430.292	193.25
430.514	167.25
430.736	136.25
430.958	138.25
431.18	103.25
431.402	76.25
431.624	96.25
431.846	135.25
432.068	127.25
432.29	96.25
432.512	99.25
432.734	92.25
432.956	77.25
433.178	85.25
433.4	87.25
433.622	77.25
433.844	98.25
434.066	102.25
434.287	88.25
434.509	86.25
434.731	80.25
434.953	81.25
435.175	92.25
435.397	89.25
435.618	86.25
435.84	86.25
436.062	80.25
436.284	103.25
436.505	82.25
436.727	84.25
436.949	83.25
437.17	93.25
437.392	82.25
437.614	85.25
437.835	82.25
438.057	84.25
438.278	85.25
438.5	83.25
438.721	78.25
438.943	75.25
439.165	80.25
439.386	83.25
439.608	97.25
439.829	86.25
440.05	87.25
440.272	97.25
440.493	83.25
440.715	87.25
440.936	89.25
441.158	82.25
441.379	91.25
441.6	81.25
441.822	86.25
442.043	87.25
442.264	95.25
442.486	136.25
442.707	170.25
442.928	129.25
443.149	105.25
443.371	161.25
443.592	232.25
443.813	222.25
444.034	115.25
444.255	93.25
444.476	81.25
444.698	87.25
444.919	99.25
445.14	213.25
445.361	207.25
445.582	271.25
445.803	244.25
446.024	137.25
446.245	107.25
446.466	92.25
446.687	72.25
446.908	85.25
447.129	91.25
447.35	83.25
447.571	94.25
447.792	83.25
448.013	64.25
448.234	77.25
448.455	74.25
448.675	86.25
448.896	88.25
449.117	89.25
449.338	88.25
449.559	72.25
449.779	88.25
450	83.25
450.221	78.25
450.442	78.25
450.662	82.25
450.883	86.25
451.104	98.25
451.324	93.25
451.545	95.25
451.766	79.25
451.986	90.25
452.207	74.25
452.428	77.25
452.648	99.25
452.869	100.25
453.089	85.25
453.31	90.25
453.53	82.25
453.751	92.25
453.971	86.25
454.192	79.25
454.412	92.25
454.633	77.25
454.853	86.25
455.073	79.25
455.294	89.25
455.514	88.25
455.734	64.25
455.955	85.25
456.175	83.25
456.395	84.25
456.616	79.25
456.836	81.25
457.056	80.25
457.276	99.25
457.497	90.25
457.717	97.25
457.937	100.25
458.157	125.25
458.377	113.25
458.598	122.25
458.818	122.25
459.038	107.25
459.258	98.25
459.478	84.25
459.698	81.25
459.918	92.25
460.138	89.25
460.358	87.25
460.578	87.25
460.798	119.25
461.018	137.25
461.238	88.25
461.458	73.25
461.678	96.25
461.898	91.25
462.118	76.25
462.338	84.25
462.558	90.25
462.777	87.25
462.997	88.25
463.217	75.25
463.437	78.25
463.657	87.25
463.876	85.25
464.096	93.25
464.316	84.25
464.536	84.25
464.755	78.25
464.975	90.25
465.195	83.25
465.414	82.25
465.634	81.25
465.854	84.25
466.073	76.25
466.293	84.25
466.512	79.25
466.732	85.25
466.951	88.25
467.171	86.25
467.391	85.25
467.61	93.25
467.829	84.25
468.049	89.25
468.268	87.25
468.488	79.25
468.707	90.25
468.927	84.25
469.146	79.25
469.365	103.25
469.585	85.25
469.804	94.25
470.023	101.25
470.243	86.25
470.462	73.25
470.681	85.25
470.901	98.25
471.12	90.25
471.339	93.25
471.558	91.25
471.777	92.25
471.997	87.25
472.216	83.25
472.435	73.25
472.654	78.25
472.873	83.25
473.092	76.25
473.311	90.25
473.53	79.25
473.749	77.25
473.968	91.25
474.187	89.25
474.406	87.25
474.625	93.25
474.844	87.25
475.063	84.25
475.282	76.25
475.501	74.25
475.72	89.25
475.939	87.25
476.158	74.25
476.377	88.25
476.596	91.25
476.814	67.25
477.033	90.25
477.252	89.25
477.471	89.25
477.69	90.25
477.908	90.25
478.127	83.25
478.346	86.25
478.564	89.25
478.783	90.25
479.002	102.25
479.22	92.25
479.439	84.25
479.658	82.25
479.876	92.25
480.095	95.25
480.313	81.25
480.532	78.25
480.751	67.25
480.969	77.25
481.188	71.25
481.406	88.25
481.624	96.25
481.843	82.25
482.061	77.25
482.28	84.25
482.498	93.25
482.717	84.25
482.935	75.25
483.153	91.25
483.372	84.25
483.59	98.25
483.808	78.25
484.027	81.25
484.245	92.25
484.463	85.25
484.681	105.25
484.9	83.25
485.118	97.25
485.336	80.25
485.554	90.25
485.772	92.25
485.99	80.25
486.209	95.25
486.427	90.25
486.645	83.25
486.863	94.25
487.081	103.25
487.299	91.25
487.517	89.25
487.735	115.25
487.953	168.25
488.171	131.25
488.389	99.25
488.607	85.25
488.825	98.25
489.043	77.25
489.261	87.25
489.479	74.25
489.696	75.25
489.914	94.25
490.132	91.25
490.35	90.25
490.568	83.25
490.786	85.25
491.003	82.25
491.221	78.25
491.439	97.25
491.657	105.25
491.874	95.25
492.092	85.25
492.31	85.25
492.527	94.25
492.745	78.25
492.963	80.25
493.18	96.25
493.398	97.25
493.615	81.25
493.833	80.25
494.05	93.25
494.268	97.25
494.485	82.25
494.703	88.25
494.92	87.25
495.138	90.25
495.355	97.25
495.573	87.25
495.79	83.25
496.008	67.25
496.225	98.25
496.442	87.25
496.66	99.25
496.877	91.25
497.094	98.25
497.312	74.25
497.529	90.25
497.746	96.25
497.963	92.25
498.181	92.25
498.398	102.25
498.615	93.25
498.832	84.25
499.049	96.25
499.267	95.25
499.484	77.25
499.701	101.25
499.918	87.25
500.135	89.25
500.352	79.25
500.569	86.25
500.786	88.25
501.003	85.25
501.22	99.25
501.437	81.25
501.654	102.25
501.871	88.25
502.088	75.25
502.305	91.25
502.522	78.25
502.739	77.25
502.956	89.25
503.172	99.25
503.389	90.25
503.606	99.25
503.823	91.25
504.04	108.25
504.256	105.25
504.473	133.25
504.69	103.25
504.907	115.25
505.123	83.25
505.34	82.25
505.557	73.25
505.773	83.25
505.99	88.25
506.207	90.25
506.423	93.25
506.64	92.25
506.856	93.25
507.073	88.25
507.289	89.25
507.506	80.25
507.722	89.25
507.939	87.25
508.155	91.25
508.372	85.25
508.588	92.25
508.805	98.25
509.021	81.25
509.238	93.25
509.454	103.25
509.67	74.25
509.887	92.25
510.103	94.25
510.319	84.25
510.536	97.25
510.752	80.25
510.968	95.25
511.184	83.25
511.401	96.25
511.617	91.25
511.833	85.25
512.049	94.25
512.265	90.25
512.481	99.25
512.698	86.25
512.914	85.25
513.13	91.25
513.346	78.25
513.562	85.25
513.778	94.25
513.994	76.25
514.21	85.25
514.426	93.25
514.642	92.25
514.858	76.25
515.074	89.25
515.29	85.25
515.506	85.25
515.721	78.25
515.937	99.25
516.153	86.25
516.369	95.25
516.585	99.25
516.801	88.25
517.016	89.25
517.232	93.25
517.448	102.25
517.664	94.25
517.879	95.25
518.095	85.25
518.311	99.25
