Data from 2145_3_HRD10591_00006.txt Node
Date: Mon Jan 19 14:23:13 EST 2026
User: Yrep
Spectrometer: HR+D1059
Trigger mode: 1
Integration Time (sec): 1.000000E-1
Scans to average: 1
Electric dark correction enabled: true
Nonlinearity correction enabled: false
Boxcar width: 0
XAxis mode: Wavelengths
Number of Pixels in Spectrum: 2048
>>>>>Begin Spectral Data<<<<<
223.165	-16.38
223.4	-16.38
223.635	-16.38
223.869	-15.38
224.104	-9.38
224.338	-13.38
224.573	-19.38
224.808	-25.38
225.042	-12.38
225.277	-0.38
225.511	-8.38
225.746	11.62
225.98	17.62
226.215	12.62
226.449	14.62
226.683	7.62
226.918	23.62
227.152	32.62
227.387	35.62
227.621	44.62
227.856	47.62
228.09	49.62
228.324	61.62
228.559	69.62
228.793	58.62
229.027	57.62
229.262	69.62
229.496	65.62
229.73	76.62
229.964	74.62
230.199	78.62
230.433	63.62
230.667	69.62
230.901	75.62
231.136	85.62
231.37	83.62
231.604	79.62
231.838	84.62
232.072	75.62
232.306	78.62
232.541	65.62
232.775	88.62
233.009	85.62
233.243	70.62
233.477	79.62
233.711	89.62
233.945	74.62
234.179	74.62
234.413	89.62
234.647	75.62
234.881	79.62
235.115	83.62
235.349	77.62
235.583	85.62
235.817	87.62
236.051	70.62
236.285	74.62
236.519	67.62
236.753	66.62
236.987	88.62
237.221	84.62
237.455	76.62
237.689	78.62
237.922	67.62
238.156	52.62
238.39	67.62
238.624	84.62
238.858	73.62
239.091	73.62
239.325	94.62
239.559	67.62
239.793	87.62
240.027	79.62
240.26	81.62
240.494	77.62
240.728	85.62
240.961	86.62
241.195	85.62
241.429	75.62
241.662	78.62
241.896	96.62
242.13	83.62
242.363	83.62
242.597	73.62
242.83	72.62
243.064	74.62
243.298	82.62
243.531	82.62
243.765	81.62
243.998	77.62
244.232	73.62
244.465	85.62
244.699	67.62
244.932	62.62
245.166	82.62
245.399	84.62
245.633	83.62
245.866	72.62
246.099	76.62
246.333	77.62
246.566	83.62
246.8	66.62
247.033	83.62
247.266	75.62
247.5	72.62
247.733	94.62
247.966	75.62
248.2	67.62
248.433	78.62
248.666	75.62
248.899	73.62
249.133	80.62
249.366	70.62
249.599	73.62
249.832	74.62
250.066	73.62
250.299	78.62
250.532	89.62
250.765	95.62
250.998	83.62
251.231	75.62
251.465	83.62
251.698	76.62
251.931	76.62
252.164	69.62
252.397	71.62
252.63	84.62
252.863	92.62
253.096	73.62
253.329	88.62
253.562	89.62
253.795	85.62
254.028	73.62
254.261	69.62
254.494	69.62
254.727	85.62
254.96	76.62
255.193	77.62
255.426	66.62
255.659	69.62
255.892	85.62
256.124	71.62
256.357	75.62
256.59	86.62
256.823	85.62
257.056	96.62
257.289	85.62
257.521	95.62
257.754	76.62
257.987	80.62
258.22	79.62
258.452	75.62
258.685	73.62
258.918	75.62
259.151	80.62
259.383	66.62
259.616	75.62
259.849	85.62
260.081	83.62
260.314	74.62
260.547	90.62
260.779	90.62
261.012	77.62
261.244	74.62
261.477	88.62
261.71	69.62
261.942	67.62
262.175	77.62
262.407	78.62
262.64	67.62
262.872	74.62
263.105	76.62
263.337	81.62
263.57	73.62
263.802	94.62
264.035	72.62
264.267	75.62
264.499	75.62
264.732	96.62
264.964	75.62
265.197	87.62
265.429	77.62
265.661	73.62
265.894	77.62
266.126	84.62
266.358	81.62
266.591	95.62
266.823	80.62
267.055	76.62
267.287	82.62
267.52	83.62
267.752	83.62
267.984	81.62
268.216	92.62
268.448	71.62
268.681	82.62
268.913	89.62
269.145	97.62
269.377	73.62
269.609	70.62
269.841	75.62
270.073	79.62
270.306	65.62
270.538	88.62
270.77	90.62
271.002	78.62
271.234	76.62
271.466	89.62
271.698	99.62
271.93	94.62
272.162	77.62
272.394	82.62
272.626	71.62
272.858	82.62
273.09	76.62
273.322	95.62
273.553	89.62
273.785	92.62
274.017	71.62
274.249	95.62
274.481	87.62
274.713	89.62
274.945	90.62
275.176	78.62
275.408	96.62
275.64	89.62
275.872	75.62
276.104	81.62
276.335	71.62
276.567	69.62
276.799	91.62
277.031	85.62
277.262	71.62
277.494	92.62
277.726	83.62
277.957	97.62
278.189	87.62
278.421	81.62
278.652	80.62
278.884	94.62
279.115	83.62
279.347	91.62
279.579	83.62
279.81	67.62
280.042	87.62
280.273	100.62
280.505	69.62
280.736	81.62
280.968	95.62
281.199	71.62
281.431	82.62
281.662	84.62
281.894	81.62
282.125	71.62
282.356	82.62
282.588	87.62
282.819	75.62
283.051	78.62
283.282	89.62
283.513	84.62
283.745	87.62
283.976	87.62
284.207	89.62
284.439	88.62
284.67	89.62
284.901	80.62
285.132	81.62
285.364	93.62
285.595	90.62
285.826	88.62
286.057	84.62
286.288	69.62
286.52	90.62
286.751	67.62
286.982	89.62
287.213	85.62
287.444	77.62
287.675	82.62
287.906	92.62
288.138	85.62
288.369	93.62
288.6	83.62
288.831	89.62
289.062	93.62
289.293	75.62
289.524	85.62
289.755	84.62
289.986	80.62
290.217	95.62
290.448	86.62
290.679	69.62
290.91	85.62
291.141	88.62
291.371	80.62
291.602	66.62
291.833	70.62
292.064	77.62
292.295	91.62
292.526	71.62
292.757	85.62
292.987	99.62
293.218	79.62
293.449	82.62
293.68	79.62
293.91	81.62
294.141	68.62
294.372	84.62
294.603	99.62
294.833	98.62
295.064	89.62
295.295	79.62
295.525	87.62
295.756	73.62
295.987	73.62
296.217	84.62
296.448	87.62
296.679	90.62
296.909	100.62
297.14	94.62
297.37	96.62
297.601	86.62
297.831	78.62
298.062	97.62
298.292	76.62
298.523	83.62
298.753	79.62
298.984	84.62
299.214	88.62
299.445	93.62
299.675	91.62
299.905	90.62
300.136	87.62
300.366	92.62
300.597	88.62
300.827	91.62
301.057	88.62
301.288	87.62
301.518	77.62
301.748	84.62
301.979	101.62
302.209	84.62
302.439	93.62
302.669	87.62
302.9	99.62
303.13	85.62
303.36	100.62
303.59	88.62
303.82	82.62
304.051	75.62
304.281	79.62
304.511	101.62
304.741	81.62
304.971	91.62
305.201	93.62
305.431	94.62
305.661	89.62
305.891	90.62
306.121	76.62
306.352	92.62
306.582	81.62
306.812	80.62
307.042	88.62
307.272	73.62
307.502	90.62
307.731	91.62
307.961	86.62
308.191	85.62
308.421	97.62
308.651	95.62
308.881	90.62
309.111	101.62
309.341	91.62
309.571	96.62
309.8	103.62
310.03	81.62
310.26	87.62
310.49	77.62
310.72	83.62
310.949	69.62
311.179	74.62
311.409	89.62
311.639	96.62
311.868	84.62
312.098	103.62
312.328	89.62
312.557	76.62
312.787	88.62
313.017	88.62
313.246	87.62
313.476	90.62
313.706	77.62
313.935	81.62
314.165	90.62
314.394	95.62
314.624	81.62
314.853	80.62
315.083	89.62
315.312	81.62
315.542	92.62
315.771	84.62
316.001	98.62
316.23	93.62
316.46	87.62
316.689	101.62
316.919	79.62
317.148	94.62
317.377	92.62
317.607	83.62
317.836	82.62
318.065	93.62
318.295	90.62
318.524	106.62
318.753	94.62
318.983	84.62
319.212	84.62
319.441	77.62
319.67	83.62
319.9	96.62
320.129	89.62
320.358	92.62
320.587	91.62
320.816	79.62
321.046	76.62
321.275	81.62
321.504	79.62
321.733	92.62
321.962	95.62
322.191	90.62
322.42	83.62
322.649	79.62
322.878	81.62
323.108	84.62
323.337	93.62
323.566	63.62
323.795	88.62
324.024	74.62
324.253	79.62
324.482	87.62
324.71	93.62
324.939	98.62
325.168	83.62
325.397	84.62
325.626	82.62
325.855	84.62
326.084	88.62
326.313	83.62
326.542	73.62
326.77	83.62
326.999	71.62
327.228	86.62
327.457	86.62
327.686	85.62
327.914	86.62
328.143	93.62
328.372	67.62
328.6	99.62
328.829	76.62
329.058	98.62
329.287	93.62
329.515	91.62
329.744	82.62
329.972	86.62
330.201	103.62
330.43	96.62
330.658	91.62
330.887	84.62
331.115	93.62
331.344	86.62
331.572	89.62
331.801	81.62
332.03	89.62
332.258	82.62
332.486	75.62
332.715	94.62
332.943	96.62
333.172	86.62
333.4	85.62
333.629	88.62
333.857	92.62
334.085	100.62
334.314	99.62
334.542	88.62
334.771	76.62
334.999	103.62
335.227	78.62
335.455	79.62
335.684	110.62
335.912	95.62
336.14	73.62
336.369	85.62
336.597	91.62
336.825	95.62
337.053	93.62
337.281	97.62
337.51	94.62
337.738	96.62
337.966	82.62
338.194	76.62
338.422	108.62
338.65	76.62
338.878	85.62
339.106	87.62
339.334	82.62
339.562	77.62
339.79	79.62
340.018	83.62
340.246	94.62
340.474	86.62
340.702	91.62
340.93	77.62
341.158	95.62
341.386	93.62
341.614	71.62
341.842	89.62
342.07	84.62
342.298	89.62
342.526	85.62
342.754	87.62
342.981	80.62
343.209	99.62
343.437	99.62
343.665	83.62
343.893	91.62
344.12	74.62
344.348	99.62
344.576	99.62
344.804	102.62
345.031	100.62
345.259	91.62
345.487	77.62
345.714	73.62
345.942	82.62
346.17	85.62
346.397	80.62
346.625	84.62
346.853	88.62
347.08	80.62
347.308	89.62
347.535	84.62
347.763	84.62
347.99	81.62
348.218	82.62
348.445	87.62
348.673	89.62
348.9	89.62
349.128	88.62
349.355	85.62
349.583	86.62
349.81	83.62
350.037	73.62
350.265	83.62
350.492	77.62
350.72	87.62
350.947	89.62
351.174	101.62
351.402	80.62
351.629	83.62
351.856	85.62
352.083	81.62
352.311	92.62
352.538	91.62
352.765	80.62
352.992	86.62
353.22	90.62
353.447	88.62
353.674	84.62
353.901	84.62
354.128	81.62
354.355	59.62
354.583	83.62
354.81	88.62
355.037	84.62
355.264	92.62
355.491	83.62
355.718	83.62
355.945	88.62
356.172	81.62
356.399	91.62
356.626	73.62
356.853	83.62
357.08	76.62
357.307	94.62
357.534	95.62
357.761	86.62
357.988	89.62
358.215	113.62
358.441	104.62
358.668	100.62
358.895	85.62
359.122	77.62
359.349	97.62
359.576	82.62
359.802	86.62
360.029	92.62
360.256	85.62
360.483	83.62
360.709	104.62
360.936	87.62
361.163	100.62
361.39	87.62
361.616	87.62
361.843	93.62
362.07	98.62
362.296	92.62
362.523	99.62
362.749	100.62
362.976	117.62
363.203	115.62
363.429	108.62
363.656	83.62
363.882	112.62
364.109	129.62
364.335	124.62
364.562	114.62
364.788	96.62
365.015	104.62
365.241	79.62
365.468	95.62
365.694	96.62
365.92	83.62
366.147	80.62
366.373	81.62
366.599	84.62
366.826	85.62
367.052	80.62
367.278	89.62
367.505	94.62
367.731	93.62
367.957	97.62
368.184	84.62
368.41	83.62
368.636	81.62
368.862	91.62
369.089	81.62
369.315	89.62
369.541	77.62
369.767	83.62
369.993	98.62
370.219	83.62
370.445	82.62
370.672	80.62
370.898	84.62
371.124	80.62
371.35	79.62
371.576	99.62
371.802	102.62
372.028	87.62
372.254	102.62
372.48	92.62
372.706	102.62
372.932	96.62
373.158	90.62
373.384	105.62
373.61	107.62
373.835	91.62
374.061	101.62
374.287	115.62
374.513	89.62
374.739	100.62
374.965	96.62
375.191	108.62
375.416	85.62
375.642	93.62
375.868	90.62
376.094	80.62
376.319	95.62
376.545	88.62
376.771	81.62
376.997	82.62
377.222	83.62
377.448	77.62
377.674	83.62
377.899	83.62
378.125	76.62
378.35	87.62
378.576	80.62
378.802	88.62
379.027	86.62
379.253	95.62
379.478	99.62
379.704	89.62
379.929	91.62
380.155	84.62
380.38	91.62
380.606	78.62
380.831	82.62
381.057	86.62
381.282	75.62
381.507	84.62
381.733	92.62
381.958	87.62
382.184	108.62
382.409	97.62
382.634	101.62
382.86	83.62
383.085	83.62
383.31	111.62
383.535	90.62
383.761	91.62
383.986	93.62
384.211	92.62
384.436	101.62
384.662	88.62
384.887	89.62
385.112	86.62
385.337	74.62
385.562	99.62
385.787	108.62
386.013	87.62
386.238	96.62
386.463	91.62
386.688	83.62
386.913	101.62
387.138	85.62
387.363	86.62
387.588	97.62
387.813	85.62
388.038	95.62
388.263	103.62
388.488	96.62
388.713	96.62
388.938	93.62
389.163	93.62
389.387	68.62
389.612	71.62
389.837	88.62
390.062	105.62
390.287	98.62
390.512	104.62
390.736	89.62
390.961	99.62
391.186	81.62
391.411	85.62
391.636	96.62
391.86	99.62
392.085	105.62
392.31	93.62
392.534	114.62
392.759	124.62
392.984	156.62
393.208	253.62
393.433	378.62
393.658	274.62
393.882	138.62
394.107	121.62
394.331	155.62
394.556	144.62
394.78	115.62
395.005	103.62
395.229	87.62
395.454	87.62
395.678	89.62
395.903	129.62
396.127	163.62
396.352	197.62
396.576	199.62
396.801	283.62
397.025	296.62
397.249	186.62
397.474	131.62
397.698	115.62
397.922	83.62
398.147	77.62
398.371	92.62
398.595	89.62
398.82	83.62
399.044	85.62
399.268	93.62
399.492	81.62
399.717	90.62
399.941	82.62
400.165	97.62
400.389	88.62
400.613	87.62
400.837	91.62
401.062	88.62
401.286	99.62
401.51	78.62
401.734	79.62
401.958	84.62
402.182	83.62
402.406	98.62
402.63	94.62
402.854	92.62
403.078	100.62
403.302	90.62
403.526	90.62
403.75	99.62
403.974	117.62
404.198	148.62
404.422	228.62
404.645	280.62
404.869	245.62
405.093	146.62
405.317	116.62
405.541	92.62
405.765	97.62
405.988	88.62
406.212	93.62
406.436	93.62
406.66	96.62
406.883	88.62
407.107	98.62
407.331	98.62
407.555	104.62
407.778	108.62
408.002	111.62
408.226	99.62
408.449	83.62
408.673	92.62
408.896	99.62
409.12	92.62
409.344	107.62
409.567	102.62
409.791	102.62
410.014	97.62
410.238	99.62
410.461	103.62
410.685	101.62
410.908	93.62
411.132	94.62
411.355	86.62
411.578	84.62
411.802	107.62
412.025	95.62
412.249	75.62
412.472	87.62
412.695	92.62
412.919	81.62
413.142	86.62
413.365	93.62
413.589	92.62
413.812	91.62
414.035	81.62
414.258	87.62
414.482	96.62
414.705	89.62
414.928	89.62
415.151	80.62
415.374	102.62
415.597	91.62
415.821	90.62
416.044	83.62
416.267	83.62
416.49	89.62
416.713	81.62
416.936	77.62
417.159	88.62
417.382	80.62
417.605	92.62
417.828	81.62
418.051	81.62
418.274	105.62
418.497	87.62
418.72	74.62
418.943	96.62
419.166	96.62
419.389	92.62
419.611	97.62
419.834	98.62
420.057	88.62
420.28	96.62
420.503	92.62
420.726	92.62
420.948	88.62
421.171	107.62
421.394	116.62
421.617	145.62
421.839	134.62
422.062	164.62
422.285	219.62
422.507	351.62
422.73	492.62
422.953	453.62
423.175	251.62
423.398	153.62
423.621	135.62
423.843	113.62
424.066	91.62
424.288	101.62
424.511	89.62
424.733	96.62
424.956	90.62
425.178	93.62
425.401	85.62
425.623	95.62
425.846	81.62
426.068	88.62
426.291	91.62
426.513	76.62
426.735	88.62
426.958	94.62
427.18	80.62
427.402	100.62
427.625	103.62
427.847	91.62
428.069	103.62
428.292	156.62
428.514	166.62
428.736	142.62
428.958	159.62
429.181	156.62
429.403	119.62
429.625	101.62
429.847	164.62
430.069	204.62
430.292	243.62
430.514	213.62
430.736	159.62
430.958	177.62
431.18	127.62
431.402	90.62
431.624	109.62
431.846	153.62
432.068	169.62
432.29	97.62
432.512	103.62
432.734	89.62
432.956	96.62
433.178	89.62
433.4	81.62
433.622	107.62
433.844	84.62
434.066	90.62
434.287	88.62
434.509	81.62
434.731	90.62
434.953	93.62
435.175	93.62
435.397	96.62
435.618	90.62
435.84	96.62
436.062	90.62
436.284	86.62
436.505	95.62
436.727	84.62
436.949	86.62
437.17	96.62
437.392	83.62
437.614	84.62
437.835	72.62
438.057	97.62
438.278	93.62
438.5	79.62
438.721	85.62
438.943	97.62
439.165	101.62
439.386	85.62
439.608	81.62
439.829	75.62
440.05	81.62
440.272	95.62
440.493	86.62
440.715	83.62
440.936	89.62
441.158	85.62
441.379	97.62
441.6	77.62
441.822	114.62
442.043	89.62
442.264	102.62
442.486	167.62
442.707	223.62
442.928	159.62
443.149	125.62
443.371	211.62
443.592	339.62
443.813	275.62
444.034	134.62
444.255	123.62
444.476	101.62
444.698	115.62
444.919	113.62
445.14	235.62
445.361	307.62
445.582	417.62
445.803	345.62
446.024	158.62
446.245	105.62
446.466	83.62
446.687	72.62
446.908	104.62
447.129	91.62
447.35	85.62
447.571	94.62
447.792	89.62
448.013	90.62
448.234	94.62
448.455	80.62
448.675	101.62
448.896	76.62
449.117	78.62
449.338	87.62
449.559	88.62
449.779	83.62
450	84.62
450.221	78.62
450.442	85.62
450.662	80.62
450.883	91.62
451.104	84.62
451.324	76.62
451.545	85.62
451.766	80.62
451.986	89.62
452.207	88.62
452.428	99.62
452.648	95.62
452.869	89.62
453.089	96.62
453.31	91.62
453.53	111.62
453.751	101.62
453.971	100.62
454.192	79.62
454.412	81.62
454.633	77.62
454.853	96.62
455.073	98.62
455.294	89.62
455.514	98.62
455.734	86.62
455.955	95.62
456.175	92.62
456.395	93.62
456.616	91.62
456.836	82.62
457.056	85.62
457.276	93.62
457.497	92.62
457.717	105.62
457.937	121.62
458.157	122.62
458.377	118.62
458.598	129.62
458.818	132.62
459.038	122.62
459.258	83.62
459.478	89.62
459.698	91.62
459.918	86.62
460.138	109.62
460.358	102.62
460.578	106.62
460.798	154.62
461.018	149.62
461.238	99.62
461.458	97.62
461.678	99.62
461.898	87.62
462.118	77.62
462.338	81.62
462.558	92.62
462.777	95.62
462.997	98.62
463.217	87.62
463.437	81.62
463.657	91.62
463.876	79.62
464.096	83.62
464.316	78.62
464.536	85.62
464.755	62.62
464.975	88.62
465.195	85.62
465.414	95.62
465.634	84.62
465.854	96.62
466.073	92.62
466.293	79.62
466.512	96.62
466.732	88.62
466.951	90.62
467.171	92.62
467.391	76.62
467.61	77.62
467.829	87.62
468.049	90.62
468.268	84.62
468.488	91.62
468.707	99.62
468.927	84.62
469.146	86.62
469.365	83.62
469.585	93.62
469.804	89.62
470.023	83.62
470.243	81.62
470.462	106.62
470.681	92.62
470.901	78.62
471.12	87.62
471.339	100.62
471.558	89.62
471.777	95.62
471.997	93.62
472.216	87.62
472.435	86.62
472.654	77.62
472.873	89.62
473.092	86.62
473.311	99.62
473.53	99.62
473.749	85.62
473.968	89.62
474.187	95.62
474.406	76.62
474.625	102.62
474.844	88.62
475.063	86.62
475.282	91.62
475.501	92.62
475.72	102.62
475.939	89.62
476.158	83.62
476.377	78.62
476.596	87.62
476.814	97.62
477.033	93.62
477.252	93.62
477.471	88.62
477.69	80.62
477.908	96.62
478.127	95.62
478.346	93.62
478.564	88.62
478.783	85.62
479.002	96.62
479.22	82.62
479.439	87.62
479.658	81.62
479.876	91.62
480.095	94.62
480.313	91.62
480.532	87.62
480.751	83.62
480.969	89.62
481.188	90.62
481.406	96.62
481.624	87.62
481.843	83.62
482.061	95.62
482.28	92.62
482.498	101.62
482.717	98.62
482.935	88.62
483.153	96.62
483.372	103.62
483.59	94.62
483.808	85.62
484.027	93.62
484.245	97.62
484.463	96.62
484.681	106.62
484.9	83.62
485.118	96.62
485.336	90.62
485.554	83.62
485.772	96.62
485.99	85.62
486.209	93.62
486.427	97.62
486.645	82.62
486.863	87.62
487.081	99.62
487.299	93.62
487.517	89.62
487.735	118.62
487.953	176.62
488.171	176.62
488.389	118.62
488.607	97.62
488.825	89.62
489.043	85.62
489.261	93.62
489.479	94.62
489.696	113.62
489.914	101.62
490.132	89.62
490.35	97.62
490.568	93.62
490.786	85.62
491.003	101.62
491.221	96.62
491.439	94.62
491.657	88.62
491.874	113.62
492.092	87.62
492.31	91.62
492.527	92.62
492.745	82.62
492.963	96.62
493.18	86.62
493.398	85.62
493.615	88.62
493.833	92.62
494.05	85.62
494.268	103.62
494.485	100.62
494.703	82.62
494.92	76.62
495.138	87.62
495.355	99.62
495.573	95.62
495.79	91.62
496.008	118.62
496.225	93.62
496.442	93.62
496.66	91.62
496.877	88.62
497.094	96.62
497.312	87.62
497.529	91.62
497.746	99.62
497.963	82.62
498.181	93.62
498.398	105.62
498.615	89.62
498.832	88.62
499.049	102.62
499.267	101.62
499.484	89.62
499.701	100.62
499.918	91.62
500.135	96.62
500.352	100.62
500.569	95.62
500.786	101.62
501.003	82.62
501.22	91.62
501.437	103.62
501.654	101.62
501.871	74.62
502.088	87.62
502.305	93.62
502.522	100.62
502.739	108.62
502.956	94.62
503.172	94.62
503.389	96.62
503.606	104.62
503.823	107.62
504.04	116.62
504.256	137.62
504.473	120.62
504.69	119.62
504.907	95.62
505.123	99.62
505.34	99.62
505.557	102.62
505.773	93.62
505.99	104.62
506.207	89.62
506.423	88.62
506.64	91.62
506.856	94.62
507.073	90.62
507.289	96.62
507.506	108.62
507.722	97.62
507.939	97.62
508.155	92.62
508.372	101.62
508.588	85.62
508.805	103.62
509.021	91.62
509.238	87.62
509.454	87.62
509.67	88.62
509.887	119.62
510.103	87.62
510.319	107.62
510.536	111.62
510.752	101.62
510.968	96.62
511.184	101.62
511.401	112.62
511.617	77.62
511.833	93.62
512.049	109.62
512.265	92.62
512.481	92.62
512.698	87.62
512.914	103.62
513.13	91.62
513.346	99.62
513.562	104.62
513.778	97.62
513.994	82.62
514.21	85.62
514.426	90.62
514.642	92.62
514.858	95.62
515.074	93.62
515.29	94.62
515.506	85.62
515.721	97.62
515.937	97.62
516.153	99.62
516.369	95.62
516.585	102.62
516.801	84.62
517.016	98.62
517.232	97.62
