Data from 2145_3_HRD10591_00003.txt Node
Date: Mon Jan 19 14:23:11 EST 2026
User: Yrep
Spectrometer: HR+D1059
Trigger mode: 1
Integration Time (sec): 1.000000E-1
Scans to average: 1
Electric dark correction enabled: true
Nonlinearity correction enabled: false
Boxcar width: 0
XAxis mode: Wavelengths
Number of Pixels in Spectrum: 2048
>>>>>Begin Spectral Data<<<<<
223.165	-18.5
223.4	-18.5
223.635	-18.5
223.869	-24.5
224.104	-11.5
224.338	-14.5
224.573	-3.5
224.808	-13.5
225.042	-2.5
225.277	-13.5
225.511	-6.5
225.746	6.5
225.98	3.5
226.215	0.5
226.449	24.5
226.683	16.5
226.918	16.5
227.152	40.5
227.387	36.5
227.621	22.5
227.856	45.5
228.09	51.5
228.324	49.5
228.559	67.5
228.793	57.5
229.027	62.5
229.262	62.5
229.496	79.5
229.73	83.5
229.964	82.5
230.199	75.5
230.433	70.5
230.667	62.5
230.901	88.5
231.136	87.5
231.37	76.5
231.604	84.5
231.838	76.5
232.072	84.5
232.306	90.5
232.541	89.5
232.775	66.5
233.009	74.5
233.243	66.5
233.477	92.5
233.711	86.5
233.945	76.5
234.179	81.5
234.413	74.5
234.647	76.5
234.881	95.5
235.115	82.5
235.349	87.5
235.583	84.5
235.817	64.5
236.051	93.5
236.285	79.5
236.519	79.5
236.753	77.5
236.987	85.5
237.221	93.5
237.455	80.5
237.689	92.5
237.922	74.5
238.156	83.5
238.39	88.5
238.624	86.5
238.858	82.5
239.091	79.5
239.325	78.5
239.559	71.5
239.793	81.5
240.027	85.5
240.26	75.5
240.494	76.5
240.728	76.5
240.961	75.5
241.195	75.5
241.429	79.5
241.662	72.5
241.896	87.5
242.13	68.5
242.363	76.5
242.597	56.5
242.83	72.5
243.064	89.5
243.298	70.5
243.531	94.5
243.765	84.5
243.998	71.5
244.232	77.5
244.465	76.5
244.699	82.5
244.932	66.5
245.166	86.5
245.399	90.5
245.633	84.5
245.866	77.5
246.099	80.5
246.333	87.5
246.566	78.5
246.8	78.5
247.033	75.5
247.266	88.5
247.5	82.5
247.733	85.5
247.966	88.5
248.2	82.5
248.433	76.5
248.666	75.5
248.899	90.5
249.133	74.5
249.366	78.5
249.599	72.5
249.832	89.5
250.066	70.5
250.299	76.5
250.532	80.5
250.765	75.5
250.998	89.5
251.231	78.5
251.465	96.5
251.698	96.5
251.931	80.5
252.164	84.5
252.397	79.5
252.63	88.5
252.863	78.5
253.096	76.5
253.329	85.5
253.562	78.5
253.795	91.5
254.028	78.5
254.261	77.5
254.494	83.5
254.727	90.5
254.96	87.5
255.193	83.5
255.426	70.5
255.659	84.5
255.892	79.5
256.124	80.5
256.357	82.5
256.59	92.5
256.823	73.5
257.056	90.5
257.289	86.5
257.521	93.5
257.754	81.5
257.987	71.5
258.22	89.5
258.452	90.5
258.685	100.5
258.918	72.5
259.151	95.5
259.383	88.5
259.616	79.5
259.849	85.5
260.081	74.5
260.314	86.5
260.547	78.5
260.779	91.5
261.012	103.5
261.244	92.5
261.477	94.5
261.71	80.5
261.942	100.5
262.175	92.5
262.407	78.5
262.64	88.5
262.872	90.5
263.105	80.5
263.337	78.5
263.57	94.5
263.802	76.5
264.035	82.5
264.267	76.5
264.499	81.5
264.732	74.5
264.964	91.5
265.197	86.5
265.429	90.5
265.661	92.5
265.894	102.5
266.126	86.5
266.358	81.5
266.591	76.5
266.823	98.5
267.055	91.5
267.287	80.5
267.52	94.5
267.752	86.5
267.984	75.5
268.216	92.5
268.448	83.5
268.681	90.5
268.913	77.5
269.145	84.5
269.377	80.5
269.609	66.5
269.841	84.5
270.073	85.5
270.306	78.5
270.538	86.5
270.77	75.5
271.002	86.5
271.234	88.5
271.466	84.5
271.698	81.5
271.93	90.5
272.162	96.5
272.394	88.5
272.626	86.5
272.858	88.5
273.09	79.5
273.322	80.5
273.553	80.5
273.785	83.5
274.017	80.5
274.249	82.5
274.481	100.5
274.713	90.5
274.945	94.5
275.176	94.5
275.408	88.5
275.64	87.5
275.872	93.5
276.104	92.5
276.335	80.5
276.567	103.5
276.799	80.5
277.031	83.5
277.262	79.5
277.494	77.5
277.726	90.5
277.957	88.5
278.189	79.5
278.421	85.5
278.652	100.5
278.884	87.5
279.115	91.5
279.347	86.5
279.579	80.5
279.81	79.5
280.042	95.5
280.273	79.5
280.505	88.5
280.736	84.5
280.968	86.5
281.199	82.5
281.431	76.5
281.662	86.5
281.894	79.5
282.125	91.5
282.356	87.5
282.588	73.5
282.819	98.5
283.051	82.5
283.282	87.5
283.513	87.5
283.745	95.5
283.976	71.5
284.207	81.5
284.439	104.5
284.67	86.5
284.901	74.5
285.132	88.5
285.364	86.5
285.595	91.5
285.826	101.5
286.057	88.5
286.288	91.5
286.52	86.5
286.751	97.5
286.982	86.5
287.213	70.5
287.444	92.5
287.675	89.5
287.906	85.5
288.138	88.5
288.369	105.5
288.6	71.5
288.831	80.5
289.062	88.5
289.293	89.5
289.524	82.5
289.755	100.5
289.986	84.5
290.217	101.5
290.448	91.5
290.679	80.5
290.91	90.5
291.141	78.5
291.371	86.5
291.602	96.5
291.833	99.5
292.064	86.5
292.295	79.5
292.526	74.5
292.757	76.5
292.987	87.5
293.218	82.5
293.449	94.5
293.68	78.5
293.91	82.5
294.141	91.5
294.372	92.5
294.603	76.5
294.833	91.5
295.064	95.5
295.295	89.5
295.525	85.5
295.756	84.5
295.987	82.5
296.217	86.5
296.448	92.5
296.679	84.5
296.909	98.5
297.14	70.5
297.37	87.5
297.601	79.5
297.831	90.5
298.062	75.5
298.292	91.5
298.523	95.5
298.753	81.5
298.984	93.5
299.214	89.5
299.445	91.5
299.675	92.5
299.905	94.5
300.136	103.5
300.366	109.5
300.597	115.5
300.827	92.5
301.057	98.5
301.288	102.5
301.518	89.5
301.748	91.5
301.979	98.5
302.209	99.5
302.439	78.5
302.669	91.5
302.9	80.5
303.13	94.5
303.36	95.5
303.59	81.5
303.82	91.5
304.051	91.5
304.281	96.5
304.511	100.5
304.741	101.5
304.971	89.5
305.201	82.5
305.431	106.5
305.661	94.5
305.891	77.5
306.121	91.5
306.352	88.5
306.582	99.5
306.812	91.5
307.042	77.5
307.272	83.5
307.502	102.5
307.731	84.5
307.961	98.5
308.191	89.5
308.421	104.5
308.651	99.5
308.881	108.5
309.111	106.5
309.341	125.5
309.571	110.5
309.8	93.5
310.03	94.5
310.26	86.5
310.49	95.5
310.72	87.5
310.949	83.5
311.179	95.5
311.409	77.5
311.639	82.5
311.868	80.5
312.098	96.5
312.328	95.5
312.557	82.5
312.787	88.5
313.017	96.5
313.246	100.5
313.476	96.5
313.706	101.5
313.935	84.5
314.165	92.5
314.394	88.5
314.624	81.5
314.853	89.5
315.083	91.5
315.312	89.5
315.542	92.5
315.771	97.5
316.001	103.5
316.23	103.5
316.46	91.5
316.689	86.5
316.919	82.5
317.148	95.5
317.377	96.5
317.607	119.5
317.836	94.5
318.065	108.5
318.295	95.5
318.524	95.5
318.753	75.5
318.983	90.5
319.212	101.5
319.441	97.5
319.67	84.5
319.9	86.5
320.129	74.5
320.358	91.5
320.587	102.5
320.816	89.5
321.046	83.5
321.275	96.5
321.504	96.5
321.733	100.5
321.962	91.5
322.191	100.5
322.42	98.5
322.649	106.5
322.878	114.5
323.108	101.5
323.337	103.5
323.566	99.5
323.795	100.5
324.024	82.5
324.253	93.5
324.482	90.5
324.71	101.5
324.939	102.5
325.168	95.5
325.397	84.5
325.626	82.5
325.855	103.5
326.084	91.5
326.313	87.5
326.542	79.5
326.77	99.5
326.999	88.5
327.228	94.5
327.457	86.5
327.686	88.5
327.914	75.5
328.143	94.5
328.372	97.5
328.6	95.5
328.829	93.5
329.058	98.5
329.287	97.5
329.515	83.5
329.744	90.5
329.972	99.5
330.201	98.5
330.43	96.5
330.658	102.5
330.887	91.5
331.115	92.5
331.344	91.5
331.572	91.5
331.801	96.5
332.03	92.5
332.258	91.5
332.486	84.5
332.715	81.5
332.943	98.5
333.172	94.5
333.4	82.5
333.629	90.5
333.857	97.5
334.085	95.5
334.314	84.5
334.542	105.5
334.771	106.5
334.999	98.5
335.227	106.5
335.455	91.5
335.684	95.5
335.912	112.5
336.14	101.5
336.369	92.5
336.597	98.5
336.825	98.5
337.053	87.5
337.281	101.5
337.51	74.5
337.738	92.5
337.966	92.5
338.194	99.5
338.422	99.5
338.65	103.5
338.878	115.5
339.106	78.5
339.334	110.5
339.562	86.5
339.79	89.5
340.018	93.5
340.246	104.5
340.474	95.5
340.702	94.5
340.93	108.5
341.158	93.5
341.386	70.5
341.614	81.5
341.842	86.5
342.07	89.5
342.298	95.5
342.526	89.5
342.754	98.5
342.981	86.5
343.209	89.5
343.437	100.5
343.665	103.5
343.893	91.5
344.12	114.5
344.348	101.5
344.576	107.5
344.804	111.5
345.031	104.5
345.259	99.5
345.487	78.5
345.714	94.5
345.942	88.5
346.17	89.5
346.397	97.5
346.625	91.5
346.853	94.5
347.08	99.5
347.308	92.5
347.535	90.5
347.763	106.5
347.99	101.5
348.218	104.5
348.445	93.5
348.673	92.5
348.9	86.5
349.128	96.5
349.355	96.5
349.583	91.5
349.81	86.5
350.037	83.5
350.265	92.5
350.492	81.5
350.72	88.5
350.947	93.5
351.174	86.5
351.402	91.5
351.629	102.5
351.856	92.5
352.083	90.5
352.311	90.5
352.538	86.5
352.765	95.5
352.992	90.5
353.22	90.5
353.447	88.5
353.674	94.5
353.901	104.5
354.128	96.5
354.355	101.5
354.583	95.5
354.81	101.5
355.037	85.5
355.264	84.5
355.491	86.5
355.718	84.5
355.945	94.5
356.172	92.5
356.399	96.5
356.626	88.5
356.853	100.5
357.08	103.5
357.307	95.5
357.534	98.5
357.761	88.5
357.988	91.5
358.215	109.5
358.441	104.5
358.668	96.5
358.895	83.5
359.122	89.5
359.349	102.5
359.576	95.5
359.802	102.5
360.029	87.5
360.256	94.5
360.483	84.5
360.709	99.5
360.936	104.5
361.163	107.5
361.39	92.5
361.616	81.5
361.843	116.5
362.07	115.5
362.296	113.5
362.523	126.5
362.749	117.5
362.976	138.5
363.203	137.5
363.429	114.5
363.656	111.5
363.882	123.5
364.109	142.5
364.335	172.5
364.562	166.5
364.788	144.5
365.015	108.5
365.241	99.5
365.468	96.5
365.694	105.5
365.92	101.5
366.147	104.5
366.373	96.5
366.599	83.5
366.826	88.5
367.052	86.5
367.278	102.5
367.505	86.5
367.731	92.5
367.957	90.5
368.184	91.5
368.41	93.5
368.636	89.5
368.862	107.5
369.089	94.5
369.315	95.5
369.541	90.5
369.767	89.5
369.993	102.5
370.219	85.5
370.445	90.5
370.672	103.5
370.898	84.5
371.124	88.5
371.35	94.5
371.576	99.5
371.802	96.5
372.028	108.5
372.254	103.5
372.48	95.5
372.706	90.5
372.932	95.5
373.158	103.5
373.384	106.5
373.61	114.5
373.835	126.5
374.061	92.5
374.287	103.5
374.513	108.5
374.739	110.5
374.965	108.5
375.191	106.5
375.416	109.5
375.642	91.5
375.868	106.5
376.094	106.5
376.319	90.5
376.545	89.5
376.771	100.5
376.997	86.5
377.222	95.5
377.448	87.5
377.674	98.5
377.899	93.5
378.125	100.5
378.35	105.5
378.576	108.5
378.802	108.5
379.027	89.5
379.253	91.5
379.478	85.5
379.704	96.5
379.929	109.5
380.155	96.5
380.38	91.5
380.606	102.5
380.831	84.5
381.057	100.5
381.282	89.5
381.507	105.5
381.733	103.5
381.958	94.5
382.184	110.5
382.409	116.5
382.634	123.5
382.86	95.5
383.085	94.5
383.31	115.5
383.535	116.5
383.761	93.5
383.986	107.5
384.211	108.5
384.436	102.5
384.662	98.5
384.887	109.5
385.112	93.5
385.337	112.5
385.562	88.5
385.787	113.5
386.013	105.5
386.238	106.5
386.463	100.5
386.688	116.5
386.913	95.5
387.138	94.5
387.363	107.5
387.588	102.5
387.813	92.5
388.038	111.5
388.263	103.5
388.488	92.5
388.713	104.5
388.938	94.5
389.163	104.5
389.387	78.5
389.612	107.5
389.837	96.5
390.062	101.5
390.287	86.5
390.512	87.5
390.736	104.5
390.961	95.5
391.186	98.5
391.411	95.5
391.636	109.5
391.86	100.5
392.085	106.5
392.31	114.5
392.534	136.5
392.759	160.5
392.984	223.5
393.208	388.5
393.433	538.5
393.658	412.5
393.882	201.5
394.107	146.5
394.331	162.5
394.556	179.5
394.78	148.5
395.005	117.5
395.229	113.5
395.454	119.5
395.678	116.5
395.903	149.5
396.127	214.5
396.352	267.5
396.576	276.5
396.801	407.5
397.025	445.5
397.249	262.5
397.474	167.5
397.698	124.5
397.922	118.5
398.147	86.5
398.371	104.5
398.595	86.5
398.82	104.5
399.044	99.5
399.268	102.5
399.492	92.5
399.717	102.5
399.941	100.5
400.165	87.5
400.389	102.5
400.613	94.5
400.837	86.5
401.062	95.5
401.286	97.5
401.51	104.5
401.734	84.5
401.958	94.5
402.182	98.5
402.406	99.5
402.63	91.5
402.854	88.5
403.078	100.5
403.302	88.5
403.526	111.5
403.75	89.5
403.974	129.5
404.198	154.5
404.422	260.5
404.645	315.5
404.869	260.5
405.093	152.5
405.317	120.5
405.541	107.5
405.765	90.5
405.988	100.5
406.212	91.5
406.436	103.5
406.66	96.5
406.883	90.5
407.107	108.5
407.331	113.5
407.555	122.5
407.778	127.5
408.002	127.5
408.226	99.5
408.449	98.5
408.673	93.5
408.896	100.5
409.12	99.5
409.344	101.5
409.567	121.5
409.791	109.5
410.014	108.5
410.238	110.5
410.461	106.5
410.685	94.5
410.908	93.5
411.132	102.5
411.355	90.5
411.578	92.5
411.802	111.5
412.025	104.5
412.249	96.5
412.472	101.5
412.695	112.5
412.919	104.5
413.142	103.5
413.365	99.5
413.589	97.5
413.812	98.5
414.035	92.5
414.258	96.5
414.482	87.5
414.705	98.5
414.928	100.5
415.151	90.5
415.374	90.5
415.597	99.5
415.821	98.5
416.044	108.5
416.267	106.5
416.49	90.5
416.713	76.5
416.936	111.5
417.159	85.5
417.382	94.5
417.605	115.5
417.828	92.5
418.051	73.5
418.274	109.5
418.497	74.5
418.72	96.5
418.943	90.5
419.166	98.5
419.389	91.5
419.611	101.5
419.834	97.5
420.057	106.5
420.28	101.5
420.503	107.5
420.726	92.5
420.948	100.5
421.171	116.5
421.394	136.5
421.617	160.5
421.839	163.5
422.062	203.5
422.285	292.5
422.507	496.5
422.73	751.5
422.953	683.5
423.175	373.5
423.398	213.5
423.621	154.5
423.843	132.5
424.066	122.5
424.288	103.5
424.511	104.5
424.733	92.5
424.956	87.5
425.178	103.5
425.401	95.5
425.623	97.5
425.846	90.5
426.068	96.5
426.291	88.5
426.513	96.5
426.735	107.5
426.958	97.5
427.18	111.5
427.402	93.5
427.625	103.5
427.847	117.5
428.069	136.5
428.292	188.5
428.514	232.5
428.736	160.5
428.958	212.5
429.181	210.5
429.403	122.5
429.625	133.5
429.847	184.5
430.069	291.5
430.292	370.5
430.514	314.5
430.736	226.5
430.958	239.5
431.18	139.5
431.402	116.5
431.624	118.5
431.846	201.5
432.068	244.5
432.29	122.5
432.512	93.5
432.734	102.5
432.956	102.5
433.178	101.5
433.4	98.5
433.622	97.5
433.844	94.5
434.066	99.5
434.287	100.5
434.509	89.5
434.731	84.5
434.953	95.5
435.175	106.5
435.397	88.5
435.618	98.5
435.84	106.5
436.062	98.5
436.284	97.5
436.505	102.5
436.727	105.5
436.949	98.5
437.17	94.5
437.392	107.5
437.614	103.5
437.835	102.5
438.057	103.5
438.278	87.5
438.5	104.5
438.721	106.5
438.943	94.5
439.165	96.5
439.386	101.5
439.608	98.5
439.829	89.5
440.05	90.5
440.272	96.5
440.493	106.5
440.715	102.5
440.936	87.5
441.158	104.5
441.379	90.5
441.6	97.5
441.822	100.5
442.043	100.5
442.264	137.5
442.486	214.5
442.707	297.5
442.928	188.5
443.149	171.5
443.371	281.5
443.592	494.5
443.813	430.5
444.034	188.5
444.255	125.5
444.476	111.5
444.698	126.5
444.919	129.5
445.14	264.5
445.361	400.5
445.582	632.5
445.803	486.5
446.024	196.5
446.245	105.5
446.466	90.5
446.687	98.5
446.908	112.5
447.129	94.5
447.35	83.5
447.571	89.5
447.792	96.5
448.013	95.5
448.234	96.5
448.455	93.5
448.675	88.5
448.896	82.5
449.117	95.5
449.338	102.5
449.559	91.5
449.779	101.5
450	101.5
450.221	96.5
450.442	100.5
450.662	92.5
450.883	92.5
451.104	94.5
451.324	97.5
451.545	92.5
451.766	88.5
451.986	95.5
452.207	95.5
452.428	100.5
452.648	112.5
452.869	118.5
453.089	99.5
453.31	86.5
453.53	96.5
453.751	100.5
453.971	90.5
454.192	67.5
454.412	82.5
454.633	87.5
454.853	95.5
455.073	88.5
455.294	88.5
455.514	94.5
455.734	94.5
455.955	99.5
456.175	89.5
456.395	96.5
456.616	86.5
456.836	109.5
457.056	100.5
457.276	90.5
457.497	96.5
457.717	104.5
457.937	124.5
458.157	153.5
458.377	164.5
458.598	157.5
458.818	162.5
459.038	137.5
459.258	91.5
459.478	110.5
459.698	89.5
459.918	96.5
460.138	90.5
460.358	99.5
460.578	119.5
460.798	169.5
461.018	199.5
461.238	106.5
461.458	92.5
461.678	98.5
461.898	110.5
462.118	91.5
462.338	92.5
462.558	79.5
462.777	86.5
462.997	96.5
463.217	88.5
463.437	92.5
463.657	94.5
463.876	91.5
464.096	96.5
464.316	94.5
464.536	92.5
464.755	86.5
464.975	91.5
465.195	93.5
465.414	89.5
465.634	83.5
465.854	86.5
466.073	87.5
466.293	90.5
466.512	85.5
466.732	79.5
466.951	103.5
467.171	97.5
467.391	89.5
467.61	74.5
467.829	102.5
468.049	79.5
468.268	85.5
468.488	84.5
468.707	105.5
468.927	104.5
469.146	105.5
469.365	98.5
469.585	89.5
469.804	93.5
470.023	91.5
470.243	95.5
470.462	92.5
470.681	86.5
470.901	86.5
471.12	95.5
471.339	86.5
471.558	95.5
471.777	92.5
471.997	88.5
472.216	98.5
472.435	85.5
472.654	88.5
472.873	94.5
473.092	101.5
473.311	101.5
473.53	94.5
473.749	96.5
473.968	90.5
474.187	96.5
474.406	86.5
474.625	108.5
474.844	101.5
475.063	84.5
475.282	92.5
475.501	93.5
475.72	108.5
475.939	104.5
476.158	115.5
476.377	95.5
476.596	88.5
476.814	89.5
477.033	86.5
477.252	90.5
477.471	99.5
477.69	96.5
477.908	101.5
478.127	116.5
478.346	87.5
478.564	101.5
478.783	94.5
479.002	98.5
479.22	76.5
479.439	87.5
479.658	94.5
479.876	94.5
480.095	103.5
480.313	90.5
480.532	96.5
480.751	93.5
480.969	93.5
481.188	108.5
481.406	109.5
481.624	90.5
481.843	97.5
482.061	98.5
482.28	91.5
482.498	106.5
482.717	91.5
482.935	98.5
483.153	105.5
483.372	118.5
483.59	105.5
483.808	104.5
484.027	88.5
484.245	82.5
484.463	102.5
484.681	90.5
484.9	98.5
485.118	100.5
485.336	94.5
485.554	106.5
485.772	98.5
485.99	93.5
486.209	95.5
486.427	99.5
486.645	103.5
486.863	102.5
487.081	106.5
487.299	109.5
487.517	118.5
487.735	155.5
487.953	247.5
488.171	224.5
488.389	134.5
488.607	107.5
488.825	93.5
489.043	100.5
489.261	89.5
489.479	110.5
489.696	94.5
489.914	99.5
490.132	110.5
490.35	100.5
490.568	101.5
490.786	98.5
491.003	102.5
491.221	108.5
491.439	104.5
491.657	99.5
491.874	90.5
492.092	93.5
492.31	98.5
492.527	103.5
492.745	96.5
492.963	96.5
493.18	98.5
493.398	104.5
493.615	116.5
493.833	102.5
494.05	108.5
494.268	102.5
494.485	110.5
494.703	103.5
494.92	99.5
495.138	91.5
495.355	112.5
495.573	95.5
495.79	106.5
496.008	99.5
496.225	102.5
496.442	110.5
496.66	103.5
496.877	94.5
497.094	100.5
497.312	100.5
497.529	103.5
497.746	105.5
497.963	91.5
498.181	106.5
498.398	117.5
498.615	111.5
498.832	91.5
499.049	86.5
499.267	121.5
499.484	116.5
499.701	103.5
499.918	114.5
500.135	114.5
500.352	99.5
500.569	93.5
500.786	90.5
501.003	111.5
501.22	96.5
501.437	98.5
501.654	110.5
501.871	100.5
502.088	100.5
502.305	105.5
502.522	91.5
502.739	105.5
502.956	97.5
503.172	110.5
503.389	105.5
503.606	115.5
503.823	106.5
504.04	138.5
504.256	161.5
504.473	185.5
504.69	119.5
504.907	130.5
505.123	94.5
505.34	86.5
505.557	106.5
505.773	103.5
505.99	103.5
506.207	107.5
506.423	93.5
506.64	109.5
506.856	93.5
507.073	100.5
507.289	106.5
507.506	90.5
507.722	84.5
507.939	103.5
508.155	107.5
508.372	100.5
508.588	86.5
508.805	77.5
509.021	99.5
509.238	102.5
509.454	87.5
509.67	98.5
509.887	102.5
510.103	102.5
510.319	109.5
510.536	99.5
510.752	94.5
510.968	117.5
511.184	88.5
511.401	98.5
511.617	110.5
511.833	115.5
512.049	113.5
512.265	89.5
512.481	107.5
512.698	96.5
512.914	106.5
513.13	92.5
513.346	104.5
513.562	93.5
513.778	97.5
513.994	99.5
514.21	93.5
514.426	82.5
514.642	90.5
514.858	99.5
515.074	101.5
515.29	86.5
515.506	114.5
515.721	102.5
515.937	94.5
516.153	99.5
516.369	91.5
516.585	94.5
516.801	94.5
517.016	105.5
517.232	108.5
517.448	116.5
517.664	100.5
517.879	88.5
518.095	111.5
518.311	118.5
518.527	134.5
518.742	147.5
518.958	215.5
519.173	235.5
519.389	145.5
519.605	121.5
519.82	95.5
520.036	111.5
520.251	73.5
520.467	94.5
520.682	105.5
520.898	109.5
521.113	102.5
521.329	93.5
521.544	92.5
521.76	90.5
521.975	101.5
522.19	92.5
522.406	88.5
522.621	98.5
522.836	90.5
523.052	96.5
523.267	95.5
523.482	100.5
523.698	106.5
523.913	98.5
524.128	97.5
524.343	95.5
524.559	105.5
524.774	123.5
524.989	106.5
525.204	94.5
525.419	117.5
525.634	125.5
525.849	124.5
526.064	166.5
526.28	391.5
526.495	583.5
526.71	662.5
526.925	437.5
527.14	569.5
527.355	534.5
527.57	165.5
527.785	116.5
527.999	110.5
528.214	109.5
528.429	103.5
528.644	95.5
528.859	95.5
529.074	100.5
529.289	108.5
529.503	95.5
529.718	97.5
529.933	109.5
530.148	106.5
530.363	114.5
530.577	86.5
530.792	102.5
531.007	102.5
531.221	89.5
531.436	107.5
531.651	104.5
531.865	118.5
532.08	116.5
532.295	103.5
532.509	123.5
532.724	121.5
532.938	118.5
533.153	108.5
