Data from 2145_3_HRD10591_00016.txt Node
Date: Mon Jan 19 14:23:15 EST 2026
User: Yrep
Spectrometer: HR+D1059
Trigger mode: 1
Integration Time (sec): 1.000000E-1
Scans to average: 1
Electric dark correction enabled: true
Nonlinearity correction enabled: false
Boxcar width: 0
XAxis mode: Wavelengths
Number of Pixels in Spectrum: 2048
>>>>>Begin Spectral Data<<<<<
223.165	-1.56
223.4	-1.56
223.635	-1.56
223.869	-21.56
224.104	-29.56
224.338	-18.56
224.573	-7.56
224.808	-9.56
225.042	-6.56
225.277	-10.56
225.511	-9.56
225.746	17.44
225.98	14.44
226.215	8.44
226.449	21.44
226.683	17.44
226.918	15.44
227.152	20.44
227.387	43.44
227.621	48.44
227.856	48.44
228.09	47.44
228.324	52.44
228.559	66.44
228.793	54.44
229.027	73.44
229.262	70.44
229.496	71.44
229.73	68.44
229.964	75.44
230.199	76.44
230.433	66.44
230.667	77.44
230.901	80.44
231.136	80.44
231.37	91.44
231.604	80.44
231.838	82.44
232.072	90.44
232.306	92.44
232.541	90.44
232.775	89.44
233.009	88.44
233.243	84.44
233.477	90.44
233.711	87.44
233.945	67.44
234.179	89.44
234.413	76.44
234.647	80.44
234.881	81.44
235.115	92.44
235.349	76.44
235.583	75.44
235.817	93.44
236.051	69.44
236.285	69.44
236.519	73.44
236.753	77.44
236.987	89.44
237.221	78.44
237.455	80.44
237.689	78.44
237.922	79.44
238.156	81.44
238.39	68.44
238.624	80.44
238.858	81.44
239.091	75.44
239.325	86.44
239.559	80.44
239.793	77.44
240.027	68.44
240.26	65.44
240.494	86.44
240.728	77.44
240.961	80.44
241.195	88.44
241.429	66.44
241.662	72.44
241.896	77.44
242.13	76.44
242.363	66.44
242.597	72.44
242.83	73.44
243.064	78.44
243.298	75.44
243.531	71.44
243.765	95.44
243.998	71.44
244.232	76.44
244.465	82.44
244.699	80.44
244.932	73.44
245.166	84.44
245.399	86.44
245.633	82.44
245.866	82.44
246.099	65.44
246.333	78.44
246.566	74.44
246.8	82.44
247.033	86.44
247.266	97.44
247.5	77.44
247.733	83.44
247.966	98.44
248.2	76.44
248.433	86.44
248.666	91.44
248.899	78.44
249.133	81.44
249.366	93.44
249.599	89.44
249.832	80.44
250.066	83.44
250.299	70.44
250.532	70.44
250.765	83.44
250.998	83.44
251.231	81.44
251.465	87.44
251.698	83.44
251.931	81.44
252.164	78.44
252.397	69.44
252.63	71.44
252.863	85.44
253.096	80.44
253.329	84.44
253.562	94.44
253.795	80.44
254.028	84.44
254.261	82.44
254.494	86.44
254.727	85.44
254.96	78.44
255.193	77.44
255.426	66.44
255.659	75.44
255.892	94.44
256.124	83.44
256.357	78.44
256.59	92.44
256.823	100.44
257.056	74.44
257.289	74.44
257.521	80.44
257.754	91.44
257.987	76.44
258.22	80.44
258.452	82.44
258.685	89.44
258.918	82.44
259.151	90.44
259.383	83.44
259.616	64.44
259.849	86.44
260.081	81.44
260.314	76.44
260.547	77.44
260.779	86.44
261.012	93.44
261.244	87.44
261.477	95.44
261.71	63.44
261.942	83.44
262.175	75.44
262.407	93.44
262.64	81.44
262.872	69.44
263.105	86.44
263.337	90.44
263.57	89.44
263.802	98.44
264.035	80.44
264.267	73.44
264.499	69.44
264.732	78.44
264.964	82.44
265.197	78.44
265.429	84.44
265.661	88.44
265.894	74.44
266.126	91.44
266.358	70.44
266.591	68.44
266.823	79.44
267.055	81.44
267.287	91.44
267.52	82.44
267.752	78.44
267.984	83.44
268.216	94.44
268.448	95.44
268.681	94.44
268.913	87.44
269.145	86.44
269.377	82.44
269.609	76.44
269.841	85.44
270.073	79.44
270.306	82.44
270.538	85.44
270.77	92.44
271.002	74.44
271.234	91.44
271.466	92.44
271.698	76.44
271.93	88.44
272.162	73.44
272.394	103.44
272.626	91.44
272.858	81.44
273.09	88.44
273.322	79.44
273.553	81.44
273.785	76.44
274.017	84.44
274.249	77.44
274.481	85.44
274.713	88.44
274.945	99.44
275.176	91.44
275.408	95.44
275.64	85.44
275.872	91.44
276.104	90.44
276.335	72.44
276.567	78.44
276.799	83.44
277.031	87.44
277.262	93.44
277.494	82.44
277.726	83.44
277.957	86.44
278.189	78.44
278.421	86.44
278.652	101.44
278.884	97.44
279.115	114.44
279.347	82.44
279.579	89.44
279.81	78.44
280.042	84.44
280.273	86.44
280.505	93.44
280.736	97.44
280.968	96.44
281.199	77.44
281.431	79.44
281.662	90.44
281.894	93.44
282.125	71.44
282.356	85.44
282.588	91.44
282.819	79.44
283.051	81.44
283.282	98.44
283.513	95.44
283.745	96.44
283.976	83.44
284.207	80.44
284.439	90.44
284.67	89.44
284.901	82.44
285.132	96.44
285.364	88.44
285.595	93.44
285.826	70.44
286.057	88.44
286.288	83.44
286.52	85.44
286.751	77.44
286.982	92.44
287.213	90.44
287.444	94.44
287.675	92.44
287.906	94.44
288.138	96.44
288.369	74.44
288.6	96.44
288.831	100.44
289.062	90.44
289.293	85.44
289.524	87.44
289.755	92.44
289.986	75.44
290.217	77.44
290.448	77.44
290.679	96.44
290.91	80.44
291.141	96.44
291.371	96.44
291.602	96.44
291.833	86.44
292.064	93.44
292.295	101.44
292.526	94.44
292.757	92.44
292.987	86.44
293.218	93.44
293.449	93.44
293.68	97.44
293.91	90.44
294.141	89.44
294.372	87.44
294.603	95.44
294.833	85.44
295.064	82.44
295.295	102.44
295.525	87.44
295.756	88.44
295.987	95.44
296.217	97.44
296.448	89.44
296.679	86.44
296.909	99.44
297.14	88.44
297.37	105.44
297.601	93.44
297.831	100.44
298.062	87.44
298.292	78.44
298.523	95.44
298.753	88.44
298.984	76.44
299.214	84.44
299.445	87.44
299.675	93.44
299.905	100.44
300.136	95.44
300.366	96.44
300.597	104.44
300.827	83.44
301.057	80.44
301.288	88.44
301.518	87.44
301.748	89.44
301.979	99.44
302.209	102.44
302.439	101.44
302.669	94.44
302.9	104.44
303.13	78.44
303.36	90.44
303.59	91.44
303.82	91.44
304.051	92.44
304.281	72.44
304.511	88.44
304.741	95.44
304.971	80.44
305.201	92.44
305.431	84.44
305.661	90.44
305.891	93.44
306.121	83.44
306.352	82.44
306.582	87.44
306.812	78.44
307.042	91.44
307.272	79.44
307.502	90.44
307.731	78.44
307.961	97.44
308.191	90.44
308.421	84.44
308.651	78.44
308.881	95.44
309.111	101.44
309.341	96.44
309.571	111.44
309.8	84.44
310.03	98.44
310.26	95.44
310.49	81.44
310.72	83.44
310.949	80.44
311.179	96.44
311.409	100.44
311.639	91.44
311.868	105.44
312.098	97.44
312.328	85.44
312.557	84.44
312.787	79.44
313.017	87.44
313.246	93.44
313.476	93.44
313.706	94.44
313.935	92.44
314.165	98.44
314.394	103.44
314.624	98.44
314.853	90.44
315.083	96.44
315.312	97.44
315.542	93.44
315.771	89.44
316.001	97.44
316.23	90.44
316.46	84.44
316.689	88.44
316.919	88.44
317.148	88.44
317.377	91.44
317.607	96.44
317.836	91.44
318.065	98.44
318.295	89.44
318.524	98.44
318.753	78.44
318.983	88.44
319.212	88.44
319.441	98.44
319.67	98.44
319.9	84.44
320.129	90.44
320.358	106.44
320.587	103.44
320.816	96.44
321.046	102.44
321.275	97.44
321.504	107.44
321.733	100.44
321.962	99.44
322.191	90.44
322.42	82.44
322.649	95.44
322.878	99.44
323.108	95.44
323.337	91.44
323.566	97.44
323.795	103.44
324.024	84.44
324.253	90.44
324.482	100.44
324.71	96.44
324.939	93.44
325.168	101.44
325.397	91.44
325.626	98.44
325.855	85.44
326.084	83.44
326.313	87.44
326.542	99.44
326.77	95.44
326.999	81.44
327.228	91.44
327.457	92.44
327.686	97.44
327.914	93.44
328.143	84.44
328.372	88.44
328.6	90.44
328.829	93.44
329.058	98.44
329.287	95.44
329.515	92.44
329.744	85.44
329.972	100.44
330.201	95.44
330.43	97.44
330.658	97.44
330.887	101.44
331.115	88.44
331.344	79.44
331.572	77.44
331.801	81.44
332.03	87.44
332.258	92.44
332.486	91.44
332.715	94.44
332.943	96.44
333.172	94.44
333.4	113.44
333.629	97.44
333.857	109.44
334.085	101.44
334.314	93.44
334.542	100.44
334.771	112.44
334.999	97.44
335.227	89.44
335.455	99.44
335.684	113.44
335.912	104.44
336.14	101.44
336.369	99.44
336.597	88.44
336.825	86.44
337.053	88.44
337.281	91.44
337.51	87.44
337.738	96.44
337.966	96.44
338.194	93.44
338.422	86.44
338.65	86.44
338.878	94.44
339.106	101.44
339.334	94.44
339.562	100.44
339.79	102.44
340.018	99.44
340.246	94.44
340.474	90.44
340.702	92.44
340.93	82.44
341.158	76.44
341.386	89.44
341.614	94.44
341.842	92.44
342.07	83.44
342.298	84.44
342.526	90.44
342.754	108.44
342.981	97.44
343.209	88.44
343.437	104.44
343.665	81.44
343.893	96.44
344.12	101.44
344.348	95.44
344.576	105.44
344.804	113.44
345.031	99.44
345.259	84.44
345.487	95.44
345.714	84.44
345.942	92.44
346.17	97.44
346.397	81.44
346.625	87.44
346.853	93.44
347.08	93.44
347.308	91.44
347.535	104.44
347.763	108.44
347.99	91.44
348.218	94.44
348.445	86.44
348.673	100.44
348.9	83.44
349.128	88.44
349.355	90.44
349.583	88.44
349.81	93.44
350.037	92.44
350.265	90.44
350.492	81.44
350.72	86.44
350.947	89.44
351.174	96.44
351.402	92.44
351.629	85.44
351.856	93.44
352.083	93.44
352.311	104.44
352.538	93.44
352.765	113.44
352.992	97.44
353.22	90.44
353.447	98.44
353.674	95.44
353.901	95.44
354.128	95.44
354.355	90.44
354.583	81.44
354.81	99.44
355.037	102.44
355.264	88.44
355.491	100.44
355.718	101.44
355.945	88.44
356.172	96.44
356.399	94.44
356.626	87.44
356.853	89.44
357.08	96.44
357.307	94.44
357.534	103.44
357.761	93.44
357.988	93.44
358.215	101.44
358.441	91.44
358.668	97.44
358.895	103.44
359.122	99.44
359.349	88.44
359.576	104.44
359.802	90.44
360.029	92.44
360.256	92.44
360.483	102.44
360.709	111.44
360.936	95.44
361.163	100.44
361.39	97.44
361.616	94.44
361.843	95.44
362.07	106.44
362.296	98.44
362.523	127.44
362.749	123.44
362.976	126.44
363.203	130.44
363.429	132.44
363.656	108.44
363.882	107.44
364.109	134.44
364.335	155.44
364.562	153.44
364.788	124.44
365.015	97.44
365.241	92.44
365.468	94.44
365.694	102.44
365.92	92.44
366.147	104.44
366.373	88.44
366.599	83.44
366.826	90.44
367.052	105.44
367.278	101.44
367.505	98.44
367.731	108.44
367.957	95.44
368.184	97.44
368.41	87.44
368.636	92.44
368.862	102.44
369.089	93.44
369.315	94.44
369.541	101.44
369.767	98.44
369.993	90.44
370.219	76.44
370.445	93.44
370.672	105.44
370.898	110.44
371.124	95.44
371.35	88.44
371.576	97.44
371.802	92.44
372.028	101.44
372.254	84.44
372.48	95.44
372.706	88.44
372.932	93.44
373.158	109.44
373.384	108.44
373.61	108.44
373.835	109.44
374.061	109.44
374.287	98.44
374.513	91.44
374.739	108.44
374.965	101.44
375.191	92.44
375.416	95.44
375.642	96.44
375.868	85.44
376.094	75.44
376.319	103.44
376.545	84.44
376.771	92.44
376.997	93.44
377.222	84.44
377.448	88.44
377.674	100.44
377.899	101.44
378.125	98.44
378.35	94.44
378.576	101.44
378.802	90.44
379.027	84.44
379.253	94.44
379.478	102.44
379.704	105.44
379.929	90.44
380.155	86.44
380.38	103.44
380.606	95.44
380.831	85.44
381.057	98.44
381.282	85.44
381.507	88.44
381.733	103.44
381.958	105.44
382.184	88.44
382.409	92.44
382.634	104.44
382.86	95.44
383.085	98.44
383.31	107.44
383.535	111.44
383.761	108.44
383.986	105.44
384.211	94.44
384.436	87.44
384.662	91.44
384.887	90.44
385.112	95.44
385.337	94.44
385.562	107.44
385.787	114.44
386.013	98.44
386.238	107.44
386.463	93.44
386.688	107.44
386.913	120.44
387.138	102.44
387.363	94.44
387.588	106.44
387.813	104.44
388.038	95.44
388.263	109.44
388.488	108.44
388.713	94.44
388.938	103.44
389.163	100.44
389.387	100.44
389.612	89.44
389.837	92.44
390.062	95.44
390.287	92.44
390.512	97.44
390.736	81.44
390.961	98.44
391.186	103.44
391.411	100.44
391.636	102.44
391.86	92.44
392.085	106.44
392.31	114.44
392.534	118.44
392.759	133.44
392.984	170.44
393.208	289.44
393.433	365.44
393.658	310.44
393.882	167.44
394.107	134.44
394.331	137.44
394.556	150.44
394.78	108.44
395.005	127.44
395.229	110.44
395.454	114.44
395.678	114.44
395.903	140.44
396.127	134.44
396.352	182.44
396.576	196.44
396.801	281.44
397.025	331.44
397.249	210.44
397.474	147.44
397.698	137.44
397.922	109.44
398.147	110.44
398.371	102.44
398.595	97.44
398.82	101.44
399.044	104.44
399.268	95.44
399.492	111.44
399.717	102.44
399.941	97.44
400.165	93.44
400.389	101.44
400.613	83.44
400.837	91.44
401.062	98.44
401.286	96.44
401.51	85.44
401.734	105.44
401.958	105.44
402.182	88.44
402.406	100.44
402.63	93.44
402.854	95.44
403.078	92.44
403.302	91.44
403.526	98.44
403.75	104.44
403.974	114.44
404.198	162.44
404.422	237.44
404.645	266.44
404.869	221.44
405.093	166.44
405.317	126.44
405.541	103.44
405.765	123.44
405.988	86.44
406.212	111.44
406.436	107.44
406.66	92.44
406.883	97.44
407.107	105.44
407.331	97.44
407.555	100.44
407.778	140.44
408.002	132.44
408.226	100.44
408.449	105.44
408.673	107.44
408.896	116.44
409.12	91.44
409.344	90.44
409.567	108.44
409.791	116.44
410.014	113.44
410.238	111.44
410.461	96.44
410.685	103.44
410.908	86.44
411.132	94.44
411.355	101.44
411.578	109.44
411.802	102.44
412.025	105.44
412.249	83.44
412.472	89.44
412.695	105.44
412.919	96.44
413.142	98.44
413.365	89.44
413.589	93.44
413.812	99.44
414.035	82.44
414.258	96.44
414.482	105.44
414.705	100.44
414.928	83.44
415.151	94.44
415.374	100.44
415.597	78.44
415.821	86.44
416.044	99.44
416.267	109.44
416.49	109.44
416.713	105.44
416.936	94.44
417.159	90.44
417.382	96.44
417.605	107.44
417.828	93.44
418.051	104.44
418.274	92.44
418.497	100.44
418.72	91.44
418.943	94.44
419.166	105.44
419.389	88.44
419.611	106.44
419.834	98.44
420.057	112.44
420.28	96.44
420.503	113.44
420.726	97.44
420.948	110.44
421.171	97.44
421.394	121.44
421.617	137.44
421.839	148.44
422.062	181.44
422.285	264.44
422.507	394.44
422.73	513.44
422.953	458.44
423.175	323.44
423.398	206.44
423.621	158.44
423.843	123.44
424.066	115.44
424.288	124.44
424.511	100.44
424.733	92.44
424.956	109.44
425.178	113.44
425.401	94.44
425.623	86.44
425.846	97.44
426.068	108.44
426.291	111.44
426.513	96.44
426.735	99.44
426.958	107.44
427.18	100.44
427.402	98.44
427.625	108.44
427.847	109.44
428.069	132.44
428.292	190.44
428.514	200.44
428.736	145.44
428.958	176.44
429.181	167.44
429.403	117.44
429.625	124.44
429.847	171.44
430.069	245.44
430.292	273.44
430.514	234.44
430.736	197.44
430.958	197.44
431.18	133.44
431.402	94.44
431.624	134.44
431.846	145.44
432.068	185.44
432.29	135.44
432.512	106.44
432.734	106.44
432.956	88.44
433.178	91.44
433.4	92.44
433.622	96.44
433.844	97.44
434.066	102.44
434.287	94.44
434.509	77.44
434.731	88.44
434.953	79.44
435.175	87.44
435.397	98.44
435.618	95.44
435.84	93.44
436.062	100.44
436.284	92.44
436.505	88.44
436.727	100.44
436.949	92.44
437.17	82.44
437.392	90.44
437.614	92.44
437.835	95.44
438.057	102.44
438.278	98.44
438.5	103.44
438.721	109.44
438.943	102.44
439.165	107.44
439.386	88.44
439.608	108.44
439.829	105.44
440.05	81.44
440.272	88.44
440.493	93.44
440.715	93.44
440.936	91.44
441.158	99.44
441.379	90.44
441.6	112.44
441.822	112.44
442.043	119.44
442.264	134.44
442.486	196.44
442.707	249.44
442.928	171.44
443.149	147.44
443.371	249.44
443.592	394.44
443.813	324.44
444.034	153.44
444.255	120.44
444.476	109.44
444.698	111.44
444.919	120.44
445.14	239.44
445.361	318.44
445.582	504.44
445.803	386.44
446.024	184.44
446.245	124.44
446.466	100.44
446.687	98.44
446.908	93.44
447.129	91.44
447.35	90.44
447.571	90.44
447.792	90.44
448.013	95.44
448.234	79.44
448.455	93.44
448.675	93.44
448.896	90.44
449.117	99.44
449.338	96.44
449.559	84.44
449.779	78.44
450	83.44
450.221	76.44
450.442	98.44
450.662	87.44
450.883	92.44
451.104	91.44
451.324	83.44
451.545	111.44
451.766	80.44
451.986	92.44
452.207	86.44
452.428	79.44
452.648	100.44
452.869	102.44
453.089	96.44
453.31	95.44
453.53	103.44
453.751	110.44
453.971	89.44
454.192	88.44
454.412	87.44
454.633	83.44
454.853	102.44
455.073	92.44
455.294	89.44
455.514	94.44
455.734	83.44
455.955	92.44
456.175	80.44
456.395	101.44
456.616	91.44
456.836	92.44
457.056	96.44
457.276	91.44
457.497	92.44
457.717	108.44
457.937	130.44
458.157	146.44
458.377	149.44
458.598	168.44
458.818	166.44
459.038	134.44
459.258	108.44
459.478	96.44
459.698	98.44
459.918	93.44
460.138	96.44
460.358	103.44
460.578	122.44
460.798	159.44
461.018	160.44
461.238	112.44
461.458	99.44
461.678	94.44
461.898	87.44
462.118	86.44
462.338	80.44
462.558	86.44
462.777	87.44
462.997	88.44
463.217	84.44
463.437	82.44
463.657	84.44
463.876	68.44
464.096	97.44
464.316	100.44
464.536	88.44
464.755	91.44
464.975	102.44
465.195	92.44
465.414	80.44
465.634	94.44
465.854	94.44
466.073	98.44
466.293	96.44
466.512	85.44
466.732	80.44
466.951	100.44
467.171	92.44
467.391	79.44
467.61	107.44
467.829	100.44
468.049	92.44
468.268	92.44
468.488	104.44
468.707	92.44
468.927	95.44
469.146	92.44
469.365	102.44
469.585	108.44
469.804	100.44
470.023	82.44
470.243	90.44
470.462	88.44
470.681	95.44
470.901	96.44
471.12	88.44
471.339	96.44
471.558	89.44
471.777	90.44
471.997	90.44
472.216	90.44
472.435	99.44
472.654	84.44
472.873	84.44
473.092	96.44
473.311	88.44
473.53	88.44
473.749	86.44
473.968	98.44
474.187	87.44
474.406	88.44
474.625	78.44
474.844	102.44
475.063	95.44
475.282	107.44
475.501	87.44
475.72	89.44
475.939	89.44
476.158	104.44
476.377	91.44
476.596	95.44
476.814	95.44
477.033	100.44
477.252	117.44
477.471	94.44
477.69	111.44
477.908	84.44
478.127	102.44
478.346	100.44
478.564	85.44
478.783	89.44
479.002	86.44
479.22	85.44
479.439	89.44
479.658	90.44
479.876	82.44
480.095	100.44
480.313	81.44
480.532	95.44
480.751	96.44
480.969	104.44
481.188	103.44
481.406	109.44
481.624	92.44
481.843	82.44
482.061	107.44
482.28	99.44
482.498	103.44
482.717	95.44
482.935	95.44
483.153	105.44
483.372	97.44
483.59	88.44
483.808	88.44
484.027	91.44
484.245	96.44
484.463	94.44
484.681	104.44
484.9	98.44
485.118	93.44
485.336	83.44
485.554	91.44
485.772	83.44
485.99	114.44
486.209	84.44
486.427	96.44
486.645	100.44
486.863	111.44
487.081	104.44
487.299	105.44
487.517	118.44
487.735	153.44
487.953	209.44
488.171	207.44
488.389	135.44
488.607	98.44
488.825	107.44
489.043	106.44
489.261	88.44
489.479	96.44
489.696	109.44
489.914	98.44
490.132	86.44
490.35	111.44
490.568	90.44
490.786	94.44
491.003	84.44
491.221	112.44
491.439	90.44
491.657	93.44
491.874	93.44
492.092	98.44
492.31	94.44
492.527	103.44
492.745	100.44
492.963	110.44
493.18	105.44
493.398	110.44
493.615	95.44
493.833	100.44
494.05	101.44
494.268	94.44
494.485	109.44
494.703	94.44
494.92	111.44
495.138	108.44
495.355	93.44
495.573	100.44
495.79	109.44
496.008	103.44
496.225	96.44
496.442	110.44
496.66	94.44
496.877	87.44
497.094	109.44
497.312	94.44
497.529	97.44
497.746	85.44
497.963	91.44
498.181	99.44
498.398	121.44
498.615	112.44
498.832	86.44
499.049	100.44
499.267	88.44
499.484	91.44
499.701	94.44
499.918	88.44
500.135	105.44
500.352	97.44
500.569	92.44
500.786	93.44
501.003	102.44
501.22	104.44
501.437	108.44
501.654	112.44
501.871	116.44
502.088	108.44
502.305	103.44
502.522	97.44
502.739	109.44
502.956	109.44
503.172	97.44
503.389	91.44
503.606	109.44
503.823	118.44
504.04	126.44
504.256	160.44
504.473	153.44
504.69	128.44
504.907	113.44
505.123	112.44
505.34	103.44
505.557	96.44
505.773	95.44
505.99	96.44
506.207	87.44
506.423	99.44
506.64	97.44
506.856	91.44
507.073	101.44
507.289	90.44
507.506	79.44
507.722	95.44
507.939	90.44
508.155	94.44
508.372	92.44
508.588	109.44
508.805	105.44
509.021	95.44
509.238	90.44
509.454	105.44
509.67	93.44
509.887	97.44
510.103	108.44
510.319	87.44
510.536	110.44
510.752	94.44
510.968	101.44
511.184	92.44
511.401	99.44
511.617	81.44
511.833	114.44
512.049	112.44
512.265	111.44
512.481	114.44
512.698	95.44
512.914	106.44
513.13	96.44
513.346	96.44
513.562	104.44
513.778	101.44
513.994	96.44
514.21	90.44
514.426	100.44
514.642	98.44
