Data from 2145_3_HRD10591_00041.txt Node
Date: Mon Jan 19 14:23:27 EST 2026
User: Yrep
Spectrometer: HR+D1059
Trigger mode: 1
Integration Time (sec): 1.000000E-1
Scans to average: 1
Electric dark correction enabled: true
Nonlinearity correction enabled: false
Boxcar width: 0
XAxis mode: Wavelengths
Number of Pixels in Spectrum: 2048
>>>>>Begin Spectral Data<<<<<
223.165	-16.56
223.4	-16.56
223.635	-16.56
223.869	-21.56
224.104	-28.56
224.338	-13.56
224.573	-15.56
224.808	-13.56
225.042	-1.56
225.277	-4.56
225.511	5.44
225.746	-5.56
225.98	5.44
226.215	19.44
226.449	10.44
226.683	25.44
226.918	27.44
227.152	27.44
227.387	33.44
227.621	36.44
227.856	49.44
228.09	45.44
228.324	49.44
228.559	45.44
228.793	55.44
229.027	54.44
229.262	60.44
229.496	60.44
229.73	67.44
229.964	73.44
230.199	65.44
230.433	67.44
230.667	82.44
230.901	71.44
231.136	71.44
231.37	62.44
231.604	72.44
231.838	66.44
232.072	91.44
232.306	77.44
232.541	85.44
232.775	76.44
233.009	75.44
233.243	66.44
233.477	77.44
233.711	64.44
233.945	70.44
234.179	71.44
234.413	73.44
234.647	81.44
234.881	59.44
235.115	70.44
235.349	77.44
235.583	79.44
235.817	76.44
236.051	73.44
236.285	63.44
236.519	78.44
236.753	94.44
236.987	80.44
237.221	87.44
237.455	68.44
237.689	67.44
237.922	72.44
238.156	78.44
238.39	76.44
238.624	75.44
238.858	66.44
239.091	71.44
239.325	65.44
239.559	67.44
239.793	83.44
240.027	71.44
240.26	69.44
240.494	73.44
240.728	73.44
240.961	78.44
241.195	83.44
241.429	88.44
241.662	80.44
241.896	60.44
242.13	73.44
242.363	67.44
242.597	51.44
242.83	82.44
243.064	69.44
243.298	76.44
243.531	65.44
243.765	70.44
243.998	80.44
244.232	59.44
244.465	69.44
244.699	79.44
244.932	68.44
245.166	74.44
245.399	75.44
245.633	82.44
245.866	71.44
246.099	81.44
246.333	85.44
246.566	78.44
246.8	75.44
247.033	89.44
247.266	81.44
247.5	82.44
247.733	69.44
247.966	68.44
248.2	89.44
248.433	79.44
248.666	72.44
248.899	85.44
249.133	87.44
249.366	80.44
249.599	65.44
249.832	72.44
250.066	85.44
250.299	73.44
250.532	89.44
250.765	82.44
250.998	80.44
251.231	75.44
251.465	77.44
251.698	79.44
251.931	89.44
252.164	67.44
252.397	73.44
252.63	82.44
252.863	73.44
253.096	74.44
253.329	81.44
253.562	84.44
253.795	83.44
254.028	81.44
254.261	80.44
254.494	64.44
254.727	83.44
254.96	76.44
255.193	86.44
255.426	78.44
255.659	86.44
255.892	97.44
256.124	74.44
256.357	68.44
256.59	65.44
256.823	61.44
257.056	74.44
257.289	68.44
257.521	82.44
257.754	80.44
257.987	79.44
258.22	82.44
258.452	70.44
258.685	69.44
258.918	80.44
259.151	80.44
259.383	72.44
259.616	82.44
259.849	75.44
260.081	71.44
260.314	75.44
260.547	74.44
260.779	68.44
261.012	86.44
261.244	83.44
261.477	71.44
261.71	67.44
261.942	88.44
262.175	88.44
262.407	75.44
262.64	83.44
262.872	71.44
263.105	88.44
263.337	81.44
263.57	85.44
263.802	85.44
264.035	88.44
264.267	67.44
264.499	85.44
264.732	94.44
264.964	70.44
265.197	85.44
265.429	94.44
265.661	70.44
265.894	72.44
266.126	77.44
266.358	81.44
266.591	70.44
266.823	85.44
267.055	66.44
267.287	79.44
267.52	84.44
267.752	75.44
267.984	73.44
268.216	85.44
268.448	89.44
268.681	104.44
268.913	78.44
269.145	85.44
269.377	82.44
269.609	95.44
269.841	82.44
270.073	82.44
270.306	77.44
270.538	79.44
270.77	65.44
271.002	88.44
271.234	86.44
271.466	93.44
271.698	85.44
271.93	80.44
272.162	93.44
272.394	76.44
272.626	68.44
272.858	75.44
273.09	88.44
273.322	82.44
273.553	81.44
273.785	89.44
274.017	75.44
274.249	74.44
274.481	64.44
274.713	87.44
274.945	83.44
275.176	74.44
275.408	89.44
275.64	78.44
275.872	75.44
276.104	84.44
276.335	73.44
276.567	90.44
276.799	63.44
277.031	72.44
277.262	99.44
277.494	79.44
277.726	89.44
277.957	65.44
278.189	71.44
278.421	71.44
278.652	80.44
278.884	71.44
279.115	86.44
279.347	73.44
279.579	83.44
279.81	89.44
280.042	95.44
280.273	77.44
280.505	79.44
280.736	69.44
280.968	79.44
281.199	74.44
281.431	91.44
281.662	76.44
281.894	73.44
282.125	75.44
282.356	80.44
282.588	81.44
282.819	70.44
283.051	82.44
283.282	89.44
283.513	91.44
283.745	78.44
283.976	71.44
284.207	80.44
284.439	81.44
284.67	91.44
284.901	89.44
285.132	77.44
285.364	73.44
285.595	77.44
285.826	66.44
286.057	81.44
286.288	73.44
286.52	80.44
286.751	87.44
286.982	83.44
287.213	80.44
287.444	82.44
287.675	81.44
287.906	75.44
288.138	85.44
288.369	97.44
288.6	78.44
288.831	71.44
289.062	73.44
289.293	83.44
289.524	87.44
289.755	79.44
289.986	71.44
290.217	81.44
290.448	75.44
290.679	90.44
290.91	87.44
291.141	85.44
291.371	81.44
291.602	105.44
291.833	99.44
292.064	90.44
292.295	97.44
292.526	75.44
292.757	85.44
292.987	72.44
293.218	67.44
293.449	97.44
293.68	79.44
293.91	72.44
294.141	94.44
294.372	81.44
294.603	81.44
294.833	81.44
295.064	90.44
295.295	83.44
295.525	89.44
295.756	91.44
295.987	83.44
296.217	97.44
296.448	81.44
296.679	85.44
296.909	90.44
297.14	86.44
297.37	89.44
297.601	86.44
297.831	75.44
298.062	95.44
298.292	86.44
298.523	94.44
298.753	89.44
298.984	87.44
299.214	85.44
299.445	75.44
299.675	88.44
299.905	81.44
300.136	73.44
300.366	83.44
300.597	85.44
300.827	94.44
301.057	79.44
301.288	80.44
301.518	83.44
301.748	77.44
301.979	102.44
302.209	98.44
302.439	83.44
302.669	79.44
302.9	69.44
303.13	78.44
303.36	79.44
303.59	98.44
303.82	101.44
304.051	97.44
304.281	83.44
304.511	93.44
304.741	83.44
304.971	88.44
305.201	93.44
305.431	80.44
305.661	85.44
305.891	84.44
306.121	88.44
306.352	87.44
306.582	81.44
306.812	89.44
307.042	94.44
307.272	91.44
307.502	83.44
307.731	85.44
307.961	93.44
308.191	73.44
308.421	80.44
308.651	87.44
308.881	81.44
309.111	90.44
309.341	98.44
309.571	102.44
309.8	85.44
310.03	87.44
310.26	62.44
310.49	81.44
310.72	87.44
310.949	82.44
311.179	90.44
311.409	73.44
311.639	71.44
311.868	82.44
312.098	89.44
312.328	86.44
312.557	88.44
312.787	72.44
313.017	85.44
313.246	86.44
313.476	89.44
313.706	79.44
313.935	94.44
314.165	81.44
314.394	97.44
314.624	79.44
314.853	89.44
315.083	79.44
315.312	80.44
315.542	79.44
315.771	84.44
316.001	87.44
316.23	89.44
316.46	89.44
316.689	76.44
316.919	77.44
317.148	87.44
317.377	85.44
317.607	91.44
317.836	96.44
318.065	86.44
318.295	79.44
318.524	91.44
318.753	85.44
318.983	88.44
319.212	87.44
319.441	85.44
319.67	86.44
319.9	88.44
320.129	98.44
320.358	103.44
320.587	73.44
320.816	81.44
321.046	97.44
321.275	81.44
321.504	83.44
321.733	80.44
321.962	99.44
322.191	89.44
322.42	79.44
322.649	72.44
322.878	83.44
323.108	74.44
323.337	80.44
323.566	92.44
323.795	89.44
324.024	85.44
324.253	89.44
324.482	75.44
324.71	78.44
324.939	81.44
325.168	97.44
325.397	81.44
325.626	88.44
325.855	95.44
326.084	80.44
326.313	75.44
326.542	75.44
326.77	73.44
326.999	84.44
327.228	93.44
327.457	78.44
327.686	106.44
327.914	91.44
328.143	86.44
328.372	89.44
328.6	83.44
328.829	71.44
329.058	72.44
329.287	79.44
329.515	75.44
329.744	85.44
329.972	102.44
330.201	91.44
330.43	109.44
330.658	92.44
330.887	80.44
331.115	87.44
331.344	85.44
331.572	95.44
331.801	85.44
332.03	103.44
332.258	90.44
332.486	87.44
332.715	75.44
332.943	76.44
333.172	83.44
333.4	84.44
333.629	97.44
333.857	86.44
334.085	94.44
334.314	89.44
334.542	80.44
334.771	92.44
334.999	97.44
335.227	99.44
335.455	103.44
335.684	83.44
335.912	94.44
336.14	84.44
336.369	97.44
336.597	91.44
336.825	101.44
337.053	85.44
337.281	91.44
337.51	69.44
337.738	97.44
337.966	87.44
338.194	100.44
338.422	80.44
338.65	95.44
338.878	94.44
339.106	83.44
339.334	86.44
339.562	81.44
339.79	79.44
340.018	94.44
340.246	82.44
340.474	94.44
340.702	92.44
340.93	89.44
341.158	92.44
341.386	75.44
341.614	89.44
341.842	84.44
342.07	85.44
342.298	82.44
342.526	85.44
342.754	84.44
342.981	92.44
343.209	89.44
343.437	96.44
343.665	89.44
343.893	79.44
344.12	70.44
344.348	80.44
344.576	97.44
344.804	104.44
345.031	95.44
345.259	89.44
345.487	88.44
345.714	97.44
345.942	84.44
346.17	91.44
346.397	74.44
346.625	81.44
346.853	94.44
347.08	91.44
347.308	84.44
347.535	84.44
347.763	86.44
347.99	88.44
348.218	80.44
348.445	85.44
348.673	86.44
348.9	106.44
349.128	87.44
349.355	85.44
349.583	77.44
349.81	86.44
350.037	81.44
350.265	76.44
350.492	81.44
350.72	93.44
350.947	97.44
351.174	89.44
351.402	86.44
351.629	82.44
351.856	68.44
352.083	89.44
352.311	90.44
352.538	93.44
352.765	92.44
352.992	78.44
353.22	81.44
353.447	81.44
353.674	81.44
353.901	89.44
354.128	86.44
354.355	83.44
354.583	88.44
354.81	91.44
355.037	94.44
355.264	83.44
355.491	80.44
355.718	75.44
355.945	85.44
356.172	81.44
356.399	102.44
356.626	99.44
356.853	104.44
357.08	78.44
357.307	88.44
357.534	79.44
357.761	111.44
357.988	99.44
358.215	90.44
358.441	95.44
358.668	83.44
358.895	92.44
359.122	106.44
359.349	78.44
359.576	88.44
359.802	87.44
360.029	71.44
360.256	78.44
360.483	88.44
360.709	74.44
360.936	97.44
361.163	74.44
361.39	84.44
361.616	103.44
361.843	109.44
362.07	93.44
362.296	103.44
362.523	121.44
362.749	113.44
362.976	133.44
363.203	158.44
363.429	115.44
363.656	95.44
363.882	113.44
364.109	130.44
364.335	145.44
364.562	143.44
364.788	130.44
365.015	106.44
365.241	98.44
365.468	105.44
365.694	95.44
365.92	83.44
366.147	73.44
366.373	74.44
366.599	99.44
366.826	74.44
367.052	75.44
367.278	87.44
367.505	99.44
367.731	96.44
367.957	75.44
368.184	84.44
368.41	81.44
368.636	82.44
368.862	94.44
369.089	91.44
369.315	81.44
369.541	92.44
369.767	88.44
369.993	79.44
370.219	80.44
370.445	106.44
370.672	92.44
370.898	87.44
371.124	83.44
371.35	90.44
371.576	79.44
371.802	89.44
372.028	82.44
372.254	89.44
372.48	93.44
372.706	83.44
372.932	87.44
373.158	91.44
373.384	89.44
373.61	105.44
373.835	91.44
374.061	85.44
374.287	88.44
374.513	91.44
374.739	98.44
374.965	87.44
375.191	101.44
375.416	85.44
375.642	94.44
375.868	101.44
376.094	78.44
376.319	78.44
376.545	73.44
376.771	81.44
376.997	81.44
377.222	81.44
377.448	82.44
377.674	88.44
377.899	86.44
378.125	83.44
378.35	96.44
378.576	79.44
378.802	77.44
379.027	98.44
379.253	82.44
379.478	79.44
379.704	95.44
379.929	98.44
380.155	71.44
380.38	83.44
380.606	93.44
380.831	90.44
381.057	75.44
381.282	98.44
381.507	82.44
381.733	79.44
381.958	88.44
382.184	90.44
382.409	96.44
382.634	96.44
382.86	101.44
383.085	92.44
383.31	100.44
383.535	98.44
383.761	100.44
383.986	98.44
384.211	99.44
384.436	90.44
384.662	92.44
384.887	82.44
385.112	90.44
385.337	87.44
385.562	81.44
385.787	101.44
386.013	105.44
386.238	89.44
386.463	90.44
386.688	100.44
386.913	89.44
387.138	103.44
387.363	74.44
387.588	83.44
387.813	100.44
388.038	96.44
388.263	101.44
388.488	106.44
388.713	95.44
388.938	90.44
389.163	89.44
389.387	85.44
389.612	84.44
389.837	97.44
390.062	94.44
390.287	75.44
390.512	99.44
390.736	105.44
390.961	73.44
391.186	102.44
391.411	90.44
391.636	79.44
391.86	105.44
392.085	96.44
392.31	101.44
392.534	101.44
392.759	129.44
392.984	170.44
393.208	249.44
393.433	357.44
393.658	271.44
393.882	153.44
394.107	127.44
394.331	123.44
394.556	134.44
394.78	114.44
395.005	106.44
395.229	81.44
395.454	103.44
395.678	114.44
395.903	150.44
396.127	156.44
396.352	173.44
396.576	187.44
396.801	260.44
397.025	317.44
397.249	190.44
397.474	141.44
397.698	107.44
397.922	111.44
398.147	100.44
398.371	71.44
398.595	83.44
398.82	84.44
399.044	93.44
399.268	97.44
399.492	89.44
399.717	100.44
399.941	97.44
400.165	90.44
400.389	78.44
400.613	83.44
400.837	86.44
401.062	85.44
401.286	85.44
401.51	72.44
401.734	80.44
401.958	89.44
402.182	91.44
402.406	92.44
402.63	93.44
402.854	82.44
403.078	89.44
403.302	84.44
403.526	93.44
403.75	90.44
403.974	93.44
404.198	125.44
404.422	162.44
404.645	174.44
404.869	162.44
405.093	115.44
405.317	102.44
405.541	83.44
405.765	96.44
405.988	99.44
406.212	80.44
406.436	87.44
406.66	79.44
406.883	92.44
407.107	97.44
407.331	121.44
407.555	113.44
407.778	121.44
408.002	108.44
408.226	81.44
408.449	72.44
408.673	90.44
408.896	89.44
409.12	87.44
409.344	109.44
409.567	109.44
409.791	99.44
410.014	95.44
410.238	101.44
410.461	103.44
410.685	95.44
410.908	89.44
411.132	91.44
411.355	95.44
411.578	107.44
411.802	100.44
412.025	83.44
412.249	96.44
412.472	86.44
412.695	86.44
412.919	94.44
413.142	85.44
413.365	83.44
413.589	80.44
413.812	79.44
414.035	99.44
414.258	76.44
414.482	86.44
414.705	91.44
414.928	72.44
415.151	67.44
415.374	97.44
415.597	95.44
415.821	81.44
416.044	87.44
416.267	76.44
416.49	89.44
416.713	81.44
416.936	73.44
417.159	88.44
417.382	89.44
417.605	69.44
417.828	95.44
418.051	74.44
418.274	87.44
418.497	100.44
418.72	85.44
418.943	85.44
419.166	94.44
419.389	82.44
419.611	82.44
419.834	88.44
420.057	90.44
420.28	87.44
420.503	86.44
420.726	108.44
420.948	99.44
421.171	112.44
421.394	113.44
421.617	140.44
421.839	133.44
422.062	161.44
422.285	233.44
422.507	341.44
422.73	487.44
422.953	437.44
423.175	309.44
423.398	181.44
423.621	137.44
423.843	113.44
424.066	104.44
424.288	103.44
424.511	99.44
424.733	86.44
424.956	87.44
425.178	91.44
425.401	90.44
425.623	85.44
425.846	93.44
426.068	83.44
426.291	98.44
426.513	101.44
426.735	90.44
426.958	81.44
427.18	83.44
427.402	97.44
427.625	82.44
427.847	88.44
428.069	104.44
428.292	160.44
428.514	166.44
428.736	123.44
428.958	162.44
429.181	169.44
429.403	109.44
429.625	103.44
429.847	161.44
430.069	227.44
430.292	249.44
430.514	233.44
430.736	173.44
430.958	163.44
431.18	119.44
431.402	98.44
431.624	109.44
431.846	165.44
432.068	164.44
432.29	123.44
432.512	92.44
432.734	75.44
432.956	75.44
433.178	89.44
433.4	79.44
433.622	82.44
433.844	97.44
434.066	88.44
434.287	81.44
434.509	86.44
434.731	91.44
434.953	81.44
435.175	90.44
435.397	91.44
435.618	82.44
435.84	106.44
436.062	73.44
436.284	96.44
436.505	75.44
436.727	75.44
436.949	83.44
437.17	80.44
437.392	76.44
437.614	73.44
437.835	89.44
438.057	84.44
438.278	94.44
438.5	80.44
438.721	101.44
438.943	97.44
439.165	96.44
439.386	88.44
439.608	83.44
439.829	75.44
440.05	65.44
440.272	89.44
440.493	79.44
440.715	85.44
440.936	83.44
441.158	102.44
441.379	85.44
441.6	101.44
441.822	80.44
442.043	85.44
442.264	119.44
442.486	193.44
442.707	258.44
442.928	176.44
443.149	140.44
443.371	218.44
443.592	377.44
443.813	319.44
444.034	133.44
444.255	108.44
444.476	90.44
444.698	104.44
444.919	116.44
445.14	225.44
445.361	285.44
445.582	447.44
445.803	350.44
446.024	160.44
446.245	120.44
446.466	96.44
446.687	102.44
446.908	94.44
447.129	88.44
447.35	92.44
447.571	76.44
447.792	78.44
448.013	75.44
448.234	89.44
448.455	74.44
448.675	72.44
448.896	74.44
449.117	98.44
449.338	85.44
449.559	79.44
449.779	71.44
450	87.44
450.221	90.44
450.442	85.44
450.662	77.44
450.883	86.44
451.104	96.44
451.324	85.44
451.545	88.44
451.766	74.44
451.986	75.44
452.207	91.44
452.428	93.44
452.648	100.44
452.869	106.44
453.089	112.44
453.31	90.44
453.53	103.44
453.751	113.44
453.971	93.44
454.192	79.44
454.412	75.44
454.633	83.44
454.853	97.44
455.073	94.44
455.294	97.44
455.514	88.44
455.734	74.44
455.955	87.44
456.175	59.44
456.395	84.44
456.616	81.44
456.836	91.44
457.056	80.44
457.276	82.44
457.497	86.44
457.717	96.44
457.937	129.44
458.157	147.44
458.377	161.44
458.598	145.44
458.818	169.44
459.038	118.44
459.258	85.44
459.478	84.44
459.698	86.44
459.918	93.44
460.138	82.44
460.358	91.44
460.578	117.44
460.798	144.44
461.018	145.44
461.238	89.44
461.458	74.44
461.678	82.44
461.898	89.44
462.118	79.44
462.338	95.44
462.558	96.44
462.777	84.44
462.997	90.44
463.217	72.44
463.437	89.44
463.657	75.44
463.876	85.44
464.096	59.44
464.316	90.44
464.536	86.44
464.755	87.44
464.975	82.44
465.195	83.44
465.414	71.44
465.634	75.44
465.854	81.44
466.073	83.44
466.293	79.44
466.512	83.44
466.732	82.44
466.951	85.44
467.171	94.44
467.391	97.44
467.61	81.44
467.829	91.44
468.049	89.44
468.268	82.44
468.488	90.44
468.707	93.44
468.927	90.44
469.146	105.44
469.365	87.44
469.585	93.44
469.804	79.44
470.023	84.44
470.243	80.44
470.462	94.44
470.681	87.44
470.901	77.44
471.12	78.44
471.339	86.44
471.558	70.44
471.777	89.44
471.997	57.44
472.216	92.44
472.435	83.44
472.654	78.44
472.873	85.44
473.092	86.44
473.311	94.44
473.53	97.44
473.749	77.44
473.968	85.44
474.187	81.44
474.406	87.44
474.625	91.44
474.844	81.44
475.063	86.44
475.282	93.44
475.501	86.44
475.72	97.44
475.939	88.44
476.158	88.44
476.377	88.44
476.596	84.44
476.814	93.44
477.033	97.44
477.252	83.44
477.471	85.44
477.69	81.44
477.908	90.44
478.127	83.44
478.346	86.44
478.564	96.44
478.783	77.44
479.002	91.44
479.22	96.44
479.439	96.44
479.658	83.44
479.876	65.44
480.095	89.44
480.313	79.44
480.532	84.44
480.751	97.44
480.969	81.44
481.188	97.44
481.406	98.44
481.624	91.44
481.843	101.44
482.061	72.44
482.28	88.44
482.498	77.44
482.717	85.44
482.935	79.44
483.153	80.44
483.372	99.44
483.59	101.44
483.808	97.44
484.027	102.44
484.245	85.44
484.463	91.44
484.681	102.44
484.9	83.44
485.118	89.44
485.336	97.44
485.554	91.44
485.772	99.44
485.99	92.44
486.209	97.44
486.427	86.44
486.645	86.44
486.863	91.44
487.081	86.44
487.299	105.44
487.517	115.44
487.735	132.44
487.953	221.44
488.171	225.44
488.389	120.44
488.607	102.44
488.825	90.44
489.043	105.44
489.261	92.44
489.479	86.44
489.696	85.44
489.914	95.44
490.132	103.44
490.35	83.44
490.568	77.44
490.786	75.44
491.003	92.44
491.221	104.44
491.439	95.44
491.657	85.44
491.874	79.44
492.092	97.44
492.31	89.44
492.527	88.44
492.745	87.44
492.963	97.44
493.18	99.44
493.398	107.44
493.615	86.44
493.833	89.44
494.05	85.44
494.268	85.44
494.485	89.44
494.703	78.44
494.92	83.44
495.138	85.44
495.355	90.44
495.573	92.44
495.79	74.44
496.008	100.44
496.225	89.44
496.442	94.44
496.66	94.44
496.877	89.44
497.094	103.44
497.312	84.44
497.529	76.44
497.746	99.44
497.963	83.44
498.181	97.44
498.398	105.44
498.615	89.44
498.832	85.44
499.049	93.44
499.267	109.44
499.484	96.44
499.701	90.44
499.918	106.44
500.135	90.44
500.352	91.44
500.569	72.44
500.786	93.44
501.003	99.44
501.22	94.44
501.437	89.44
501.654	94.44
501.871	88.44
502.088	65.44
502.305	77.44
502.522	96.44
502.739	102.44
502.956	100.44
503.172	94.44
503.389	94.44
503.606	93.44
503.823	94.44
504.04	109.44
504.256	153.44
504.473	161.44
504.69	117.44
504.907	88.44
505.123	81.44
505.34	90.44
505.557	84.44
505.773	97.44
505.99	97.44
506.207	80.44
506.423	89.44
506.64	84.44
506.856	90.44
507.073	74.44
507.289	77.44
507.506	88.44
507.722	78.44
507.939	74.44
508.155	90.44
508.372	89.44
508.588	87.44
508.805	93.44
509.021	79.44
509.238	81.44
509.454	88.44
509.67	101.44
509.887	89.44
510.103	100.44
510.319	82.44
510.536	95.44
510.752	85.44
510.968	93.44
511.184	94.44
511.401	86.44
511.617	102.44
511.833	91.44
512.049	94.44
512.265	93.44
512.481	95.44
512.698	93.44
512.914	87.44
513.13	98.44
513.346	91.44
513.562	81.44
513.778	82.44
513.994	96.44
514.21	72.44
514.426	89.44
514.642	93.44
514.858	73.44
515.074	72.44
515.29	93.44
515.506	86.44
515.721	68.44
515.937	87.44
516.153	91.44
516.369	94.44
516.585	87.44
516.801	81.44
517.016	88.44
517.232	111.44
517.448	107.44
