Data from 2145_3_HRD10591_00033.txt Node
Date: Mon Jan 19 14:23:23 EST 2026
User: Yrep
Spectrometer: HR+D1059
Trigger mode: 1
Integration Time (sec): 1.000000E-1
Scans to average: 1
Electric dark correction enabled: true
Nonlinearity correction enabled: false
Boxcar width: 0
XAxis mode: Wavelengths
Number of Pixels in Spectrum: 2048
>>>>>Begin Spectral Data<<<<<
223.165	-10.5
223.4	-10.5
223.635	-10.5
223.869	-21.5
224.104	-26.5
224.338	-11.5
224.573	-21.5
224.808	-8.5
225.042	-12.5
225.277	-7.5
225.511	-12.5
225.746	8.5
225.98	8.5
226.215	3.5
226.449	19.5
226.683	19.5
226.918	30.5
227.152	42.5
227.387	38.5
227.621	38.5
227.856	50.5
228.09	46.5
228.324	54.5
228.559	66.5
228.793	75.5
229.027	72.5
229.262	68.5
229.496	67.5
229.73	78.5
229.964	74.5
230.199	79.5
230.433	65.5
230.667	74.5
230.901	79.5
231.136	99.5
231.37	77.5
231.604	79.5
231.838	76.5
232.072	91.5
232.306	73.5
232.541	83.5
232.775	89.5
233.009	87.5
233.243	75.5
233.477	85.5
233.711	59.5
233.945	68.5
234.179	85.5
234.413	80.5
234.647	83.5
234.881	86.5
235.115	79.5
235.349	71.5
235.583	91.5
235.817	81.5
236.051	78.5
236.285	77.5
236.519	76.5
236.753	85.5
236.987	73.5
237.221	79.5
237.455	83.5
237.689	68.5
237.922	73.5
238.156	85.5
238.39	78.5
238.624	75.5
238.858	71.5
239.091	84.5
239.325	71.5
239.559	91.5
239.793	71.5
240.027	79.5
240.26	85.5
240.494	87.5
240.728	74.5
240.961	86.5
241.195	85.5
241.429	86.5
241.662	70.5
241.896	82.5
242.13	63.5
242.363	64.5
242.597	63.5
242.83	77.5
243.064	78.5
243.298	92.5
243.531	82.5
243.765	83.5
243.998	68.5
244.232	77.5
244.465	87.5
244.699	75.5
244.932	81.5
245.166	76.5
245.399	77.5
245.633	73.5
245.866	69.5
246.099	66.5
246.333	81.5
246.566	89.5
246.8	76.5
247.033	83.5
247.266	85.5
247.5	73.5
247.733	86.5
247.966	79.5
248.2	68.5
248.433	68.5
248.666	74.5
248.899	83.5
249.133	85.5
249.366	90.5
249.599	67.5
249.832	54.5
250.066	81.5
250.299	71.5
250.532	85.5
250.765	70.5
250.998	86.5
251.231	78.5
251.465	83.5
251.698	81.5
251.931	85.5
252.164	76.5
252.397	75.5
252.63	87.5
252.863	78.5
253.096	79.5
253.329	75.5
253.562	79.5
253.795	81.5
254.028	93.5
254.261	89.5
254.494	79.5
254.727	83.5
254.96	95.5
255.193	79.5
255.426	68.5
255.659	85.5
255.892	82.5
256.124	77.5
256.357	73.5
256.59	70.5
256.823	80.5
257.056	77.5
257.289	77.5
257.521	87.5
257.754	76.5
257.987	83.5
258.22	95.5
258.452	81.5
258.685	98.5
258.918	83.5
259.151	82.5
259.383	75.5
259.616	99.5
259.849	80.5
260.081	91.5
260.314	92.5
260.547	76.5
260.779	73.5
261.012	76.5
261.244	83.5
261.477	96.5
261.71	79.5
261.942	77.5
262.175	73.5
262.407	82.5
262.64	83.5
262.872	78.5
263.105	94.5
263.337	82.5
263.57	93.5
263.802	80.5
264.035	74.5
264.267	85.5
264.499	96.5
264.732	82.5
264.964	86.5
265.197	86.5
265.429	96.5
265.661	87.5
265.894	89.5
266.126	94.5
266.358	75.5
266.591	76.5
266.823	79.5
267.055	86.5
267.287	90.5
267.52	91.5
267.752	97.5
267.984	87.5
268.216	89.5
268.448	92.5
268.681	103.5
268.913	89.5
269.145	69.5
269.377	73.5
269.609	97.5
269.841	67.5
270.073	82.5
270.306	85.5
270.538	81.5
270.77	77.5
271.002	96.5
271.234	84.5
271.466	105.5
271.698	87.5
271.93	91.5
272.162	87.5
272.394	87.5
272.626	98.5
272.858	91.5
273.09	81.5
273.322	89.5
273.553	85.5
273.785	80.5
274.017	77.5
274.249	89.5
274.481	83.5
274.713	103.5
274.945	89.5
275.176	86.5
275.408	90.5
275.64	88.5
275.872	73.5
276.104	99.5
276.335	93.5
276.567	83.5
276.799	79.5
277.031	71.5
277.262	90.5
277.494	87.5
277.726	96.5
277.957	89.5
278.189	77.5
278.421	93.5
278.652	85.5
278.884	94.5
279.115	85.5
279.347	88.5
279.579	78.5
279.81	91.5
280.042	81.5
280.273	77.5
280.505	89.5
280.736	88.5
280.968	87.5
281.199	81.5
281.431	100.5
281.662	94.5
281.894	79.5
282.125	85.5
282.356	101.5
282.588	94.5
282.819	77.5
283.051	89.5
283.282	85.5
283.513	99.5
283.745	91.5
283.976	74.5
284.207	93.5
284.439	100.5
284.67	83.5
284.901	80.5
285.132	97.5
285.364	98.5
285.595	95.5
285.826	83.5
286.057	80.5
286.288	76.5
286.52	90.5
286.751	87.5
286.982	92.5
287.213	87.5
287.444	83.5
287.675	85.5
287.906	93.5
288.138	98.5
288.369	107.5
288.6	99.5
288.831	92.5
289.062	83.5
289.293	87.5
289.524	89.5
289.755	87.5
289.986	97.5
290.217	91.5
290.448	79.5
290.679	101.5
290.91	93.5
291.141	89.5
291.371	69.5
291.602	95.5
291.833	87.5
292.064	90.5
292.295	82.5
292.526	85.5
292.757	90.5
292.987	89.5
293.218	71.5
293.449	88.5
293.68	89.5
293.91	95.5
294.141	88.5
294.372	85.5
294.603	81.5
294.833	91.5
295.064	86.5
295.295	88.5
295.525	84.5
295.756	93.5
295.987	83.5
296.217	100.5
296.448	87.5
296.679	78.5
296.909	94.5
297.14	107.5
297.37	89.5
297.601	82.5
297.831	92.5
298.062	100.5
298.292	71.5
298.523	88.5
298.753	99.5
298.984	97.5
299.214	89.5
299.445	96.5
299.675	95.5
299.905	105.5
300.136	93.5
300.366	97.5
300.597	88.5
300.827	100.5
301.057	103.5
301.288	89.5
301.518	87.5
301.748	96.5
301.979	108.5
302.209	93.5
302.439	85.5
302.669	85.5
302.9	79.5
303.13	95.5
303.36	86.5
303.59	97.5
303.82	94.5
304.051	85.5
304.281	82.5
304.511	95.5
304.741	93.5
304.971	86.5
305.201	97.5
305.431	88.5
305.661	85.5
305.891	91.5
306.121	104.5
306.352	89.5
306.582	91.5
306.812	96.5
307.042	77.5
307.272	79.5
307.502	86.5
307.731	89.5
307.961	91.5
308.191	113.5
308.421	104.5
308.651	105.5
308.881	109.5
309.111	106.5
309.341	121.5
309.571	117.5
309.8	87.5
310.03	90.5
310.26	80.5
310.49	96.5
310.72	86.5
310.949	97.5
311.179	83.5
311.409	88.5
311.639	92.5
311.868	91.5
312.098	83.5
312.328	83.5
312.557	99.5
312.787	89.5
313.017	80.5
313.246	95.5
313.476	89.5
313.706	93.5
313.935	86.5
314.165	105.5
314.394	88.5
314.624	85.5
314.853	95.5
315.083	91.5
315.312	99.5
315.542	94.5
315.771	99.5
316.001	97.5
316.23	80.5
316.46	88.5
316.689	90.5
316.919	98.5
317.148	94.5
317.377	106.5
317.607	98.5
317.836	94.5
318.065	93.5
318.295	102.5
318.524	85.5
318.753	79.5
318.983	106.5
319.212	88.5
319.441	92.5
319.67	93.5
319.9	82.5
320.129	87.5
320.358	96.5
320.587	81.5
320.816	86.5
321.046	88.5
321.275	93.5
321.504	91.5
321.733	98.5
321.962	91.5
322.191	90.5
322.42	93.5
322.649	105.5
322.878	92.5
323.108	101.5
323.337	106.5
323.566	94.5
323.795	101.5
324.024	103.5
324.253	96.5
324.482	87.5
324.71	77.5
324.939	100.5
325.168	88.5
325.397	87.5
325.626	105.5
325.855	94.5
326.084	87.5
326.313	98.5
326.542	80.5
326.77	87.5
326.999	85.5
327.228	73.5
327.457	84.5
327.686	83.5
327.914	97.5
328.143	90.5
328.372	105.5
328.6	95.5
328.829	89.5
329.058	89.5
329.287	88.5
329.515	94.5
329.744	101.5
329.972	90.5
330.201	91.5
330.43	113.5
330.658	87.5
330.887	89.5
331.115	82.5
331.344	94.5
331.572	84.5
331.801	91.5
332.03	85.5
332.258	94.5
332.486	95.5
332.715	91.5
332.943	99.5
333.172	87.5
333.4	85.5
333.629	100.5
333.857	107.5
334.085	97.5
334.314	102.5
334.542	92.5
334.771	95.5
334.999	105.5
335.227	100.5
335.455	97.5
335.684	98.5
335.912	105.5
336.14	106.5
336.369	97.5
336.597	96.5
336.825	83.5
337.053	103.5
337.281	100.5
337.51	95.5
337.738	97.5
337.966	94.5
338.194	85.5
338.422	88.5
338.65	83.5
338.878	93.5
339.106	92.5
339.334	87.5
339.562	89.5
339.79	107.5
340.018	104.5
340.246	93.5
340.474	97.5
340.702	99.5
340.93	84.5
341.158	104.5
341.386	101.5
341.614	91.5
341.842	90.5
342.07	99.5
342.298	93.5
342.526	94.5
342.754	101.5
342.981	89.5
343.209	75.5
343.437	95.5
343.665	101.5
343.893	97.5
344.12	115.5
344.348	97.5
344.576	119.5
344.804	110.5
345.031	113.5
345.259	99.5
345.487	93.5
345.714	101.5
345.942	100.5
346.17	89.5
346.397	90.5
346.625	99.5
346.853	97.5
347.08	99.5
347.308	90.5
347.535	90.5
347.763	94.5
347.99	92.5
348.218	87.5
348.445	90.5
348.673	99.5
348.9	98.5
349.128	108.5
349.355	89.5
349.583	97.5
349.81	106.5
350.037	103.5
350.265	101.5
350.492	99.5
350.72	100.5
350.947	91.5
351.174	95.5
351.402	85.5
351.629	79.5
351.856	80.5
352.083	92.5
352.311	99.5
352.538	93.5
352.765	98.5
352.992	101.5
353.22	96.5
353.447	86.5
353.674	97.5
353.901	91.5
354.128	107.5
354.355	94.5
354.583	85.5
354.81	99.5
355.037	102.5
355.264	93.5
355.491	86.5
355.718	91.5
355.945	78.5
356.172	110.5
356.399	89.5
356.626	99.5
356.853	102.5
357.08	106.5
357.307	92.5
357.534	93.5
357.761	105.5
357.988	102.5
358.215	102.5
358.441	105.5
358.668	93.5
358.895	99.5
359.122	95.5
359.349	95.5
359.576	105.5
359.802	89.5
360.029	111.5
360.256	95.5
360.483	81.5
360.709	91.5
360.936	102.5
361.163	103.5
361.39	101.5
361.616	98.5
361.843	101.5
362.07	97.5
362.296	117.5
362.523	106.5
362.749	142.5
362.976	157.5
363.203	144.5
363.429	130.5
363.656	119.5
363.882	117.5
364.109	134.5
364.335	153.5
364.562	140.5
364.788	127.5
365.015	105.5
365.241	107.5
365.468	96.5
365.694	91.5
365.92	99.5
366.147	104.5
366.373	103.5
366.599	99.5
366.826	108.5
367.052	100.5
367.278	90.5
367.505	103.5
367.731	96.5
367.957	98.5
368.184	79.5
368.41	91.5
368.636	94.5
368.862	106.5
369.089	99.5
369.315	85.5
369.541	86.5
369.767	100.5
369.993	79.5
370.219	87.5
370.445	112.5
370.672	102.5
370.898	99.5
371.124	89.5
371.35	85.5
371.576	97.5
371.802	105.5
372.028	108.5
372.254	92.5
372.48	90.5
372.706	100.5
372.932	101.5
373.158	101.5
373.384	112.5
373.61	115.5
373.835	115.5
374.061	105.5
374.287	99.5
374.513	113.5
374.739	104.5
374.965	115.5
375.191	121.5
375.416	96.5
375.642	109.5
375.868	103.5
376.094	108.5
376.319	95.5
376.545	110.5
376.771	83.5
376.997	106.5
377.222	82.5
377.448	89.5
377.674	94.5
377.899	92.5
378.125	82.5
378.35	101.5
378.576	94.5
378.802	84.5
379.027	91.5
379.253	92.5
379.478	94.5
379.704	97.5
379.929	94.5
380.155	86.5
380.38	89.5
380.606	88.5
380.831	92.5
381.057	102.5
381.282	105.5
381.507	93.5
381.733	98.5
381.958	110.5
382.184	106.5
382.409	109.5
382.634	109.5
382.86	96.5
383.085	95.5
383.31	107.5
383.535	114.5
383.761	101.5
383.986	102.5
384.211	89.5
384.436	96.5
384.662	100.5
384.887	98.5
385.112	89.5
385.337	95.5
385.562	98.5
385.787	97.5
386.013	106.5
386.238	95.5
386.463	105.5
386.688	122.5
386.913	80.5
387.138	93.5
387.363	97.5
387.588	105.5
387.813	100.5
388.038	101.5
388.263	105.5
388.488	111.5
388.713	111.5
388.938	102.5
389.163	116.5
389.387	92.5
389.612	96.5
389.837	105.5
390.062	125.5
390.287	101.5
390.512	105.5
390.736	96.5
390.961	108.5
391.186	100.5
391.411	82.5
391.636	97.5
391.86	97.5
392.085	106.5
392.31	104.5
392.534	115.5
392.759	132.5
392.984	217.5
393.208	374.5
393.433	520.5
393.658	388.5
393.882	198.5
394.107	145.5
394.331	157.5
394.556	174.5
394.78	132.5
395.005	102.5
395.229	106.5
395.454	120.5
395.678	132.5
395.903	163.5
396.127	213.5
396.352	263.5
396.576	269.5
396.801	382.5
397.025	433.5
397.249	227.5
397.474	151.5
397.698	130.5
397.922	120.5
398.147	117.5
398.371	106.5
398.595	104.5
398.82	93.5
399.044	91.5
399.268	104.5
399.492	96.5
399.717	110.5
399.941	115.5
400.165	93.5
400.389	93.5
400.613	95.5
400.837	93.5
401.062	105.5
401.286	94.5
401.51	95.5
401.734	86.5
401.958	79.5
402.182	101.5
402.406	91.5
402.63	111.5
402.854	104.5
403.078	113.5
403.302	118.5
403.526	98.5
403.75	118.5
403.974	138.5
404.198	212.5
404.422	347.5
404.645	419.5
404.869	349.5
405.093	217.5
405.317	125.5
405.541	111.5
405.765	110.5
405.988	92.5
406.212	101.5
406.436	101.5
406.66	98.5
406.883	95.5
407.107	90.5
407.331	105.5
407.555	107.5
407.778	121.5
408.002	138.5
408.226	93.5
408.449	101.5
408.673	102.5
408.896	109.5
409.12	105.5
409.344	99.5
409.567	101.5
409.791	106.5
410.014	129.5
410.238	109.5
410.461	111.5
410.685	100.5
410.908	94.5
411.132	87.5
411.355	98.5
411.578	95.5
411.802	91.5
412.025	101.5
412.249	88.5
412.472	80.5
412.695	94.5
412.919	93.5
413.142	99.5
413.365	81.5
413.589	84.5
413.812	94.5
414.035	99.5
414.258	85.5
414.482	94.5
414.705	90.5
414.928	88.5
415.151	103.5
415.374	81.5
415.597	88.5
415.821	86.5
416.044	106.5
416.267	103.5
416.49	93.5
416.713	108.5
416.936	93.5
417.159	78.5
417.382	99.5
417.605	101.5
417.828	97.5
418.051	87.5
418.274	92.5
418.497	93.5
418.72	92.5
418.943	104.5
419.166	120.5
419.389	107.5
419.611	89.5
419.834	93.5
420.057	103.5
420.28	107.5
420.503	113.5
420.726	101.5
420.948	99.5
421.171	116.5
421.394	135.5
421.617	162.5
421.839	175.5
422.062	196.5
422.285	300.5
422.507	540.5
422.73	784.5
422.953	725.5
423.175	386.5
423.398	213.5
423.621	158.5
423.843	140.5
424.066	118.5
424.288	118.5
424.511	119.5
424.733	114.5
424.956	115.5
425.178	98.5
425.401	102.5
425.623	90.5
425.846	99.5
426.068	113.5
426.291	105.5
426.513	111.5
426.735	90.5
426.958	95.5
427.18	99.5
427.402	101.5
427.625	107.5
427.847	121.5
428.069	129.5
428.292	207.5
428.514	238.5
428.736	169.5
428.958	208.5
429.181	231.5
429.403	128.5
429.625	136.5
429.847	211.5
430.069	302.5
430.292	366.5
430.514	333.5
430.736	238.5
430.958	236.5
431.18	144.5
431.402	126.5
431.624	146.5
431.846	204.5
432.068	222.5
432.29	123.5
432.512	95.5
432.734	99.5
432.956	105.5
433.178	89.5
433.4	99.5
433.622	95.5
433.844	98.5
434.066	95.5
434.287	91.5
434.509	95.5
434.731	101.5
434.953	99.5
435.175	94.5
435.397	107.5
435.618	105.5
435.84	104.5
436.062	96.5
436.284	89.5
436.505	93.5
436.727	92.5
436.949	111.5
437.17	79.5
437.392	91.5
437.614	92.5
437.835	95.5
438.057	83.5
438.278	89.5
438.5	100.5
438.721	85.5
438.943	102.5
439.165	95.5
439.386	88.5
439.608	91.5
439.829	98.5
440.05	71.5
440.272	89.5
440.493	99.5
440.715	89.5
440.936	97.5
441.158	106.5
441.379	84.5
441.6	98.5
441.822	118.5
442.043	117.5
442.264	127.5
442.486	222.5
442.707	310.5
442.928	209.5
443.149	171.5
443.371	313.5
443.592	537.5
443.813	421.5
444.034	192.5
444.255	130.5
444.476	121.5
444.698	114.5
444.919	124.5
445.14	264.5
445.361	409.5
445.582	665.5
445.803	509.5
446.024	217.5
446.245	132.5
446.466	101.5
446.687	109.5
446.908	101.5
447.129	97.5
447.35	108.5
447.571	108.5
447.792	85.5
448.013	88.5
448.234	93.5
448.455	104.5
448.675	99.5
448.896	90.5
449.117	91.5
449.338	95.5
449.559	101.5
449.779	110.5
450	92.5
450.221	101.5
450.442	101.5
450.662	97.5
450.883	97.5
451.104	100.5
451.324	90.5
451.545	83.5
451.766	108.5
451.986	110.5
452.207	90.5
452.428	82.5
452.648	108.5
452.869	101.5
453.089	105.5
453.31	104.5
453.53	114.5
453.751	104.5
453.971	101.5
454.192	94.5
454.412	97.5
454.633	101.5
454.853	94.5
455.073	93.5
455.294	100.5
455.514	94.5
455.734	98.5
455.955	88.5
456.175	91.5
456.395	95.5
456.616	94.5
456.836	93.5
457.056	107.5
457.276	94.5
457.497	101.5
457.717	118.5
457.937	125.5
458.157	141.5
458.377	146.5
458.598	158.5
458.818	155.5
459.038	133.5
459.258	97.5
459.478	102.5
459.698	107.5
459.918	93.5
460.138	101.5
460.358	111.5
460.578	125.5
460.798	197.5
461.018	167.5
461.238	102.5
461.458	87.5
461.678	92.5
461.898	99.5
462.118	102.5
462.338	95.5
462.558	93.5
462.777	89.5
462.997	90.5
463.217	108.5
463.437	101.5
463.657	106.5
463.876	94.5
464.096	87.5
464.316	82.5
464.536	104.5
464.755	100.5
464.975	87.5
465.195	94.5
465.414	117.5
465.634	98.5
465.854	97.5
466.073	98.5
466.293	98.5
466.512	86.5
466.732	94.5
466.951	99.5
467.171	94.5
467.391	101.5
467.61	87.5
467.829	87.5
468.049	91.5
468.268	94.5
468.488	92.5
468.707	97.5
468.927	104.5
469.146	93.5
469.365	109.5
469.585	100.5
469.804	108.5
470.023	86.5
470.243	78.5
470.462	81.5
470.681	88.5
470.901	93.5
471.12	103.5
471.339	97.5
471.558	100.5
471.777	95.5
471.997	111.5
472.216	98.5
472.435	94.5
472.654	97.5
472.873	94.5
473.092	99.5
473.311	96.5
473.53	85.5
473.749	94.5
473.968	93.5
474.187	96.5
474.406	89.5
474.625	105.5
474.844	89.5
475.063	101.5
475.282	101.5
475.501	88.5
475.72	100.5
475.939	97.5
476.158	91.5
476.377	95.5
476.596	101.5
476.814	99.5
477.033	95.5
477.252	86.5
477.471	103.5
477.69	115.5
477.908	99.5
478.127	100.5
478.346	91.5
478.564	101.5
478.783	100.5
479.002	93.5
479.22	97.5
479.439	102.5
479.658	105.5
479.876	97.5
480.095	93.5
480.313	101.5
480.532	103.5
480.751	102.5
480.969	99.5
481.188	106.5
481.406	109.5
481.624	98.5
481.843	95.5
482.061	86.5
482.28	83.5
482.498	100.5
482.717	124.5
482.935	107.5
483.153	107.5
483.372	89.5
483.59	97.5
483.808	111.5
484.027	106.5
484.245	102.5
484.463	97.5
484.681	96.5
484.9	98.5
485.118	104.5
485.336	91.5
485.554	85.5
485.772	96.5
485.99	92.5
486.209	105.5
486.427	89.5
486.645	88.5
486.863	92.5
487.081	106.5
487.299	121.5
487.517	109.5
487.735	146.5
487.953	197.5
488.171	197.5
488.389	130.5
488.607	119.5
488.825	97.5
489.043	112.5
489.261	106.5
489.479	98.5
489.696	99.5
489.914	96.5
490.132	103.5
490.35	91.5
490.568	99.5
490.786	101.5
491.003	106.5
491.221	97.5
491.439	101.5
491.657	106.5
491.874	101.5
492.092	102.5
492.31	99.5
492.527	104.5
492.745	108.5
492.963	100.5
493.18	109.5
493.398	108.5
493.615	97.5
493.833	95.5
494.05	103.5
494.268	95.5
494.485	109.5
494.703	98.5
494.92	91.5
495.138	95.5
495.355	117.5
495.573	109.5
495.79	95.5
496.008	113.5
496.225	113.5
496.442	91.5
496.66	101.5
496.877	94.5
497.094	103.5
497.312	109.5
497.529	91.5
497.746	89.5
497.963	117.5
498.181	109.5
498.398	91.5
498.615	114.5
498.832	102.5
499.049	110.5
499.267	116.5
499.484	105.5
499.701	95.5
499.918	97.5
500.135	99.5
500.352	99.5
500.569	99.5
500.786	117.5
501.003	114.5
501.22	104.5
501.437	98.5
501.654	101.5
501.871	101.5
502.088	103.5
502.305	114.5
502.522	110.5
502.739	107.5
502.956	108.5
503.172	96.5
503.389	109.5
503.606	100.5
503.823	108.5
504.04	121.5
504.256	162.5
504.473	165.5
504.69	113.5
504.907	116.5
505.123	103.5
505.34	109.5
505.557	109.5
505.773	117.5
505.99	107.5
506.207	96.5
506.423	106.5
506.64	102.5
506.856	105.5
507.073	115.5
507.289	111.5
507.506	107.5
507.722	89.5
507.939	96.5
508.155	100.5
508.372	92.5
508.588	91.5
508.805	97.5
509.021	117.5
509.238	98.5
509.454	92.5
509.67	107.5
509.887	97.5
510.103	112.5
510.319	108.5
510.536	106.5
510.752	110.5
510.968	99.5
511.184	122.5
511.401	117.5
511.617	105.5
511.833	105.5
512.049	101.5
512.265	94.5
512.481	107.5
512.698	100.5
512.914	113.5
513.13	82.5
513.346	103.5
513.562	101.5
513.778	121.5
513.994	102.5
514.21	91.5
514.426	102.5
514.642	94.5
514.858	105.5
515.074	97.5
515.29	116.5
515.506	83.5
515.721	100.5
515.937	103.5
516.153	78.5
516.369	89.5
516.585	104.5
516.801	113.5
517.016	101.5
517.232	106.5
517.448	125.5
517.664	103.5
517.879	95.5
518.095	120.5
518.311	119.5
518.527	129.5
518.742	153.5
518.958	184.5
519.173	199.5
519.389	138.5
519.605	113.5
519.82	110.5
520.036	105.5
520.251	110.5
520.467	97.5
520.682	99.5
520.898	97.5
521.113	113.5
521.329	102.5
521.544	96.5
521.76	119.5
521.975	106.5
522.19	98.5
522.406	109.5
522.621	106.5
522.836	107.5
523.052	110.5
523.267	99.5
523.482	105.5
523.698	101.5
523.913	105.5
524.128	121.5
524.343	103.5
524.559	105.5
524.774	103.5
524.989	113.5
525.204	103.5
525.419	106.5
525.634	104.5
525.849	127.5
526.064	167.5
526.28	360.5
526.495	560.5
526.71	637.5
526.925	417.5
527.14	547.5
527.355	521.5
527.57	170.5
527.785	110.5
527.999	93.5
528.214	109.5
528.429	116.5
528.644	103.5
528.859	113.5
529.074	103.5
529.289	97.5
529.503	91.5
529.718	92.5
529.933	95.5
530.148	106.5
530.363	101.5
530.577	99.5
530.792	114.5
531.007	90.5
531.221	115.5
531.436	98.5
531.651	105.5
531.865	108.5
532.08	97.5
532.295	114.5
532.509	105.5
