Data from Circ_1989_H10_HRD10591_00079.txt Node
Date: Wed Jan 03 12:01:37 EST 2024
User: Yrep
Spectrometer: HR+D1059
Trigger mode: 1
Integration Time (sec): 1.000000E-1
Scans to average: 1
Electric dark correction enabled: true
Nonlinearity correction enabled: false
Boxcar width: 0
XAxis mode: Wavelengths
Number of Pixels in Spectrum: 2048
>>>>>Begin Spectral Data<<<<<
223.165	-7.88
223.4	-7.88
223.635	-7.88
223.869	-22.88
224.104	-10.88
224.338	-20.88
224.573	-24.88
224.808	-24.88
225.042	-2.88
225.277	-14.88
225.511	-1.88
225.746	6.12
225.98	15.12
226.215	14.12
226.449	8.12
226.683	25.12
226.918	26.12
227.152	37.12
227.387	37.12
227.621	42.12
227.856	45.12
228.09	47.12
228.324	48.12
228.559	58.12
228.793	55.12
229.027	54.12
229.262	56.12
229.496	68.12
229.73	69.12
229.964	86.12
230.199	89.12
230.433	70.12
230.667	83.12
230.901	65.12
231.136	65.12
231.37	79.12
231.604	80.12
231.838	92.12
232.072	87.12
232.306	85.12
232.541	83.12
232.775	83.12
233.009	81.12
233.243	80.12
233.477	75.12
233.711	88.12
233.945	70.12
234.179	77.12
234.413	96.12
234.647	73.12
234.881	93.12
235.115	59.12
235.349	73.12
235.583	79.12
235.817	68.12
236.051	85.12
236.285	87.12
236.519	68.12
236.753	78.12
236.987	80.12
237.221	70.12
237.455	79.12
237.689	77.12
237.922	81.12
238.156	75.12
238.39	88.12
238.624	69.12
238.858	73.12
239.091	84.12
239.325	79.12
239.559	71.12
239.793	79.12
240.027	81.12
240.26	83.12
240.494	75.12
240.728	80.12
240.961	67.12
241.195	69.12
241.429	79.12
241.662	65.12
241.896	79.12
242.13	75.12
242.363	82.12
242.597	81.12
242.83	72.12
243.064	65.12
243.298	96.12
243.531	76.12
243.765	88.12
243.998	83.12
244.232	77.12
244.465	76.12
244.699	76.12
244.932	81.12
245.166	67.12
245.399	87.12
245.633	77.12
245.866	88.12
246.099	81.12
246.333	69.12
246.566	75.12
246.8	79.12
247.033	77.12
247.266	83.12
247.5	84.12
247.733	85.12
247.966	70.12
248.2	95.12
248.433	81.12
248.666	86.12
248.899	73.12
249.133	97.12
249.366	83.12
249.599	100.12
249.832	84.12
250.066	84.12
250.299	84.12
250.532	90.12
250.765	76.12
250.998	88.12
251.231	73.12
251.465	79.12
251.698	83.12
251.931	83.12
252.164	84.12
252.397	76.12
252.63	79.12
252.863	83.12
253.096	88.12
253.329	70.12
253.562	69.12
253.795	83.12
254.028	77.12
254.261	76.12
254.494	83.12
254.727	82.12
254.96	85.12
255.193	80.12
255.426	56.12
255.659	89.12
255.892	100.12
256.124	96.12
256.357	82.12
256.59	70.12
256.823	84.12
257.056	86.12
257.289	72.12
257.521	87.12
257.754	75.12
257.987	83.12
258.22	79.12
258.452	84.12
258.685	96.12
258.918	82.12
259.151	85.12
259.383	79.12
259.616	87.12
259.849	80.12
260.081	89.12
260.314	68.12
260.547	90.12
260.779	97.12
261.012	93.12
261.244	87.12
261.477	94.12
261.71	94.12
261.942	101.12
262.175	108.12
262.407	79.12
262.64	94.12
262.872	103.12
263.105	96.12
263.337	91.12
263.57	75.12
263.802	90.12
264.035	78.12
264.267	64.12
264.499	90.12
264.732	75.12
264.964	76.12
265.197	81.12
265.429	91.12
265.661	89.12
265.894	86.12
266.126	102.12
266.358	83.12
266.591	97.12
266.823	88.12
267.055	92.12
267.287	83.12
267.52	89.12
267.752	79.12
267.984	82.12
268.216	70.12
268.448	88.12
268.681	84.12
268.913	94.12
269.145	91.12
269.377	85.12
269.609	101.12
269.841	89.12
270.073	92.12
270.306	100.12
270.538	81.12
270.77	88.12
271.002	91.12
271.234	81.12
271.466	95.12
271.698	95.12
271.93	80.12
272.162	93.12
272.394	83.12
272.626	85.12
272.858	78.12
273.09	75.12
273.322	77.12
273.553	84.12
273.785	89.12
274.017	78.12
274.249	90.12
274.481	83.12
274.713	93.12
274.945	84.12
275.176	81.12
275.408	100.12
275.64	101.12
275.872	100.12
276.104	87.12
276.335	89.12
276.567	104.12
276.799	112.12
277.031	109.12
277.262	135.12
277.494	89.12
277.726	95.12
277.957	86.12
278.189	85.12
278.421	91.12
278.652	88.12
278.884	83.12
279.115	97.12
279.347	96.12
279.579	91.12
279.81	109.12
280.042	112.12
280.273	156.12
280.505	90.12
280.736	99.12
280.968	73.12
281.199	91.12
281.431	86.12
281.662	87.12
281.894	92.12
282.125	102.12
282.356	118.12
282.588	132.12
282.819	109.12
283.051	95.12
283.282	78.12
283.513	98.12
283.745	99.12
283.976	79.12
284.207	77.12
284.439	92.12
284.67	97.12
284.901	92.12
285.132	97.12
285.364	87.12
285.595	80.12
285.826	89.12
286.057	99.12
286.288	76.12
286.52	100.12
286.751	76.12
286.982	95.12
287.213	89.12
287.444	75.12
287.675	91.12
287.906	89.12
288.138	85.12
288.369	94.12
288.6	97.12
288.831	80.12
289.062	70.12
289.293	87.12
289.524	90.12
289.755	77.12
289.986	79.12
290.217	78.12
290.448	81.12
290.679	87.12
290.91	85.12
291.141	79.12
291.371	87.12
291.602	88.12
291.833	101.12
292.064	92.12
292.295	92.12
292.526	78.12
292.757	80.12
292.987	86.12
293.218	85.12
293.449	92.12
293.68	88.12
293.91	70.12
294.141	90.12
294.372	86.12
294.603	88.12
294.833	95.12
295.064	97.12
295.295	92.12
295.525	80.12
295.756	86.12
295.987	112.12
296.217	126.12
296.448	95.12
296.679	77.12
296.909	89.12
297.14	87.12
297.37	99.12
297.601	91.12
297.831	96.12
298.062	91.12
298.292	92.12
298.523	82.12
298.753	68.12
298.984	96.12
299.214	97.12
299.445	110.12
299.675	83.12
299.905	92.12
300.136	100.12
300.366	101.12
300.597	109.12
300.827	105.12
301.057	104.12
301.288	108.12
301.518	95.12
301.748	98.12
301.979	89.12
302.209	95.12
302.439	88.12
302.669	83.12
302.9	98.12
303.13	99.12
303.36	91.12
303.59	124.12
303.82	119.12
304.051	87.12
304.281	76.12
304.511	80.12
304.741	98.12
304.971	93.12
305.201	92.12
305.431	91.12
305.661	80.12
305.891	95.12
306.121	102.12
306.352	97.12
306.582	111.12
306.812	105.12
307.042	118.12
307.272	116.12
307.502	140.12
307.731	135.12
307.961	103.12
308.191	94.12
308.421	81.12
308.651	104.12
308.881	87.12
309.111	88.12
309.341	91.12
309.571	101.12
309.8	104.12
310.03	94.12
310.26	94.12
310.49	98.12
310.72	95.12
310.949	106.12
311.179	83.12
311.409	94.12
311.639	89.12
311.868	85.12
312.098	102.12
312.328	99.12
312.557	104.12
312.787	103.12
313.017	106.12
313.246	78.12
313.476	92.12
313.706	87.12
313.935	92.12
314.165	99.12
314.394	102.12
314.624	97.12
314.853	91.12
315.083	90.12
315.312	97.12
315.542	78.12
315.771	102.12
316.001	84.12
316.23	72.12
316.46	86.12
316.689	100.12
316.919	84.12
317.148	92.12
317.377	91.12
317.607	93.12
317.836	89.12
318.065	84.12
318.295	92.12
318.524	89.12
318.753	102.12
318.983	105.12
319.212	105.12
319.441	101.12
319.67	104.12
319.9	89.12
320.129	89.12
320.358	100.12
320.587	101.12
320.816	105.12
321.046	96.12
321.275	104.12
321.504	90.12
321.733	95.12
321.962	96.12
322.191	99.12
322.42	96.12
322.649	92.12
322.878	105.12
323.108	103.12
323.337	125.12
323.566	126.12
323.795	150.12
324.024	192.12
324.253	361.12
324.482	751.12
324.71	1561.12
324.939	2130.12
325.168	787.12
325.397	230.12
325.626	139.12
325.855	117.12
326.084	120.12
326.313	132.12
326.542	157.12
326.77	208.12
326.999	423.12
327.228	881.12
327.457	1641.12
327.686	1364.12
327.914	398.12
328.143	309.12
328.372	328.12
328.6	231.12
328.829	142.12
329.058	141.12
329.287	128.12
329.515	135.12
329.744	161.12
329.972	269.12
330.201	489.12
330.43	693.12
330.658	331.12
330.887	182.12
331.115	141.12
331.344	118.12
331.572	102.12
331.801	110.12
332.03	118.12
332.258	98.12
332.486	101.12
332.715	98.12
332.943	101.12
333.172	109.12
333.4	111.12
333.629	129.12
333.857	165.12
334.085	245.12
334.314	474.12
334.542	874.12
334.771	835.12
334.999	245.12
335.227	124.12
335.455	115.12
335.684	122.12
335.912	99.12
336.14	83.12
336.369	95.12
336.597	91.12
336.825	113.12
337.053	95.12
337.281	98.12
337.51	100.12
337.738	82.12
337.966	88.12
338.194	92.12
338.422	105.12
338.65	91.12
338.878	93.12
339.106	77.12
339.334	91.12
339.562	96.12
339.79	78.12
340.018	92.12
340.246	79.12
340.474	82.12
340.702	98.12
340.93	86.12
341.158	95.12
341.386	88.12
341.614	94.12
341.842	103.12
342.07	93.12
342.298	91.12
342.526	76.12
342.754	94.12
342.981	89.12
343.209	104.12
343.437	118.12
343.665	85.12
343.893	94.12
344.12	89.12
344.348	102.12
344.576	85.12
344.804	88.12
345.031	102.12
345.259	95.12
345.487	93.12
345.714	88.12
345.942	95.12
346.17	84.12
346.397	78.12
346.625	87.12
346.853	104.12
347.08	98.12
347.308	103.12
347.535	89.12
347.763	96.12
347.99	101.12
348.218	92.12
348.445	112.12
348.673	94.12
348.9	75.12
349.128	85.12
349.355	86.12
349.583	94.12
349.81	90.12
350.037	101.12
350.265	95.12
350.492	99.12
350.72	99.12
350.947	106.12
351.174	112.12
351.402	102.12
351.629	93.12
351.856	93.12
352.083	102.12
352.311	110.12
352.538	98.12
352.765	109.12
352.992	115.12
353.22	109.12
353.447	108.12
353.674	98.12
353.901	89.12
354.128	102.12
354.355	77.12
354.583	102.12
354.81	93.12
355.037	92.12
355.264	102.12
355.491	80.12
355.718	90.12
355.945	93.12
356.172	87.12
356.399	95.12
356.626	102.12
356.853	76.12
357.08	89.12
357.307	92.12
357.534	93.12
357.761	95.12
357.988	112.12
358.215	89.12
358.441	79.12
358.668	85.12
358.895	88.12
359.122	80.12
359.349	92.12
359.576	94.12
359.802	92.12
360.029	112.12
360.256	104.12
360.483	98.12
360.709	80.12
360.936	85.12
361.163	88.12
361.39	103.12
361.616	96.12
361.843	97.12
362.07	92.12
362.296	78.12
362.523	85.12
362.749	103.12
362.976	84.12
363.203	97.12
363.429	88.12
363.656	87.12
363.882	78.12
364.109	94.12
364.335	91.12
364.562	83.12
364.788	91.12
365.015	98.12
365.241	94.12
365.468	90.12
365.694	99.12
365.92	85.12
366.147	93.12
366.373	79.12
366.599	77.12
366.826	95.12
367.052	96.12
367.278	86.12
367.505	88.12
367.731	102.12
367.957	88.12
368.184	87.12
368.41	91.12
368.636	106.12
368.862	109.12
369.089	113.12
369.315	90.12
369.541	95.12
369.767	92.12
369.993	86.12
370.219	86.12
370.445	77.12
370.672	87.12
370.898	91.12
371.124	91.12
371.35	81.12
371.576	77.12
371.802	93.12
372.028	81.12
372.254	88.12
372.48	92.12
372.706	89.12
372.932	92.12
373.158	81.12
373.384	96.12
373.61	83.12
373.835	81.12
374.061	96.12
374.287	89.12
374.513	91.12
374.739	85.12
374.965	92.12
375.191	84.12
375.416	93.12
375.642	95.12
375.868	95.12
376.094	88.12
376.319	99.12
376.545	75.12
376.771	91.12
376.997	88.12
377.222	89.12
377.448	85.12
377.674	97.12
377.899	104.12
378.125	87.12
378.35	94.12
378.576	98.12
378.802	84.12
379.027	105.12
379.253	91.12
379.478	82.12
379.704	74.12
379.929	102.12
380.155	101.12
380.38	88.12
380.606	102.12
380.831	85.12
381.057	94.12
381.282	93.12
381.507	92.12
381.733	72.12
381.958	85.12
382.184	94.12
382.409	92.12
382.634	109.12
382.86	98.12
383.085	116.12
383.31	86.12
383.535	91.12
383.761	102.12
383.986	104.12
384.211	91.12
384.436	85.12
384.662	91.12
384.887	97.12
385.112	111.12
385.337	113.12
385.562	120.12
385.787	94.12
386.013	95.12
386.238	111.12
386.463	95.12
386.688	112.12
386.913	104.12
387.138	84.12
387.363	93.12
387.588	103.12
387.813	91.12
388.038	87.12
388.263	95.12
388.488	100.12
388.713	101.12
388.938	86.12
389.163	109.12
389.387	91.12
389.612	91.12
389.837	89.12
390.062	84.12
390.287	77.12
390.512	93.12
390.736	98.12
390.961	86.12
391.186	91.12
391.411	85.12
391.636	88.12
391.86	91.12
392.085	81.12
392.31	101.12
392.534	86.12
392.759	79.12
392.984	83.12
393.208	84.12
393.433	81.12
393.658	83.12
393.882	81.12
394.107	93.12
394.331	84.12
394.556	88.12
394.78	101.12
395.005	79.12
395.229	87.12
395.454	87.12
395.678	102.12
395.903	72.12
396.127	89.12
396.352	85.12
396.576	81.12
396.801	83.12
397.025	90.12
397.249	92.12
397.474	76.12
397.698	88.12
397.922	93.12
398.147	89.12
398.371	85.12
398.595	103.12
398.82	95.12
399.044	79.12
399.268	80.12
399.492	88.12
399.717	87.12
399.941	92.12
400.165	88.12
400.389	85.12
400.613	98.12
400.837	87.12
401.062	90.12
401.286	87.12
401.51	93.12
401.734	85.12
401.958	96.12
402.182	111.12
402.406	130.12
402.63	108.12
402.854	89.12
403.078	97.12
403.302	77.12
403.526	76.12
403.75	73.12
403.974	69.12
404.198	72.12
404.422	93.12
404.645	89.12
404.869	97.12
405.093	95.12
405.317	125.12
405.541	112.12
405.765	108.12
405.988	105.12
406.212	149.12
406.436	185.12
406.66	144.12
406.883	100.12
407.107	100.12
407.331	110.12
407.555	87.12
407.778	96.12
408.002	94.12
408.226	92.12
408.449	87.12
408.673	81.12
408.896	96.12
409.12	91.12
409.344	91.12
409.567	106.12
409.791	82.12
410.014	89.12
410.238	117.12
410.461	85.12
410.685	101.12
410.908	93.12
411.132	100.12
411.355	111.12
411.578	99.12
411.802	96.12
412.025	85.12
412.249	86.12
412.472	100.12
412.695	124.12
412.919	96.12
413.142	87.12
413.365	83.12
413.589	89.12
413.812	85.12
414.035	103.12
414.258	91.12
414.482	79.12
414.705	79.12
414.928	78.12
415.151	89.12
415.374	95.12
415.597	79.12
415.821	77.12
416.044	94.12
416.267	96.12
416.49	91.12
416.713	84.12
416.936	94.12
417.159	83.12
417.382	82.12
417.605	107.12
417.828	75.12
418.051	102.12
418.274	84.12
418.497	93.12
418.72	104.12
418.943	102.12
419.166	101.12
419.389	91.12
419.611	95.12
419.834	96.12
420.057	92.12
420.28	94.12
420.503	85.12
420.726	100.12
420.948	98.12
421.171	103.12
421.394	94.12
421.617	95.12
421.839	65.12
422.062	82.12
422.285	99.12
422.507	97.12
422.73	90.12
422.953	96.12
423.175	103.12
423.398	91.12
423.621	86.12
423.843	75.12
424.066	88.12
424.288	87.12
424.511	102.12
424.733	110.12
424.956	102.12
425.178	99.12
425.401	105.12
425.623	99.12
425.846	92.12
426.068	105.12
426.291	96.12
426.513	76.12
426.735	93.12
426.958	89.12
427.18	100.12
427.402	129.12
427.625	170.12
427.847	165.12
428.069	162.12
428.292	99.12
428.514	88.12
428.736	96.12
428.958	95.12
429.181	79.12
429.403	76.12
429.625	85.12
429.847	79.12
430.069	97.12
430.292	111.12
430.514	83.12
430.736	75.12
430.958	97.12
431.18	89.12
431.402	90.12
431.624	84.12
431.846	92.12
432.068	100.12
432.29	82.12
432.512	95.12
432.734	76.12
432.956	92.12
433.178	95.12
433.4	100.12
433.622	97.12
433.844	92.12
434.066	90.12
434.287	90.12
434.509	96.12
434.731	94.12
434.953	92.12
435.175	81.12
435.397	81.12
435.618	97.12
435.84	95.12
436.062	125.12
436.284	110.12
436.505	90.12
436.727	116.12
436.949	93.12
437.17	87.12
437.392	73.12
437.614	83.12
437.835	103.12
438.057	108.12
438.278	109.12
438.5	106.12
438.721	124.12
438.943	104.12
439.165	96.12
439.386	98.12
439.608	87.12
439.829	116.12
440.05	127.12
440.272	143.12
440.493	81.12
440.715	88.12
440.936	100.12
441.158	102.12
441.379	73.12
441.6	87.12
441.822	106.12
442.043	107.12
442.264	99.12
442.486	104.12
442.707	85.12
442.928	106.12
443.149	126.12
443.371	115.12
443.592	89.12
443.813	112.12
444.034	108.12
444.255	78.12
444.476	92.12
444.698	84.12
444.919	88.12
445.14	118.12
445.361	128.12
445.582	117.12
445.803	141.12
446.024	144.12
446.245	134.12
446.466	116.12
446.687	86.12
446.908	82.12
447.129	83.12
447.35	77.12
447.571	87.12
447.792	89.12
448.013	99.12
448.234	92.12
448.455	109.12
448.675	110.12
448.896	102.12
449.117	93.12
449.338	107.12
449.559	130.12
449.779	137.12
450	100.12
450.221	91.12
450.442	83.12
450.662	91.12
450.883	95.12
451.104	104.12
451.324	81.12
451.545	86.12
451.766	84.12
451.986	84.12
452.207	73.12
452.428	92.12
452.648	101.12
452.869	105.12
453.089	116.12
453.31	111.12
453.53	99.12
453.751	93.12
453.971	110.12
454.192	104.12
454.412	98.12
454.633	101.12
454.853	79.12
455.073	86.12
455.294	94.12
455.514	90.12
455.734	90.12
455.955	95.12
456.175	82.12
456.395	77.12
456.616	78.12
456.836	80.12
457.056	80.12
457.276	84.12
457.497	84.12
457.717	79.12
457.937	87.12
458.157	93.12
458.377	99.12
458.598	104.12
458.818	148.12
459.038	151.12
459.258	111.12
459.478	88.12
459.698	89.12
459.918	90.12
460.138	83.12
460.358	86.12
460.578	83.12
460.798	94.12
461.018	95.12
461.238	93.12
461.458	86.12
461.678	89.12
461.898	83.12
462.118	87.12
462.338	83.12
462.558	91.12
462.777	85.12
462.997	73.12
463.217	96.12
463.437	89.12
463.657	84.12
463.876	103.12
464.096	90.12
464.316	89.12
464.536	98.12
464.755	88.12
464.975	104.12
465.195	155.12
465.414	157.12
465.634	93.12
465.854	86.12
466.073	103.12
466.293	72.12
466.512	93.12
466.732	84.12
466.951	93.12
467.171	89.12
467.391	93.12
467.61	116.12
467.829	143.12
468.049	287.12
468.268	422.12
468.488	139.12
468.707	95.12
468.927	96.12
469.146	96.12
469.365	97.12
469.585	85.12
469.804	104.12
470.023	96.12
470.243	78.12
470.462	98.12
470.681	103.12
470.901	83.12
471.12	97.12
471.339	101.12
471.558	121.12
471.777	103.12
471.997	198.12
472.216	571.12
472.435	1220.12
472.654	305.12
472.873	117.12
473.092	109.12
473.311	77.12
473.53	80.12
473.749	96.12
473.968	96.12
474.187	100.12
474.406	92.12
474.625	69.12
474.844	87.12
475.063	94.12
475.282	95.12
475.501	80.12
475.72	101.12
475.939	87.12
476.158	83.12
476.377	88.12
476.596	87.12
476.814	109.12
477.033	102.12
477.252	95.12
477.471	92.12
477.69	94.12
477.908	88.12
478.127	93.12
478.346	94.12
478.564	89.12
478.783	88.12
479.002	104.12
479.22	100.12
479.439	95.12
479.658	107.12
479.876	109.12
480.095	92.12
480.313	100.12
480.532	126.12
480.751	196.12
480.969	564.12
481.188	2168.12
481.406	1241.12
481.624	209.12
481.843	108.12
482.061	91.12
482.28	84.12
482.498	104.12
482.717	90.12
482.935	81.12
483.153	87.12
483.372	85.12
483.59	79.12
483.808	104.12
484.027	94.12
484.245	83.12
484.463	84.12
484.681	94.12
484.9	97.12
485.118	96.12
485.336	93.12
485.554	109.12
485.772	103.12
485.99	103.12
486.209	104.12
486.427	102.12
486.645	113.12
486.863	105.12
487.081	102.12
487.299	81.12
487.517	97.12
487.735	92.12
487.953	90.12
488.171	101.12
488.389	102.12
488.607	92.12
488.825	107.12
489.043	95.12
489.261	89.12
489.479	92.12
489.696	95.12
489.914	81.12
490.132	99.12
490.35	102.12
490.568	94.12
490.786	90.12
491.003	72.12
491.221	74.12
491.439	86.12
491.657	72.12
491.874	89.12
492.092	104.12
492.31	105.12
492.527	97.12
492.745	86.12
492.963	90.12
493.18	99.12
493.398	90.12
493.615	88.12
493.833	99.12
494.05	102.12
494.268	100.12
494.485	88.12
494.703	89.12
494.92	90.12
495.138	84.12
495.355	80.12
495.573	95.12
495.79	91.12
496.008	94.12
496.225	86.12
496.442	83.12
496.66	94.12
496.877	87.12
497.094	101.12
497.312	71.12
497.529	89.12
497.746	87.12
497.963	78.12
498.181	78.12
498.398	99.12
498.615	90.12
498.832	91.12
499.049	78.12
499.267	75.12
499.484	102.12
499.701	76.12
499.918	97.12
500.135	83.12
500.352	97.12
500.569	87.12
500.786	95.12
501.003	90.12
501.22	84.12
501.437	88.12
501.654	90.12
501.871	87.12
502.088	75.12
502.305	99.12
502.522	92.12
502.739	85.12
502.956	79.12
503.172	80.12
503.389	97.12
503.606	97.12
503.823	88.12
504.04	92.12
504.256	92.12
504.473	71.12
504.69	95.12
504.907	89.12
505.123	103.12
505.34	90.12
505.557	104.12
505.773	90.12
505.99	84.12
506.207	98.12
506.423	97.12
506.64	76.12
506.856	73.12
507.073	80.12
507.289	95.12
507.506	103.12
507.722	106.12
507.939	98.12
508.155	101.12
508.372	92.12
508.588	92.12
508.805	100.12
509.021	88.12
509.238	85.12
509.454	104.12
509.67	90.12
509.887	99.12
510.103	126.12
510.319	170.12
510.536	538.12
510.752	1734.12
510.968	495.12
511.184	145.12
511.401	103.12
511.617	105.12
511.833	99.12
512.049	86.12
512.265	95.12
512.481	84.12
512.698	87.12
512.914	89.12
513.13	95.12
513.346	103.12
513.562	92.12
513.778	99.12
513.994	97.12
514.21	99.12
514.426	107.12
514.642	135.12
514.858	126.12
515.074	153.12
