Data from Circ_1989_H10_HRD10591_00078.txt Node
Date: Wed Jan 03 12:01:37 EST 2024
User: Yrep
Spectrometer: HR+D1059
Trigger mode: 1
Integration Time (sec): 1.000000E-1
Scans to average: 1
Electric dark correction enabled: true
Nonlinearity correction enabled: false
Boxcar width: 0
XAxis mode: Wavelengths
Number of Pixels in Spectrum: 2048
>>>>>Begin Spectral Data<<<<<
223.165	-9.25
223.4	-9.25
223.635	-9.25
223.869	-14.25
224.104	-26.25
224.338	-11.25
224.573	-7.25
224.808	-8.25
225.042	-10.25
225.277	-5.25
225.511	-8.25
225.746	4.75
225.98	6.75
226.215	18.75
226.449	6.75
226.683	19.75
226.918	22.75
227.152	20.75
227.387	37.75
227.621	40.75
227.856	50.75
228.09	48.75
228.324	51.75
228.559	63.75
228.793	54.75
229.027	64.75
229.262	66.75
229.496	79.75
229.73	67.75
229.964	83.75
230.199	76.75
230.433	72.75
230.667	91.75
230.901	78.75
231.136	69.75
231.37	75.75
231.604	67.75
231.838	83.75
232.072	79.75
232.306	75.75
232.541	63.75
232.775	69.75
233.009	73.75
233.243	68.75
233.477	85.75
233.711	87.75
233.945	81.75
234.179	80.75
234.413	91.75
234.647	88.75
234.881	78.75
235.115	85.75
235.349	69.75
235.583	79.75
235.817	84.75
236.051	78.75
236.285	85.75
236.519	75.75
236.753	65.75
236.987	79.75
237.221	83.75
237.455	87.75
237.689	88.75
237.922	95.75
238.156	76.75
238.39	72.75
238.624	72.75
238.858	65.75
239.091	78.75
239.325	86.75
239.559	86.75
239.793	63.75
240.027	71.75
240.26	69.75
240.494	78.75
240.728	85.75
240.961	80.75
241.195	85.75
241.429	83.75
241.662	76.75
241.896	69.75
242.13	71.75
242.363	81.75
242.597	89.75
242.83	84.75
243.064	72.75
243.298	68.75
243.531	71.75
243.765	62.75
243.998	67.75
244.232	69.75
244.465	83.75
244.699	69.75
244.932	79.75
245.166	83.75
245.399	91.75
245.633	78.75
245.866	63.75
246.099	75.75
246.333	77.75
246.566	76.75
246.8	72.75
247.033	85.75
247.266	79.75
247.5	69.75
247.733	87.75
247.966	72.75
248.2	77.75
248.433	79.75
248.666	70.75
248.899	88.75
249.133	77.75
249.366	99.75
249.599	77.75
249.832	95.75
250.066	81.75
250.299	77.75
250.532	82.75
250.765	80.75
250.998	88.75
251.231	79.75
251.465	78.75
251.698	81.75
251.931	84.75
252.164	83.75
252.397	63.75
252.63	77.75
252.863	84.75
253.096	83.75
253.329	76.75
253.562	91.75
253.795	70.75
254.028	70.75
254.261	76.75
254.494	77.75
254.727	83.75
254.96	75.75
255.193	79.75
255.426	72.75
255.659	73.75
255.892	82.75
256.124	83.75
256.357	79.75
256.59	95.75
256.823	82.75
257.056	89.75
257.289	79.75
257.521	84.75
257.754	92.75
257.987	80.75
258.22	83.75
258.452	71.75
258.685	81.75
258.918	87.75
259.151	93.75
259.383	79.75
259.616	71.75
259.849	74.75
260.081	81.75
260.314	84.75
260.547	85.75
260.779	88.75
261.012	79.75
261.244	99.75
261.477	81.75
261.71	84.75
261.942	93.75
262.175	94.75
262.407	77.75
262.64	81.75
262.872	82.75
263.105	81.75
263.337	86.75
263.57	93.75
263.802	70.75
264.035	78.75
264.267	79.75
264.499	77.75
264.732	76.75
264.964	73.75
265.197	68.75
265.429	93.75
265.661	87.75
265.894	82.75
266.126	83.75
266.358	92.75
266.591	72.75
266.823	105.75
267.055	79.75
267.287	87.75
267.52	80.75
267.752	78.75
267.984	70.75
268.216	65.75
268.448	82.75
268.681	98.75
268.913	81.75
269.145	89.75
269.377	76.75
269.609	85.75
269.841	96.75
270.073	85.75
270.306	79.75
270.538	72.75
270.77	81.75
271.002	83.75
271.234	94.75
271.466	75.75
271.698	93.75
271.93	79.75
272.162	94.75
272.394	94.75
272.626	82.75
272.858	81.75
273.09	84.75
273.322	84.75
273.553	85.75
273.785	84.75
274.017	85.75
274.249	79.75
274.481	80.75
274.713	85.75
274.945	81.75
275.176	77.75
275.408	94.75
275.64	95.75
275.872	85.75
276.104	89.75
276.335	75.75
276.567	96.75
276.799	104.75
277.031	113.75
277.262	121.75
277.494	109.75
277.726	87.75
277.957	89.75
278.189	79.75
278.421	84.75
278.652	72.75
278.884	72.75
279.115	83.75
279.347	95.75
279.579	81.75
279.81	103.75
280.042	107.75
280.273	149.75
280.505	118.75
280.736	86.75
280.968	89.75
281.199	83.75
281.431	88.75
281.662	85.75
281.894	86.75
282.125	100.75
282.356	124.75
282.588	112.75
282.819	97.75
283.051	93.75
283.282	85.75
283.513	86.75
283.745	77.75
283.976	77.75
284.207	88.75
284.439	93.75
284.67	83.75
284.901	83.75
285.132	92.75
285.364	94.75
285.595	88.75
285.826	88.75
286.057	91.75
286.288	81.75
286.52	94.75
286.751	72.75
286.982	87.75
287.213	81.75
287.444	88.75
287.675	89.75
287.906	88.75
288.138	81.75
288.369	101.75
288.6	99.75
288.831	101.75
289.062	98.75
289.293	88.75
289.524	92.75
289.755	95.75
289.986	75.75
290.217	101.75
290.448	86.75
290.679	79.75
290.91	87.75
291.141	76.75
291.371	93.75
291.602	96.75
291.833	89.75
292.064	90.75
292.295	99.75
292.526	100.75
292.757	101.75
292.987	90.75
293.218	75.75
293.449	71.75
293.68	83.75
293.91	93.75
294.141	87.75
294.372	82.75
294.603	86.75
294.833	86.75
295.064	96.75
295.295	97.75
295.525	85.75
295.756	89.75
295.987	112.75
296.217	117.75
296.448	106.75
296.679	108.75
296.909	96.75
297.14	101.75
297.37	91.75
297.601	79.75
297.831	96.75
298.062	102.75
298.292	90.75
298.523	95.75
298.753	80.75
298.984	82.75
299.214	88.75
299.445	93.75
299.675	88.75
299.905	95.75
300.136	92.75
300.366	91.75
300.597	82.75
300.827	100.75
301.057	105.75
301.288	102.75
301.518	75.75
301.748	99.75
301.979	99.75
302.209	86.75
302.439	89.75
302.669	83.75
302.9	84.75
303.13	96.75
303.36	98.75
303.59	116.75
303.82	102.75
304.051	89.75
304.281	89.75
304.511	102.75
304.741	95.75
304.971	79.75
305.201	89.75
305.431	85.75
305.661	87.75
305.891	86.75
306.121	107.75
306.352	88.75
306.582	109.75
306.812	98.75
307.042	100.75
307.272	116.75
307.502	115.75
307.731	134.75
307.961	105.75
308.191	86.75
308.421	83.75
308.651	83.75
308.881	91.75
309.111	89.75
309.341	92.75
309.571	105.75
309.8	94.75
310.03	94.75
310.26	92.75
310.49	91.75
310.72	95.75
310.949	87.75
311.179	100.75
311.409	77.75
311.639	83.75
311.868	101.75
312.098	114.75
312.328	102.75
312.557	102.75
312.787	88.75
313.017	98.75
313.246	98.75
313.476	103.75
313.706	92.75
313.935	92.75
314.165	66.75
314.394	87.75
314.624	103.75
314.853	105.75
315.083	88.75
315.312	96.75
315.542	97.75
315.771	83.75
316.001	97.75
316.23	91.75
316.46	98.75
316.689	85.75
316.919	86.75
317.148	97.75
317.377	97.75
317.607	86.75
317.836	90.75
318.065	95.75
318.295	93.75
318.524	86.75
318.753	91.75
318.983	101.75
319.212	86.75
319.441	108.75
319.67	106.75
319.9	100.75
320.129	101.75
320.358	102.75
320.587	94.75
320.816	90.75
321.046	79.75
321.275	91.75
321.504	84.75
321.733	99.75
321.962	93.75
322.191	80.75
322.42	93.75
322.649	89.75
322.878	104.75
323.108	105.75
323.337	90.75
323.566	108.75
323.795	133.75
324.024	192.75
324.253	326.75
324.482	670.75
324.71	1428.75
324.939	1925.75
325.168	712.75
325.397	225.75
325.626	133.75
325.855	112.75
326.084	131.75
326.313	117.75
326.542	147.75
326.77	196.75
326.999	402.75
327.228	827.75
327.457	1543.75
327.686	1245.75
327.914	371.75
328.143	263.75
328.372	285.75
328.6	209.75
328.829	127.75
329.058	119.75
329.287	121.75
329.515	115.75
329.744	170.75
329.972	247.75
330.201	446.75
330.43	590.75
330.658	293.75
330.887	158.75
331.115	140.75
331.344	89.75
331.572	95.75
331.801	105.75
332.03	100.75
332.258	102.75
332.486	94.75
332.715	100.75
332.943	102.75
333.172	104.75
333.4	108.75
333.629	120.75
333.857	136.75
334.085	228.75
334.314	433.75
334.542	753.75
334.771	688.75
334.999	198.75
335.227	112.75
335.455	107.75
335.684	94.75
335.912	91.75
336.14	98.75
336.369	97.75
336.597	99.75
336.825	105.75
337.053	81.75
337.281	93.75
337.51	85.75
337.738	81.75
337.966	84.75
338.194	87.75
338.422	98.75
338.65	93.75
338.878	75.75
339.106	89.75
339.334	94.75
339.562	100.75
339.79	80.75
340.018	87.75
340.246	91.75
340.474	93.75
340.702	95.75
340.93	94.75
341.158	85.75
341.386	99.75
341.614	95.75
341.842	95.75
342.07	86.75
342.298	87.75
342.526	95.75
342.754	84.75
342.981	84.75
343.209	104.75
343.437	101.75
343.665	88.75
343.893	93.75
344.12	99.75
344.348	77.75
344.576	97.75
344.804	81.75
345.031	99.75
345.259	102.75
345.487	88.75
345.714	97.75
345.942	84.75
346.17	96.75
346.397	94.75
346.625	88.75
346.853	100.75
347.08	95.75
347.308	96.75
347.535	102.75
347.763	88.75
347.99	87.75
348.218	107.75
348.445	93.75
348.673	97.75
348.9	85.75
349.128	88.75
349.355	80.75
349.583	92.75
349.81	111.75
350.037	87.75
350.265	97.75
350.492	91.75
350.72	88.75
350.947	96.75
351.174	108.75
351.402	99.75
351.629	106.75
351.856	111.75
352.083	85.75
352.311	96.75
352.538	96.75
352.765	113.75
352.992	102.75
353.22	108.75
353.447	103.75
353.674	99.75
353.901	95.75
354.128	94.75
354.355	94.75
354.583	85.75
354.81	88.75
355.037	91.75
355.264	100.75
355.491	92.75
355.718	77.75
355.945	102.75
356.172	90.75
356.399	80.75
356.626	88.75
356.853	93.75
357.08	87.75
357.307	83.75
357.534	88.75
357.761	93.75
357.988	84.75
358.215	84.75
358.441	85.75
358.668	96.75
358.895	87.75
359.122	100.75
359.349	96.75
359.576	85.75
359.802	103.75
360.029	95.75
360.256	99.75
360.483	86.75
360.709	78.75
360.936	83.75
361.163	84.75
361.39	98.75
361.616	98.75
361.843	91.75
362.07	89.75
362.296	103.75
362.523	92.75
362.749	91.75
362.976	80.75
363.203	92.75
363.429	79.75
363.656	80.75
363.882	82.75
364.109	102.75
364.335	99.75
364.562	95.75
364.788	85.75
365.015	93.75
365.241	109.75
365.468	100.75
365.694	95.75
365.92	95.75
366.147	86.75
366.373	101.75
366.599	91.75
366.826	72.75
367.052	81.75
367.278	93.75
367.505	86.75
367.731	83.75
367.957	81.75
368.184	84.75
368.41	84.75
368.636	105.75
368.862	101.75
369.089	92.75
369.315	85.75
369.541	86.75
369.767	93.75
369.993	86.75
370.219	93.75
370.445	84.75
370.672	93.75
370.898	93.75
371.124	83.75
371.35	84.75
371.576	88.75
371.802	87.75
372.028	98.75
372.254	87.75
372.48	94.75
372.706	83.75
372.932	92.75
373.158	80.75
373.384	89.75
373.61	72.75
373.835	81.75
374.061	81.75
374.287	87.75
374.513	81.75
374.739	83.75
374.965	73.75
375.191	90.75
375.416	81.75
375.642	89.75
375.868	91.75
376.094	75.75
376.319	89.75
376.545	75.75
376.771	80.75
376.997	81.75
377.222	93.75
377.448	94.75
377.674	87.75
377.899	84.75
378.125	98.75
378.35	79.75
378.576	93.75
378.802	90.75
379.027	71.75
379.253	80.75
379.478	100.75
379.704	79.75
379.929	86.75
380.155	91.75
380.38	87.75
380.606	83.75
380.831	90.75
381.057	84.75
381.282	97.75
381.507	80.75
381.733	96.75
381.958	95.75
382.184	101.75
382.409	87.75
382.634	99.75
382.86	87.75
383.085	93.75
383.31	92.75
383.535	112.75
383.761	107.75
383.986	99.75
384.211	105.75
384.436	88.75
384.662	88.75
384.887	94.75
385.112	96.75
385.337	94.75
385.562	95.75
385.787	101.75
386.013	99.75
386.238	105.75
386.463	107.75
386.688	99.75
386.913	95.75
387.138	103.75
387.363	92.75
387.588	96.75
387.813	103.75
388.038	91.75
388.263	105.75
388.488	122.75
388.713	95.75
388.938	71.75
389.163	87.75
389.387	95.75
389.612	87.75
389.837	94.75
390.062	82.75
390.287	86.75
390.512	104.75
390.736	92.75
390.961	88.75
391.186	94.75
391.411	92.75
391.636	93.75
391.86	82.75
392.085	87.75
392.31	91.75
392.534	76.75
392.759	93.75
392.984	92.75
393.208	89.75
393.433	81.75
393.658	92.75
393.882	100.75
394.107	72.75
394.331	95.75
394.556	85.75
394.78	83.75
395.005	85.75
395.229	82.75
395.454	84.75
395.678	78.75
395.903	80.75
396.127	94.75
396.352	78.75
396.576	66.75
396.801	80.75
397.025	87.75
397.249	97.75
397.474	95.75
397.698	91.75
397.922	84.75
398.147	80.75
398.371	100.75
398.595	96.75
398.82	85.75
399.044	80.75
399.268	80.75
399.492	89.75
399.717	90.75
399.941	86.75
400.165	95.75
400.389	107.75
400.613	87.75
400.837	100.75
401.062	83.75
401.286	79.75
401.51	98.75
401.734	95.75
401.958	96.75
402.182	112.75
402.406	120.75
402.63	116.75
402.854	77.75
403.078	95.75
403.302	65.75
403.526	81.75
403.75	89.75
403.974	93.75
404.198	72.75
404.422	84.75
404.645	99.75
404.869	95.75
405.093	111.75
405.317	121.75
405.541	117.75
405.765	99.75
405.988	93.75
406.212	129.75
406.436	160.75
406.66	117.75
406.883	88.75
407.107	99.75
407.331	95.75
407.555	93.75
407.778	100.75
408.002	81.75
408.226	81.75
408.449	86.75
408.673	89.75
408.896	106.75
409.12	98.75
409.344	89.75
409.567	91.75
409.791	97.75
410.014	91.75
410.238	93.75
410.461	97.75
410.685	95.75
410.908	89.75
411.132	111.75
411.355	98.75
411.578	95.75
411.802	94.75
412.025	96.75
412.249	81.75
412.472	94.75
412.695	112.75
412.919	104.75
413.142	105.75
413.365	80.75
413.589	87.75
413.812	100.75
414.035	81.75
414.258	89.75
414.482	91.75
414.705	77.75
414.928	72.75
415.151	97.75
415.374	93.75
415.597	99.75
415.821	84.75
416.044	92.75
416.267	87.75
416.49	93.75
416.713	94.75
416.936	102.75
417.159	104.75
417.382	88.75
417.605	96.75
417.828	84.75
418.051	75.75
418.274	98.75
418.497	89.75
418.72	101.75
418.943	96.75
419.166	83.75
419.389	77.75
419.611	93.75
419.834	83.75
420.057	82.75
420.28	89.75
420.503	93.75
420.726	79.75
420.948	96.75
421.171	99.75
421.394	91.75
421.617	93.75
421.839	94.75
422.062	86.75
422.285	83.75
422.507	96.75
422.73	102.75
422.953	91.75
423.175	83.75
423.398	95.75
423.621	84.75
423.843	98.75
424.066	71.75
424.288	100.75
424.511	83.75
424.733	88.75
424.956	100.75
425.178	104.75
425.401	86.75
425.623	92.75
425.846	95.75
426.068	96.75
426.291	85.75
426.513	90.75
426.735	90.75
426.958	89.75
427.18	110.75
427.402	133.75
427.625	169.75
427.847	166.75
428.069	152.75
428.292	103.75
428.514	101.75
428.736	85.75
428.958	96.75
429.181	83.75
429.403	73.75
429.625	91.75
429.847	88.75
430.069	97.75
430.292	87.75
430.514	92.75
430.736	67.75
430.958	82.75
431.18	69.75
431.402	88.75
431.624	93.75
431.846	100.75
432.068	83.75
432.29	77.75
432.512	101.75
432.734	88.75
432.956	99.75
433.178	108.75
433.4	82.75
433.622	88.75
433.844	87.75
434.066	92.75
434.287	85.75
434.509	93.75
434.731	104.75
434.953	87.75
435.175	87.75
435.397	79.75
435.618	96.75
435.84	99.75
436.062	115.75
436.284	109.75
436.505	86.75
436.727	85.75
436.949	99.75
437.17	96.75
437.392	83.75
437.614	79.75
437.835	93.75
438.057	110.75
438.278	104.75
438.5	105.75
438.721	112.75
438.943	93.75
439.165	83.75
439.386	95.75
439.608	83.75
439.829	124.75
440.05	118.75
440.272	128.75
440.493	115.75
440.715	82.75
440.936	89.75
441.158	80.75
441.379	73.75
441.6	77.75
441.822	92.75
442.043	118.75
442.264	93.75
442.486	104.75
442.707	95.75
442.928	96.75
443.149	121.75
443.371	123.75
443.592	98.75
443.813	103.75
444.034	108.75
444.255	93.75
444.476	87.75
444.698	91.75
444.919	85.75
445.14	134.75
445.361	135.75
445.582	126.75
445.803	121.75
446.024	126.75
446.245	144.75
446.466	109.75
446.687	91.75
446.908	85.75
447.129	97.75
447.35	88.75
447.571	95.75
447.792	96.75
448.013	95.75
448.234	95.75
448.455	101.75
448.675	108.75
448.896	92.75
449.117	103.75
449.338	107.75
449.559	123.75
449.779	124.75
450	101.75
450.221	93.75
450.442	84.75
450.662	97.75
450.883	89.75
451.104	99.75
451.324	98.75
451.545	98.75
451.766	88.75
451.986	79.75
452.207	75.75
452.428	91.75
452.648	107.75
452.869	100.75
453.089	109.75
453.31	99.75
453.53	100.75
453.751	88.75
453.971	104.75
454.192	102.75
454.412	86.75
454.633	78.75
454.853	84.75
455.073	73.75
455.294	75.75
455.514	89.75
455.734	90.75
455.955	96.75
456.175	87.75
456.395	77.75
456.616	97.75
456.836	80.75
457.056	93.75
457.276	91.75
457.497	87.75
457.717	91.75
457.937	89.75
458.157	87.75
458.377	92.75
458.598	94.75
458.818	126.75
459.038	133.75
459.258	109.75
459.478	79.75
459.698	91.75
459.918	73.75
460.138	79.75
460.358	75.75
460.578	89.75
460.798	93.75
461.018	90.75
461.238	84.75
461.458	92.75
461.678	87.75
461.898	73.75
462.118	91.75
462.338	75.75
462.558	81.75
462.777	89.75
462.997	90.75
463.217	91.75
463.437	95.75
463.657	92.75
463.876	86.75
464.096	80.75
464.316	87.75
464.536	81.75
464.755	101.75
464.975	105.75
465.195	147.75
465.414	136.75
465.634	91.75
465.854	87.75
466.073	95.75
466.293	93.75
466.512	86.75
466.732	101.75
466.951	71.75
467.171	96.75
467.391	99.75
467.61	103.75
467.829	130.75
468.049	273.75
468.268	367.75
468.488	135.75
468.707	95.75
468.927	71.75
469.146	73.75
469.365	78.75
469.585	82.75
469.804	90.75
470.023	93.75
470.243	90.75
470.462	91.75
470.681	90.75
470.901	100.75
471.12	96.75
471.339	102.75
471.558	92.75
471.777	107.75
471.997	193.75
472.216	498.75
472.435	1059.75
472.654	301.75
472.873	116.75
473.092	94.75
473.311	88.75
473.53	96.75
473.749	85.75
473.968	89.75
474.187	110.75
474.406	105.75
474.625	96.75
474.844	100.75
475.063	81.75
475.282	92.75
475.501	93.75
475.72	103.75
475.939	70.75
476.158	80.75
476.377	86.75
476.596	88.75
476.814	91.75
477.033	83.75
477.252	87.75
477.471	78.75
477.69	84.75
477.908	97.75
478.127	93.75
478.346	78.75
478.564	94.75
478.783	101.75
479.002	93.75
479.22	100.75
479.439	105.75
479.658	101.75
479.876	94.75
480.095	100.75
480.313	100.75
480.532	111.75
480.751	171.75
480.969	507.75
481.188	1859.75
481.406	1077.75
481.624	215.75
481.843	108.75
482.061	94.75
482.28	83.75
482.498	96.75
482.717	93.75
482.935	86.75
483.153	85.75
483.372	86.75
483.59	80.75
483.808	76.75
484.027	88.75
484.245	85.75
484.463	95.75
484.681	103.75
484.9	97.75
485.118	104.75
485.336	89.75
485.554	88.75
485.772	87.75
485.99	105.75
486.209	112.75
486.427	122.75
486.645	99.75
486.863	107.75
487.081	97.75
487.299	105.75
487.517	85.75
487.735	91.75
487.953	106.75
488.171	87.75
488.389	107.75
488.607	111.75
488.825	104.75
489.043	109.75
489.261	78.75
489.479	92.75
489.696	89.75
489.914	83.75
490.132	84.75
490.35	89.75
490.568	99.75
490.786	89.75
491.003	102.75
491.221	96.75
491.439	98.75
491.657	86.75
491.874	82.75
492.092	81.75
492.31	87.75
492.527	99.75
492.745	94.75
492.963	85.75
493.18	84.75
493.398	82.75
493.615	79.75
493.833	91.75
494.05	93.75
494.268	92.75
494.485	97.75
494.703	78.75
494.92	89.75
495.138	110.75
495.355	86.75
495.573	93.75
495.79	83.75
496.008	100.75
496.225	96.75
496.442	62.75
496.66	91.75
496.877	95.75
497.094	79.75
497.312	89.75
497.529	88.75
497.746	91.75
497.963	93.75
498.181	104.75
498.398	94.75
498.615	114.75
498.832	95.75
499.049	86.75
499.267	93.75
499.484	95.75
499.701	93.75
499.918	83.75
500.135	89.75
500.352	93.75
500.569	83.75
500.786	92.75
501.003	79.75
501.22	98.75
501.437	89.75
501.654	85.75
501.871	97.75
502.088	79.75
502.305	100.75
502.522	104.75
502.739	81.75
502.956	94.75
503.172	111.75
503.389	96.75
503.606	97.75
503.823	88.75
504.04	87.75
504.256	70.75
504.473	80.75
504.69	94.75
504.907	84.75
505.123	90.75
505.34	94.75
505.557	104.75
505.773	86.75
505.99	92.75
506.207	91.75
506.423	83.75
506.64	104.75
506.856	77.75
507.073	84.75
507.289	83.75
507.506	102.75
507.722	109.75
507.939	92.75
508.155	93.75
508.372	95.75
508.588	88.75
508.805	87.75
509.021	80.75
509.238	108.75
509.454	94.75
509.67	101.75
509.887	97.75
510.103	115.75
510.319	161.75
510.536	528.75
510.752	1585.75
510.968	464.75
511.184	135.75
511.401	103.75
511.617	99.75
511.833	96.75
512.049	93.75
512.265	96.75
512.481	110.75
512.698	88.75
512.914	104.75
513.13	92.75
513.346	103.75
513.562	83.75
513.778	100.75
513.994	98.75
514.21	89.75
514.426	103.75
514.642	111.75
514.858	129.75
515.074	145.75
515.29	328.75
515.506	1007.75
515.721	425.75
515.937	130.75
