Data from Circ_1989_H10_HRD10591_00050.txt Node
Date: Wed Jan 03 12:01:31 EST 2024
User: Yrep
Spectrometer: HR+D1059
Trigger mode: 1
Integration Time (sec): 1.000000E-1
Scans to average: 1
Electric dark correction enabled: true
Nonlinearity correction enabled: false
Boxcar width: 0
XAxis mode: Wavelengths
Number of Pixels in Spectrum: 2048
>>>>>Begin Spectral Data<<<<<
223.165	-26.5
223.4	-26.5
223.635	-26.5
223.869	-28.5
224.104	-26.5
224.338	-0.5
224.573	-4.5
224.808	-6.5
225.042	-6.5
225.277	-4.5
225.511	-10.5
225.746	3.5
225.98	24.5
226.215	1.5
226.449	6.5
226.683	27.5
226.918	23.5
227.152	27.5
227.387	32.5
227.621	37.5
227.856	36.5
228.09	53.5
228.324	58.5
228.559	57.5
228.793	63.5
229.027	75.5
229.262	64.5
229.496	69.5
229.73	79.5
229.964	94.5
230.199	80.5
230.433	83.5
230.667	87.5
230.901	89.5
231.136	79.5
231.37	78.5
231.604	80.5
231.838	67.5
232.072	83.5
232.306	85.5
232.541	87.5
232.775	71.5
233.009	90.5
233.243	75.5
233.477	79.5
233.711	93.5
233.945	85.5
234.179	67.5
234.413	79.5
234.647	81.5
234.881	88.5
235.115	79.5
235.349	81.5
235.583	83.5
235.817	75.5
236.051	77.5
236.285	85.5
236.519	88.5
236.753	92.5
236.987	75.5
237.221	100.5
237.455	79.5
237.689	71.5
237.922	74.5
238.156	71.5
238.39	80.5
238.624	79.5
238.858	77.5
239.091	89.5
239.325	68.5
239.559	82.5
239.793	85.5
240.027	76.5
240.26	79.5
240.494	83.5
240.728	67.5
240.961	70.5
241.195	82.5
241.429	71.5
241.662	81.5
241.896	74.5
242.13	72.5
242.363	74.5
242.597	81.5
242.83	83.5
243.064	78.5
243.298	66.5
243.531	83.5
243.765	82.5
243.998	95.5
244.232	90.5
244.465	86.5
244.699	87.5
244.932	83.5
245.166	78.5
245.399	85.5
245.633	84.5
245.866	65.5
246.099	71.5
246.333	92.5
246.566	72.5
246.8	77.5
247.033	87.5
247.266	77.5
247.5	70.5
247.733	77.5
247.966	61.5
248.2	91.5
248.433	81.5
248.666	84.5
248.899	84.5
249.133	80.5
249.366	93.5
249.599	82.5
249.832	87.5
250.066	70.5
250.299	85.5
250.532	95.5
250.765	91.5
250.998	69.5
251.231	88.5
251.465	73.5
251.698	78.5
251.931	89.5
252.164	86.5
252.397	70.5
252.63	90.5
252.863	90.5
253.096	78.5
253.329	81.5
253.562	78.5
253.795	72.5
254.028	98.5
254.261	78.5
254.494	85.5
254.727	90.5
254.96	71.5
255.193	86.5
255.426	81.5
255.659	96.5
255.892	67.5
256.124	100.5
256.357	77.5
256.59	83.5
256.823	87.5
257.056	82.5
257.289	96.5
257.521	80.5
257.754	83.5
257.987	87.5
258.22	89.5
258.452	86.5
258.685	86.5
258.918	91.5
259.151	83.5
259.383	87.5
259.616	85.5
259.849	86.5
260.081	87.5
260.314	90.5
260.547	93.5
260.779	86.5
261.012	87.5
261.244	97.5
261.477	102.5
261.71	98.5
261.942	110.5
262.175	97.5
262.407	80.5
262.64	93.5
262.872	85.5
263.105	78.5
263.337	74.5
263.57	80.5
263.802	93.5
264.035	64.5
264.267	85.5
264.499	91.5
264.732	71.5
264.964	73.5
265.197	75.5
265.429	90.5
265.661	75.5
265.894	91.5
266.126	94.5
266.358	86.5
266.591	84.5
266.823	83.5
267.055	77.5
267.287	77.5
267.52	81.5
267.752	77.5
267.984	83.5
268.216	82.5
268.448	86.5
268.681	83.5
268.913	92.5
269.145	80.5
269.377	63.5
269.609	69.5
269.841	84.5
270.073	87.5
270.306	69.5
270.538	83.5
270.77	70.5
271.002	89.5
271.234	89.5
271.466	105.5
271.698	81.5
271.93	83.5
272.162	80.5
272.394	69.5
272.626	102.5
272.858	101.5
273.09	86.5
273.322	85.5
273.553	81.5
273.785	79.5
274.017	91.5
274.249	75.5
274.481	98.5
274.713	88.5
274.945	81.5
275.176	89.5
275.408	90.5
275.64	87.5
275.872	109.5
276.104	104.5
276.335	107.5
276.567	112.5
276.799	104.5
277.031	100.5
277.262	114.5
277.494	103.5
277.726	95.5
277.957	89.5
278.189	89.5
278.421	81.5
278.652	97.5
278.884	78.5
279.115	92.5
279.347	83.5
279.579	87.5
279.81	97.5
280.042	114.5
280.273	136.5
280.505	104.5
280.736	87.5
280.968	97.5
281.199	85.5
281.431	99.5
281.662	82.5
281.894	106.5
282.125	97.5
282.356	105.5
282.588	134.5
282.819	106.5
283.051	88.5
283.282	88.5
283.513	86.5
283.745	96.5
283.976	102.5
284.207	87.5
284.439	74.5
284.67	82.5
284.901	99.5
285.132	73.5
285.364	89.5
285.595	89.5
285.826	90.5
286.057	90.5
286.288	90.5
286.52	90.5
286.751	86.5
286.982	80.5
287.213	92.5
287.444	80.5
287.675	98.5
287.906	88.5
288.138	89.5
288.369	71.5
288.6	89.5
288.831	102.5
289.062	101.5
289.293	86.5
289.524	87.5
289.755	90.5
289.986	98.5
290.217	103.5
290.448	97.5
290.679	84.5
290.91	83.5
291.141	77.5
291.371	77.5
291.602	81.5
291.833	95.5
292.064	100.5
292.295	93.5
292.526	82.5
292.757	89.5
292.987	84.5
293.218	83.5
293.449	102.5
293.68	81.5
293.91	101.5
294.141	88.5
294.372	99.5
294.603	102.5
294.833	89.5
295.064	99.5
295.295	97.5
295.525	91.5
295.756	91.5
295.987	103.5
296.217	129.5
296.448	107.5
296.679	96.5
296.909	92.5
297.14	86.5
297.37	107.5
297.601	104.5
297.831	96.5
298.062	83.5
298.292	81.5
298.523	80.5
298.753	67.5
298.984	91.5
299.214	87.5
299.445	93.5
299.675	91.5
299.905	96.5
300.136	98.5
300.366	86.5
300.597	90.5
300.827	90.5
301.057	97.5
301.288	99.5
301.518	88.5
301.748	89.5
301.979	86.5
302.209	103.5
302.439	88.5
302.669	96.5
302.9	90.5
303.13	95.5
303.36	95.5
303.59	101.5
303.82	114.5
304.051	98.5
304.281	87.5
304.511	93.5
304.741	87.5
304.971	71.5
305.201	90.5
305.431	93.5
305.661	97.5
305.891	85.5
306.121	89.5
306.352	117.5
306.582	104.5
306.812	101.5
307.042	106.5
307.272	114.5
307.502	120.5
307.731	124.5
307.961	111.5
308.191	87.5
308.421	94.5
308.651	103.5
308.881	91.5
309.111	94.5
309.341	98.5
309.571	89.5
309.8	84.5
310.03	98.5
310.26	79.5
310.49	91.5
310.72	102.5
310.949	102.5
311.179	93.5
311.409	90.5
311.639	104.5
311.868	95.5
312.098	97.5
312.328	87.5
312.557	92.5
312.787	94.5
313.017	101.5
313.246	117.5
313.476	92.5
313.706	94.5
313.935	90.5
314.165	111.5
314.394	96.5
314.624	94.5
314.853	93.5
315.083	90.5
315.312	102.5
315.542	95.5
315.771	103.5
316.001	99.5
316.23	84.5
316.46	100.5
316.689	93.5
316.919	96.5
317.148	85.5
317.377	98.5
317.607	99.5
317.836	98.5
318.065	98.5
318.295	89.5
318.524	109.5
318.753	98.5
318.983	88.5
319.212	98.5
319.441	97.5
319.67	101.5
319.9	102.5
320.129	94.5
320.358	91.5
320.587	85.5
320.816	93.5
321.046	102.5
321.275	104.5
321.504	103.5
321.733	97.5
321.962	103.5
322.191	99.5
322.42	107.5
322.649	112.5
322.878	109.5
323.108	112.5
323.337	115.5
323.566	116.5
323.795	157.5
324.024	191.5
324.253	307.5
324.482	646.5
324.71	1333.5
324.939	1790.5
325.168	685.5
325.397	205.5
325.626	133.5
325.855	121.5
326.084	106.5
326.313	120.5
326.542	142.5
326.77	205.5
326.999	376.5
327.228	748.5
327.457	1395.5
327.686	1117.5
327.914	361.5
328.143	247.5
328.372	289.5
328.6	193.5
328.829	129.5
329.058	126.5
329.287	123.5
329.515	120.5
329.744	138.5
329.972	223.5
330.201	376.5
330.43	525.5
330.658	262.5
330.887	153.5
331.115	135.5
331.344	109.5
331.572	112.5
331.801	117.5
332.03	107.5
332.258	95.5
332.486	91.5
332.715	98.5
332.943	97.5
333.172	95.5
333.4	103.5
333.629	118.5
333.857	135.5
334.085	216.5
334.314	365.5
334.542	680.5
334.771	615.5
334.999	198.5
335.227	135.5
335.455	108.5
335.684	113.5
335.912	95.5
336.14	102.5
336.369	101.5
336.597	100.5
336.825	89.5
337.053	98.5
337.281	98.5
337.51	99.5
337.738	98.5
337.966	93.5
338.194	85.5
338.422	90.5
338.65	95.5
338.878	97.5
339.106	96.5
339.334	106.5
339.562	86.5
339.79	97.5
340.018	80.5
340.246	98.5
340.474	100.5
340.702	89.5
340.93	81.5
341.158	94.5
341.386	106.5
341.614	89.5
341.842	94.5
342.07	92.5
342.298	87.5
342.526	82.5
342.754	91.5
342.981	96.5
343.209	86.5
343.437	106.5
343.665	90.5
343.893	81.5
344.12	88.5
344.348	114.5
344.576	91.5
344.804	89.5
345.031	106.5
345.259	97.5
345.487	91.5
345.714	90.5
345.942	78.5
346.17	86.5
346.397	97.5
346.625	83.5
346.853	98.5
347.08	82.5
347.308	85.5
347.535	107.5
347.763	97.5
347.99	102.5
348.218	111.5
348.445	103.5
348.673	97.5
348.9	97.5
349.128	100.5
349.355	105.5
349.583	75.5
349.81	89.5
350.037	94.5
350.265	93.5
350.492	91.5
350.72	94.5
350.947	100.5
351.174	115.5
351.402	93.5
351.629	99.5
351.856	102.5
352.083	87.5
352.311	102.5
352.538	98.5
352.765	104.5
352.992	111.5
353.22	102.5
353.447	102.5
353.674	101.5
353.901	88.5
354.128	102.5
354.355	93.5
354.583	97.5
354.81	104.5
355.037	106.5
355.264	97.5
355.491	92.5
355.718	94.5
355.945	105.5
356.172	87.5
356.399	97.5
356.626	103.5
356.853	92.5
357.08	99.5
357.307	102.5
357.534	95.5
357.761	81.5
357.988	78.5
358.215	89.5
358.441	90.5
358.668	100.5
358.895	91.5
359.122	97.5
359.349	91.5
359.576	90.5
359.802	90.5
360.029	114.5
360.256	110.5
360.483	95.5
360.709	93.5
360.936	88.5
361.163	98.5
361.39	98.5
361.616	93.5
361.843	88.5
362.07	90.5
362.296	95.5
362.523	92.5
362.749	95.5
362.976	83.5
363.203	80.5
363.429	94.5
363.656	89.5
363.882	79.5
364.109	87.5
364.335	87.5
364.562	81.5
364.788	107.5
365.015	99.5
365.241	86.5
365.468	99.5
365.694	104.5
365.92	84.5
366.147	97.5
366.373	88.5
366.599	85.5
366.826	98.5
367.052	97.5
367.278	86.5
367.505	91.5
367.731	86.5
367.957	95.5
368.184	81.5
368.41	89.5
368.636	115.5
368.862	108.5
369.089	121.5
369.315	81.5
369.541	93.5
369.767	87.5
369.993	95.5
370.219	90.5
370.445	99.5
370.672	90.5
370.898	88.5
371.124	75.5
371.35	98.5
371.576	84.5
371.802	97.5
372.028	99.5
372.254	89.5
372.48	87.5
372.706	101.5
372.932	88.5
373.158	89.5
373.384	89.5
373.61	95.5
373.835	88.5
374.061	105.5
374.287	76.5
374.513	84.5
374.739	97.5
374.965	98.5
375.191	87.5
375.416	101.5
375.642	85.5
375.868	86.5
376.094	101.5
376.319	111.5
376.545	78.5
376.771	95.5
376.997	84.5
377.222	83.5
377.448	87.5
377.674	83.5
377.899	88.5
378.125	98.5
378.35	100.5
378.576	95.5
378.802	101.5
379.027	102.5
379.253	103.5
379.478	93.5
379.704	91.5
379.929	114.5
380.155	93.5
380.38	101.5
380.606	107.5
380.831	84.5
381.057	109.5
381.282	94.5
381.507	95.5
381.733	71.5
381.958	97.5
382.184	98.5
382.409	105.5
382.634	106.5
382.86	94.5
383.085	93.5
383.31	95.5
383.535	108.5
383.761	96.5
383.986	107.5
384.211	97.5
384.436	58.5
384.662	75.5
384.887	105.5
385.112	106.5
385.337	107.5
385.562	99.5
385.787	110.5
386.013	97.5
386.238	107.5
386.463	100.5
386.688	109.5
386.913	97.5
387.138	117.5
387.363	102.5
387.588	98.5
387.813	95.5
388.038	105.5
388.263	107.5
388.488	110.5
388.713	95.5
388.938	89.5
389.163	111.5
389.387	93.5
389.612	92.5
389.837	89.5
390.062	89.5
390.287	84.5
390.512	93.5
390.736	94.5
390.961	95.5
391.186	87.5
391.411	107.5
391.636	94.5
391.86	81.5
392.085	76.5
392.31	72.5
392.534	78.5
392.759	91.5
392.984	85.5
393.208	86.5
393.433	96.5
393.658	84.5
393.882	84.5
394.107	82.5
394.331	94.5
394.556	95.5
394.78	102.5
395.005	102.5
395.229	86.5
395.454	88.5
395.678	80.5
395.903	86.5
396.127	98.5
396.352	89.5
396.576	92.5
396.801	91.5
397.025	100.5
397.249	80.5
397.474	81.5
397.698	84.5
397.922	87.5
398.147	79.5
398.371	81.5
398.595	85.5
398.82	79.5
399.044	86.5
399.268	81.5
399.492	77.5
399.717	82.5
399.941	85.5
400.165	97.5
400.389	91.5
400.613	91.5
400.837	91.5
401.062	92.5
401.286	89.5
401.51	73.5
401.734	98.5
401.958	116.5
402.182	121.5
402.406	146.5
402.63	115.5
402.854	98.5
403.078	98.5
403.302	86.5
403.526	79.5
403.75	87.5
403.974	102.5
404.198	98.5
404.422	101.5
404.645	86.5
404.869	99.5
405.093	101.5
405.317	98.5
405.541	112.5
405.765	97.5
405.988	128.5
406.212	156.5
406.436	216.5
406.66	143.5
406.883	81.5
407.107	90.5
407.331	86.5
407.555	94.5
407.778	89.5
408.002	92.5
408.226	87.5
408.449	95.5
408.673	90.5
408.896	98.5
409.12	99.5
409.344	90.5
409.567	102.5
409.791	81.5
410.014	98.5
410.238	88.5
410.461	87.5
410.685	95.5
410.908	98.5
411.132	93.5
411.355	93.5
411.578	94.5
411.802	79.5
412.025	77.5
412.249	95.5
412.472	104.5
412.695	96.5
412.919	95.5
413.142	72.5
413.365	91.5
413.589	84.5
413.812	81.5
414.035	87.5
414.258	93.5
414.482	95.5
414.705	89.5
414.928	91.5
415.151	95.5
415.374	79.5
415.597	89.5
415.821	92.5
416.044	101.5
416.267	97.5
416.49	85.5
416.713	83.5
416.936	96.5
417.159	80.5
417.382	89.5
417.605	93.5
417.828	92.5
418.051	98.5
418.274	97.5
418.497	86.5
418.72	89.5
418.943	80.5
419.166	94.5
419.389	86.5
419.611	100.5
419.834	83.5
420.057	98.5
420.28	87.5
420.503	85.5
420.726	85.5
420.948	89.5
421.171	69.5
421.394	77.5
421.617	97.5
421.839	106.5
422.062	86.5
422.285	97.5
422.507	84.5
422.73	96.5
422.953	89.5
423.175	94.5
423.398	88.5
423.621	88.5
423.843	78.5
424.066	82.5
424.288	105.5
424.511	81.5
424.733	89.5
424.956	106.5
425.178	105.5
425.401	110.5
425.623	95.5
425.846	81.5
426.068	96.5
426.291	103.5
426.513	87.5
426.735	81.5
426.958	95.5
427.18	111.5
427.402	114.5
427.625	144.5
427.847	161.5
428.069	151.5
428.292	92.5
428.514	97.5
428.736	91.5
428.958	82.5
429.181	102.5
429.403	78.5
429.625	85.5
429.847	97.5
430.069	93.5
430.292	88.5
430.514	84.5
430.736	86.5
430.958	87.5
431.18	73.5
431.402	84.5
431.624	88.5
431.846	83.5
432.068	86.5
432.29	84.5
432.512	98.5
432.734	99.5
432.956	98.5
433.178	85.5
433.4	90.5
433.622	93.5
433.844	90.5
434.066	75.5
434.287	86.5
434.509	103.5
434.731	98.5
434.953	87.5
435.175	84.5
435.397	98.5
435.618	81.5
435.84	90.5
436.062	115.5
436.284	105.5
436.505	98.5
436.727	102.5
436.949	99.5
437.17	97.5
437.392	81.5
437.614	98.5
437.835	106.5
438.057	114.5
438.278	113.5
438.5	93.5
438.721	117.5
438.943	94.5
439.165	84.5
439.386	87.5
439.608	93.5
439.829	87.5
440.05	107.5
440.272	125.5
440.493	85.5
440.715	93.5
440.936	92.5
441.158	86.5
441.379	88.5
441.6	83.5
441.822	79.5
442.043	98.5
442.264	104.5
442.486	84.5
442.707	71.5
442.928	111.5
443.149	126.5
443.371	129.5
443.592	97.5
443.813	82.5
444.034	99.5
444.255	95.5
444.476	80.5
444.698	74.5
444.919	90.5
445.14	129.5
445.361	110.5
445.582	109.5
445.803	125.5
446.024	117.5
446.245	128.5
446.466	92.5
446.687	83.5
446.908	76.5
447.129	99.5
447.35	90.5
447.571	93.5
447.792	98.5
448.013	107.5
448.234	97.5
448.455	96.5
448.675	117.5
448.896	113.5
449.117	98.5
449.338	95.5
449.559	106.5
449.779	110.5
450	87.5
450.221	83.5
450.442	98.5
450.662	85.5
450.883	105.5
451.104	102.5
451.324	95.5
451.545	79.5
451.766	89.5
451.986	83.5
452.207	93.5
452.428	78.5
452.648	91.5
452.869	98.5
453.089	99.5
453.31	100.5
453.53	85.5
453.751	97.5
453.971	105.5
454.192	99.5
454.412	81.5
454.633	85.5
454.853	81.5
455.073	78.5
455.294	79.5
455.514	98.5
455.734	100.5
455.955	91.5
456.175	75.5
456.395	78.5
456.616	72.5
456.836	80.5
457.056	87.5
457.276	88.5
457.497	72.5
457.717	91.5
457.937	72.5
458.157	74.5
458.377	102.5
458.598	103.5
458.818	118.5
459.038	134.5
459.258	104.5
459.478	104.5
459.698	82.5
459.918	104.5
460.138	81.5
460.358	88.5
460.578	95.5
460.798	72.5
461.018	87.5
461.238	95.5
461.458	98.5
461.678	89.5
461.898	98.5
462.118	86.5
462.338	86.5
462.558	88.5
462.777	87.5
462.997	92.5
463.217	90.5
463.437	92.5
463.657	99.5
463.876	91.5
464.096	86.5
464.316	82.5
464.536	96.5
464.755	74.5
464.975	108.5
465.195	146.5
465.414	150.5
465.634	91.5
465.854	74.5
466.073	81.5
466.293	94.5
466.512	87.5
466.732	86.5
466.951	100.5
467.171	99.5
467.391	104.5
467.61	100.5
467.829	136.5
468.049	250.5
468.268	347.5
468.488	114.5
468.707	100.5
468.927	95.5
469.146	87.5
469.365	95.5
469.585	96.5
469.804	99.5
470.023	88.5
470.243	93.5
470.462	101.5
470.681	111.5
470.901	82.5
471.12	91.5
471.339	102.5
471.558	83.5
471.777	104.5
471.997	172.5
472.216	467.5
472.435	965.5
472.654	257.5
472.873	116.5
473.092	83.5
473.311	88.5
473.53	109.5
473.749	93.5
473.968	91.5
474.187	110.5
474.406	93.5
474.625	98.5
474.844	79.5
475.063	87.5
475.282	76.5
475.501	66.5
475.72	83.5
475.939	87.5
476.158	78.5
476.377	103.5
476.596	79.5
476.814	82.5
477.033	94.5
477.252	83.5
477.471	88.5
477.69	101.5
477.908	79.5
478.127	89.5
478.346	97.5
478.564	96.5
478.783	93.5
479.002	87.5
479.22	97.5
479.439	106.5
479.658	101.5
479.876	96.5
480.095	102.5
480.313	126.5
480.532	114.5
480.751	167.5
480.969	459.5
481.188	1659.5
481.406	971.5
481.624	191.5
481.843	108.5
482.061	99.5
482.28	96.5
482.498	90.5
482.717	87.5
482.935	87.5
483.153	92.5
483.372	97.5
483.59	85.5
483.808	90.5
484.027	101.5
484.245	90.5
484.463	97.5
484.681	97.5
484.9	90.5
485.118	91.5
485.336	89.5
485.554	100.5
485.772	92.5
485.99	110.5
486.209	106.5
486.427	104.5
486.645	106.5
486.863	113.5
487.081	113.5
487.299	104.5
487.517	93.5
487.735	94.5
487.953	90.5
488.171	94.5
488.389	107.5
488.607	93.5
488.825	87.5
489.043	83.5
489.261	78.5
489.479	91.5
489.696	84.5
489.914	97.5
490.132	98.5
490.35	87.5
490.568	104.5
490.786	81.5
491.003	86.5
491.221	100.5
491.439	91.5
491.657	82.5
491.874	98.5
492.092	72.5
492.31	113.5
492.527	81.5
492.745	95.5
492.963	102.5
493.18	97.5
493.398	103.5
493.615	105.5
493.833	89.5
494.05	94.5
494.268	86.5
494.485	69.5
494.703	90.5
494.92	87.5
495.138	74.5
495.355	91.5
495.573	96.5
495.79	97.5
496.008	93.5
496.225	77.5
496.442	94.5
496.66	109.5
496.877	97.5
497.094	93.5
497.312	86.5
497.529	85.5
497.746	87.5
497.963	92.5
498.181	77.5
498.398	87.5
498.615	90.5
498.832	98.5
499.049	100.5
499.267	96.5
499.484	85.5
499.701	85.5
499.918	89.5
500.135	93.5
500.352	90.5
500.569	85.5
500.786	101.5
501.003	95.5
501.22	88.5
501.437	82.5
501.654	89.5
501.871	103.5
502.088	84.5
502.305	96.5
502.522	89.5
502.739	88.5
502.956	84.5
503.172	77.5
503.389	113.5
503.606	112.5
503.823	104.5
504.04	103.5
504.256	91.5
504.473	75.5
504.69	95.5
504.907	82.5
505.123	91.5
505.34	97.5
505.557	81.5
505.773	102.5
505.99	91.5
506.207	91.5
506.423	102.5
506.64	93.5
506.856	97.5
507.073	90.5
507.289	97.5
507.506	102.5
507.722	83.5
507.939	118.5
508.155	105.5
508.372	84.5
508.588	97.5
508.805	93.5
509.021	112.5
509.238	98.5
509.454	88.5
509.67	97.5
509.887	115.5
510.103	119.5
510.319	191.5
510.536	614.5
510.752	1901.5
510.968	525.5
511.184	135.5
511.401	110.5
511.617	90.5
511.833	99.5
512.049	96.5
512.265	103.5
512.481	82.5
512.698	88.5
512.914	90.5
513.13	104.5
513.346	107.5
513.562	97.5
513.778	94.5
513.994	87.5
514.21	110.5
514.426	111.5
514.642	116.5
514.858	116.5
515.074	142.5
515.29	374.5
515.506	1224.5
515.721	449.5
515.937	144.5
516.153	105.5
516.369	102.5
516.585	98.5
516.801	106.5
517.016	95.5
517.232	94.5
517.448	86.5
517.664	83.5
517.879	84.5
518.095	94.5
518.311	95.5
518.527	95.5
518.742	90.5
518.958	88.5
519.173	98.5
519.389	98.5
519.605	83.5
519.82	93.5
520.036	85.5
520.251	121.5
520.467	102.5
520.682	120.5
520.898	107.5
521.113	102.5
521.329	121.5
521.544	159.5
521.76	483.5
521.975	2044.5
522.19	1183.5
522.406	277.5
522.621	117.5
522.836	101.5
523.052	96.5
523.267	91.5
523.482	87.5
523.698	104.5
523.913	126.5
524.128	104.5
524.343	86.5
524.559	99.5
524.774	96.5
524.989	89.5
525.204	98.5
525.419	100.5
525.634	90.5
525.849	110.5
526.064	89.5
526.28	93.5
526.495	89.5
526.71	70.5
526.925	87.5
527.14	97.5
527.355	105.5
527.57	93.5
527.785	89.5
527.999	87.5
528.214	91.5
528.429	89.5
528.644	82.5
528.859	69.5
529.074	94.5
529.289	106.5
529.503	155.5
529.718	110.5
529.933	88.5
530.148	91.5
530.363	97.5
530.577	97.5
530.792	82.5
531.007	89.5
531.221	104.5
531.436	94.5
531.651	101.5
531.865	93.5
532.08	80.5
532.295	92.5
532.509	93.5
532.724	84.5
532.938	98.5
533.153	94.5
533.367	91.5
533.582	103.5
533.796	72.5
534.011	85.5
534.225	101.5
534.44	86.5
534.654	98.5
534.868	88.5
