Data from Circ_1989_H10_HRD10591_00032.txt Node
Date: Wed Jan 03 12:01:28 EST 2024
User: Yrep
Spectrometer: HR+D1059
Trigger mode: 1
Integration Time (sec): 1.000000E-1
Scans to average: 1
Electric dark correction enabled: true
Nonlinearity correction enabled: false
Boxcar width: 0
XAxis mode: Wavelengths
Number of Pixels in Spectrum: 2048
>>>>>Begin Spectral Data<<<<<
223.165	-18.62
223.4	-18.62
223.635	-18.62
223.869	-16.62
224.104	7.38
224.338	-17.62
224.573	-13.62
224.808	-8.62
225.042	-19.62
225.277	0.38
225.511	-3.62
225.746	-19.62
225.98	18.38
226.215	7.38
226.449	14.38
226.683	17.38
226.918	28.38
227.152	24.38
227.387	18.38
227.621	28.38
227.856	46.38
228.09	37.38
228.324	45.38
228.559	58.38
228.793	46.38
229.027	64.38
229.262	50.38
229.496	64.38
229.73	78.38
229.964	83.38
230.199	88.38
230.433	72.38
230.667	74.38
230.901	80.38
231.136	90.38
231.37	89.38
231.604	76.38
231.838	77.38
232.072	81.38
232.306	81.38
232.541	87.38
232.775	85.38
233.009	84.38
233.243	74.38
233.477	83.38
233.711	64.38
233.945	77.38
234.179	82.38
234.413	83.38
234.647	75.38
234.881	80.38
235.115	69.38
235.349	77.38
235.583	90.38
235.817	76.38
236.051	64.38
236.285	62.38
236.519	66.38
236.753	73.38
236.987	81.38
237.221	84.38
237.455	92.38
237.689	84.38
237.922	80.38
238.156	77.38
238.39	74.38
238.624	73.38
238.858	68.38
239.091	72.38
239.325	79.38
239.559	82.38
239.793	82.38
240.027	74.38
240.26	76.38
240.494	75.38
240.728	78.38
240.961	78.38
241.195	72.38
241.429	92.38
241.662	69.38
241.896	79.38
242.13	78.38
242.363	78.38
242.597	61.38
242.83	68.38
243.064	63.38
243.298	78.38
243.531	80.38
243.765	80.38
243.998	73.38
244.232	84.38
244.465	83.38
244.699	68.38
244.932	79.38
245.166	88.38
245.399	67.38
245.633	76.38
245.866	76.38
246.099	69.38
246.333	78.38
246.566	68.38
246.8	86.38
247.033	81.38
247.266	85.38
247.5	73.38
247.733	80.38
247.966	77.38
248.2	85.38
248.433	83.38
248.666	84.38
248.899	83.38
249.133	92.38
249.366	90.38
249.599	85.38
249.832	84.38
250.066	70.38
250.299	79.38
250.532	79.38
250.765	66.38
250.998	63.38
251.231	81.38
251.465	87.38
251.698	68.38
251.931	76.38
252.164	80.38
252.397	88.38
252.63	76.38
252.863	79.38
253.096	91.38
253.329	77.38
253.562	93.38
253.795	72.38
254.028	92.38
254.261	89.38
254.494	85.38
254.727	83.38
254.96	82.38
255.193	88.38
255.426	70.38
255.659	78.38
255.892	84.38
256.124	99.38
256.357	77.38
256.59	82.38
256.823	82.38
257.056	84.38
257.289	69.38
257.521	85.38
257.754	83.38
257.987	78.38
258.22	84.38
258.452	93.38
258.685	85.38
258.918	68.38
259.151	86.38
259.383	84.38
259.616	70.38
259.849	69.38
260.081	75.38
260.314	80.38
260.547	88.38
260.779	89.38
261.012	94.38
261.244	77.38
261.477	70.38
261.71	98.38
261.942	121.38
262.175	110.38
262.407	85.38
262.64	76.38
262.872	90.38
263.105	85.38
263.337	81.38
263.57	91.38
263.802	81.38
264.035	76.38
264.267	68.38
264.499	76.38
264.732	89.38
264.964	85.38
265.197	88.38
265.429	92.38
265.661	77.38
265.894	81.38
266.126	75.38
266.358	87.38
266.591	74.38
266.823	82.38
267.055	76.38
267.287	86.38
267.52	77.38
267.752	101.38
267.984	77.38
268.216	88.38
268.448	92.38
268.681	75.38
268.913	90.38
269.145	94.38
269.377	97.38
269.609	87.38
269.841	79.38
270.073	82.38
270.306	76.38
270.538	85.38
270.77	74.38
271.002	91.38
271.234	98.38
271.466	87.38
271.698	77.38
271.93	85.38
272.162	90.38
272.394	96.38
272.626	82.38
272.858	89.38
273.09	82.38
273.322	83.38
273.553	87.38
273.785	98.38
274.017	85.38
274.249	85.38
274.481	83.38
274.713	78.38
274.945	100.38
275.176	101.38
275.408	95.38
275.64	97.38
275.872	79.38
276.104	92.38
276.335	96.38
276.567	111.38
276.799	111.38
277.031	121.38
277.262	115.38
277.494	95.38
277.726	100.38
277.957	89.38
278.189	83.38
278.421	97.38
278.652	88.38
278.884	82.38
279.115	84.38
279.347	85.38
279.579	106.38
279.81	97.38
280.042	131.38
280.273	168.38
280.505	108.38
280.736	92.38
280.968	81.38
281.199	84.38
281.431	70.38
281.662	89.38
281.894	93.38
282.125	95.38
282.356	116.38
282.588	137.38
282.819	102.38
283.051	82.38
283.282	77.38
283.513	95.38
283.745	74.38
283.976	88.38
284.207	78.38
284.439	80.38
284.67	91.38
284.901	95.38
285.132	86.38
285.364	90.38
285.595	80.38
285.826	85.38
286.057	89.38
286.288	94.38
286.52	84.38
286.751	83.38
286.982	72.38
287.213	83.38
287.444	79.38
287.675	86.38
287.906	76.38
288.138	96.38
288.369	82.38
288.6	88.38
288.831	82.38
289.062	72.38
289.293	90.38
289.524	91.38
289.755	88.38
289.986	79.38
290.217	74.38
290.448	69.38
290.679	80.38
290.91	79.38
291.141	71.38
291.371	89.38
291.602	74.38
291.833	84.38
292.064	83.38
292.295	108.38
292.526	78.38
292.757	96.38
292.987	93.38
293.218	76.38
293.449	88.38
293.68	104.38
293.91	80.38
294.141	90.38
294.372	104.38
294.603	100.38
294.833	85.38
295.064	88.38
295.295	85.38
295.525	78.38
295.756	93.38
295.987	108.38
296.217	140.38
296.448	126.38
296.679	111.38
296.909	90.38
297.14	96.38
297.37	97.38
297.601	77.38
297.831	95.38
298.062	90.38
298.292	81.38
298.523	89.38
298.753	90.38
298.984	80.38
299.214	99.38
299.445	89.38
299.675	92.38
299.905	93.38
300.136	102.38
300.366	79.38
300.597	95.38
300.827	99.38
301.057	80.38
301.288	96.38
301.518	101.38
301.748	80.38
301.979	106.38
302.209	93.38
302.439	90.38
302.669	88.38
302.9	97.38
303.13	96.38
303.36	96.38
303.59	105.38
303.82	105.38
304.051	97.38
304.281	86.38
304.511	94.38
304.741	82.38
304.971	93.38
305.201	79.38
305.431	89.38
305.661	77.38
305.891	82.38
306.121	88.38
306.352	98.38
306.582	107.38
306.812	96.38
307.042	96.38
307.272	113.38
307.502	133.38
307.731	112.38
307.961	106.38
308.191	106.38
308.421	83.38
308.651	89.38
308.881	101.38
309.111	92.38
309.341	107.38
309.571	91.38
309.8	99.38
310.03	97.38
310.26	100.38
310.49	92.38
310.72	96.38
310.949	100.38
311.179	95.38
311.409	77.38
311.639	93.38
311.868	101.38
312.098	88.38
312.328	85.38
312.557	100.38
312.787	97.38
313.017	104.38
313.246	100.38
313.476	85.38
313.706	87.38
313.935	101.38
314.165	83.38
314.394	111.38
314.624	91.38
314.853	85.38
315.083	89.38
315.312	79.38
315.542	81.38
315.771	77.38
316.001	89.38
316.23	95.38
316.46	77.38
316.689	97.38
316.919	83.38
317.148	98.38
317.377	107.38
317.607	93.38
317.836	92.38
318.065	82.38
318.295	85.38
318.524	83.38
318.753	88.38
318.983	90.38
319.212	81.38
319.441	96.38
319.67	103.38
319.9	90.38
320.129	96.38
320.358	80.38
320.587	95.38
320.816	100.38
321.046	88.38
321.275	90.38
321.504	84.38
321.733	97.38
321.962	102.38
322.191	108.38
322.42	111.38
322.649	104.38
322.878	101.38
323.108	127.38
323.337	118.38
323.566	127.38
323.795	159.38
324.024	210.38
324.253	416.38
324.482	844.38
324.71	1758.38
324.939	2438.38
325.168	888.38
325.397	278.38
325.626	144.38
325.855	133.38
326.084	125.38
326.313	130.38
326.542	159.38
326.77	232.38
326.999	456.38
327.228	954.38
327.457	1821.38
327.686	1468.38
327.914	443.38
328.143	314.38
328.372	353.38
328.6	224.38
328.829	136.38
329.058	151.38
329.287	154.38
329.515	129.38
329.744	148.38
329.972	250.38
330.201	500.38
330.43	705.38
330.658	348.38
330.887	181.38
331.115	129.38
331.344	111.38
331.572	91.38
331.801	110.38
332.03	98.38
332.258	95.38
332.486	101.38
332.715	94.38
332.943	93.38
333.172	119.38
333.4	115.38
333.629	115.38
333.857	140.38
334.085	238.38
334.314	468.38
334.542	840.38
334.771	829.38
334.999	245.38
335.227	130.38
335.455	103.38
335.684	93.38
335.912	97.38
336.14	108.38
336.369	92.38
336.597	101.38
336.825	98.38
337.053	80.38
337.281	85.38
337.51	82.38
337.738	99.38
337.966	101.38
338.194	92.38
338.422	90.38
338.65	85.38
338.878	106.38
339.106	83.38
339.334	96.38
339.562	84.38
339.79	99.38
340.018	77.38
340.246	83.38
340.474	91.38
340.702	98.38
340.93	95.38
341.158	106.38
341.386	92.38
341.614	105.38
341.842	100.38
342.07	92.38
342.298	93.38
342.526	88.38
342.754	92.38
342.981	96.38
343.209	93.38
343.437	97.38
343.665	89.38
343.893	93.38
344.12	95.38
344.348	76.38
344.576	88.38
344.804	84.38
345.031	91.38
345.259	99.38
345.487	76.38
345.714	89.38
345.942	94.38
346.17	98.38
346.397	88.38
346.625	92.38
346.853	88.38
347.08	85.38
347.308	106.38
347.535	82.38
347.763	101.38
347.99	91.38
348.218	100.38
348.445	100.38
348.673	97.38
348.9	84.38
349.128	94.38
349.355	84.38
349.583	84.38
349.81	86.38
350.037	88.38
350.265	92.38
350.492	93.38
350.72	86.38
350.947	108.38
351.174	97.38
351.402	100.38
351.629	107.38
351.856	102.38
352.083	109.38
352.311	94.38
352.538	105.38
352.765	104.38
352.992	89.38
353.22	92.38
353.447	91.38
353.674	101.38
353.901	89.38
354.128	85.38
354.355	99.38
354.583	90.38
354.81	93.38
355.037	90.38
355.264	84.38
355.491	80.38
355.718	87.38
355.945	79.38
356.172	82.38
356.399	89.38
356.626	88.38
356.853	78.38
357.08	88.38
357.307	94.38
357.534	83.38
357.761	77.38
357.988	92.38
358.215	88.38
358.441	98.38
358.668	108.38
358.895	84.38
359.122	91.38
359.349	76.38
359.576	91.38
359.802	99.38
360.029	107.38
360.256	111.38
360.483	105.38
360.709	84.38
360.936	97.38
361.163	95.38
361.39	96.38
361.616	91.38
361.843	89.38
362.07	83.38
362.296	74.38
362.523	88.38
362.749	90.38
362.976	96.38
363.203	82.38
363.429	62.38
363.656	78.38
363.882	89.38
364.109	89.38
364.335	83.38
364.562	87.38
364.788	79.38
365.015	101.38
365.241	106.38
365.468	104.38
365.694	110.38
365.92	99.38
366.147	91.38
366.373	84.38
366.599	92.38
366.826	85.38
367.052	75.38
367.278	91.38
367.505	90.38
367.731	77.38
367.957	85.38
368.184	93.38
368.41	94.38
368.636	112.38
368.862	104.38
369.089	99.38
369.315	101.38
369.541	93.38
369.767	81.38
369.993	98.38
370.219	89.38
370.445	80.38
370.672	88.38
370.898	100.38
371.124	78.38
371.35	90.38
371.576	86.38
371.802	74.38
372.028	76.38
372.254	84.38
372.48	84.38
372.706	87.38
372.932	52.38
373.158	62.38
373.384	83.38
373.61	78.38
373.835	83.38
374.061	93.38
374.287	83.38
374.513	86.38
374.739	87.38
374.965	84.38
375.191	85.38
375.416	65.38
375.642	81.38
375.868	78.38
376.094	106.38
376.319	89.38
376.545	76.38
376.771	99.38
376.997	94.38
377.222	97.38
377.448	91.38
377.674	103.38
377.899	77.38
378.125	77.38
378.35	92.38
378.576	73.38
378.802	91.38
379.027	88.38
379.253	74.38
379.478	97.38
379.704	92.38
379.929	94.38
380.155	89.38
380.38	91.38
380.606	93.38
380.831	87.38
381.057	95.38
381.282	84.38
381.507	97.38
381.733	99.38
381.958	83.38
382.184	100.38
382.409	99.38
382.634	114.38
382.86	92.38
383.085	98.38
383.31	82.38
383.535	86.38
383.761	82.38
383.986	102.38
384.211	101.38
384.436	98.38
384.662	86.38
384.887	85.38
385.112	77.38
385.337	95.38
385.562	101.38
385.787	118.38
386.013	106.38
386.238	124.38
386.463	104.38
386.688	102.38
386.913	99.38
387.138	102.38
387.363	104.38
387.588	108.38
387.813	103.38
388.038	99.38
388.263	102.38
388.488	113.38
388.713	92.38
388.938	100.38
389.163	90.38
389.387	85.38
389.612	96.38
389.837	86.38
390.062	91.38
390.287	80.38
390.512	82.38
390.736	89.38
390.961	72.38
391.186	105.38
391.411	78.38
391.636	89.38
391.86	76.38
392.085	84.38
392.31	77.38
392.534	88.38
392.759	83.38
392.984	92.38
393.208	88.38
393.433	85.38
393.658	86.38
393.882	89.38
394.107	97.38
394.331	93.38
394.556	83.38
394.78	88.38
395.005	69.38
395.229	83.38
395.454	99.38
395.678	73.38
395.903	88.38
396.127	67.38
396.352	82.38
396.576	90.38
396.801	89.38
397.025	88.38
397.249	90.38
397.474	92.38
397.698	92.38
397.922	98.38
398.147	80.38
398.371	76.38
398.595	79.38
398.82	77.38
399.044	85.38
399.268	75.38
399.492	83.38
399.717	94.38
399.941	70.38
400.165	84.38
400.389	78.38
400.613	91.38
400.837	89.38
401.062	91.38
401.286	87.38
401.51	103.38
401.734	102.38
401.958	99.38
402.182	118.38
402.406	154.38
402.63	122.38
402.854	100.38
403.078	80.38
403.302	75.38
403.526	86.38
403.75	84.38
403.974	95.38
404.198	78.38
404.422	83.38
404.645	79.38
404.869	85.38
405.093	95.38
405.317	112.38
405.541	126.38
405.765	104.38
405.988	110.38
406.212	173.38
406.436	248.38
406.66	157.38
406.883	112.38
407.107	100.38
407.331	93.38
407.555	105.38
407.778	100.38
408.002	74.38
408.226	107.38
408.449	80.38
408.673	66.38
408.896	79.38
409.12	96.38
409.344	85.38
409.567	92.38
409.791	74.38
410.014	75.38
410.238	87.38
410.461	86.38
410.685	100.38
410.908	81.38
411.132	86.38
411.355	91.38
411.578	108.38
411.802	77.38
412.025	80.38
412.249	89.38
412.472	97.38
412.695	112.38
412.919	104.38
413.142	86.38
413.365	88.38
413.589	82.38
413.812	81.38
414.035	90.38
414.258	95.38
414.482	84.38
414.705	92.38
414.928	76.38
415.151	92.38
415.374	96.38
415.597	82.38
415.821	79.38
416.044	76.38
416.267	91.38
416.49	81.38
416.713	90.38
416.936	85.38
417.159	76.38
417.382	85.38
417.605	77.38
417.828	96.38
418.051	92.38
418.274	77.38
418.497	78.38
418.72	69.38
418.943	91.38
419.166	79.38
419.389	96.38
419.611	101.38
419.834	91.38
420.057	89.38
420.28	84.38
420.503	79.38
420.726	66.38
420.948	79.38
421.171	90.38
421.394	89.38
421.617	93.38
421.839	103.38
422.062	84.38
422.285	93.38
422.507	91.38
422.73	105.38
422.953	98.38
423.175	89.38
423.398	84.38
423.621	77.38
423.843	97.38
424.066	82.38
424.288	83.38
424.511	94.38
424.733	96.38
424.956	109.38
425.178	97.38
425.401	94.38
425.623	109.38
425.846	90.38
426.068	76.38
426.291	85.38
426.513	81.38
426.735	91.38
426.958	77.38
427.18	110.38
427.402	137.38
427.625	194.38
427.847	176.38
428.069	179.38
428.292	97.38
428.514	82.38
428.736	68.38
428.958	87.38
429.181	80.38
429.403	91.38
429.625	88.38
429.847	97.38
430.069	101.38
430.292	101.38
430.514	90.38
430.736	75.38
430.958	77.38
431.18	85.38
431.402	89.38
431.624	84.38
431.846	84.38
432.068	82.38
432.29	73.38
432.512	85.38
432.734	85.38
432.956	96.38
433.178	98.38
433.4	124.38
433.622	92.38
433.844	88.38
434.066	87.38
434.287	84.38
434.509	88.38
434.731	78.38
434.953	90.38
435.175	85.38
435.397	72.38
435.618	80.38
435.84	112.38
436.062	126.38
436.284	115.38
436.505	101.38
436.727	98.38
436.949	84.38
437.17	81.38
437.392	74.38
437.614	99.38
437.835	120.38
438.057	132.38
438.278	100.38
438.5	112.38
438.721	118.38
438.943	85.38
439.165	74.38
439.386	81.38
439.608	76.38
439.829	102.38
440.05	136.38
440.272	148.38
440.493	105.38
440.715	85.38
440.936	87.38
441.158	94.38
441.379	94.38
441.6	95.38
441.822	91.38
442.043	98.38
442.264	97.38
442.486	100.38
442.707	88.38
442.928	88.38
443.149	139.38
443.371	134.38
443.592	107.38
443.813	121.38
444.034	109.38
444.255	88.38
444.476	85.38
444.698	70.38
444.919	88.38
445.14	123.38
445.361	115.38
445.582	110.38
445.803	140.38
446.024	136.38
446.245	144.38
446.466	117.38
446.687	82.38
446.908	82.38
447.129	79.38
447.35	84.38
447.571	88.38
447.792	97.38
448.013	93.38
448.234	92.38
448.455	102.38
448.675	117.38
448.896	113.38
449.117	94.38
449.338	86.38
449.559	135.38
449.779	134.38
450	104.38
450.221	94.38
450.442	86.38
450.662	77.38
450.883	108.38
451.104	122.38
451.324	102.38
451.545	84.38
451.766	93.38
451.986	82.38
452.207	79.38
452.428	84.38
452.648	92.38
452.869	101.38
453.089	123.38
453.31	114.38
453.53	101.38
453.751	83.38
453.971	97.38
454.192	105.38
454.412	90.38
454.633	84.38
454.853	83.38
455.073	86.38
455.294	80.38
455.514	92.38
455.734	86.38
455.955	69.38
456.175	76.38
456.395	85.38
456.616	86.38
456.836	80.38
457.056	80.38
457.276	94.38
457.497	89.38
457.717	67.38
457.937	92.38
458.157	80.38
458.377	91.38
458.598	94.38
458.818	161.38
459.038	178.38
459.258	128.38
459.478	88.38
459.698	78.38
459.918	80.38
460.138	78.38
460.358	93.38
460.578	82.38
460.798	77.38
461.018	97.38
461.238	75.38
461.458	92.38
461.678	81.38
461.898	70.38
462.118	80.38
462.338	72.38
462.558	84.38
462.777	84.38
462.997	88.38
463.217	88.38
463.437	82.38
463.657	83.38
463.876	89.38
464.096	68.38
464.316	78.38
464.536	99.38
464.755	94.38
464.975	116.38
465.195	184.38
465.414	158.38
465.634	99.38
465.854	98.38
466.073	87.38
466.293	88.38
466.512	86.38
466.732	59.38
466.951	62.38
467.171	85.38
467.391	93.38
467.61	125.38
467.829	132.38
468.049	303.38
468.268	398.38
468.488	150.38
468.707	101.38
468.927	72.38
469.146	77.38
469.365	78.38
469.585	67.38
469.804	101.38
470.023	97.38
470.243	89.38
470.462	99.38
470.681	115.38
470.901	84.38
471.12	88.38
471.339	88.38
471.558	94.38
471.777	110.38
471.997	171.38
472.216	541.38
472.435	1209.38
472.654	329.38
472.873	105.38
473.092	90.38
473.311	60.38
473.53	76.38
473.749	90.38
473.968	92.38
474.187	111.38
474.406	91.38
474.625	80.38
474.844	84.38
475.063	91.38
475.282	76.38
475.501	90.38
475.72	96.38
475.939	76.38
476.158	89.38
476.377	85.38
476.596	93.38
476.814	95.38
477.033	94.38
477.252	86.38
477.471	82.38
477.69	103.38
477.908	97.38
478.127	90.38
478.346	102.38
478.564	105.38
478.783	82.38
479.002	94.38
479.22	82.38
479.439	113.38
479.658	114.38
479.876	102.38
480.095	94.38
480.313	103.38
480.532	130.38
480.751	171.38
480.969	508.38
481.188	2075.38
481.406	1216.38
481.624	210.38
481.843	103.38
482.061	82.38
482.28	98.38
482.498	84.38
482.717	72.38
482.935	91.38
483.153	97.38
483.372	93.38
483.59	91.38
483.808	80.38
484.027	91.38
484.245	96.38
484.463	83.38
484.681	89.38
484.9	85.38
485.118	89.38
485.336	102.38
485.554	86.38
485.772	92.38
485.99	85.38
486.209	98.38
486.427	113.38
486.645	116.38
486.863	100.38
487.081	98.38
487.299	100.38
487.517	93.38
487.735	65.38
487.953	87.38
488.171	91.38
488.389	83.38
488.607	104.38
488.825	80.38
489.043	81.38
489.261	85.38
489.479	86.38
489.696	89.38
489.914	94.38
490.132	84.38
490.35	88.38
490.568	90.38
490.786	92.38
491.003	75.38
491.221	96.38
491.439	93.38
491.657	88.38
491.874	95.38
492.092	94.38
492.31	78.38
492.527	89.38
492.745	85.38
492.963	83.38
493.18	90.38
493.398	91.38
493.615	103.38
493.833	97.38
494.05	84.38
494.268	91.38
494.485	81.38
494.703	87.38
494.92	77.38
495.138	87.38
495.355	82.38
495.573	72.38
495.79	86.38
496.008	73.38
496.225	68.38
496.442	86.38
496.66	77.38
496.877	95.38
497.094	78.38
497.312	76.38
497.529	81.38
497.746	88.38
497.963	103.38
498.181	82.38
498.398	92.38
498.615	117.38
498.832	101.38
499.049	102.38
499.267	94.38
499.484	77.38
499.701	93.38
499.918	95.38
500.135	85.38
500.352	82.38
500.569	101.38
500.786	96.38
501.003	90.38
501.22	88.38
501.437	84.38
501.654	87.38
501.871	105.38
502.088	91.38
502.305	89.38
502.522	84.38
502.739	78.38
502.956	89.38
503.172	96.38
503.389	98.38
503.606	94.38
503.823	74.38
504.04	90.38
504.256	81.38
504.473	94.38
504.69	83.38
504.907	86.38
505.123	79.38
505.34	86.38
505.557	82.38
505.773	107.38
505.99	96.38
506.207	95.38
506.423	91.38
506.64	93.38
506.856	88.38
507.073	105.38
507.289	87.38
507.506	103.38
507.722	102.38
507.939	116.38
508.155	90.38
508.372	90.38
508.588	93.38
508.805	99.38
509.021	86.38
509.238	96.38
509.454	86.38
509.67	96.38
509.887	107.38
510.103	114.38
510.319	214.38
510.536	706.38
510.752	2395.38
510.968	665.38
511.184	152.38
511.401	106.38
511.617	88.38
511.833	98.38
512.049	108.38
512.265	93.38
512.481	98.38
512.698	89.38
512.914	82.38
513.13	92.38
513.346	105.38
513.562	99.38
513.778	95.38
513.994	93.38
514.21	105.38
514.426	124.38
514.642	144.38
514.858	121.38
515.074	183.38
515.29	475.38
515.506	1674.38
515.721	618.38
