Data from Circ_1989_H10_HRD10591_00006.txt Node
Date: Wed Jan 03 12:01:22 EST 2024
User: Yrep
Spectrometer: HR+D1059
Trigger mode: 1
Integration Time (sec): 1.000000E-1
Scans to average: 1
Electric dark correction enabled: true
Nonlinearity correction enabled: false
Boxcar width: 0
XAxis mode: Wavelengths
Number of Pixels in Spectrum: 2048
>>>>>Begin Spectral Data<<<<<
223.165	-15.31
223.4	-15.31
223.635	-15.31
223.869	-21.31
224.104	-38.31
224.338	-12.31
224.573	-6.31
224.808	-21.31
225.042	1.69
225.277	-7.31
225.511	-13.31
225.746	0.69
225.98	15.69
226.215	4.69
226.449	7.69
226.683	35.69
226.918	26.69
227.152	42.69
227.387	24.69
227.621	37.69
227.856	51.69
228.09	35.69
228.324	43.69
228.559	67.69
228.793	57.69
229.027	63.69
229.262	75.69
229.496	66.69
229.73	63.69
229.964	63.69
230.199	79.69
230.433	86.69
230.667	75.69
230.901	73.69
231.136	79.69
231.37	66.69
231.604	73.69
231.838	71.69
232.072	74.69
232.306	60.69
232.541	74.69
232.775	99.69
233.009	58.69
233.243	91.69
233.477	86.69
233.711	80.69
233.945	79.69
234.179	75.69
234.413	81.69
234.647	87.69
234.881	81.69
235.115	74.69
235.349	75.69
235.583	79.69
235.817	93.69
236.051	72.69
236.285	82.69
236.519	75.69
236.753	73.69
236.987	67.69
237.221	69.69
237.455	93.69
237.689	79.69
237.922	64.69
238.156	72.69
238.39	75.69
238.624	71.69
238.858	80.69
239.091	83.69
239.325	69.69
239.559	74.69
239.793	83.69
240.027	80.69
240.26	72.69
240.494	62.69
240.728	59.69
240.961	65.69
241.195	67.69
241.429	80.69
241.662	75.69
241.896	75.69
242.13	69.69
242.363	81.69
242.597	74.69
242.83	66.69
243.064	67.69
243.298	85.69
243.531	75.69
243.765	86.69
243.998	73.69
244.232	79.69
244.465	75.69
244.699	73.69
244.932	66.69
245.166	75.69
245.399	76.69
245.633	69.69
245.866	59.69
246.099	65.69
246.333	76.69
246.566	63.69
246.8	77.69
247.033	76.69
247.266	71.69
247.5	65.69
247.733	83.69
247.966	88.69
248.2	83.69
248.433	66.69
248.666	83.69
248.899	74.69
249.133	80.69
249.366	79.69
249.599	72.69
249.832	88.69
250.066	87.69
250.299	62.69
250.532	79.69
250.765	61.69
250.998	64.69
251.231	71.69
251.465	80.69
251.698	71.69
251.931	79.69
252.164	83.69
252.397	75.69
252.63	88.69
252.863	72.69
253.096	90.69
253.329	69.69
253.562	68.69
253.795	82.69
254.028	72.69
254.261	103.69
254.494	75.69
254.727	77.69
254.96	67.69
255.193	84.69
255.426	84.69
255.659	63.69
255.892	74.69
256.124	86.69
256.357	86.69
256.59	92.69
256.823	91.69
257.056	78.69
257.289	90.69
257.521	85.69
257.754	83.69
257.987	77.69
258.22	82.69
258.452	65.69
258.685	76.69
258.918	82.69
259.151	59.69
259.383	82.69
259.616	81.69
259.849	76.69
260.081	66.69
260.314	82.69
260.547	82.69
260.779	87.69
261.012	77.69
261.244	77.69
261.477	74.69
261.71	96.69
261.942	90.69
262.175	111.69
262.407	83.69
262.64	72.69
262.872	71.69
263.105	68.69
263.337	82.69
263.57	82.69
263.802	97.69
264.035	89.69
264.267	88.69
264.499	73.69
264.732	75.69
264.964	81.69
265.197	85.69
265.429	87.69
265.661	87.69
265.894	82.69
266.126	107.69
266.358	74.69
266.591	73.69
266.823	70.69
267.055	71.69
267.287	85.69
267.52	62.69
267.752	88.69
267.984	70.69
268.216	69.69
268.448	77.69
268.681	86.69
268.913	78.69
269.145	74.69
269.377	93.69
269.609	71.69
269.841	89.69
270.073	69.69
270.306	80.69
270.538	67.69
270.77	81.69
271.002	80.69
271.234	77.69
271.466	82.69
271.698	68.69
271.93	82.69
272.162	71.69
272.394	76.69
272.626	73.69
272.858	81.69
273.09	83.69
273.322	79.69
273.553	80.69
273.785	83.69
274.017	82.69
274.249	71.69
274.481	83.69
274.713	80.69
274.945	83.69
275.176	81.69
275.408	89.69
275.64	81.69
275.872	81.69
276.104	99.69
276.335	80.69
276.567	81.69
276.799	80.69
277.031	88.69
277.262	91.69
277.494	93.69
277.726	66.69
277.957	68.69
278.189	69.69
278.421	87.69
278.652	93.69
278.884	82.69
279.115	89.69
279.347	93.69
279.579	89.69
279.81	94.69
280.042	107.69
280.273	97.69
280.505	82.69
280.736	85.69
280.968	85.69
281.199	72.69
281.431	75.69
281.662	85.69
281.894	87.69
282.125	100.69
282.356	99.69
282.588	115.69
282.819	100.69
283.051	83.69
283.282	70.69
283.513	83.69
283.745	80.69
283.976	90.69
284.207	88.69
284.439	85.69
284.67	78.69
284.901	77.69
285.132	81.69
285.364	71.69
285.595	101.69
285.826	99.69
286.057	85.69
286.288	91.69
286.52	67.69
286.751	80.69
286.982	73.69
287.213	67.69
287.444	80.69
287.675	79.69
287.906	82.69
288.138	81.69
288.369	85.69
288.6	86.69
288.831	83.69
289.062	85.69
289.293	94.69
289.524	90.69
289.755	85.69
289.986	76.69
290.217	78.69
290.448	74.69
290.679	72.69
290.91	80.69
291.141	88.69
291.371	82.69
291.602	78.69
291.833	79.69
292.064	74.69
292.295	68.69
292.526	81.69
292.757	85.69
292.987	73.69
293.218	86.69
293.449	75.69
293.68	82.69
293.91	87.69
294.141	87.69
294.372	74.69
294.603	85.69
294.833	99.69
295.064	80.69
295.295	81.69
295.525	82.69
295.756	85.69
295.987	89.69
296.217	109.69
296.448	109.69
296.679	89.69
296.909	78.69
297.14	93.69
297.37	64.69
297.601	81.69
297.831	83.69
298.062	96.69
298.292	94.69
298.523	99.69
298.753	91.69
298.984	79.69
299.214	89.69
299.445	91.69
299.675	68.69
299.905	74.69
300.136	81.69
300.366	82.69
300.597	71.69
300.827	88.69
301.057	87.69
301.288	99.69
301.518	87.69
301.748	79.69
301.979	88.69
302.209	87.69
302.439	88.69
302.669	77.69
302.9	82.69
303.13	73.69
303.36	71.69
303.59	91.69
303.82	97.69
304.051	89.69
304.281	80.69
304.511	102.69
304.741	83.69
304.971	81.69
305.201	78.69
305.431	83.69
305.661	98.69
305.891	69.69
306.121	84.69
306.352	85.69
306.582	99.69
306.812	89.69
307.042	88.69
307.272	85.69
307.502	96.69
307.731	88.69
307.961	85.69
308.191	85.69
308.421	88.69
308.651	87.69
308.881	92.69
309.111	101.69
309.341	90.69
309.571	99.69
309.8	94.69
310.03	95.69
310.26	84.69
310.49	79.69
310.72	89.69
310.949	93.69
311.179	92.69
311.409	83.69
311.639	77.69
311.868	85.69
312.098	79.69
312.328	83.69
312.557	89.69
312.787	91.69
313.017	87.69
313.246	79.69
313.476	84.69
313.706	96.69
313.935	78.69
314.165	95.69
314.394	67.69
314.624	92.69
314.853	94.69
315.083	89.69
315.312	86.69
315.542	79.69
315.771	87.69
316.001	96.69
316.23	94.69
316.46	87.69
316.689	96.69
316.919	83.69
317.148	93.69
317.377	75.69
317.607	73.69
317.836	74.69
318.065	83.69
318.295	89.69
318.524	83.69
318.753	80.69
318.983	87.69
319.212	91.69
319.441	95.69
319.67	87.69
319.9	83.69
320.129	89.69
320.358	96.69
320.587	100.69
320.816	78.69
321.046	81.69
321.275	95.69
321.504	81.69
321.733	88.69
321.962	100.69
322.191	93.69
322.42	80.69
322.649	97.69
322.878	115.69
323.108	102.69
323.337	103.69
323.566	125.69
323.795	102.69
324.024	155.69
324.253	281.69
324.482	535.69
324.71	1095.69
324.939	1422.69
325.168	562.69
325.397	185.69
325.626	125.69
325.855	109.69
326.084	98.69
326.313	117.69
326.542	127.69
326.77	164.69
326.999	323.69
327.228	651.69
327.457	1109.69
327.686	919.69
327.914	283.69
328.143	188.69
328.372	173.69
328.6	136.69
328.829	107.69
329.058	110.69
329.287	103.69
329.515	101.69
329.744	110.69
329.972	141.69
330.201	219.69
330.43	259.69
330.658	169.69
330.887	111.69
331.115	106.69
331.344	95.69
331.572	98.69
331.801	101.69
332.03	108.69
332.258	82.69
332.486	92.69
332.715	95.69
332.943	81.69
333.172	83.69
333.4	98.69
333.629	96.69
333.857	113.69
334.085	123.69
334.314	195.69
334.542	317.69
334.771	284.69
334.999	114.69
335.227	98.69
335.455	97.69
335.684	97.69
335.912	100.69
336.14	108.69
336.369	98.69
336.597	89.69
336.825	92.69
337.053	83.69
337.281	88.69
337.51	89.69
337.738	75.69
337.966	83.69
338.194	88.69
338.422	85.69
338.65	96.69
338.878	96.69
339.106	88.69
339.334	88.69
339.562	75.69
339.79	76.69
340.018	85.69
340.246	80.69
340.474	101.69
340.702	98.69
340.93	100.69
341.158	90.69
341.386	92.69
341.614	96.69
341.842	84.69
342.07	78.69
342.298	92.69
342.526	87.69
342.754	88.69
342.981	91.69
343.209	85.69
343.437	95.69
343.665	81.69
343.893	74.69
344.12	87.69
344.348	89.69
344.576	88.69
344.804	71.69
345.031	82.69
345.259	85.69
345.487	85.69
345.714	84.69
345.942	68.69
346.17	84.69
346.397	91.69
346.625	89.69
346.853	77.69
347.08	82.69
347.308	84.69
347.535	100.69
347.763	96.69
347.99	85.69
348.218	114.69
348.445	89.69
348.673	72.69
348.9	84.69
349.128	92.69
349.355	79.69
349.583	96.69
349.81	78.69
350.037	97.69
350.265	100.69
350.492	82.69
350.72	91.69
350.947	106.69
351.174	79.69
351.402	93.69
351.629	89.69
351.856	79.69
352.083	78.69
352.311	104.69
352.538	103.69
352.765	91.69
352.992	98.69
353.22	89.69
353.447	95.69
353.674	104.69
353.901	79.69
354.128	79.69
354.355	101.69
354.583	101.69
354.81	99.69
355.037	86.69
355.264	97.69
355.491	101.69
355.718	107.69
355.945	100.69
356.172	99.69
356.399	101.69
356.626	75.69
356.853	96.69
357.08	94.69
357.307	82.69
357.534	82.69
357.761	93.69
357.988	80.69
358.215	100.69
358.441	85.69
358.668	100.69
358.895	84.69
359.122	85.69
359.349	85.69
359.576	79.69
359.802	82.69
360.029	98.69
360.256	87.69
360.483	96.69
360.709	83.69
360.936	80.69
361.163	75.69
361.39	83.69
361.616	89.69
361.843	76.69
362.07	84.69
362.296	75.69
362.523	78.69
362.749	71.69
362.976	77.69
363.203	91.69
363.429	78.69
363.656	92.69
363.882	63.69
364.109	81.69
364.335	89.69
364.562	94.69
364.788	87.69
365.015	97.69
365.241	92.69
365.468	89.69
365.694	91.69
365.92	77.69
366.147	91.69
366.373	96.69
366.599	91.69
366.826	68.69
367.052	89.69
367.278	99.69
367.505	85.69
367.731	79.69
367.957	83.69
368.184	77.69
368.41	92.69
368.636	105.69
368.862	79.69
369.089	100.69
369.315	92.69
369.541	81.69
369.767	91.69
369.993	84.69
370.219	85.69
370.445	91.69
370.672	89.69
370.898	83.69
371.124	91.69
371.35	82.69
371.576	91.69
371.802	85.69
372.028	81.69
372.254	82.69
372.48	91.69
372.706	83.69
372.932	92.69
373.158	75.69
373.384	84.69
373.61	88.69
373.835	95.69
374.061	76.69
374.287	96.69
374.513	82.69
374.739	93.69
374.965	71.69
375.191	76.69
375.416	90.69
375.642	84.69
375.868	91.69
376.094	76.69
376.319	97.69
376.545	91.69
376.771	90.69
376.997	83.69
377.222	98.69
377.448	91.69
377.674	84.69
377.899	92.69
378.125	104.69
378.35	82.69
378.576	80.69
378.802	87.69
379.027	93.69
379.253	100.69
379.478	89.69
379.704	100.69
379.929	93.69
380.155	94.69
380.38	97.69
380.606	83.69
380.831	101.69
381.057	100.69
381.282	90.69
381.507	93.69
381.733	77.69
381.958	92.69
382.184	105.69
382.409	101.69
382.634	103.69
382.86	100.69
383.085	110.69
383.31	113.69
383.535	111.69
383.761	90.69
383.986	109.69
384.211	92.69
384.436	100.69
384.662	111.69
384.887	112.69
385.112	123.69
385.337	147.69
385.562	113.69
385.787	113.69
386.013	117.69
386.238	122.69
386.463	125.69
386.688	116.69
386.913	101.69
387.138	125.69
387.363	107.69
387.588	105.69
387.813	119.69
388.038	117.69
388.263	132.69
388.488	107.69
388.713	110.69
388.938	86.69
389.163	89.69
389.387	87.69
389.612	87.69
389.837	88.69
390.062	98.69
390.287	91.69
390.512	72.69
390.736	87.69
390.961	89.69
391.186	99.69
391.411	76.69
391.636	71.69
391.86	69.69
392.085	84.69
392.31	77.69
392.534	83.69
392.759	85.69
392.984	96.69
393.208	93.69
393.433	112.69
393.658	105.69
393.882	87.69
394.107	89.69
394.331	99.69
394.556	77.69
394.78	87.69
395.005	99.69
395.229	83.69
395.454	63.69
395.678	71.69
395.903	88.69
396.127	85.69
396.352	92.69
396.576	89.69
396.801	87.69
397.025	96.69
397.249	91.69
397.474	82.69
397.698	75.69
397.922	88.69
398.147	85.69
398.371	85.69
398.595	83.69
398.82	79.69
399.044	78.69
399.268	92.69
399.492	75.69
399.717	73.69
399.941	84.69
400.165	84.69
400.389	90.69
400.613	90.69
400.837	82.69
401.062	71.69
401.286	87.69
401.51	81.69
401.734	70.69
401.958	93.69
402.182	98.69
402.406	126.69
402.63	97.69
402.854	91.69
403.078	87.69
403.302	89.69
403.526	87.69
403.75	74.69
403.974	68.69
404.198	65.69
404.422	72.69
404.645	74.69
404.869	84.69
405.093	94.69
405.317	99.69
405.541	96.69
405.765	91.69
405.988	91.69
406.212	125.69
406.436	154.69
406.66	125.69
406.883	97.69
407.107	88.69
407.331	87.69
407.555	81.69
407.778	95.69
408.002	84.69
408.226	84.69
408.449	74.69
408.673	95.69
408.896	91.69
409.12	89.69
409.344	81.69
409.567	87.69
409.791	89.69
410.014	83.69
410.238	85.69
410.461	75.69
410.685	94.69
410.908	81.69
411.132	98.69
411.355	78.69
411.578	85.69
411.802	92.69
412.025	81.69
412.249	92.69
412.472	76.69
412.695	111.69
412.919	82.69
413.142	85.69
413.365	77.69
413.589	77.69
413.812	80.69
414.035	75.69
414.258	90.69
414.482	82.69
414.705	91.69
414.928	89.69
415.151	76.69
415.374	88.69
415.597	92.69
415.821	93.69
416.044	87.69
416.267	76.69
416.49	75.69
416.713	84.69
416.936	97.69
417.159	77.69
417.382	87.69
417.605	84.69
417.828	100.69
418.051	81.69
418.274	89.69
418.497	68.69
418.72	77.69
418.943	93.69
419.166	98.69
419.389	87.69
419.611	96.69
419.834	86.69
420.057	85.69
420.28	92.69
420.503	91.69
420.726	68.69
420.948	93.69
421.171	91.69
421.394	98.69
421.617	83.69
421.839	80.69
422.062	92.69
422.285	93.69
422.507	89.69
422.73	83.69
422.953	82.69
423.175	85.69
423.398	87.69
423.621	87.69
423.843	76.69
424.066	84.69
424.288	83.69
424.511	86.69
424.733	83.69
424.956	83.69
425.178	83.69
425.401	98.69
425.623	95.69
425.846	74.69
426.068	87.69
426.291	83.69
426.513	82.69
426.735	75.69
426.958	81.69
427.18	103.69
427.402	120.69
427.625	123.69
427.847	112.69
428.069	116.69
428.292	83.69
428.514	75.69
428.736	81.69
428.958	74.69
429.181	83.69
429.403	81.69
429.625	76.69
429.847	78.69
430.069	94.69
430.292	81.69
430.514	77.69
430.736	75.69
430.958	80.69
431.18	75.69
431.402	76.69
431.624	91.69
431.846	81.69
432.068	84.69
432.29	82.69
432.512	80.69
432.734	89.69
432.956	101.69
433.178	91.69
433.4	78.69
433.622	87.69
433.844	97.69
434.066	74.69
434.287	79.69
434.509	89.69
434.731	81.69
434.953	80.69
435.175	71.69
435.397	83.69
435.618	91.69
435.84	93.69
436.062	92.69
436.284	101.69
436.505	81.69
436.727	91.69
436.949	92.69
437.17	91.69
437.392	79.69
437.614	79.69
437.835	96.69
438.057	105.69
438.278	97.69
438.5	99.69
438.721	83.69
438.943	87.69
439.165	76.69
439.386	82.69
439.608	96.69
439.829	88.69
440.05	113.69
440.272	115.69
440.493	98.69
440.715	88.69
440.936	84.69
441.158	84.69
441.379	76.69
441.6	89.69
441.822	87.69
442.043	85.69
442.264	103.69
442.486	100.69
442.707	77.69
442.928	99.69
443.149	108.69
443.371	109.69
443.592	99.69
443.813	92.69
444.034	81.69
444.255	75.69
444.476	97.69
444.698	81.69
444.919	80.69
445.14	131.69
445.361	99.69
445.582	91.69
445.803	108.69
446.024	87.69
446.245	113.69
446.466	100.69
446.687	83.69
446.908	79.69
447.129	74.69
447.35	89.69
447.571	83.69
447.792	79.69
448.013	83.69
448.234	86.69
448.455	98.69
448.675	104.69
448.896	102.69
449.117	88.69
449.338	86.69
449.559	101.69
449.779	114.69
450	90.69
450.221	78.69
450.442	92.69
450.662	75.69
450.883	75.69
451.104	89.69
451.324	100.69
451.545	85.69
451.766	83.69
451.986	85.69
452.207	77.69
452.428	82.69
452.648	67.69
452.869	99.69
453.089	104.69
453.31	99.69
453.53	95.69
453.751	94.69
453.971	80.69
454.192	100.69
454.412	98.69
454.633	68.69
454.853	83.69
455.073	81.69
455.294	90.69
455.514	83.69
455.734	71.69
455.955	83.69
456.175	88.69
456.395	81.69
456.616	63.69
456.836	56.69
457.056	76.69
457.276	85.69
457.497	78.69
457.717	87.69
457.937	84.69
458.157	90.69
458.377	86.69
458.598	89.69
458.818	109.69
459.038	101.69
459.258	92.69
459.478	95.69
459.698	84.69
459.918	89.69
460.138	87.69
460.358	90.69
460.578	99.69
460.798	88.69
461.018	84.69
461.238	74.69
461.458	86.69
461.678	77.69
461.898	87.69
462.118	83.69
462.338	80.69
462.558	87.69
462.777	96.69
462.997	85.69
463.217	70.69
463.437	89.69
463.657	82.69
463.876	83.69
464.096	67.69
464.316	75.69
464.536	90.69
464.755	105.69
464.975	95.69
465.195	135.69
465.414	127.69
465.634	80.69
465.854	68.69
466.073	77.69
466.293	86.69
466.512	82.69
466.732	88.69
466.951	77.69
467.171	77.69
467.391	85.69
467.61	94.69
467.829	105.69
468.049	155.69
468.268	183.69
468.488	101.69
468.707	93.69
468.927	81.69
469.146	85.69
469.365	79.69
469.585	94.69
469.804	94.69
470.023	87.69
470.243	90.69
470.462	97.69
470.681	95.69
470.901	85.69
471.12	74.69
471.339	90.69
471.558	77.69
471.777	101.69
471.997	106.69
472.216	223.69
472.435	420.69
472.654	143.69
472.873	98.69
473.092	67.69
473.311	84.69
473.53	80.69
473.749	75.69
473.968	75.69
474.187	91.69
474.406	88.69
474.625	77.69
474.844	93.69
475.063	83.69
475.282	75.69
475.501	73.69
475.72	88.69
475.939	91.69
476.158	79.69
476.377	77.69
476.596	83.69
476.814	89.69
477.033	75.69
477.252	83.69
477.471	103.69
477.69	69.69
477.908	72.69
478.127	84.69
478.346	82.69
478.564	94.69
478.783	93.69
479.002	82.69
479.22	84.69
479.439	100.69
479.658	82.69
479.876	89.69
480.095	106.69
480.313	90.69
480.532	92.69
480.751	116.69
480.969	253.69
481.188	697.69
481.406	449.69
481.624	131.69
481.843	85.69
482.061	91.69
482.28	101.69
482.498	91.69
482.717	69.69
482.935	83.69
483.153	75.69
483.372	99.69
483.59	83.69
483.808	79.69
484.027	83.69
484.245	81.69
484.463	85.69
484.681	87.69
484.9	80.69
485.118	87.69
485.336	101.69
485.554	101.69
485.772	107.69
485.99	109.69
486.209	106.69
486.427	101.69
486.645	96.69
486.863	88.69
487.081	85.69
487.299	88.69
487.517	86.69
487.735	81.69
487.953	88.69
488.171	90.69
488.389	100.69
488.607	78.69
488.825	93.69
489.043	92.69
489.261	90.69
489.479	87.69
489.696	93.69
489.914	83.69
490.132	97.69
490.35	90.69
490.568	71.69
490.786	68.69
491.003	91.69
491.221	82.69
491.439	75.69
491.657	87.69
491.874	89.69
492.092	88.69
492.31	76.69
492.527	96.69
492.745	91.69
492.963	81.69
493.18	77.69
493.398	95.69
493.615	81.69
493.833	93.69
494.05	87.69
494.268	82.69
494.485	91.69
494.703	73.69
494.92	82.69
495.138	87.69
495.355	83.69
495.573	94.69
495.79	100.69
496.008	83.69
496.225	85.69
496.442	100.69
496.66	87.69
496.877	85.69
497.094	91.69
497.312	80.69
497.529	83.69
497.746	79.69
497.963	84.69
498.181	93.69
498.398	93.69
498.615	91.69
498.832	89.69
499.049	82.69
499.267	93.69
499.484	84.69
499.701	82.69
499.918	86.69
500.135	87.69
500.352	82.69
500.569	75.69
500.786	94.69
501.003	90.69
501.22	94.69
501.437	90.69
501.654	91.69
501.871	95.69
502.088	83.69
502.305	88.69
502.522	78.69
502.739	77.69
502.956	90.69
503.172	83.69
503.389	90.69
503.606	93.69
503.823	89.69
504.04	80.69
504.256	90.69
504.473	75.69
504.69	89.69
504.907	87.69
505.123	92.69
505.34	91.69
505.557	91.69
505.773	87.69
505.99	76.69
506.207	79.69
506.423	93.69
506.64	95.69
506.856	100.69
507.073	95.69
507.289	85.69
507.506	93.69
507.722	116.69
507.939	81.69
508.155	79.69
508.372	89.69
508.588	93.69
508.805	86.69
509.021	85.69
509.238	89.69
509.454	90.69
509.67	93.69
509.887	99.69
510.103	114.69
510.319	161.69
510.536	522.69
510.752	1513.69
510.968	463.69
511.184	120.69
511.401	96.69
511.617	96.69
511.833	94.69
512.049	87.69
512.265	83.69
512.481	77.69
512.698	95.69
512.914	81.69
513.13	86.69
513.346	89.69
513.562	87.69
513.778	82.69
513.994	75.69
514.21	93.69
514.426	95.69
514.642	105.69
514.858	111.69
515.074	123.69
515.29	298.69
515.506	875.69
515.721	342.69
515.937	130.69
516.153	107.69
516.369	97.69
516.585	81.69
516.801	86.69
517.016	98.69
517.232	88.69
517.448	84.69
