Data from Circ_1989_H10_HRD10591_00035.txt Node
Date: Wed Jan 03 12:01:28 EST 2024
User: Yrep
Spectrometer: HR+D1059
Trigger mode: 1
Integration Time (sec): 1.000000E-1
Scans to average: 1
Electric dark correction enabled: true
Nonlinearity correction enabled: false
Boxcar width: 0
XAxis mode: Wavelengths
Number of Pixels in Spectrum: 2048
>>>>>Begin Spectral Data<<<<<
223.165	-22.12
223.4	-22.12
223.635	-22.12
223.869	-14.12
224.104	-21.12
224.338	-18.12
224.573	-27.12
224.808	-8.12
225.042	2.88
225.277	-1.12
225.511	-2.12
225.746	5.88
225.98	3.88
226.215	15.88
226.449	21.88
226.683	13.88
226.918	23.88
227.152	25.88
227.387	37.88
227.621	50.88
227.856	52.88
228.09	48.88
228.324	52.88
228.559	38.88
228.793	60.88
229.027	66.88
229.262	76.88
229.496	67.88
229.73	88.88
229.964	84.88
230.199	64.88
230.433	80.88
230.667	89.88
230.901	80.88
231.136	94.88
231.37	72.88
231.604	71.88
231.838	81.88
232.072	86.88
232.306	85.88
232.541	80.88
232.775	79.88
233.009	82.88
233.243	92.88
233.477	82.88
233.711	94.88
233.945	80.88
234.179	73.88
234.413	64.88
234.647	81.88
234.881	76.88
235.115	85.88
235.349	78.88
235.583	78.88
235.817	84.88
236.051	67.88
236.285	78.88
236.519	66.88
236.753	88.88
236.987	90.88
237.221	81.88
237.455	94.88
237.689	77.88
237.922	67.88
238.156	65.88
238.39	76.88
238.624	83.88
238.858	73.88
239.091	65.88
239.325	70.88
239.559	83.88
239.793	80.88
240.027	89.88
240.26	97.88
240.494	66.88
240.728	67.88
240.961	80.88
241.195	77.88
241.429	63.88
241.662	94.88
241.896	76.88
242.13	78.88
242.363	69.88
242.597	94.88
242.83	82.88
243.064	84.88
243.298	77.88
243.531	76.88
243.765	78.88
243.998	72.88
244.232	89.88
244.465	86.88
244.699	71.88
244.932	68.88
245.166	71.88
245.399	93.88
245.633	82.88
245.866	77.88
246.099	69.88
246.333	79.88
246.566	81.88
246.8	75.88
247.033	89.88
247.266	74.88
247.5	81.88
247.733	80.88
247.966	86.88
248.2	85.88
248.433	83.88
248.666	88.88
248.899	79.88
249.133	102.88
249.366	84.88
249.599	95.88
249.832	77.88
250.066	79.88
250.299	78.88
250.532	97.88
250.765	89.88
250.998	77.88
251.231	80.88
251.465	84.88
251.698	76.88
251.931	85.88
252.164	88.88
252.397	94.88
252.63	88.88
252.863	80.88
253.096	83.88
253.329	88.88
253.562	84.88
253.795	79.88
254.028	81.88
254.261	91.88
254.494	76.88
254.727	100.88
254.96	80.88
255.193	74.88
255.426	78.88
255.659	69.88
255.892	86.88
256.124	86.88
256.357	93.88
256.59	69.88
256.823	92.88
257.056	93.88
257.289	72.88
257.521	93.88
257.754	80.88
257.987	90.88
258.22	85.88
258.452	94.88
258.685	85.88
258.918	80.88
259.151	81.88
259.383	90.88
259.616	89.88
259.849	71.88
260.081	76.88
260.314	91.88
260.547	90.88
260.779	88.88
261.012	90.88
261.244	88.88
261.477	96.88
261.71	94.88
261.942	111.88
262.175	107.88
262.407	91.88
262.64	97.88
262.872	86.88
263.105	83.88
263.337	79.88
263.57	78.88
263.802	87.88
264.035	88.88
264.267	90.88
264.499	92.88
264.732	99.88
264.964	86.88
265.197	87.88
265.429	92.88
265.661	82.88
265.894	80.88
266.126	99.88
266.358	96.88
266.591	77.88
266.823	81.88
267.055	69.88
267.287	80.88
267.52	83.88
267.752	80.88
267.984	84.88
268.216	84.88
268.448	69.88
268.681	75.88
268.913	89.88
269.145	78.88
269.377	82.88
269.609	79.88
269.841	93.88
270.073	87.88
270.306	93.88
270.538	89.88
270.77	89.88
271.002	81.88
271.234	90.88
271.466	80.88
271.698	87.88
271.93	83.88
272.162	77.88
272.394	84.88
272.626	93.88
272.858	89.88
273.09	86.88
273.322	72.88
273.553	88.88
273.785	86.88
274.017	88.88
274.249	88.88
274.481	78.88
274.713	88.88
274.945	85.88
275.176	83.88
275.408	84.88
275.64	86.88
275.872	88.88
276.104	93.88
276.335	92.88
276.567	97.88
276.799	103.88
277.031	116.88
277.262	122.88
277.494	111.88
277.726	84.88
277.957	87.88
278.189	70.88
278.421	82.88
278.652	82.88
278.884	92.88
279.115	79.88
279.347	94.88
279.579	82.88
279.81	95.88
280.042	125.88
280.273	158.88
280.505	121.88
280.736	85.88
280.968	97.88
281.199	89.88
281.431	97.88
281.662	97.88
281.894	90.88
282.125	103.88
282.356	110.88
282.588	125.88
282.819	107.88
283.051	84.88
283.282	90.88
283.513	72.88
283.745	91.88
283.976	74.88
284.207	90.88
284.439	89.88
284.67	101.88
284.901	84.88
285.132	92.88
285.364	81.88
285.595	78.88
285.826	82.88
286.057	85.88
286.288	86.88
286.52	80.88
286.751	88.88
286.982	90.88
287.213	92.88
287.444	96.88
287.675	85.88
287.906	92.88
288.138	82.88
288.369	87.88
288.6	88.88
288.831	96.88
289.062	81.88
289.293	90.88
289.524	92.88
289.755	90.88
289.986	90.88
290.217	84.88
290.448	76.88
290.679	92.88
290.91	80.88
291.141	77.88
291.371	76.88
291.602	88.88
291.833	74.88
292.064	96.88
292.295	85.88
292.526	96.88
292.757	88.88
292.987	87.88
293.218	89.88
293.449	95.88
293.68	113.88
293.91	74.88
294.141	89.88
294.372	81.88
294.603	83.88
294.833	84.88
295.064	86.88
295.295	100.88
295.525	102.88
295.756	98.88
295.987	112.88
296.217	136.88
296.448	114.88
296.679	84.88
296.909	85.88
297.14	89.88
297.37	85.88
297.601	102.88
297.831	87.88
298.062	87.88
298.292	83.88
298.523	76.88
298.753	64.88
298.984	90.88
299.214	94.88
299.445	92.88
299.675	86.88
299.905	100.88
300.136	94.88
300.366	72.88
300.597	95.88
300.827	94.88
301.057	94.88
301.288	102.88
301.518	96.88
301.748	91.88
301.979	104.88
302.209	91.88
302.439	95.88
302.669	86.88
302.9	85.88
303.13	97.88
303.36	90.88
303.59	110.88
303.82	119.88
304.051	73.88
304.281	79.88
304.511	86.88
304.741	87.88
304.971	90.88
305.201	78.88
305.431	80.88
305.661	98.88
305.891	92.88
306.121	94.88
306.352	96.88
306.582	107.88
306.812	112.88
307.042	85.88
307.272	108.88
307.502	124.88
307.731	120.88
307.961	104.88
308.191	88.88
308.421	68.88
308.651	84.88
308.881	83.88
309.111	100.88
309.341	95.88
309.571	89.88
309.8	88.88
310.03	101.88
310.26	80.88
310.49	93.88
310.72	104.88
310.949	109.88
311.179	102.88
311.409	87.88
311.639	105.88
311.868	80.88
312.098	84.88
312.328	94.88
312.557	106.88
312.787	96.88
313.017	115.88
313.246	103.88
313.476	102.88
313.706	89.88
313.935	78.88
314.165	92.88
314.394	96.88
314.624	103.88
314.853	83.88
315.083	98.88
315.312	93.88
315.542	92.88
315.771	104.88
316.001	103.88
316.23	91.88
316.46	89.88
316.689	83.88
316.919	102.88
317.148	105.88
317.377	85.88
317.607	99.88
317.836	100.88
318.065	89.88
318.295	93.88
318.524	89.88
318.753	95.88
318.983	100.88
319.212	97.88
319.441	112.88
319.67	108.88
319.9	100.88
320.129	87.88
320.358	96.88
320.587	101.88
320.816	94.88
321.046	98.88
321.275	103.88
321.504	113.88
321.733	101.88
321.962	101.88
322.191	110.88
322.42	96.88
322.649	108.88
322.878	111.88
323.108	101.88
323.337	135.88
323.566	124.88
323.795	143.88
324.024	198.88
324.253	348.88
324.482	752.88
324.71	1568.88
324.939	2143.88
325.168	790.88
325.397	240.88
325.626	155.88
325.855	137.88
326.084	136.88
326.313	132.88
326.542	137.88
326.77	218.88
326.999	417.88
327.228	877.88
327.457	1650.88
327.686	1358.88
327.914	398.88
328.143	282.88
328.372	326.88
328.6	197.88
328.829	124.88
329.058	158.88
329.287	140.88
329.515	128.88
329.744	157.88
329.972	256.88
330.201	416.88
330.43	605.88
330.658	302.88
330.887	194.88
331.115	128.88
331.344	104.88
331.572	97.88
331.801	83.88
332.03	101.88
332.258	112.88
332.486	90.88
332.715	95.88
332.943	103.88
333.172	100.88
333.4	114.88
333.629	128.88
333.857	149.88
334.085	231.88
334.314	420.88
334.542	786.88
334.771	720.88
334.999	234.88
335.227	117.88
335.455	100.88
335.684	100.88
335.912	105.88
336.14	98.88
336.369	101.88
336.597	105.88
336.825	97.88
337.053	81.88
337.281	93.88
337.51	92.88
337.738	84.88
337.966	97.88
338.194	91.88
338.422	92.88
338.65	86.88
338.878	98.88
339.106	90.88
339.334	97.88
339.562	106.88
339.79	88.88
340.018	83.88
340.246	79.88
340.474	93.88
340.702	86.88
340.93	92.88
341.158	90.88
341.386	99.88
341.614	100.88
341.842	97.88
342.07	96.88
342.298	94.88
342.526	90.88
342.754	96.88
342.981	86.88
343.209	95.88
343.437	100.88
343.665	99.88
343.893	96.88
344.12	84.88
344.348	95.88
344.576	91.88
344.804	112.88
345.031	92.88
345.259	88.88
345.487	114.88
345.714	95.88
345.942	94.88
346.17	85.88
346.397	101.88
346.625	101.88
346.853	104.88
347.08	101.88
347.308	102.88
347.535	103.88
347.763	111.88
347.99	100.88
348.218	105.88
348.445	106.88
348.673	96.88
348.9	96.88
349.128	93.88
349.355	96.88
349.583	95.88
349.81	99.88
350.037	85.88
350.265	86.88
350.492	97.88
350.72	92.88
350.947	98.88
351.174	109.88
351.402	103.88
351.629	109.88
351.856	103.88
352.083	97.88
352.311	103.88
352.538	111.88
352.765	90.88
352.992	103.88
353.22	100.88
353.447	108.88
353.674	108.88
353.901	93.88
354.128	88.88
354.355	100.88
354.583	106.88
354.81	109.88
355.037	89.88
355.264	93.88
355.491	100.88
355.718	104.88
355.945	89.88
356.172	109.88
356.399	99.88
356.626	94.88
356.853	92.88
357.08	88.88
357.307	103.88
357.534	93.88
357.761	88.88
357.988	101.88
358.215	88.88
358.441	94.88
358.668	99.88
358.895	87.88
359.122	93.88
359.349	91.88
359.576	99.88
359.802	106.88
360.029	115.88
360.256	110.88
360.483	93.88
360.709	90.88
360.936	106.88
361.163	87.88
361.39	86.88
361.616	103.88
361.843	101.88
362.07	101.88
362.296	93.88
362.523	96.88
362.749	96.88
362.976	97.88
363.203	91.88
363.429	80.88
363.656	96.88
363.882	92.88
364.109	85.88
364.335	84.88
364.562	87.88
364.788	103.88
365.015	85.88
365.241	82.88
365.468	114.88
365.694	101.88
365.92	94.88
366.147	80.88
366.373	102.88
366.599	76.88
366.826	85.88
367.052	93.88
367.278	92.88
367.505	85.88
367.731	96.88
367.957	94.88
368.184	99.88
368.41	108.88
368.636	130.88
368.862	118.88
369.089	92.88
369.315	90.88
369.541	90.88
369.767	100.88
369.993	97.88
370.219	86.88
370.445	93.88
370.672	99.88
370.898	101.88
371.124	80.88
371.35	98.88
371.576	92.88
371.802	92.88
372.028	73.88
372.254	78.88
372.48	96.88
372.706	81.88
372.932	94.88
373.158	92.88
373.384	96.88
373.61	84.88
373.835	81.88
374.061	84.88
374.287	88.88
374.513	80.88
374.739	101.88
374.965	80.88
375.191	83.88
375.416	80.88
375.642	89.88
375.868	103.88
376.094	80.88
376.319	77.88
376.545	110.88
376.771	82.88
376.997	91.88
377.222	96.88
377.448	84.88
377.674	87.88
377.899	80.88
378.125	88.88
378.35	101.88
378.576	91.88
378.802	89.88
379.027	91.88
379.253	94.88
379.478	94.88
379.704	91.88
379.929	104.88
380.155	96.88
380.38	79.88
380.606	99.88
380.831	102.88
381.057	95.88
381.282	82.88
381.507	93.88
381.733	95.88
381.958	94.88
382.184	96.88
382.409	92.88
382.634	99.88
382.86	106.88
383.085	95.88
383.31	98.88
383.535	100.88
383.761	105.88
383.986	96.88
384.211	96.88
384.436	104.88
384.662	104.88
384.887	106.88
385.112	89.88
385.337	114.88
385.562	91.88
385.787	86.88
386.013	114.88
386.238	114.88
386.463	104.88
386.688	110.88
386.913	115.88
387.138	105.88
387.363	97.88
387.588	99.88
387.813	88.88
388.038	90.88
388.263	111.88
388.488	101.88
388.713	84.88
388.938	90.88
389.163	90.88
389.387	97.88
389.612	99.88
389.837	82.88
390.062	102.88
390.287	100.88
390.512	100.88
390.736	86.88
390.961	93.88
391.186	91.88
391.411	88.88
391.636	97.88
391.86	84.88
392.085	86.88
392.31	92.88
392.534	90.88
392.759	82.88
392.984	93.88
393.208	94.88
393.433	96.88
393.658	93.88
393.882	89.88
394.107	64.88
394.331	70.88
394.556	101.88
394.78	101.88
395.005	80.88
395.229	84.88
395.454	72.88
395.678	83.88
395.903	91.88
396.127	95.88
396.352	92.88
396.576	85.88
396.801	97.88
397.025	77.88
397.249	84.88
397.474	87.88
397.698	97.88
397.922	89.88
398.147	95.88
398.371	79.88
398.595	85.88
398.82	87.88
399.044	96.88
399.268	87.88
399.492	90.88
399.717	86.88
399.941	85.88
400.165	99.88
400.389	110.88
400.613	89.88
400.837	78.88
401.062	101.88
401.286	93.88
401.51	99.88
401.734	89.88
401.958	84.88
402.182	116.88
402.406	132.88
402.63	113.88
402.854	86.88
403.078	83.88
403.302	94.88
403.526	84.88
403.75	78.88
403.974	80.88
404.198	81.88
404.422	86.88
404.645	92.88
404.869	94.88
405.093	106.88
405.317	112.88
405.541	112.88
405.765	103.88
405.988	133.88
406.212	168.88
406.436	209.88
406.66	153.88
406.883	110.88
407.107	108.88
407.331	94.88
407.555	97.88
407.778	105.88
408.002	94.88
408.226	83.88
408.449	78.88
408.673	100.88
408.896	86.88
409.12	101.88
409.344	102.88
409.567	102.88
409.791	84.88
410.014	88.88
410.238	77.88
410.461	96.88
410.685	90.88
410.908	99.88
411.132	110.88
411.355	93.88
411.578	98.88
411.802	89.88
412.025	80.88
412.249	79.88
412.472	106.88
412.695	132.88
412.919	95.88
413.142	84.88
413.365	99.88
413.589	85.88
413.812	99.88
414.035	90.88
414.258	78.88
414.482	78.88
414.705	104.88
414.928	99.88
415.151	92.88
415.374	83.88
415.597	93.88
415.821	89.88
416.044	96.88
416.267	96.88
416.49	87.88
416.713	77.88
416.936	94.88
417.159	85.88
417.382	94.88
417.605	95.88
417.828	101.88
418.051	100.88
418.274	92.88
418.497	101.88
418.72	86.88
418.943	90.88
419.166	97.88
419.389	88.88
419.611	84.88
419.834	90.88
420.057	96.88
420.28	101.88
420.503	94.88
420.726	106.88
420.948	94.88
421.171	100.88
421.394	81.88
421.617	97.88
421.839	94.88
422.062	84.88
422.285	85.88
422.507	94.88
422.73	110.88
422.953	107.88
423.175	106.88
423.398	87.88
423.621	98.88
423.843	78.88
424.066	81.88
424.288	77.88
424.511	90.88
424.733	82.88
424.956	106.88
425.178	107.88
425.401	80.88
425.623	90.88
425.846	96.88
426.068	105.88
426.291	85.88
426.513	91.88
426.735	88.88
426.958	94.88
427.18	101.88
427.402	141.88
427.625	204.88
427.847	154.88
428.069	181.88
428.292	100.88
428.514	89.88
428.736	83.88
428.958	87.88
429.181	71.88
429.403	85.88
429.625	88.88
429.847	98.88
430.069	102.88
430.292	96.88
430.514	89.88
430.736	64.88
430.958	94.88
431.18	89.88
431.402	85.88
431.624	99.88
431.846	89.88
432.068	79.88
432.29	102.88
432.512	82.88
432.734	80.88
432.956	95.88
433.178	97.88
433.4	92.88
433.622	92.88
433.844	97.88
434.066	82.88
434.287	97.88
434.509	80.88
434.731	84.88
434.953	89.88
435.175	88.88
435.397	94.88
435.618	97.88
435.84	105.88
436.062	128.88
436.284	105.88
436.505	125.88
436.727	98.88
436.949	94.88
437.17	98.88
437.392	87.88
437.614	79.88
437.835	98.88
438.057	125.88
438.278	121.88
438.5	117.88
438.721	125.88
438.943	114.88
439.165	84.88
439.386	86.88
439.608	79.88
439.829	94.88
440.05	116.88
440.272	137.88
440.493	100.88
440.715	85.88
440.936	104.88
441.158	90.88
441.379	92.88
441.6	87.88
441.822	88.88
442.043	99.88
442.264	99.88
442.486	106.88
442.707	94.88
442.928	93.88
443.149	140.88
443.371	120.88
443.592	92.88
443.813	125.88
444.034	105.88
444.255	72.88
444.476	94.88
444.698	80.88
444.919	76.88
445.14	152.88
445.361	111.88
445.582	120.88
445.803	165.88
446.024	143.88
446.245	140.88
446.466	114.88
446.687	89.88
446.908	89.88
447.129	93.88
447.35	81.88
447.571	82.88
447.792	90.88
448.013	95.88
448.234	120.88
448.455	96.88
448.675	104.88
448.896	127.88
449.117	92.88
449.338	114.88
449.559	130.88
449.779	151.88
450	87.88
450.221	92.88
450.442	91.88
450.662	93.88
450.883	100.88
451.104	111.88
451.324	90.88
451.545	84.88
451.766	89.88
451.986	102.88
452.207	84.88
452.428	92.88
452.648	98.88
452.869	107.88
453.089	108.88
453.31	115.88
453.53	89.88
453.751	93.88
453.971	102.88
454.192	110.88
454.412	105.88
454.633	85.88
454.853	78.88
455.073	87.88
455.294	99.88
455.514	97.88
455.734	78.88
455.955	86.88
456.175	83.88
456.395	80.88
456.616	90.88
456.836	79.88
457.056	85.88
457.276	88.88
457.497	88.88
457.717	84.88
457.937	85.88
458.157	80.88
458.377	91.88
458.598	102.88
458.818	148.88
459.038	166.88
459.258	114.88
459.478	98.88
459.698	90.88
459.918	84.88
460.138	93.88
460.358	87.88
460.578	100.88
460.798	69.88
461.018	76.88
461.238	84.88
461.458	88.88
461.678	82.88
461.898	81.88
462.118	83.88
462.338	100.88
462.558	73.88
462.777	74.88
462.997	93.88
463.217	98.88
463.437	88.88
463.657	93.88
463.876	89.88
464.096	73.88
464.316	96.88
464.536	85.88
464.755	81.88
464.975	109.88
465.195	176.88
465.414	149.88
465.634	96.88
465.854	87.88
466.073	76.88
466.293	84.88
466.512	81.88
466.732	86.88
466.951	93.88
467.171	89.88
467.391	86.88
467.61	108.88
467.829	129.88
468.049	262.88
468.268	360.88
468.488	126.88
468.707	85.88
468.927	88.88
469.146	71.88
469.365	85.88
469.585	104.88
469.804	95.88
470.023	103.88
470.243	96.88
470.462	96.88
470.681	115.88
470.901	110.88
471.12	100.88
471.339	102.88
471.558	99.88
471.777	119.88
471.997	176.88
472.216	466.88
472.435	1018.88
472.654	272.88
472.873	117.88
473.092	95.88
473.311	91.88
473.53	95.88
473.749	101.88
473.968	97.88
474.187	118.88
474.406	92.88
474.625	85.88
474.844	85.88
475.063	86.88
475.282	105.88
475.501	86.88
475.72	73.88
475.939	100.88
476.158	84.88
476.377	85.88
476.596	90.88
476.814	86.88
477.033	97.88
477.252	90.88
477.471	70.88
477.69	88.88
477.908	100.88
478.127	85.88
478.346	98.88
478.564	94.88
478.783	97.88
479.002	90.88
479.22	109.88
479.439	97.88
479.658	106.88
479.876	113.88
480.095	100.88
480.313	108.88
480.532	114.88
480.751	174.88
480.969	466.88
481.188	1816.88
481.406	1054.88
481.624	206.88
481.843	116.88
482.061	92.88
482.28	72.88
482.498	86.88
482.717	93.88
482.935	83.88
483.153	94.88
483.372	84.88
483.59	100.88
483.808	94.88
484.027	68.88
484.245	80.88
484.463	90.88
484.681	109.88
484.9	83.88
485.118	89.88
485.336	88.88
485.554	104.88
485.772	101.88
485.99	96.88
486.209	104.88
486.427	103.88
486.645	112.88
486.863	92.88
487.081	98.88
487.299	101.88
487.517	81.88
487.735	82.88
487.953	89.88
488.171	88.88
488.389	97.88
488.607	97.88
488.825	87.88
489.043	83.88
489.261	80.88
489.479	92.88
489.696	92.88
489.914	82.88
490.132	102.88
490.35	79.88
490.568	81.88
490.786	93.88
491.003	95.88
491.221	85.88
491.439	82.88
491.657	95.88
491.874	105.88
492.092	97.88
492.31	81.88
492.527	94.88
492.745	94.88
492.963	86.88
493.18	88.88
493.398	83.88
493.615	88.88
493.833	88.88
494.05	97.88
494.268	105.88
494.485	105.88
494.703	88.88
494.92	86.88
495.138	96.88
495.355	78.88
495.573	86.88
495.79	89.88
496.008	92.88
496.225	92.88
496.442	89.88
496.66	91.88
496.877	89.88
497.094	78.88
497.312	94.88
497.529	88.88
497.746	97.88
497.963	95.88
498.181	106.88
498.398	106.88
498.615	108.88
498.832	92.88
499.049	85.88
499.267	87.88
499.484	91.88
499.701	93.88
499.918	90.88
500.135	80.88
500.352	96.88
500.569	87.88
500.786	96.88
501.003	79.88
501.22	87.88
501.437	98.88
501.654	92.88
501.871	116.88
502.088	99.88
502.305	98.88
502.522	80.88
502.739	77.88
502.956	95.88
503.172	96.88
503.389	87.88
503.606	95.88
503.823	106.88
504.04	102.88
504.256	104.88
504.473	98.88
504.69	81.88
504.907	92.88
505.123	94.88
505.34	107.88
505.557	96.88
505.773	90.88
505.99	108.88
506.207	83.88
506.423	90.88
506.64	77.88
506.856	82.88
507.073	86.88
507.289	106.88
507.506	86.88
507.722	104.88
507.939	105.88
508.155	102.88
508.372	99.88
508.588	94.88
508.805	100.88
509.021	99.88
509.238	94.88
509.454	93.88
509.67	97.88
509.887	108.88
510.103	121.88
510.319	186.88
510.536	592.88
510.752	1967.88
510.968	550.88
511.184	128.88
511.401	119.88
511.617	111.88
511.833	81.88
512.049	112.88
512.265	80.88
512.481	83.88
512.698	102.88
512.914	96.88
513.13	82.88
513.346	97.88
513.562	100.88
513.778	95.88
513.994	107.88
514.21	108.88
514.426	117.88
514.642	140.88
514.858	125.88
