Data from Circ_1989_H10_HRD10591_00095.txt Node
Date: Wed Jan 03 12:01:40 EST 2024
User: Yrep
Spectrometer: HR+D1059
Trigger mode: 1
Integration Time (sec): 1.000000E-1
Scans to average: 1
Electric dark correction enabled: true
Nonlinearity correction enabled: false
Boxcar width: 0
XAxis mode: Wavelengths
Number of Pixels in Spectrum: 2048
>>>>>Begin Spectral Data<<<<<
223.165	-25.69
223.4	-25.69
223.635	-25.69
223.869	-25.69
224.104	-22.69
224.338	-28.69
224.573	-14.69
224.808	-9.69
225.042	-19.69
225.277	-11.69
225.511	12.31
225.746	7.31
225.98	15.31
226.215	16.31
226.449	17.31
226.683	19.31
226.918	34.31
227.152	36.31
227.387	27.31
227.621	33.31
227.856	47.31
228.09	45.31
228.324	55.31
228.559	51.31
228.793	45.31
229.027	55.31
229.262	59.31
229.496	79.31
229.73	87.31
229.964	94.31
230.199	82.31
230.433	73.31
230.667	72.31
230.901	77.31
231.136	79.31
231.37	73.31
231.604	75.31
231.838	71.31
232.072	90.31
232.306	81.31
232.541	89.31
232.775	90.31
233.009	89.31
233.243	75.31
233.477	65.31
233.711	72.31
233.945	94.31
234.179	76.31
234.413	87.31
234.647	77.31
234.881	79.31
235.115	90.31
235.349	75.31
235.583	79.31
235.817	70.31
236.051	77.31
236.285	69.31
236.519	64.31
236.753	77.31
236.987	82.31
237.221	73.31
237.455	85.31
237.689	81.31
237.922	74.31
238.156	64.31
238.39	75.31
238.624	91.31
238.858	65.31
239.091	80.31
239.325	76.31
239.559	83.31
239.793	87.31
240.027	77.31
240.26	81.31
240.494	67.31
240.728	92.31
240.961	76.31
241.195	81.31
241.429	67.31
241.662	61.31
241.896	75.31
242.13	86.31
242.363	75.31
242.597	79.31
242.83	81.31
243.064	75.31
243.298	85.31
243.531	70.31
243.765	71.31
243.998	69.31
244.232	83.31
244.465	94.31
244.699	87.31
244.932	80.31
245.166	87.31
245.399	84.31
245.633	78.31
245.866	78.31
246.099	71.31
246.333	81.31
246.566	81.31
246.8	81.31
247.033	73.31
247.266	80.31
247.5	72.31
247.733	79.31
247.966	77.31
248.2	79.31
248.433	81.31
248.666	69.31
248.899	85.31
249.133	73.31
249.366	106.31
249.599	92.31
249.832	108.31
250.066	68.31
250.299	94.31
250.532	83.31
250.765	77.31
250.998	71.31
251.231	81.31
251.465	72.31
251.698	73.31
251.931	83.31
252.164	79.31
252.397	76.31
252.63	69.31
252.863	65.31
253.096	71.31
253.329	88.31
253.562	96.31
253.795	95.31
254.028	86.31
254.261	82.31
254.494	58.31
254.727	74.31
254.96	75.31
255.193	82.31
255.426	69.31
255.659	75.31
255.892	75.31
256.124	89.31
256.357	93.31
256.59	65.31
256.823	89.31
257.056	72.31
257.289	81.31
257.521	78.31
257.754	90.31
257.987	90.31
258.22	100.31
258.452	95.31
258.685	102.31
258.918	83.31
259.151	87.31
259.383	92.31
259.616	86.31
259.849	86.31
260.081	79.31
260.314	71.31
260.547	75.31
260.779	84.31
261.012	73.31
261.244	90.31
261.477	79.31
261.71	102.31
261.942	102.31
262.175	119.31
262.407	69.31
262.64	81.31
262.872	86.31
263.105	83.31
263.337	90.31
263.57	95.31
263.802	93.31
264.035	79.31
264.267	69.31
264.499	84.31
264.732	87.31
264.964	77.31
265.197	77.31
265.429	85.31
265.661	76.31
265.894	96.31
266.126	88.31
266.358	82.31
266.591	69.31
266.823	71.31
267.055	85.31
267.287	93.31
267.52	104.31
267.752	88.31
267.984	92.31
268.216	79.31
268.448	73.31
268.681	80.31
268.913	84.31
269.145	78.31
269.377	85.31
269.609	73.31
269.841	84.31
270.073	83.31
270.306	79.31
270.538	93.31
270.77	75.31
271.002	89.31
271.234	95.31
271.466	83.31
271.698	81.31
271.93	93.31
272.162	96.31
272.394	88.31
272.626	85.31
272.858	76.31
273.09	95.31
273.322	80.31
273.553	86.31
273.785	84.31
274.017	77.31
274.249	77.31
274.481	89.31
274.713	75.31
274.945	87.31
275.176	77.31
275.408	84.31
275.64	87.31
275.872	102.31
276.104	99.31
276.335	82.31
276.567	98.31
276.799	108.31
277.031	107.31
277.262	127.31
277.494	123.31
277.726	96.31
277.957	104.31
278.189	82.31
278.421	80.31
278.652	88.31
278.884	85.31
279.115	89.31
279.347	96.31
279.579	90.31
279.81	96.31
280.042	140.31
280.273	163.31
280.505	127.31
280.736	103.31
280.968	91.31
281.199	95.31
281.431	96.31
281.662	95.31
281.894	78.31
282.125	111.31
282.356	117.31
282.588	139.31
282.819	111.31
283.051	80.31
283.282	89.31
283.513	84.31
283.745	87.31
283.976	95.31
284.207	97.31
284.439	102.31
284.67	91.31
284.901	90.31
285.132	89.31
285.364	79.31
285.595	85.31
285.826	87.31
286.057	93.31
286.288	101.31
286.52	92.31
286.751	87.31
286.982	85.31
287.213	88.31
287.444	78.31
287.675	91.31
287.906	85.31
288.138	92.31
288.369	108.31
288.6	75.31
288.831	96.31
289.062	89.31
289.293	91.31
289.524	85.31
289.755	76.31
289.986	89.31
290.217	81.31
290.448	81.31
290.679	82.31
290.91	72.31
291.141	86.31
291.371	75.31
291.602	75.31
291.833	85.31
292.064	94.31
292.295	90.31
292.526	100.31
292.757	97.31
292.987	92.31
293.218	95.31
293.449	99.31
293.68	89.31
293.91	92.31
294.141	96.31
294.372	83.31
294.603	99.31
294.833	88.31
295.064	87.31
295.295	91.31
295.525	83.31
295.756	101.31
295.987	99.31
296.217	132.31
296.448	120.31
296.679	95.31
296.909	86.31
297.14	77.31
297.37	87.31
297.601	87.31
297.831	95.31
298.062	85.31
298.292	91.31
298.523	82.31
298.753	75.31
298.984	84.31
299.214	80.31
299.445	92.31
299.675	88.31
299.905	81.31
300.136	94.31
300.366	95.31
300.597	67.31
300.827	91.31
301.057	101.31
301.288	101.31
301.518	84.31
301.748	87.31
301.979	114.31
302.209	98.31
302.439	94.31
302.669	87.31
302.9	84.31
303.13	104.31
303.36	84.31
303.59	113.31
303.82	126.31
304.051	115.31
304.281	97.31
304.511	85.31
304.741	93.31
304.971	94.31
305.201	89.31
305.431	98.31
305.661	94.31
305.891	75.31
306.121	83.31
306.352	100.31
306.582	107.31
306.812	95.31
307.042	94.31
307.272	121.31
307.502	125.31
307.731	133.31
307.961	119.31
308.191	89.31
308.421	92.31
308.651	92.31
308.881	81.31
309.111	75.31
309.341	85.31
309.571	91.31
309.8	85.31
310.03	89.31
310.26	125.31
310.49	104.31
310.72	90.31
310.949	95.31
311.179	105.31
311.409	89.31
311.639	81.31
311.868	101.31
312.098	83.31
312.328	97.31
312.557	94.31
312.787	100.31
313.017	116.31
313.246	92.31
313.476	75.31
313.706	95.31
313.935	99.31
314.165	96.31
314.394	119.31
314.624	103.31
314.853	98.31
315.083	111.31
315.312	100.31
315.542	93.31
315.771	92.31
316.001	98.31
316.23	102.31
316.46	101.31
316.689	92.31
316.919	95.31
317.148	102.31
317.377	95.31
317.607	83.31
317.836	88.31
318.065	100.31
318.295	97.31
318.524	100.31
318.753	94.31
318.983	95.31
319.212	105.31
319.441	100.31
319.67	119.31
319.9	97.31
320.129	95.31
320.358	103.31
320.587	98.31
320.816	116.31
321.046	105.31
321.275	95.31
321.504	91.31
321.733	97.31
321.962	94.31
322.191	100.31
322.42	104.31
322.649	100.31
322.878	118.31
323.108	117.31
323.337	135.31
323.566	139.31
323.795	141.31
324.024	194.31
324.253	373.31
324.482	792.31
324.71	1730.31
324.939	2355.31
325.168	871.31
325.397	254.31
325.626	160.31
325.855	125.31
326.084	131.31
326.313	138.31
326.542	153.31
326.77	229.31
326.999	447.31
327.228	933.31
327.457	1751.31
327.686	1415.31
327.914	431.31
328.143	323.31
328.372	383.31
328.6	233.31
328.829	142.31
329.058	147.31
329.287	140.31
329.515	145.31
329.744	181.31
329.972	287.31
330.201	549.31
330.43	787.31
330.658	373.31
330.887	179.31
331.115	132.31
331.344	104.31
331.572	111.31
331.801	105.31
332.03	96.31
332.258	105.31
332.486	102.31
332.715	100.31
332.943	90.31
333.172	114.31
333.4	117.31
333.629	128.31
333.857	169.31
334.085	277.31
334.314	497.31
334.542	982.31
334.771	938.31
334.999	258.31
335.227	128.31
335.455	109.31
335.684	102.31
335.912	113.31
336.14	107.31
336.369	111.31
336.597	121.31
336.825	104.31
337.053	90.31
337.281	104.31
337.51	106.31
337.738	92.31
337.966	85.31
338.194	102.31
338.422	96.31
338.65	93.31
338.878	97.31
339.106	92.31
339.334	111.31
339.562	87.31
339.79	93.31
340.018	86.31
340.246	88.31
340.474	105.31
340.702	101.31
340.93	80.31
341.158	83.31
341.386	84.31
341.614	89.31
341.842	92.31
342.07	89.31
342.298	96.31
342.526	82.31
342.754	83.31
342.981	106.31
343.209	93.31
343.437	102.31
343.665	79.31
343.893	104.31
344.12	86.31
344.348	91.31
344.576	86.31
344.804	98.31
345.031	96.31
345.259	82.31
345.487	88.31
345.714	82.31
345.942	106.31
346.17	105.31
346.397	90.31
346.625	97.31
346.853	97.31
347.08	94.31
347.308	95.31
347.535	94.31
347.763	103.31
347.99	95.31
348.218	99.31
348.445	110.31
348.673	107.31
348.9	83.31
349.128	89.31
349.355	85.31
349.583	87.31
349.81	82.31
350.037	95.31
350.265	93.31
350.492	93.31
350.72	88.31
350.947	95.31
351.174	101.31
351.402	107.31
351.629	92.31
351.856	109.31
352.083	98.31
352.311	97.31
352.538	104.31
352.765	100.31
352.992	103.31
353.22	116.31
353.447	103.31
353.674	105.31
353.901	105.31
354.128	99.31
354.355	95.31
354.583	111.31
354.81	102.31
355.037	88.31
355.264	95.31
355.491	90.31
355.718	100.31
355.945	88.31
356.172	95.31
356.399	104.31
356.626	101.31
356.853	88.31
357.08	91.31
357.307	89.31
357.534	85.31
357.761	85.31
357.988	98.31
358.215	102.31
358.441	75.31
358.668	86.31
358.895	100.31
359.122	89.31
359.349	87.31
359.576	85.31
359.802	111.31
360.029	118.31
360.256	109.31
360.483	92.31
360.709	98.31
360.936	89.31
361.163	81.31
361.39	89.31
361.616	97.31
361.843	86.31
362.07	109.31
362.296	102.31
362.523	88.31
362.749	86.31
362.976	87.31
363.203	81.31
363.429	85.31
363.656	100.31
363.882	83.31
364.109	92.31
364.335	89.31
364.562	81.31
364.788	85.31
365.015	98.31
365.241	95.31
365.468	97.31
365.694	103.31
365.92	95.31
366.147	97.31
366.373	105.31
366.599	97.31
366.826	80.31
367.052	77.31
367.278	91.31
367.505	89.31
367.731	111.31
367.957	97.31
368.184	98.31
368.41	101.31
368.636	103.31
368.862	123.31
369.089	108.31
369.315	87.31
369.541	101.31
369.767	96.31
369.993	93.31
370.219	72.31
370.445	92.31
370.672	85.31
370.898	76.31
371.124	90.31
371.35	83.31
371.576	89.31
371.802	93.31
372.028	87.31
372.254	84.31
372.48	94.31
372.706	76.31
372.932	83.31
373.158	81.31
373.384	93.31
373.61	84.31
373.835	89.31
374.061	93.31
374.287	82.31
374.513	82.31
374.739	82.31
374.965	75.31
375.191	93.31
375.416	87.31
375.642	79.31
375.868	91.31
376.094	89.31
376.319	92.31
376.545	105.31
376.771	89.31
376.997	78.31
377.222	84.31
377.448	88.31
377.674	79.31
377.899	81.31
378.125	91.31
378.35	87.31
378.576	98.31
378.802	98.31
379.027	96.31
379.253	92.31
379.478	93.31
379.704	85.31
379.929	89.31
380.155	96.31
380.38	83.31
380.606	95.31
380.831	92.31
381.057	89.31
381.282	99.31
381.507	83.31
381.733	84.31
381.958	100.31
382.184	90.31
382.409	95.31
382.634	91.31
382.86	93.31
383.085	88.31
383.31	102.31
383.535	100.31
383.761	95.31
383.986	83.31
384.211	94.31
384.436	113.31
384.662	89.31
384.887	88.31
385.112	92.31
385.337	87.31
385.562	112.31
385.787	92.31
386.013	112.31
386.238	115.31
386.463	102.31
386.688	97.31
386.913	105.31
387.138	96.31
387.363	72.31
387.588	110.31
387.813	110.31
388.038	93.31
388.263	92.31
388.488	100.31
388.713	90.31
388.938	95.31
389.163	77.31
389.387	93.31
389.612	105.31
389.837	89.31
390.062	88.31
390.287	91.31
390.512	97.31
390.736	82.31
390.961	91.31
391.186	92.31
391.411	96.31
391.636	84.31
391.86	94.31
392.085	70.31
392.31	96.31
392.534	84.31
392.759	85.31
392.984	96.31
393.208	88.31
393.433	102.31
393.658	90.31
393.882	78.31
394.107	87.31
394.331	93.31
394.556	79.31
394.78	80.31
395.005	93.31
395.229	85.31
395.454	89.31
395.678	93.31
395.903	80.31
396.127	92.31
396.352	88.31
396.576	86.31
396.801	91.31
397.025	100.31
397.249	94.31
397.474	91.31
397.698	80.31
397.922	93.31
398.147	88.31
398.371	82.31
398.595	79.31
398.82	82.31
399.044	75.31
399.268	79.31
399.492	94.31
399.717	80.31
399.941	102.31
400.165	100.31
400.389	88.31
400.613	75.31
400.837	100.31
401.062	83.31
401.286	83.31
401.51	83.31
401.734	97.31
401.958	91.31
402.182	136.31
402.406	159.31
402.63	116.31
402.854	91.31
403.078	91.31
403.302	88.31
403.526	99.31
403.75	92.31
403.974	98.31
404.198	94.31
404.422	92.31
404.645	99.31
404.869	100.31
405.093	101.31
405.317	111.31
405.541	119.31
405.765	110.31
405.988	114.31
406.212	152.31
406.436	221.31
406.66	151.31
406.883	101.31
407.107	98.31
407.331	111.31
407.555	90.31
407.778	83.31
408.002	68.31
408.226	98.31
408.449	93.31
408.673	87.31
408.896	91.31
409.12	88.31
409.344	99.31
409.567	76.31
409.791	81.31
410.014	94.31
410.238	100.31
410.461	80.31
410.685	104.31
410.908	83.31
411.132	109.31
411.355	100.31
411.578	105.31
411.802	92.31
412.025	95.31
412.249	100.31
412.472	108.31
412.695	114.31
412.919	101.31
413.142	100.31
413.365	95.31
413.589	88.31
413.812	83.31
414.035	96.31
414.258	86.31
414.482	88.31
414.705	96.31
414.928	93.31
415.151	95.31
415.374	101.31
415.597	95.31
415.821	101.31
416.044	87.31
416.267	93.31
416.49	82.31
416.713	71.31
416.936	78.31
417.159	84.31
417.382	106.31
417.605	104.31
417.828	105.31
418.051	88.31
418.274	96.31
418.497	94.31
418.72	105.31
418.943	92.31
419.166	99.31
419.389	89.31
419.611	81.31
419.834	87.31
420.057	87.31
420.28	99.31
420.503	76.31
420.726	76.31
420.948	93.31
421.171	84.31
421.394	104.31
421.617	98.31
421.839	78.31
422.062	87.31
422.285	88.31
422.507	111.31
422.73	99.31
422.953	98.31
423.175	83.31
423.398	80.31
423.621	91.31
423.843	92.31
424.066	87.31
424.288	93.31
424.511	87.31
424.733	96.31
424.956	102.31
425.178	89.31
425.401	98.31
425.623	89.31
425.846	85.31
426.068	84.31
426.291	84.31
426.513	92.31
426.735	85.31
426.958	98.31
427.18	105.31
427.402	131.31
427.625	174.31
427.847	181.31
428.069	165.31
428.292	104.31
428.514	107.31
428.736	96.31
428.958	78.31
429.181	85.31
429.403	91.31
429.625	83.31
429.847	91.31
430.069	99.31
430.292	95.31
430.514	91.31
430.736	83.31
430.958	81.31
431.18	72.31
431.402	97.31
431.624	82.31
431.846	92.31
432.068	77.31
432.29	81.31
432.512	93.31
432.734	89.31
432.956	97.31
433.178	100.31
433.4	100.31
433.622	100.31
433.844	90.31
434.066	87.31
434.287	89.31
434.509	104.31
434.731	97.31
434.953	76.31
435.175	91.31
435.397	71.31
435.618	93.31
435.84	107.31
436.062	130.31
436.284	98.31
436.505	102.31
436.727	96.31
436.949	98.31
437.17	94.31
437.392	78.31
437.614	93.31
437.835	102.31
438.057	111.31
438.278	111.31
438.5	96.31
438.721	118.31
438.943	89.31
439.165	82.31
439.386	81.31
439.608	85.31
439.829	108.31
440.05	118.31
440.272	146.31
440.493	91.31
440.715	85.31
440.936	81.31
441.158	87.31
441.379	79.31
441.6	92.31
441.822	99.31
442.043	97.31
442.264	117.31
442.486	99.31
442.707	75.31
442.928	115.31
443.149	128.31
443.371	140.31
443.592	102.31
443.813	127.31
444.034	114.31
444.255	95.31
444.476	93.31
444.698	76.31
444.919	82.31
445.14	135.31
445.361	136.31
445.582	112.31
445.803	133.31
446.024	142.31
446.245	131.31
446.466	113.31
446.687	84.31
446.908	81.31
447.129	92.31
447.35	81.31
447.571	88.31
447.792	86.31
448.013	102.31
448.234	108.31
448.455	96.31
448.675	129.31
448.896	120.31
449.117	102.31
449.338	114.31
449.559	147.31
449.779	129.31
450	85.31
450.221	87.31
450.442	82.31
450.662	85.31
450.883	116.31
451.104	117.31
451.324	97.31
451.545	91.31
451.766	86.31
451.986	79.31
452.207	89.31
452.428	82.31
452.648	92.31
452.869	97.31
453.089	114.31
453.31	119.31
453.53	74.31
453.751	86.31
453.971	103.31
454.192	109.31
454.412	91.31
454.633	93.31
454.853	63.31
455.073	88.31
455.294	81.31
455.514	93.31
455.734	84.31
455.955	85.31
456.175	85.31
456.395	85.31
456.616	81.31
456.836	76.31
457.056	93.31
457.276	89.31
457.497	84.31
457.717	78.31
457.937	76.31
458.157	86.31
458.377	87.31
458.598	102.31
458.818	143.31
459.038	175.31
459.258	134.31
459.478	91.31
459.698	92.31
459.918	87.31
460.138	73.31
460.358	82.31
460.578	89.31
460.798	79.31
461.018	89.31
461.238	89.31
461.458	87.31
461.678	92.31
461.898	83.31
462.118	87.31
462.338	83.31
462.558	87.31
462.777	75.31
462.997	88.31
463.217	108.31
463.437	93.31
463.657	76.31
463.876	90.31
464.096	94.31
464.316	103.31
464.536	97.31
464.755	97.31
464.975	118.31
465.195	160.31
465.414	157.31
465.634	95.31
465.854	98.31
466.073	86.31
466.293	84.31
466.512	87.31
466.732	99.31
466.951	87.31
467.171	112.31
467.391	97.31
467.61	113.31
467.829	154.31
468.049	328.31
468.268	480.31
468.488	146.31
468.707	94.31
468.927	82.31
469.146	96.31
469.365	96.31
469.585	86.31
469.804	104.31
470.023	99.31
470.243	89.31
470.462	109.31
470.681	115.31
470.901	90.31
471.12	105.31
471.339	106.31
471.558	95.31
471.777	121.31
471.997	203.31
472.216	667.31
472.435	1363.31
472.654	350.31
472.873	105.31
473.092	99.31
473.311	109.31
473.53	91.31
473.749	78.31
473.968	96.31
474.187	96.31
474.406	102.31
474.625	103.31
474.844	76.31
475.063	83.31
475.282	86.31
475.501	75.31
475.72	94.31
475.939	86.31
476.158	93.31
476.377	96.31
476.596	84.31
476.814	98.31
477.033	85.31
477.252	87.31
477.471	91.31
477.69	86.31
477.908	99.31
478.127	92.31
478.346	87.31
478.564	95.31
478.783	80.31
479.002	86.31
479.22	85.31
479.439	116.31
479.658	101.31
479.876	109.31
480.095	100.31
480.313	105.31
480.532	111.31
480.751	201.31
480.969	619.31
481.188	2372.31
481.406	1413.31
481.624	259.31
481.843	109.31
482.061	83.31
482.28	82.31
482.498	93.31
482.717	89.31
482.935	84.31
483.153	85.31
483.372	101.31
483.59	88.31
483.808	93.31
484.027	98.31
484.245	111.31
484.463	78.31
484.681	84.31
484.9	94.31
485.118	112.31
485.336	96.31
485.554	101.31
485.772	95.31
485.99	97.31
486.209	95.31
486.427	85.31
486.645	107.31
486.863	117.31
487.081	114.31
487.299	95.31
487.517	88.31
487.735	102.31
487.953	87.31
488.171	97.31
488.389	83.31
488.607	101.31
488.825	100.31
489.043	98.31
489.261	79.31
489.479	102.31
489.696	88.31
489.914	94.31
490.132	88.31
490.35	88.31
490.568	84.31
490.786	85.31
491.003	104.31
491.221	85.31
491.439	79.31
491.657	97.31
491.874	95.31
492.092	83.31
492.31	93.31
492.527	98.31
492.745	94.31
492.963	96.31
493.18	103.31
493.398	109.31
493.615	87.31
493.833	103.31
494.05	95.31
494.268	88.31
494.485	93.31
494.703	92.31
494.92	81.31
495.138	104.31
495.355	99.31
495.573	100.31
495.79	81.31
496.008	95.31
496.225	91.31
496.442	88.31
496.66	87.31
496.877	66.31
497.094	100.31
497.312	90.31
497.529	92.31
497.746	88.31
497.963	92.31
498.181	86.31
498.398	95.31
498.615	103.31
498.832	100.31
499.049	105.31
499.267	95.31
499.484	76.31
499.701	91.31
499.918	87.31
500.135	88.31
500.352	86.31
500.569	91.31
500.786	87.31
501.003	93.31
501.22	89.31
501.437	84.31
501.654	93.31
501.871	104.31
502.088	80.31
502.305	102.31
502.522	95.31
502.739	92.31
502.956	84.31
503.172	99.31
503.389	91.31
503.606	117.31
503.823	105.31
504.04	81.31
504.256	83.31
504.473	100.31
504.69	91.31
504.907	105.31
505.123	94.31
505.34	91.31
505.557	96.31
505.773	103.31
505.99	85.31
506.207	112.31
506.423	84.31
506.64	91.31
506.856	85.31
507.073	100.31
507.289	79.31
507.506	89.31
507.722	98.31
507.939	108.31
508.155	95.31
508.372	89.31
508.588	91.31
508.805	76.31
509.021	84.31
509.238	96.31
509.454	111.31
509.67	112.31
509.887	96.31
510.103	128.31
510.319	188.31
510.536	643.31
510.752	2064.31
510.968	583.31
511.184	134.31
511.401	111.31
511.617	102.31
511.833	97.31
512.049	104.31
512.265	88.31
512.481	89.31
512.698	94.31
512.914	88.31
513.13	91.31
513.346	106.31
513.562	84.31
513.778	99.31
513.994	97.31
514.21	98.31
514.426	118.31
514.642	131.31
514.858	104.31
