Data from Circ_1989_H10_HRD10591_00077.txt Node
Date: Wed Jan 03 12:01:37 EST 2024
User: Yrep
Spectrometer: HR+D1059
Trigger mode: 1
Integration Time (sec): 1.000000E-1
Scans to average: 1
Electric dark correction enabled: true
Nonlinearity correction enabled: false
Boxcar width: 0
XAxis mode: Wavelengths
Number of Pixels in Spectrum: 2048
>>>>>Begin Spectral Data<<<<<
223.165	-17.62
223.4	-17.62
223.635	-17.62
223.869	-19.62
224.104	-29.62
224.338	-11.62
224.573	-21.62
224.808	-1.62
225.042	-6.62
225.277	-8.62
225.511	-12.62
225.746	-2.62
225.98	7.38
226.215	14.38
226.449	20.38
226.683	26.38
226.918	31.38
227.152	32.38
227.387	51.38
227.621	42.38
227.856	34.38
228.09	45.38
228.324	63.38
228.559	52.38
228.793	66.38
229.027	64.38
229.262	72.38
229.496	76.38
229.73	88.38
229.964	76.38
230.199	56.38
230.433	82.38
230.667	76.38
230.901	77.38
231.136	92.38
231.37	81.38
231.604	73.38
231.838	90.38
232.072	78.38
232.306	81.38
232.541	86.38
232.775	81.38
233.009	82.38
233.243	83.38
233.477	91.38
233.711	74.38
233.945	89.38
234.179	65.38
234.413	73.38
234.647	86.38
234.881	86.38
235.115	77.38
235.349	83.38
235.583	74.38
235.817	72.38
236.051	66.38
236.285	72.38
236.519	70.38
236.753	71.38
236.987	77.38
237.221	92.38
237.455	94.38
237.689	67.38
237.922	88.38
238.156	77.38
238.39	71.38
238.624	78.38
238.858	78.38
239.091	70.38
239.325	72.38
239.559	78.38
239.793	72.38
240.027	69.38
240.26	82.38
240.494	81.38
240.728	87.38
240.961	78.38
241.195	69.38
241.429	62.38
241.662	71.38
241.896	87.38
242.13	83.38
242.363	87.38
242.597	92.38
242.83	70.38
243.064	89.38
243.298	80.38
243.531	80.38
243.765	62.38
243.998	74.38
244.232	86.38
244.465	94.38
244.699	83.38
244.932	80.38
245.166	81.38
245.399	81.38
245.633	89.38
245.866	71.38
246.099	68.38
246.333	78.38
246.566	93.38
246.8	86.38
247.033	84.38
247.266	75.38
247.5	82.38
247.733	84.38
247.966	79.38
248.2	98.38
248.433	92.38
248.666	79.38
248.899	86.38
249.133	64.38
249.366	82.38
249.599	94.38
249.832	84.38
250.066	82.38
250.299	81.38
250.532	93.38
250.765	83.38
250.998	82.38
251.231	78.38
251.465	84.38
251.698	82.38
251.931	66.38
252.164	82.38
252.397	76.38
252.63	79.38
252.863	83.38
253.096	80.38
253.329	87.38
253.562	81.38
253.795	93.38
254.028	89.38
254.261	71.38
254.494	81.38
254.727	79.38
254.96	88.38
255.193	73.38
255.426	93.38
255.659	80.38
255.892	94.38
256.124	93.38
256.357	98.38
256.59	80.38
256.823	80.38
257.056	90.38
257.289	91.38
257.521	78.38
257.754	83.38
257.987	92.38
258.22	98.38
258.452	80.38
258.685	83.38
258.918	79.38
259.151	81.38
259.383	90.38
259.616	93.38
259.849	92.38
260.081	89.38
260.314	100.38
260.547	69.38
260.779	92.38
261.012	99.38
261.244	97.38
261.477	94.38
261.71	93.38
261.942	103.38
262.175	114.38
262.407	80.38
262.64	76.38
262.872	81.38
263.105	98.38
263.337	83.38
263.57	76.38
263.802	94.38
264.035	88.38
264.267	84.38
264.499	84.38
264.732	83.38
264.964	80.38
265.197	84.38
265.429	84.38
265.661	86.38
265.894	84.38
266.126	85.38
266.358	73.38
266.591	84.38
266.823	84.38
267.055	72.38
267.287	90.38
267.52	70.38
267.752	80.38
267.984	101.38
268.216	93.38
268.448	83.38
268.681	78.38
268.913	99.38
269.145	89.38
269.377	84.38
269.609	90.38
269.841	87.38
270.073	83.38
270.306	88.38
270.538	80.38
270.77	80.38
271.002	85.38
271.234	71.38
271.466	105.38
271.698	89.38
271.93	92.38
272.162	100.38
272.394	94.38
272.626	82.38
272.858	77.38
273.09	79.38
273.322	79.38
273.553	87.38
273.785	87.38
274.017	82.38
274.249	86.38
274.481	81.38
274.713	83.38
274.945	97.38
275.176	100.38
275.408	98.38
275.64	98.38
275.872	105.38
276.104	93.38
276.335	85.38
276.567	96.38
276.799	100.38
277.031	127.38
277.262	127.38
277.494	109.38
277.726	97.38
277.957	86.38
278.189	66.38
278.421	86.38
278.652	90.38
278.884	77.38
279.115	83.38
279.347	85.38
279.579	92.38
279.81	88.38
280.042	130.38
280.273	159.38
280.505	124.38
280.736	100.38
280.968	89.38
281.199	87.38
281.431	83.38
281.662	82.38
281.894	88.38
282.125	94.38
282.356	108.38
282.588	126.38
282.819	114.38
283.051	76.38
283.282	77.38
283.513	87.38
283.745	112.38
283.976	73.38
284.207	110.38
284.439	94.38
284.67	84.38
284.901	105.38
285.132	76.38
285.364	86.38
285.595	85.38
285.826	90.38
286.057	89.38
286.288	88.38
286.52	105.38
286.751	91.38
286.982	85.38
287.213	99.38
287.444	92.38
287.675	86.38
287.906	98.38
288.138	101.38
288.369	79.38
288.6	86.38
288.831	94.38
289.062	68.38
289.293	86.38
289.524	91.38
289.755	85.38
289.986	88.38
290.217	84.38
290.448	82.38
290.679	88.38
290.91	87.38
291.141	85.38
291.371	75.38
291.602	103.38
291.833	93.38
292.064	82.38
292.295	90.38
292.526	85.38
292.757	100.38
292.987	94.38
293.218	89.38
293.449	72.38
293.68	90.38
293.91	94.38
294.141	99.38
294.372	79.38
294.603	92.38
294.833	78.38
295.064	85.38
295.295	84.38
295.525	80.38
295.756	99.38
295.987	109.38
296.217	125.38
296.448	111.38
296.679	107.38
296.909	86.38
297.14	89.38
297.37	97.38
297.601	94.38
297.831	101.38
298.062	80.38
298.292	85.38
298.523	92.38
298.753	77.38
298.984	92.38
299.214	79.38
299.445	82.38
299.675	85.38
299.905	97.38
300.136	88.38
300.366	89.38
300.597	97.38
300.827	98.38
301.057	99.38
301.288	88.38
301.518	92.38
301.748	96.38
301.979	106.38
302.209	91.38
302.439	92.38
302.669	97.38
302.9	88.38
303.13	103.38
303.36	102.38
303.59	113.38
303.82	110.38
304.051	102.38
304.281	80.38
304.511	101.38
304.741	91.38
304.971	99.38
305.201	92.38
305.431	84.38
305.661	91.38
305.891	92.38
306.121	97.38
306.352	106.38
306.582	107.38
306.812	93.38
307.042	84.38
307.272	126.38
307.502	120.38
307.731	127.38
307.961	93.38
308.191	88.38
308.421	102.38
308.651	102.38
308.881	93.38
309.111	94.38
309.341	105.38
309.571	108.38
309.8	93.38
310.03	103.38
310.26	94.38
310.49	100.38
310.72	110.38
310.949	119.38
311.179	93.38
311.409	100.38
311.639	99.38
311.868	95.38
312.098	98.38
312.328	85.38
312.557	109.38
312.787	112.38
313.017	112.38
313.246	97.38
313.476	88.38
313.706	81.38
313.935	96.38
314.165	104.38
314.394	105.38
314.624	106.38
314.853	97.38
315.083	104.38
315.312	102.38
315.542	104.38
315.771	104.38
316.001	100.38
316.23	84.38
316.46	90.38
316.689	97.38
316.919	96.38
317.148	113.38
317.377	94.38
317.607	98.38
317.836	95.38
318.065	84.38
318.295	93.38
318.524	93.38
318.753	93.38
318.983	106.38
319.212	97.38
319.441	103.38
319.67	103.38
319.9	95.38
320.129	85.38
320.358	87.38
320.587	101.38
320.816	99.38
321.046	113.38
321.275	98.38
321.504	89.38
321.733	95.38
321.962	97.38
322.191	96.38
322.42	97.38
322.649	114.38
322.878	109.38
323.108	122.38
323.337	118.38
323.566	125.38
323.795	153.38
324.024	203.38
324.253	387.38
324.482	832.38
324.71	1728.38
324.939	2319.38
325.168	837.38
325.397	245.38
325.626	165.38
325.855	139.38
326.084	122.38
326.313	131.38
326.542	160.38
326.77	229.38
326.999	474.38
327.228	946.38
327.457	1830.38
327.686	1488.38
327.914	428.38
328.143	320.38
328.372	370.38
328.6	222.38
328.829	144.38
329.058	150.38
329.287	158.38
329.515	138.38
329.744	172.38
329.972	297.38
330.201	542.38
330.43	744.38
330.658	361.38
330.887	181.38
331.115	134.38
331.344	104.38
331.572	103.38
331.801	109.38
332.03	108.38
332.258	91.38
332.486	92.38
332.715	98.38
332.943	109.38
333.172	89.38
333.4	102.38
333.629	145.38
333.857	147.38
334.085	268.38
334.314	511.38
334.542	965.38
334.771	878.38
334.999	270.38
335.227	130.38
335.455	90.38
335.684	107.38
335.912	94.38
336.14	102.38
336.369	110.38
336.597	98.38
336.825	116.38
337.053	101.38
337.281	96.38
337.51	102.38
337.738	94.38
337.966	94.38
338.194	92.38
338.422	97.38
338.65	100.38
338.878	83.38
339.106	92.38
339.334	92.38
339.562	90.38
339.79	84.38
340.018	93.38
340.246	91.38
340.474	99.38
340.702	92.38
340.93	86.38
341.158	94.38
341.386	90.38
341.614	101.38
341.842	101.38
342.07	95.38
342.298	98.38
342.526	80.38
342.754	80.38
342.981	92.38
343.209	96.38
343.437	101.38
343.665	103.38
343.893	84.38
344.12	97.38
344.348	101.38
344.576	103.38
344.804	90.38
345.031	89.38
345.259	98.38
345.487	104.38
345.714	86.38
345.942	97.38
346.17	96.38
346.397	78.38
346.625	99.38
346.853	102.38
347.08	100.38
347.308	88.38
347.535	96.38
347.763	100.38
347.99	85.38
348.218	105.38
348.445	117.38
348.673	99.38
348.9	110.38
349.128	91.38
349.355	94.38
349.583	97.38
349.81	90.38
350.037	85.38
350.265	97.38
350.492	92.38
350.72	87.38
350.947	99.38
351.174	121.38
351.402	107.38
351.629	101.38
351.856	97.38
352.083	109.38
352.311	110.38
352.538	112.38
352.765	118.38
352.992	114.38
353.22	118.38
353.447	74.38
353.674	100.38
353.901	92.38
354.128	98.38
354.355	99.38
354.583	101.38
354.81	110.38
355.037	108.38
355.264	96.38
355.491	103.38
355.718	97.38
355.945	85.38
356.172	96.38
356.399	97.38
356.626	95.38
356.853	96.38
357.08	87.38
357.307	89.38
357.534	94.38
357.761	99.38
357.988	89.38
358.215	101.38
358.441	83.38
358.668	109.38
358.895	98.38
359.122	95.38
359.349	98.38
359.576	98.38
359.802	98.38
360.029	110.38
360.256	102.38
360.483	116.38
360.709	81.38
360.936	101.38
361.163	104.38
361.39	103.38
361.616	106.38
361.843	111.38
362.07	105.38
362.296	96.38
362.523	84.38
362.749	97.38
362.976	99.38
363.203	102.38
363.429	80.38
363.656	110.38
363.882	79.38
364.109	90.38
364.335	78.38
364.562	94.38
364.788	104.38
365.015	96.38
365.241	95.38
365.468	88.38
365.694	95.38
365.92	94.38
366.147	91.38
366.373	97.38
366.599	98.38
366.826	99.38
367.052	101.38
367.278	79.38
367.505	98.38
367.731	115.38
367.957	96.38
368.184	101.38
368.41	92.38
368.636	102.38
368.862	124.38
369.089	108.38
369.315	101.38
369.541	76.38
369.767	84.38
369.993	85.38
370.219	98.38
370.445	93.38
370.672	81.38
370.898	98.38
371.124	90.38
371.35	69.38
371.576	93.38
371.802	93.38
372.028	97.38
372.254	95.38
372.48	92.38
372.706	96.38
372.932	81.38
373.158	88.38
373.384	98.38
373.61	94.38
373.835	104.38
374.061	89.38
374.287	96.38
374.513	90.38
374.739	92.38
374.965	88.38
375.191	92.38
375.416	82.38
375.642	96.38
375.868	96.38
376.094	92.38
376.319	88.38
376.545	86.38
376.771	89.38
376.997	73.38
377.222	88.38
377.448	92.38
377.674	87.38
377.899	97.38
378.125	86.38
378.35	98.38
378.576	89.38
378.802	100.38
379.027	71.38
379.253	89.38
379.478	89.38
379.704	98.38
379.929	79.38
380.155	71.38
380.38	86.38
380.606	97.38
380.831	92.38
381.057	104.38
381.282	91.38
381.507	91.38
381.733	92.38
381.958	97.38
382.184	99.38
382.409	109.38
382.634	105.38
382.86	88.38
383.085	96.38
383.31	98.38
383.535	91.38
383.761	109.38
383.986	94.38
384.211	96.38
384.436	101.38
384.662	111.38
384.887	110.38
385.112	96.38
385.337	112.38
385.562	101.38
385.787	102.38
386.013	116.38
386.238	121.38
386.463	107.38
386.688	112.38
386.913	115.38
387.138	102.38
387.363	122.38
387.588	102.38
387.813	100.38
388.038	101.38
388.263	100.38
388.488	105.38
388.713	95.38
388.938	84.38
389.163	93.38
389.387	98.38
389.612	103.38
389.837	89.38
390.062	100.38
390.287	100.38
390.512	95.38
390.736	88.38
390.961	95.38
391.186	84.38
391.411	86.38
391.636	93.38
391.86	92.38
392.085	89.38
392.31	91.38
392.534	87.38
392.759	96.38
392.984	80.38
393.208	86.38
393.433	89.38
393.658	87.38
393.882	85.38
394.107	105.38
394.331	89.38
394.556	93.38
394.78	87.38
395.005	80.38
395.229	80.38
395.454	91.38
395.678	83.38
395.903	92.38
396.127	87.38
396.352	100.38
396.576	85.38
396.801	70.38
397.025	93.38
397.249	80.38
397.474	106.38
397.698	85.38
397.922	88.38
398.147	83.38
398.371	92.38
398.595	85.38
398.82	90.38
399.044	99.38
399.268	89.38
399.492	97.38
399.717	95.38
399.941	83.38
400.165	97.38
400.389	95.38
400.613	92.38
400.837	85.38
401.062	89.38
401.286	88.38
401.51	108.38
401.734	99.38
401.958	106.38
402.182	133.38
402.406	146.38
402.63	114.38
402.854	98.38
403.078	96.38
403.302	89.38
403.526	89.38
403.75	90.38
403.974	90.38
404.198	92.38
404.422	94.38
404.645	98.38
404.869	104.38
405.093	100.38
405.317	132.38
405.541	119.38
405.765	110.38
405.988	106.38
406.212	156.38
406.436	199.38
406.66	158.38
406.883	91.38
407.107	104.38
407.331	102.38
407.555	96.38
407.778	111.38
408.002	100.38
408.226	92.38
408.449	92.38
408.673	90.38
408.896	109.38
409.12	100.38
409.344	92.38
409.567	84.38
409.791	103.38
410.014	89.38
410.238	85.38
410.461	99.38
410.685	102.38
410.908	102.38
411.132	102.38
411.355	89.38
411.578	94.38
411.802	101.38
412.025	85.38
412.249	94.38
412.472	101.38
412.695	115.38
412.919	97.38
413.142	98.38
413.365	87.38
413.589	78.38
413.812	94.38
414.035	97.38
414.258	103.38
414.482	97.38
414.705	84.38
414.928	93.38
415.151	97.38
415.374	91.38
415.597	84.38
415.821	82.38
416.044	88.38
416.267	91.38
416.49	91.38
416.713	98.38
416.936	80.38
417.159	87.38
417.382	100.38
417.605	93.38
417.828	96.38
418.051	82.38
418.274	89.38
418.497	93.38
418.72	82.38
418.943	92.38
419.166	90.38
419.389	92.38
419.611	80.38
419.834	91.38
420.057	90.38
420.28	97.38
420.503	82.38
420.726	98.38
420.948	88.38
421.171	113.38
421.394	102.38
421.617	94.38
421.839	91.38
422.062	90.38
422.285	109.38
422.507	92.38
422.73	99.38
422.953	90.38
423.175	87.38
423.398	102.38
423.621	80.38
423.843	99.38
424.066	83.38
424.288	87.38
424.511	101.38
424.733	103.38
424.956	112.38
425.178	99.38
425.401	90.38
425.623	97.38
425.846	95.38
426.068	87.38
426.291	96.38
426.513	93.38
426.735	98.38
426.958	102.38
427.18	103.38
427.402	156.38
427.625	196.38
427.847	177.38
428.069	173.38
428.292	105.38
428.514	96.38
428.736	81.38
428.958	95.38
429.181	93.38
429.403	87.38
429.625	85.38
429.847	93.38
430.069	105.38
430.292	92.38
430.514	93.38
430.736	95.38
430.958	89.38
431.18	99.38
431.402	73.38
431.624	94.38
431.846	98.38
432.068	94.38
432.29	90.38
432.512	89.38
432.734	84.38
432.956	80.38
433.178	103.38
433.4	87.38
433.622	98.38
433.844	100.38
434.066	98.38
434.287	92.38
434.509	94.38
434.731	92.38
434.953	100.38
435.175	100.38
435.397	97.38
435.618	86.38
435.84	108.38
436.062	121.38
436.284	117.38
436.505	109.38
436.727	103.38
436.949	96.38
437.17	76.38
437.392	87.38
437.614	93.38
437.835	101.38
438.057	111.38
438.278	120.38
438.5	105.38
438.721	125.38
438.943	99.38
439.165	88.38
439.386	96.38
439.608	96.38
439.829	114.38
440.05	128.38
440.272	157.38
440.493	116.38
440.715	69.38
440.936	99.38
441.158	89.38
441.379	82.38
441.6	108.38
441.822	101.38
442.043	89.38
442.264	109.38
442.486	95.38
442.707	89.38
442.928	106.38
443.149	117.38
443.371	136.38
443.592	108.38
443.813	107.38
444.034	113.38
444.255	89.38
444.476	80.38
444.698	72.38
444.919	80.38
445.14	134.38
445.361	124.38
445.582	109.38
445.803	146.38
446.024	136.38
446.245	143.38
446.466	120.38
446.687	93.38
446.908	80.38
447.129	86.38
447.35	76.38
447.571	103.38
447.792	86.38
448.013	95.38
448.234	98.38
448.455	110.38
448.675	117.38
448.896	111.38
449.117	113.38
449.338	109.38
449.559	152.38
449.779	155.38
450	92.38
450.221	103.38
450.442	79.38
450.662	95.38
450.883	105.38
451.104	114.38
451.324	100.38
451.545	100.38
451.766	80.38
451.986	70.38
452.207	78.38
452.428	89.38
452.648	99.38
452.869	109.38
453.089	97.38
453.31	100.38
453.53	90.38
453.751	95.38
453.971	93.38
454.192	114.38
454.412	90.38
454.633	103.38
454.853	77.38
455.073	93.38
455.294	84.38
455.514	88.38
455.734	86.38
455.955	68.38
456.175	79.38
456.395	73.38
456.616	76.38
456.836	90.38
457.056	80.38
457.276	84.38
457.497	85.38
457.717	89.38
457.937	88.38
458.157	79.38
458.377	88.38
458.598	116.38
458.818	152.38
459.038	167.38
459.258	128.38
459.478	96.38
459.698	81.38
459.918	92.38
460.138	92.38
460.358	64.38
460.578	86.38
460.798	86.38
461.018	88.38
461.238	96.38
461.458	79.38
461.678	94.38
461.898	78.38
462.118	92.38
462.338	88.38
462.558	102.38
462.777	87.38
462.997	99.38
463.217	85.38
463.437	79.38
463.657	93.38
463.876	79.38
464.096	102.38
464.316	87.38
464.536	84.38
464.755	83.38
464.975	105.38
465.195	177.38
465.414	166.38
465.634	112.38
465.854	94.38
466.073	83.38
466.293	94.38
466.512	88.38
466.732	96.38
466.951	89.38
467.171	86.38
467.391	92.38
467.61	125.38
467.829	152.38
468.049	312.38
468.268	444.38
468.488	165.38
468.707	102.38
468.927	88.38
469.146	79.38
469.365	79.38
469.585	97.38
469.804	98.38
470.023	107.38
470.243	78.38
470.462	101.38
470.681	101.38
470.901	99.38
471.12	101.38
471.339	105.38
471.558	112.38
471.777	127.38
471.997	208.38
472.216	644.38
472.435	1328.38
472.654	340.38
472.873	142.38
473.092	110.38
473.311	85.38
473.53	99.38
473.749	94.38
473.968	101.38
474.187	104.38
474.406	93.38
474.625	96.38
474.844	93.38
475.063	95.38
475.282	99.38
475.501	88.38
475.72	91.38
475.939	84.38
476.158	83.38
476.377	87.38
476.596	103.38
476.814	72.38
477.033	88.38
477.252	84.38
477.471	84.38
477.69	104.38
477.908	88.38
478.127	96.38
478.346	100.38
478.564	97.38
478.783	98.38
479.002	88.38
479.22	94.38
479.439	99.38
479.658	108.38
479.876	113.38
480.095	112.38
480.313	115.38
480.532	133.38
480.751	189.38
480.969	589.38
481.188	2343.38
481.406	1373.38
481.624	246.38
481.843	118.38
482.061	94.38
482.28	104.38
482.498	114.38
482.717	96.38
482.935	96.38
483.153	90.38
483.372	83.38
483.59	102.38
483.808	88.38
484.027	95.38
484.245	88.38
484.463	88.38
484.681	92.38
484.9	82.38
485.118	89.38
485.336	93.38
485.554	95.38
485.772	95.38
485.99	109.38
486.209	101.38
486.427	110.38
486.645	125.38
486.863	110.38
487.081	96.38
487.299	87.38
487.517	101.38
487.735	95.38
487.953	85.38
488.171	82.38
488.389	92.38
488.607	94.38
488.825	107.38
489.043	73.38
489.261	84.38
489.479	80.38
489.696	105.38
489.914	92.38
490.132	91.38
490.35	95.38
490.568	94.38
490.786	81.38
491.003	97.38
491.221	102.38
491.439	98.38
491.657	84.38
491.874	79.38
492.092	100.38
492.31	96.38
492.527	92.38
492.745	87.38
492.963	87.38
493.18	88.38
493.398	90.38
493.615	101.38
493.833	99.38
494.05	86.38
494.268	87.38
494.485	97.38
494.703	87.38
494.92	98.38
495.138	84.38
495.355	92.38
495.573	103.38
495.79	88.38
496.008	98.38
496.225	95.38
496.442	96.38
496.66	95.38
496.877	105.38
497.094	105.38
497.312	92.38
497.529	92.38
497.746	81.38
497.963	77.38
498.181	89.38
498.398	99.38
498.615	118.38
498.832	102.38
499.049	96.38
499.267	92.38
499.484	93.38
499.701	101.38
499.918	84.38
500.135	87.38
500.352	98.38
500.569	88.38
500.786	95.38
501.003	92.38
501.22	92.38
501.437	102.38
501.654	100.38
501.871	102.38
502.088	104.38
502.305	85.38
502.522	98.38
502.739	96.38
502.956	102.38
503.172	83.38
503.389	110.38
503.606	105.38
503.823	96.38
504.04	75.38
504.256	81.38
504.473	91.38
504.69	78.38
504.907	94.38
505.123	95.38
505.34	104.38
505.557	96.38
505.773	92.38
505.99	70.38
506.207	89.38
506.423	86.38
506.64	98.38
506.856	98.38
507.073	89.38
507.289	95.38
507.506	95.38
507.722	116.38
507.939	111.38
508.155	85.38
508.372	97.38
508.588	100.38
508.805	83.38
509.021	104.38
509.238	95.38
509.454	95.38
509.67	108.38
509.887	109.38
510.103	126.38
510.319	185.38
510.536	608.38
510.752	1862.38
510.968	552.38
511.184	140.38
511.401	98.38
511.617	97.38
511.833	110.38
512.049	100.38
512.265	79.38
512.481	99.38
512.698	96.38
512.914	63.38
513.13	94.38
513.346	95.38
513.562	95.38
513.778	113.38
513.994	89.38
514.21	105.38
514.426	112.38
