Data from Circ_1989_H10_HRD10591_00007.txt Node
Date: Wed Jan 03 12:01:23 EST 2024
User: Yrep
Spectrometer: HR+D1059
Trigger mode: 1
Integration Time (sec): 1.000000E-1
Scans to average: 1
Electric dark correction enabled: true
Nonlinearity correction enabled: false
Boxcar width: 0
XAxis mode: Wavelengths
Number of Pixels in Spectrum: 2048
>>>>>Begin Spectral Data<<<<<
223.165	-19.94
223.4	-19.94
223.635	-19.94
223.869	-14.94
224.104	-33.94
224.338	-7.94
224.573	-18.94
224.808	-16.94
225.042	-6.94
225.277	-4.94
225.511	4.06
225.746	-2.94
225.98	16.06
226.215	11.06
226.449	15.06
226.683	25.06
226.918	31.06
227.152	25.06
227.387	28.06
227.621	24.06
227.856	48.06
228.09	56.06
228.324	60.06
228.559	64.06
228.793	79.06
229.027	58.06
229.262	70.06
229.496	72.06
229.73	82.06
229.964	59.06
230.199	68.06
230.433	69.06
230.667	72.06
230.901	77.06
231.136	83.06
231.37	66.06
231.604	59.06
231.838	65.06
232.072	87.06
232.306	81.06
232.541	95.06
232.775	79.06
233.009	69.06
233.243	64.06
233.477	86.06
233.711	78.06
233.945	79.06
234.179	74.06
234.413	84.06
234.647	76.06
234.881	96.06
235.115	77.06
235.349	85.06
235.583	71.06
235.817	85.06
236.051	85.06
236.285	101.06
236.519	81.06
236.753	95.06
236.987	93.06
237.221	98.06
237.455	81.06
237.689	63.06
237.922	84.06
238.156	65.06
238.39	69.06
238.624	82.06
238.858	84.06
239.091	79.06
239.325	83.06
239.559	79.06
239.793	78.06
240.027	79.06
240.26	78.06
240.494	77.06
240.728	82.06
240.961	78.06
241.195	58.06
241.429	78.06
241.662	66.06
241.896	73.06
242.13	66.06
242.363	76.06
242.597	80.06
242.83	76.06
243.064	88.06
243.298	88.06
243.531	87.06
243.765	84.06
243.998	83.06
244.232	75.06
244.465	85.06
244.699	79.06
244.932	68.06
245.166	89.06
245.399	71.06
245.633	69.06
245.866	76.06
246.099	80.06
246.333	50.06
246.566	70.06
246.8	84.06
247.033	83.06
247.266	73.06
247.5	77.06
247.733	89.06
247.966	90.06
248.2	89.06
248.433	81.06
248.666	82.06
248.899	74.06
249.133	105.06
249.366	84.06
249.599	88.06
249.832	95.06
250.066	87.06
250.299	85.06
250.532	71.06
250.765	80.06
250.998	84.06
251.231	80.06
251.465	83.06
251.698	77.06
251.931	68.06
252.164	80.06
252.397	87.06
252.63	69.06
252.863	94.06
253.096	90.06
253.329	98.06
253.562	83.06
253.795	73.06
254.028	77.06
254.261	85.06
254.494	85.06
254.727	89.06
254.96	85.06
255.193	73.06
255.426	77.06
255.659	71.06
255.892	80.06
256.124	73.06
256.357	80.06
256.59	91.06
256.823	83.06
257.056	99.06
257.289	94.06
257.521	83.06
257.754	88.06
257.987	84.06
258.22	86.06
258.452	80.06
258.685	76.06
258.918	81.06
259.151	95.06
259.383	85.06
259.616	92.06
259.849	77.06
260.081	85.06
260.314	85.06
260.547	81.06
260.779	98.06
261.012	83.06
261.244	87.06
261.477	96.06
261.71	89.06
261.942	96.06
262.175	104.06
262.407	77.06
262.64	80.06
262.872	86.06
263.105	69.06
263.337	84.06
263.57	84.06
263.802	87.06
264.035	83.06
264.267	80.06
264.499	85.06
264.732	86.06
264.964	92.06
265.197	80.06
265.429	82.06
265.661	76.06
265.894	76.06
266.126	83.06
266.358	73.06
266.591	75.06
266.823	84.06
267.055	78.06
267.287	95.06
267.52	89.06
267.752	89.06
267.984	87.06
268.216	84.06
268.448	89.06
268.681	100.06
268.913	77.06
269.145	86.06
269.377	94.06
269.609	78.06
269.841	88.06
270.073	88.06
270.306	85.06
270.538	77.06
270.77	85.06
271.002	88.06
271.234	85.06
271.466	75.06
271.698	74.06
271.93	93.06
272.162	90.06
272.394	85.06
272.626	73.06
272.858	83.06
273.09	72.06
273.322	68.06
273.553	97.06
273.785	79.06
274.017	78.06
274.249	78.06
274.481	88.06
274.713	86.06
274.945	80.06
275.176	69.06
275.408	82.06
275.64	82.06
275.872	90.06
276.104	80.06
276.335	102.06
276.567	108.06
276.799	113.06
277.031	102.06
277.262	99.06
277.494	83.06
277.726	83.06
277.957	84.06
278.189	86.06
278.421	77.06
278.652	98.06
278.884	86.06
279.115	81.06
279.347	80.06
279.579	83.06
279.81	74.06
280.042	112.06
280.273	100.06
280.505	106.06
280.736	84.06
280.968	100.06
281.199	101.06
281.431	89.06
281.662	101.06
281.894	100.06
282.125	105.06
282.356	111.06
282.588	127.06
282.819	107.06
283.051	82.06
283.282	95.06
283.513	92.06
283.745	99.06
283.976	104.06
284.207	96.06
284.439	86.06
284.67	88.06
284.901	85.06
285.132	85.06
285.364	91.06
285.595	93.06
285.826	76.06
286.057	85.06
286.288	93.06
286.52	88.06
286.751	82.06
286.982	85.06
287.213	72.06
287.444	76.06
287.675	90.06
287.906	85.06
288.138	78.06
288.369	95.06
288.6	94.06
288.831	86.06
289.062	82.06
289.293	91.06
289.524	84.06
289.755	101.06
289.986	87.06
290.217	89.06
290.448	83.06
290.679	85.06
290.91	88.06
291.141	95.06
291.371	102.06
291.602	88.06
291.833	101.06
292.064	84.06
292.295	93.06
292.526	86.06
292.757	96.06
292.987	85.06
293.218	82.06
293.449	90.06
293.68	93.06
293.91	91.06
294.141	90.06
294.372	80.06
294.603	81.06
294.833	99.06
295.064	89.06
295.295	89.06
295.525	106.06
295.756	92.06
295.987	99.06
296.217	136.06
296.448	120.06
296.679	103.06
296.909	88.06
297.14	76.06
297.37	83.06
297.601	69.06
297.831	102.06
298.062	89.06
298.292	97.06
298.523	96.06
298.753	82.06
298.984	81.06
299.214	90.06
299.445	95.06
299.675	94.06
299.905	104.06
300.136	94.06
300.366	88.06
300.597	84.06
300.827	69.06
301.057	93.06
301.288	88.06
301.518	73.06
301.748	92.06
301.979	117.06
302.209	94.06
302.439	108.06
302.669	89.06
302.9	92.06
303.13	94.06
303.36	99.06
303.59	101.06
303.82	110.06
304.051	82.06
304.281	88.06
304.511	105.06
304.741	85.06
304.971	71.06
305.201	86.06
305.431	91.06
305.661	86.06
305.891	91.06
306.121	82.06
306.352	103.06
306.582	82.06
306.812	84.06
307.042	80.06
307.272	97.06
307.502	119.06
307.731	109.06
307.961	99.06
308.191	94.06
308.421	100.06
308.651	97.06
308.881	94.06
309.111	111.06
309.341	113.06
309.571	99.06
309.8	97.06
310.03	111.06
310.26	93.06
310.49	93.06
310.72	110.06
310.949	92.06
311.179	88.06
311.409	84.06
311.639	96.06
311.868	94.06
312.098	90.06
312.328	106.06
312.557	105.06
312.787	101.06
313.017	92.06
313.246	95.06
313.476	83.06
313.706	84.06
313.935	87.06
314.165	95.06
314.394	89.06
314.624	91.06
314.853	98.06
315.083	96.06
315.312	84.06
315.542	83.06
315.771	102.06
316.001	104.06
316.23	100.06
316.46	87.06
316.689	87.06
316.919	87.06
317.148	104.06
317.377	90.06
317.607	95.06
317.836	92.06
318.065	98.06
318.295	83.06
318.524	94.06
318.753	87.06
318.983	94.06
319.212	92.06
319.441	102.06
319.67	106.06
319.9	83.06
320.129	88.06
320.358	96.06
320.587	87.06
320.816	88.06
321.046	88.06
321.275	98.06
321.504	100.06
321.733	101.06
321.962	95.06
322.191	94.06
322.42	113.06
322.649	110.06
322.878	106.06
323.108	102.06
323.337	109.06
323.566	120.06
323.795	124.06
324.024	164.06
324.253	330.06
324.482	680.06
324.71	1374.06
324.939	1826.06
325.168	691.06
325.397	218.06
325.626	126.06
325.855	135.06
326.084	121.06
326.313	122.06
326.542	137.06
326.77	199.06
326.999	380.06
327.228	773.06
327.457	1425.06
327.686	1182.06
327.914	353.06
328.143	227.06
328.372	258.06
328.6	171.06
328.829	131.06
329.058	125.06
329.287	112.06
329.515	126.06
329.744	145.06
329.972	191.06
330.201	298.06
330.43	408.06
330.658	220.06
330.887	160.06
331.115	133.06
331.344	80.06
331.572	82.06
331.801	103.06
332.03	96.06
332.258	106.06
332.486	82.06
332.715	105.06
332.943	78.06
333.172	92.06
333.4	94.06
333.629	102.06
333.857	129.06
334.085	172.06
334.314	319.06
334.542	491.06
334.771	443.06
334.999	171.06
335.227	106.06
335.455	122.06
335.684	108.06
335.912	87.06
336.14	92.06
336.369	105.06
336.597	100.06
336.825	94.06
337.053	97.06
337.281	93.06
337.51	92.06
337.738	93.06
337.966	90.06
338.194	94.06
338.422	104.06
338.65	93.06
338.878	81.06
339.106	92.06
339.334	101.06
339.562	80.06
339.79	74.06
340.018	96.06
340.246	84.06
340.474	88.06
340.702	104.06
340.93	88.06
341.158	74.06
341.386	96.06
341.614	106.06
341.842	87.06
342.07	96.06
342.298	102.06
342.526	89.06
342.754	93.06
342.981	100.06
343.209	101.06
343.437	107.06
343.665	78.06
343.893	83.06
344.12	80.06
344.348	98.06
344.576	93.06
344.804	101.06
345.031	100.06
345.259	100.06
345.487	104.06
345.714	102.06
345.942	91.06
346.17	98.06
346.397	87.06
346.625	93.06
346.853	97.06
347.08	70.06
347.308	77.06
347.535	91.06
347.763	102.06
347.99	94.06
348.218	100.06
348.445	101.06
348.673	110.06
348.9	105.06
349.128	107.06
349.355	93.06
349.583	102.06
349.81	99.06
350.037	74.06
350.265	95.06
350.492	82.06
350.72	89.06
350.947	104.06
351.174	112.06
351.402	97.06
351.629	98.06
351.856	87.06
352.083	87.06
352.311	105.06
352.538	102.06
352.765	91.06
352.992	121.06
353.22	98.06
353.447	97.06
353.674	93.06
353.901	104.06
354.128	93.06
354.355	103.06
354.583	93.06
354.81	95.06
355.037	90.06
355.264	90.06
355.491	102.06
355.718	91.06
355.945	98.06
356.172	97.06
356.399	105.06
356.626	86.06
356.853	90.06
357.08	102.06
357.307	104.06
357.534	91.06
357.761	103.06
357.988	102.06
358.215	102.06
358.441	91.06
358.668	96.06
358.895	99.06
359.122	90.06
359.349	93.06
359.576	76.06
359.802	104.06
360.029	119.06
360.256	101.06
360.483	104.06
360.709	101.06
360.936	88.06
361.163	86.06
361.39	97.06
361.616	100.06
361.843	94.06
362.07	96.06
362.296	99.06
362.523	87.06
362.749	100.06
362.976	94.06
363.203	93.06
363.429	85.06
363.656	88.06
363.882	79.06
364.109	82.06
364.335	88.06
364.562	73.06
364.788	86.06
365.015	101.06
365.241	95.06
365.468	109.06
365.694	85.06
365.92	90.06
366.147	82.06
366.373	82.06
366.599	82.06
366.826	92.06
367.052	104.06
367.278	87.06
367.505	94.06
367.731	87.06
367.957	93.06
368.184	94.06
368.41	99.06
368.636	112.06
368.862	114.06
369.089	109.06
369.315	98.06
369.541	84.06
369.767	80.06
369.993	88.06
370.219	76.06
370.445	83.06
370.672	82.06
370.898	82.06
371.124	82.06
371.35	89.06
371.576	92.06
371.802	77.06
372.028	83.06
372.254	91.06
372.48	101.06
372.706	98.06
372.932	88.06
373.158	101.06
373.384	78.06
373.61	84.06
373.835	87.06
374.061	79.06
374.287	89.06
374.513	84.06
374.739	95.06
374.965	94.06
375.191	103.06
375.416	84.06
375.642	99.06
375.868	88.06
376.094	97.06
376.319	88.06
376.545	101.06
376.771	98.06
376.997	91.06
377.222	105.06
377.448	88.06
377.674	101.06
377.899	98.06
378.125	89.06
378.35	87.06
378.576	97.06
378.802	81.06
379.027	79.06
379.253	110.06
379.478	100.06
379.704	90.06
379.929	109.06
380.155	97.06
380.38	102.06
380.606	96.06
380.831	101.06
381.057	105.06
381.282	87.06
381.507	102.06
381.733	103.06
381.958	105.06
382.184	116.06
382.409	110.06
382.634	121.06
382.86	117.06
383.085	110.06
383.31	120.06
383.535	114.06
383.761	113.06
383.986	113.06
384.211	119.06
384.436	112.06
384.662	117.06
384.887	133.06
385.112	122.06
385.337	124.06
385.562	114.06
385.787	128.06
386.013	130.06
386.238	133.06
386.463	124.06
386.688	129.06
386.913	127.06
387.138	131.06
387.363	129.06
387.588	110.06
387.813	101.06
388.038	127.06
388.263	134.06
388.488	127.06
388.713	101.06
388.938	96.06
389.163	94.06
389.387	93.06
389.612	102.06
389.837	98.06
390.062	96.06
390.287	89.06
390.512	96.06
390.736	103.06
390.961	82.06
391.186	73.06
391.411	102.06
391.636	97.06
391.86	92.06
392.085	87.06
392.31	84.06
392.534	78.06
392.759	95.06
392.984	84.06
393.208	90.06
393.433	112.06
393.658	116.06
393.882	74.06
394.107	80.06
394.331	98.06
394.556	94.06
394.78	85.06
395.005	98.06
395.229	79.06
395.454	86.06
395.678	90.06
395.903	88.06
396.127	81.06
396.352	93.06
396.576	96.06
396.801	98.06
397.025	100.06
397.249	83.06
397.474	92.06
397.698	96.06
397.922	94.06
398.147	92.06
398.371	97.06
398.595	96.06
398.82	93.06
399.044	81.06
399.268	94.06
399.492	80.06
399.717	92.06
399.941	88.06
400.165	88.06
400.389	92.06
400.613	98.06
400.837	88.06
401.062	100.06
401.286	89.06
401.51	92.06
401.734	110.06
401.958	119.06
402.182	124.06
402.406	133.06
402.63	112.06
402.854	98.06
403.078	85.06
403.302	91.06
403.526	88.06
403.75	84.06
403.974	91.06
404.198	90.06
404.422	87.06
404.645	88.06
404.869	84.06
405.093	103.06
405.317	123.06
405.541	99.06
405.765	114.06
405.988	116.06
406.212	133.06
406.436	194.06
406.66	137.06
406.883	95.06
407.107	94.06
407.331	93.06
407.555	100.06
407.778	98.06
408.002	95.06
408.226	92.06
408.449	99.06
408.673	88.06
408.896	88.06
409.12	96.06
409.344	86.06
409.567	96.06
409.791	98.06
410.014	97.06
410.238	82.06
410.461	85.06
410.685	79.06
410.908	94.06
411.132	105.06
411.355	97.06
411.578	90.06
411.802	86.06
412.025	94.06
412.249	94.06
412.472	105.06
412.695	114.06
412.919	88.06
413.142	89.06
413.365	89.06
413.589	82.06
413.812	105.06
414.035	99.06
414.258	92.06
414.482	99.06
414.705	96.06
414.928	86.06
415.151	103.06
415.374	106.06
415.597	83.06
415.821	94.06
416.044	87.06
416.267	98.06
416.49	92.06
416.713	101.06
416.936	97.06
417.159	95.06
417.382	88.06
417.605	91.06
417.828	107.06
418.051	106.06
418.274	88.06
418.497	96.06
418.72	85.06
418.943	97.06
419.166	93.06
419.389	95.06
419.611	92.06
419.834	82.06
420.057	87.06
420.28	97.06
420.503	97.06
420.726	98.06
420.948	98.06
421.171	96.06
421.394	96.06
421.617	98.06
421.839	87.06
422.062	92.06
422.285	101.06
422.507	106.06
422.73	105.06
422.953	104.06
423.175	88.06
423.398	88.06
423.621	87.06
423.843	77.06
424.066	90.06
424.288	87.06
424.511	89.06
424.733	109.06
424.956	100.06
425.178	95.06
425.401	106.06
425.623	98.06
425.846	85.06
426.068	93.06
426.291	89.06
426.513	85.06
426.735	85.06
426.958	73.06
427.18	92.06
427.402	144.06
427.625	163.06
427.847	154.06
428.069	136.06
428.292	104.06
428.514	98.06
428.736	90.06
428.958	98.06
429.181	94.06
429.403	89.06
429.625	94.06
429.847	83.06
430.069	96.06
430.292	78.06
430.514	84.06
430.736	87.06
430.958	93.06
431.18	93.06
431.402	86.06
431.624	88.06
431.846	102.06
432.068	84.06
432.29	94.06
432.512	88.06
432.734	88.06
432.956	93.06
433.178	96.06
433.4	95.06
433.622	100.06
433.844	86.06
434.066	89.06
434.287	98.06
434.509	96.06
434.731	85.06
434.953	85.06
435.175	90.06
435.397	99.06
435.618	93.06
435.84	104.06
436.062	128.06
436.284	104.06
436.505	99.06
436.727	114.06
436.949	94.06
437.17	80.06
437.392	95.06
437.614	86.06
437.835	98.06
438.057	114.06
438.278	113.06
438.5	104.06
438.721	111.06
438.943	109.06
439.165	100.06
439.386	101.06
439.608	82.06
439.829	98.06
440.05	113.06
440.272	124.06
440.493	94.06
440.715	78.06
440.936	88.06
441.158	102.06
441.379	91.06
441.6	95.06
441.822	106.06
442.043	94.06
442.264	99.06
442.486	98.06
442.707	89.06
442.928	109.06
443.149	130.06
443.371	108.06
443.592	111.06
443.813	94.06
444.034	85.06
444.255	94.06
444.476	93.06
444.698	101.06
444.919	96.06
445.14	139.06
445.361	120.06
445.582	106.06
445.803	136.06
446.024	123.06
446.245	127.06
446.466	104.06
446.687	85.06
446.908	85.06
447.129	92.06
447.35	87.06
447.571	89.06
447.792	93.06
448.013	93.06
448.234	101.06
448.455	96.06
448.675	108.06
448.896	124.06
449.117	103.06
449.338	82.06
449.559	112.06
449.779	127.06
450	81.06
450.221	80.06
450.442	96.06
450.662	97.06
450.883	108.06
451.104	115.06
451.324	92.06
451.545	81.06
451.766	101.06
451.986	84.06
452.207	79.06
452.428	80.06
452.648	91.06
452.869	88.06
453.089	86.06
453.31	98.06
453.53	72.06
453.751	79.06
453.971	105.06
454.192	103.06
454.412	87.06
454.633	91.06
454.853	81.06
455.073	103.06
455.294	105.06
455.514	90.06
455.734	84.06
455.955	75.06
456.175	82.06
456.395	78.06
456.616	87.06
456.836	93.06
457.056	102.06
457.276	85.06
457.497	74.06
457.717	97.06
457.937	82.06
458.157	84.06
458.377	109.06
458.598	118.06
458.818	140.06
459.038	130.06
459.258	95.06
459.478	82.06
459.698	98.06
459.918	70.06
460.138	88.06
460.358	84.06
460.578	98.06
460.798	97.06
461.018	86.06
461.238	89.06
461.458	97.06
461.678	79.06
461.898	80.06
462.118	81.06
462.338	80.06
462.558	85.06
462.777	88.06
462.997	96.06
463.217	82.06
463.437	93.06
463.657	78.06
463.876	85.06
464.096	86.06
464.316	96.06
464.536	92.06
464.755	94.06
464.975	105.06
465.195	145.06
465.414	149.06
465.634	77.06
465.854	96.06
466.073	84.06
466.293	94.06
466.512	90.06
466.732	92.06
466.951	86.06
467.171	104.06
467.391	100.06
467.61	112.06
467.829	114.06
468.049	188.06
468.268	240.06
468.488	114.06
468.707	88.06
468.927	76.06
469.146	93.06
469.365	94.06
469.585	98.06
469.804	83.06
470.023	78.06
470.243	99.06
470.462	109.06
470.681	120.06
470.901	87.06
471.12	83.06
471.339	84.06
471.558	95.06
471.777	98.06
471.997	131.06
472.216	326.06
472.435	666.06
472.654	213.06
472.873	118.06
473.092	93.06
473.311	95.06
473.53	93.06
473.749	82.06
473.968	94.06
474.187	101.06
474.406	101.06
474.625	99.06
474.844	85.06
475.063	78.06
475.282	84.06
475.501	85.06
475.72	99.06
475.939	84.06
476.158	90.06
476.377	97.06
476.596	76.06
476.814	95.06
477.033	84.06
477.252	92.06
477.471	92.06
477.69	98.06
477.908	88.06
478.127	86.06
478.346	101.06
478.564	81.06
478.783	101.06
479.002	88.06
479.22	92.06
479.439	100.06
479.658	97.06
479.876	103.06
480.095	96.06
480.313	97.06
480.532	104.06
480.751	146.06
480.969	326.06
481.188	1131.06
481.406	693.06
481.624	166.06
481.843	103.06
482.061	90.06
482.28	83.06
482.498	90.06
482.717	60.06
482.935	109.06
483.153	91.06
483.372	93.06
483.59	100.06
483.808	97.06
484.027	76.06
484.245	89.06
484.463	95.06
484.681	108.06
484.9	97.06
485.118	86.06
485.336	97.06
485.554	96.06
485.772	109.06
485.99	104.06
486.209	100.06
486.427	106.06
486.645	121.06
486.863	112.06
487.081	114.06
487.299	98.06
487.517	104.06
487.735	93.06
487.953	105.06
488.171	104.06
488.389	84.06
488.607	99.06
488.825	90.06
489.043	84.06
489.261	92.06
489.479	88.06
489.696	100.06
489.914	93.06
490.132	89.06
490.35	81.06
490.568	70.06
490.786	96.06
491.003	86.06
491.221	92.06
491.439	88.06
491.657	92.06
491.874	86.06
492.092	84.06
492.31	108.06
492.527	88.06
492.745	76.06
492.963	103.06
493.18	104.06
493.398	97.06
493.615	97.06
493.833	103.06
494.05	78.06
494.268	89.06
494.485	90.06
494.703	83.06
494.92	95.06
495.138	106.06
495.355	103.06
495.573	95.06
495.79	85.06
496.008	103.06
496.225	83.06
496.442	101.06
496.66	98.06
496.877	80.06
497.094	88.06
497.312	88.06
497.529	83.06
497.746	95.06
497.963	88.06
498.181	102.06
498.398	94.06
498.615	95.06
498.832	106.06
499.049	78.06
499.267	88.06
499.484	93.06
499.701	84.06
499.918	96.06
500.135	88.06
500.352	82.06
500.569	98.06
500.786	102.06
501.003	85.06
501.22	100.06
501.437	96.06
501.654	96.06
501.871	103.06
502.088	98.06
502.305	90.06
502.522	105.06
502.739	94.06
502.956	94.06
503.172	91.06
503.389	94.06
503.606	100.06
503.823	97.06
504.04	100.06
504.256	88.06
504.473	106.06
504.69	87.06
504.907	98.06
505.123	95.06
505.34	99.06
505.557	95.06
505.773	87.06
505.99	90.06
506.207	90.06
506.423	107.06
506.64	96.06
506.856	94.06
507.073	93.06
507.289	94.06
507.506	86.06
507.722	109.06
507.939	118.06
508.155	90.06
508.372	88.06
508.588	72.06
508.805	100.06
509.021	91.06
509.238	95.06
509.454	89.06
509.67	97.06
509.887	113.06
510.103	125.06
510.319	176.06
510.536	548.06
510.752	1788.06
510.968	528.06
511.184	152.06
511.401	123.06
511.617	94.06
511.833	80.06
512.049	104.06
512.265	84.06
512.481	86.06
512.698	97.06
512.914	87.06
513.13	96.06
513.346	81.06
513.562	92.06
513.778	94.06
513.994	98.06
514.21	92.06
514.426	114.06
514.642	121.06
514.858	111.06
