Data from Circ_1989_H10_HRD10591_00019.txt Node
Date: Wed Jan 03 12:01:25 EST 2024
User: Yrep
Spectrometer: HR+D1059
Trigger mode: 1
Integration Time (sec): 1.000000E-1
Scans to average: 1
Electric dark correction enabled: true
Nonlinearity correction enabled: false
Boxcar width: 0
XAxis mode: Wavelengths
Number of Pixels in Spectrum: 2048
>>>>>Begin Spectral Data<<<<<
223.165	-18.69
223.4	-18.69
223.635	-18.69
223.869	-22.69
224.104	-7.69
224.338	-1.69
224.573	-25.69
224.808	-20.69
225.042	-15.69
225.277	-12.69
225.511	10.31
225.746	-0.69
225.98	21.31
226.215	16.31
226.449	-0.69
226.683	17.31
226.918	23.31
227.152	38.31
227.387	38.31
227.621	26.31
227.856	45.31
228.09	25.31
228.324	51.31
228.559	47.31
228.793	74.31
229.027	61.31
229.262	70.31
229.496	71.31
229.73	79.31
229.964	92.31
230.199	74.31
230.433	64.31
230.667	75.31
230.901	65.31
231.136	73.31
231.37	63.31
231.604	74.31
231.838	75.31
232.072	76.31
232.306	73.31
232.541	76.31
232.775	81.31
233.009	65.31
233.243	63.31
233.477	86.31
233.711	68.31
233.945	79.31
234.179	84.31
234.413	75.31
234.647	85.31
234.881	77.31
235.115	80.31
235.349	82.31
235.583	77.31
235.817	87.31
236.051	61.31
236.285	80.31
236.519	77.31
236.753	73.31
236.987	99.31
237.221	82.31
237.455	78.31
237.689	79.31
237.922	62.31
238.156	68.31
238.39	65.31
238.624	64.31
238.858	68.31
239.091	75.31
239.325	88.31
239.559	68.31
239.793	83.31
240.027	72.31
240.26	67.31
240.494	65.31
240.728	70.31
240.961	75.31
241.195	84.31
241.429	81.31
241.662	85.31
241.896	61.31
242.13	73.31
242.363	77.31
242.597	58.31
242.83	79.31
243.064	90.31
243.298	94.31
243.531	81.31
243.765	80.31
243.998	86.31
244.232	74.31
244.465	75.31
244.699	70.31
244.932	73.31
245.166	77.31
245.399	70.31
245.633	70.31
245.866	66.31
246.099	73.31
246.333	86.31
246.566	75.31
246.8	85.31
247.033	76.31
247.266	79.31
247.5	75.31
247.733	73.31
247.966	66.31
248.2	64.31
248.433	76.31
248.666	74.31
248.899	79.31
249.133	73.31
249.366	92.31
249.599	91.31
249.832	81.31
250.066	76.31
250.299	89.31
250.532	77.31
250.765	82.31
250.998	95.31
251.231	87.31
251.465	84.31
251.698	67.31
251.931	85.31
252.164	69.31
252.397	70.31
252.63	85.31
252.863	77.31
253.096	86.31
253.329	84.31
253.562	72.31
253.795	83.31
254.028	79.31
254.261	86.31
254.494	75.31
254.727	70.31
254.96	67.31
255.193	86.31
255.426	73.31
255.659	81.31
255.892	80.31
256.124	73.31
256.357	85.31
256.59	69.31
256.823	89.31
257.056	78.31
257.289	87.31
257.521	68.31
257.754	73.31
257.987	85.31
258.22	89.31
258.452	90.31
258.685	61.31
258.918	82.31
259.151	53.31
259.383	77.31
259.616	77.31
259.849	70.31
260.081	81.31
260.314	89.31
260.547	78.31
260.779	81.31
261.012	85.31
261.244	88.31
261.477	79.31
261.71	82.31
261.942	101.31
262.175	117.31
262.407	91.31
262.64	78.31
262.872	80.31
263.105	79.31
263.337	68.31
263.57	74.31
263.802	85.31
264.035	87.31
264.267	84.31
264.499	75.31
264.732	86.31
264.964	79.31
265.197	68.31
265.429	66.31
265.661	77.31
265.894	92.31
266.126	93.31
266.358	85.31
266.591	93.31
266.823	80.31
267.055	73.31
267.287	65.31
267.52	79.31
267.752	85.31
267.984	97.31
268.216	77.31
268.448	81.31
268.681	82.31
268.913	87.31
269.145	78.31
269.377	89.31
269.609	83.31
269.841	80.31
270.073	87.31
270.306	75.31
270.538	78.31
270.77	87.31
271.002	75.31
271.234	86.31
271.466	81.31
271.698	78.31
271.93	90.31
272.162	86.31
272.394	90.31
272.626	87.31
272.858	79.31
273.09	64.31
273.322	80.31
273.553	97.31
273.785	86.31
274.017	66.31
274.249	80.31
274.481	93.31
274.713	79.31
274.945	79.31
275.176	87.31
275.408	92.31
275.64	77.31
275.872	84.31
276.104	77.31
276.335	83.31
276.567	101.31
276.799	109.31
277.031	109.31
277.262	99.31
277.494	94.31
277.726	79.31
277.957	78.31
278.189	76.31
278.421	79.31
278.652	74.31
278.884	99.31
279.115	91.31
279.347	88.31
279.579	85.31
279.81	90.31
280.042	120.31
280.273	116.31
280.505	102.31
280.736	93.31
280.968	81.31
281.199	81.31
281.431	93.31
281.662	85.31
281.894	71.31
282.125	86.31
282.356	101.31
282.588	121.31
282.819	111.31
283.051	82.31
283.282	74.31
283.513	92.31
283.745	84.31
283.976	76.31
284.207	84.31
284.439	101.31
284.67	86.31
284.901	89.31
285.132	80.31
285.364	70.31
285.595	95.31
285.826	77.31
286.057	75.31
286.288	87.31
286.52	89.31
286.751	78.31
286.982	89.31
287.213	86.31
287.444	70.31
287.675	83.31
287.906	77.31
288.138	81.31
288.369	86.31
288.6	92.31
288.831	81.31
289.062	83.31
289.293	93.31
289.524	83.31
289.755	77.31
289.986	79.31
290.217	91.31
290.448	90.31
290.679	81.31
290.91	99.31
291.141	96.31
291.371	82.31
291.602	91.31
291.833	89.31
292.064	87.31
292.295	85.31
292.526	99.31
292.757	98.31
292.987	91.31
293.218	83.31
293.449	93.31
293.68	80.31
293.91	80.31
294.141	86.31
294.372	79.31
294.603	81.31
294.833	91.31
295.064	92.31
295.295	90.31
295.525	78.31
295.756	98.31
295.987	99.31
296.217	108.31
296.448	113.31
296.679	87.31
296.909	86.31
297.14	92.31
297.37	77.31
297.601	102.31
297.831	77.31
298.062	73.31
298.292	91.31
298.523	87.31
298.753	89.31
298.984	89.31
299.214	100.31
299.445	97.31
299.675	95.31
299.905	87.31
300.136	91.31
300.366	83.31
300.597	82.31
300.827	90.31
301.057	102.31
301.288	97.31
301.518	67.31
301.748	81.31
301.979	92.31
302.209	96.31
302.439	66.31
302.669	89.31
302.9	91.31
303.13	98.31
303.36	96.31
303.59	101.31
303.82	100.31
304.051	85.31
304.281	87.31
304.511	90.31
304.741	88.31
304.971	91.31
305.201	96.31
305.431	76.31
305.661	94.31
305.891	92.31
306.121	89.31
306.352	99.31
306.582	94.31
306.812	88.31
307.042	101.31
307.272	111.31
307.502	114.31
307.731	111.31
307.961	102.31
308.191	95.31
308.421	97.31
308.651	93.31
308.881	86.31
309.111	97.31
309.341	88.31
309.571	102.31
309.8	95.31
310.03	94.31
310.26	92.31
310.49	92.31
310.72	105.31
310.949	94.31
311.179	91.31
311.409	98.31
311.639	100.31
311.868	91.31
312.098	75.31
312.328	93.31
312.557	88.31
312.787	93.31
313.017	95.31
313.246	102.31
313.476	75.31
313.706	81.31
313.935	87.31
314.165	90.31
314.394	101.31
314.624	88.31
314.853	81.31
315.083	87.31
315.312	87.31
315.542	83.31
315.771	93.31
316.001	86.31
316.23	109.31
316.46	93.31
316.689	92.31
316.919	83.31
317.148	84.31
317.377	97.31
317.607	83.31
317.836	81.31
318.065	83.31
318.295	85.31
318.524	77.31
318.753	84.31
318.983	78.31
319.212	86.31
319.441	90.31
319.67	94.31
319.9	84.31
320.129	78.31
320.358	101.31
320.587	99.31
320.816	94.31
321.046	97.31
321.275	103.31
321.504	109.31
321.733	97.31
321.962	104.31
322.191	87.31
322.42	106.31
322.649	100.31
322.878	104.31
323.108	101.31
323.337	123.31
323.566	115.31
323.795	135.31
324.024	187.31
324.253	321.31
324.482	654.31
324.71	1348.31
324.939	1801.31
325.168	670.31
325.397	228.31
325.626	148.31
325.855	132.31
326.084	114.31
326.313	112.31
326.542	139.31
326.77	206.31
326.999	385.31
327.228	767.31
327.457	1372.31
327.686	1089.31
327.914	335.31
328.143	242.31
328.372	232.31
328.6	148.31
328.829	125.31
329.058	122.31
329.287	126.31
329.515	116.31
329.744	127.31
329.972	181.31
330.201	281.31
330.43	387.31
330.658	199.31
330.887	126.31
331.115	111.31
331.344	101.31
331.572	98.31
331.801	98.31
332.03	96.31
332.258	99.31
332.486	83.31
332.715	84.31
332.943	92.31
333.172	96.31
333.4	83.31
333.629	107.31
333.857	127.31
334.085	173.31
334.314	293.31
334.542	515.31
334.771	446.31
334.999	175.31
335.227	111.31
335.455	93.31
335.684	86.31
335.912	95.31
336.14	91.31
336.369	100.31
336.597	98.31
336.825	89.31
337.053	104.31
337.281	99.31
337.51	84.31
337.738	86.31
337.966	94.31
338.194	85.31
338.422	84.31
338.65	75.31
338.878	89.31
339.106	87.31
339.334	77.31
339.562	101.31
339.79	95.31
340.018	90.31
340.246	72.31
340.474	91.31
340.702	70.31
340.93	91.31
341.158	90.31
341.386	101.31
341.614	87.31
341.842	75.31
342.07	91.31
342.298	74.31
342.526	81.31
342.754	83.31
342.981	86.31
343.209	87.31
343.437	90.31
343.665	87.31
343.893	88.31
344.12	89.31
344.348	90.31
344.576	104.31
344.804	92.31
345.031	91.31
345.259	92.31
345.487	107.31
345.714	91.31
345.942	92.31
346.17	88.31
346.397	83.31
346.625	85.31
346.853	87.31
347.08	87.31
347.308	92.31
347.535	87.31
347.763	97.31
347.99	99.31
348.218	111.31
348.445	91.31
348.673	91.31
348.9	100.31
349.128	86.31
349.355	93.31
349.583	92.31
349.81	84.31
350.037	75.31
350.265	97.31
350.492	86.31
350.72	89.31
350.947	79.31
351.174	107.31
351.402	99.31
351.629	88.31
351.856	89.31
352.083	84.31
352.311	101.31
352.538	102.31
352.765	106.31
352.992	105.31
353.22	114.31
353.447	104.31
353.674	93.31
353.901	93.31
354.128	90.31
354.355	92.31
354.583	84.31
354.81	85.31
355.037	94.31
355.264	95.31
355.491	98.31
355.718	83.31
355.945	111.31
356.172	92.31
356.399	89.31
356.626	100.31
356.853	93.31
357.08	102.31
357.307	100.31
357.534	90.31
357.761	85.31
357.988	103.31
358.215	103.31
358.441	98.31
358.668	90.31
358.895	84.31
359.122	98.31
359.349	86.31
359.576	88.31
359.802	103.31
360.029	95.31
360.256	102.31
360.483	97.31
360.709	78.31
360.936	89.31
361.163	95.31
361.39	97.31
361.616	85.31
361.843	94.31
362.07	96.31
362.296	87.31
362.523	82.31
362.749	84.31
362.976	83.31
363.203	88.31
363.429	92.31
363.656	89.31
363.882	97.31
364.109	97.31
364.335	82.31
364.562	85.31
364.788	86.31
365.015	87.31
365.241	87.31
365.468	111.31
365.694	98.31
365.92	86.31
366.147	82.31
366.373	93.31
366.599	86.31
366.826	96.31
367.052	82.31
367.278	87.31
367.505	97.31
367.731	88.31
367.957	72.31
368.184	77.31
368.41	94.31
368.636	102.31
368.862	111.31
369.089	82.31
369.315	97.31
369.541	97.31
369.767	85.31
369.993	80.31
370.219	70.31
370.445	78.31
370.672	73.31
370.898	95.31
371.124	89.31
371.35	81.31
371.576	92.31
371.802	87.31
372.028	81.31
372.254	93.31
372.48	86.31
372.706	97.31
372.932	97.31
373.158	87.31
373.384	85.31
373.61	82.31
373.835	97.31
374.061	85.31
374.287	83.31
374.513	91.31
374.739	93.31
374.965	87.31
375.191	87.31
375.416	90.31
375.642	75.31
375.868	86.31
376.094	89.31
376.319	95.31
376.545	77.31
376.771	84.31
376.997	91.31
377.222	92.31
377.448	95.31
377.674	91.31
377.899	96.31
378.125	87.31
378.35	83.31
378.576	86.31
378.802	82.31
379.027	93.31
379.253	94.31
379.478	93.31
379.704	82.31
379.929	106.31
380.155	94.31
380.38	91.31
380.606	107.31
380.831	92.31
381.057	100.31
381.282	91.31
381.507	112.31
381.733	83.31
381.958	77.31
382.184	92.31
382.409	91.31
382.634	101.31
382.86	95.31
383.085	86.31
383.31	111.31
383.535	109.31
383.761	98.31
383.986	105.31
384.211	92.31
384.436	109.31
384.662	103.31
384.887	96.31
385.112	107.31
385.337	113.31
385.562	106.31
385.787	109.31
386.013	107.31
386.238	121.31
386.463	107.31
386.688	111.31
386.913	105.31
387.138	108.31
387.363	104.31
387.588	104.31
387.813	86.31
388.038	112.31
388.263	140.31
388.488	135.31
388.713	99.31
388.938	82.31
389.163	86.31
389.387	101.31
389.612	87.31
389.837	67.31
390.062	83.31
390.287	98.31
390.512	89.31
390.736	94.31
390.961	95.31
391.186	111.31
391.411	96.31
391.636	85.31
391.86	77.31
392.085	80.31
392.31	90.31
392.534	86.31
392.759	72.31
392.984	82.31
393.208	99.31
393.433	92.31
393.658	102.31
393.882	84.31
394.107	83.31
394.331	85.31
394.556	62.31
394.78	89.31
395.005	93.31
395.229	87.31
395.454	75.31
395.678	78.31
395.903	79.31
396.127	89.31
396.352	102.31
396.576	92.31
396.801	97.31
397.025	107.31
397.249	87.31
397.474	90.31
397.698	81.31
397.922	93.31
398.147	82.31
398.371	75.31
398.595	97.31
398.82	94.31
399.044	90.31
399.268	92.31
399.492	82.31
399.717	73.31
399.941	73.31
400.165	94.31
400.389	94.31
400.613	94.31
400.837	75.31
401.062	87.31
401.286	86.31
401.51	78.31
401.734	90.31
401.958	87.31
402.182	117.31
402.406	132.31
402.63	123.31
402.854	103.31
403.078	83.31
403.302	73.31
403.526	77.31
403.75	84.31
403.974	76.31
404.198	86.31
404.422	84.31
404.645	81.31
404.869	98.31
405.093	98.31
405.317	104.31
405.541	94.31
405.765	92.31
405.988	119.31
406.212	144.31
406.436	195.31
406.66	122.31
406.883	105.31
407.107	82.31
407.331	77.31
407.555	91.31
407.778	101.31
408.002	84.31
408.226	85.31
408.449	75.31
408.673	84.31
408.896	81.31
409.12	68.31
409.344	86.31
409.567	81.31
409.791	81.31
410.014	86.31
410.238	93.31
410.461	87.31
410.685	93.31
410.908	97.31
411.132	90.31
411.355	95.31
411.578	95.31
411.802	74.31
412.025	94.31
412.249	109.31
412.472	96.31
412.695	101.31
412.919	91.31
413.142	88.31
413.365	81.31
413.589	97.31
413.812	81.31
414.035	92.31
414.258	106.31
414.482	103.31
414.705	85.31
414.928	92.31
415.151	91.31
415.374	90.31
415.597	87.31
415.821	96.31
416.044	93.31
416.267	91.31
416.49	103.31
416.713	100.31
416.936	75.31
417.159	85.31
417.382	80.31
417.605	91.31
417.828	108.31
418.051	91.31
418.274	74.31
418.497	86.31
418.72	77.31
418.943	73.31
419.166	85.31
419.389	83.31
419.611	100.31
419.834	95.31
420.057	86.31
420.28	68.31
420.503	75.31
420.726	79.31
420.948	100.31
421.171	83.31
421.394	80.31
421.617	90.31
421.839	77.31
422.062	81.31
422.285	75.31
422.507	100.31
422.73	111.31
422.953	91.31
423.175	80.31
423.398	82.31
423.621	103.31
423.843	84.31
424.066	84.31
424.288	95.31
424.511	97.31
424.733	87.31
424.956	107.31
425.178	96.31
425.401	95.31
425.623	89.31
425.846	91.31
426.068	89.31
426.291	93.31
426.513	82.31
426.735	97.31
426.958	89.31
427.18	80.31
427.402	126.31
427.625	162.31
427.847	132.31
428.069	132.31
428.292	89.31
428.514	92.31
428.736	85.31
428.958	89.31
429.181	82.31
429.403	77.31
429.625	79.31
429.847	91.31
430.069	89.31
430.292	100.31
430.514	81.31
430.736	81.31
430.958	79.31
431.18	93.31
431.402	88.31
431.624	85.31
431.846	82.31
432.068	71.31
432.29	86.31
432.512	92.31
432.734	85.31
432.956	76.31
433.178	96.31
433.4	85.31
433.622	93.31
433.844	90.31
434.066	81.31
434.287	94.31
434.509	86.31
434.731	97.31
434.953	94.31
435.175	80.31
435.397	89.31
435.618	94.31
435.84	94.31
436.062	110.31
436.284	107.31
436.505	93.31
436.727	92.31
436.949	81.31
437.17	75.31
437.392	78.31
437.614	100.31
437.835	90.31
438.057	107.31
438.278	104.31
438.5	93.31
438.721	97.31
438.943	106.31
439.165	83.31
439.386	86.31
439.608	79.31
439.829	89.31
440.05	103.31
440.272	130.31
440.493	107.31
440.715	97.31
440.936	81.31
441.158	74.31
441.379	80.31
441.6	86.31
441.822	88.31
442.043	102.31
442.264	79.31
442.486	93.31
442.707	74.31
442.928	103.31
443.149	117.31
443.371	117.31
443.592	98.31
443.813	93.31
444.034	91.31
444.255	85.31
444.476	80.31
444.698	83.31
444.919	96.31
445.14	131.31
445.361	126.31
445.582	113.31
445.803	134.31
446.024	121.31
446.245	123.31
446.466	109.31
446.687	79.31
446.908	81.31
447.129	75.31
447.35	90.31
447.571	93.31
447.792	99.31
448.013	92.31
448.234	117.31
448.455	89.31
448.675	113.31
448.896	90.31
449.117	85.31
449.338	101.31
449.559	112.31
449.779	107.31
450	100.31
450.221	87.31
450.442	99.31
450.662	85.31
450.883	89.31
451.104	109.31
451.324	63.31
451.545	88.31
451.766	93.31
451.986	82.31
452.207	79.31
452.428	81.31
452.648	82.31
452.869	103.31
453.089	103.31
453.31	113.31
453.53	102.31
453.751	101.31
453.971	97.31
454.192	96.31
454.412	98.31
454.633	89.31
454.853	76.31
455.073	96.31
455.294	81.31
455.514	78.31
455.734	94.31
455.955	82.31
456.175	77.31
456.395	75.31
456.616	74.31
456.836	79.31
457.056	77.31
457.276	94.31
457.497	72.31
457.717	86.31
457.937	89.31
458.157	85.31
458.377	81.31
458.598	95.31
458.818	118.31
459.038	145.31
459.258	108.31
459.478	94.31
459.698	91.31
459.918	67.31
460.138	70.31
460.358	92.31
460.578	90.31
460.798	79.31
461.018	92.31
461.238	83.31
461.458	76.31
461.678	88.31
461.898	94.31
462.118	80.31
462.338	83.31
462.558	94.31
462.777	79.31
462.997	94.31
463.217	91.31
463.437	77.31
463.657	81.31
463.876	87.31
464.096	81.31
464.316	81.31
464.536	82.31
464.755	90.31
464.975	91.31
465.195	135.31
465.414	129.31
465.634	99.31
465.854	85.31
466.073	76.31
466.293	97.31
466.512	71.31
466.732	97.31
466.951	80.31
467.171	80.31
467.391	97.31
467.61	95.31
467.829	110.31
468.049	179.31
468.268	256.31
468.488	114.31
468.707	103.31
468.927	82.31
469.146	83.31
469.365	80.31
469.585	95.31
469.804	83.31
470.023	85.31
470.243	95.31
470.462	92.31
470.681	94.31
470.901	93.31
471.12	102.31
471.339	90.31
471.558	94.31
471.777	94.31
471.997	122.31
472.216	341.31
472.435	686.31
472.654	214.31
472.873	105.31
473.092	100.31
473.311	77.31
473.53	80.31
473.749	78.31
473.968	98.31
474.187	99.31
474.406	87.31
474.625	89.31
474.844	70.31
475.063	86.31
475.282	79.31
475.501	89.31
475.72	85.31
475.939	76.31
476.158	79.31
476.377	87.31
476.596	98.31
476.814	80.31
477.033	88.31
477.252	82.31
477.471	75.31
477.69	74.31
477.908	86.31
478.127	109.31
478.346	81.31
478.564	82.31
478.783	91.31
479.002	96.31
479.22	73.31
479.439	87.31
479.658	107.31
479.876	90.31
480.095	98.31
480.313	87.31
480.532	110.31
480.751	139.31
480.969	344.31
481.188	1202.31
481.406	717.31
481.624	166.31
481.843	104.31
482.061	86.31
482.28	79.31
482.498	86.31
482.717	76.31
482.935	80.31
483.153	89.31
483.372	78.31
483.59	81.31
483.808	78.31
484.027	92.31
484.245	93.31
484.463	88.31
484.681	97.31
484.9	84.31
485.118	75.31
485.336	83.31
485.554	98.31
485.772	118.31
485.99	101.31
486.209	103.31
486.427	97.31
486.645	101.31
486.863	109.31
487.081	95.31
487.299	85.31
487.517	97.31
487.735	93.31
487.953	83.31
488.171	85.31
488.389	85.31
488.607	93.31
488.825	85.31
489.043	98.31
489.261	101.31
489.479	78.31
489.696	97.31
489.914	92.31
490.132	85.31
490.35	83.31
490.568	74.31
490.786	89.31
491.003	87.31
491.221	81.31
491.439	95.31
491.657	91.31
491.874	85.31
492.092	92.31
492.31	98.31
492.527	77.31
492.745	75.31
492.963	96.31
493.18	87.31
493.398	68.31
493.615	98.31
493.833	82.31
494.05	76.31
494.268	86.31
494.485	75.31
494.703	84.31
494.92	89.31
495.138	88.31
495.355	81.31
495.573	93.31
495.79	88.31
496.008	85.31
496.225	91.31
496.442	100.31
496.66	83.31
496.877	101.31
497.094	97.31
497.312	82.31
497.529	84.31
497.746	81.31
497.963	98.31
498.181	92.31
498.398	84.31
498.615	102.31
498.832	108.31
499.049	91.31
499.267	96.31
499.484	99.31
499.701	93.31
499.918	90.31
500.135	89.31
500.352	80.31
500.569	86.31
500.786	81.31
501.003	77.31
501.22	82.31
501.437	85.31
501.654	94.31
501.871	93.31
502.088	89.31
502.305	92.31
502.522	103.31
502.739	85.31
502.956	81.31
503.172	94.31
503.389	99.31
503.606	97.31
503.823	97.31
504.04	88.31
504.256	92.31
504.473	69.31
504.69	106.31
504.907	96.31
505.123	84.31
505.34	76.31
505.557	81.31
505.773	101.31
505.99	87.31
506.207	76.31
506.423	89.31
506.64	77.31
506.856	82.31
507.073	94.31
507.289	86.31
507.506	91.31
507.722	93.31
507.939	106.31
508.155	97.31
508.372	86.31
508.588	85.31
508.805	100.31
509.021	68.31
509.238	95.31
509.454	94.31
509.67	103.31
509.887	104.31
510.103	122.31
510.319	189.31
510.536	589.31
510.752	1924.31
510.968	553.31
511.184	152.31
511.401	102.31
511.617	92.31
511.833	89.31
512.049	80.31
512.265	90.31
512.481	86.31
512.698	75.31
512.914	97.31
513.13	80.31
513.346	97.31
513.562	96.31
513.778	84.31
513.994	96.31
514.21	95.31
514.426	109.31
514.642	138.31
514.858	111.31
515.074	133.31
515.29	357.31
515.506	1121.31
515.721	419.31
515.937	139.31
516.153	102.31
516.369	85.31
