Data from Circ_1989_H10_HRD10591_00012.txt Node
Date: Wed Jan 03 12:01:24 EST 2024
User: Yrep
Spectrometer: HR+D1059
Trigger mode: 1
Integration Time (sec): 1.000000E-1
Scans to average: 1
Electric dark correction enabled: true
Nonlinearity correction enabled: false
Boxcar width: 0
XAxis mode: Wavelengths
Number of Pixels in Spectrum: 2048
>>>>>Begin Spectral Data<<<<<
223.165	-15.25
223.4	-15.25
223.635	-15.25
223.869	-8.25
224.104	-18.25
224.338	-13.25
224.573	-8.25
224.808	-12.25
225.042	-15.25
225.277	-10.25
225.511	8.75
225.746	1.75
225.98	2.75
226.215	5.75
226.449	1.75
226.683	24.75
226.918	19.75
227.152	35.75
227.387	36.75
227.621	37.75
227.856	53.75
228.09	53.75
228.324	47.75
228.559	67.75
228.793	56.75
229.027	68.75
229.262	82.75
229.496	80.75
229.73	96.75
229.964	87.75
230.199	77.75
230.433	80.75
230.667	86.75
230.901	73.75
231.136	79.75
231.37	82.75
231.604	77.75
231.838	84.75
232.072	70.75
232.306	82.75
232.541	84.75
232.775	73.75
233.009	73.75
233.243	87.75
233.477	88.75
233.711	97.75
233.945	84.75
234.179	87.75
234.413	103.75
234.647	84.75
234.881	81.75
235.115	83.75
235.349	76.75
235.583	90.75
235.817	80.75
236.051	74.75
236.285	94.75
236.519	86.75
236.753	89.75
236.987	82.75
237.221	84.75
237.455	85.75
237.689	81.75
237.922	65.75
238.156	69.75
238.39	82.75
238.624	93.75
238.858	78.75
239.091	81.75
239.325	71.75
239.559	80.75
239.793	78.75
240.027	78.75
240.26	70.75
240.494	90.75
240.728	81.75
240.961	82.75
241.195	92.75
241.429	79.75
241.662	79.75
241.896	94.75
242.13	66.75
242.363	70.75
242.597	78.75
242.83	89.75
243.064	68.75
243.298	79.75
243.531	90.75
243.765	88.75
243.998	70.75
244.232	76.75
244.465	92.75
244.699	88.75
244.932	74.75
245.166	72.75
245.399	81.75
245.633	80.75
245.866	76.75
246.099	84.75
246.333	77.75
246.566	75.75
246.8	79.75
247.033	80.75
247.266	92.75
247.5	82.75
247.733	87.75
247.966	79.75
248.2	85.75
248.433	83.75
248.666	80.75
248.899	88.75
249.133	95.75
249.366	89.75
249.599	86.75
249.832	80.75
250.066	86.75
250.299	94.75
250.532	81.75
250.765	83.75
250.998	71.75
251.231	73.75
251.465	78.75
251.698	90.75
251.931	82.75
252.164	84.75
252.397	76.75
252.63	78.75
252.863	72.75
253.096	82.75
253.329	71.75
253.562	84.75
253.795	82.75
254.028	95.75
254.261	84.75
254.494	66.75
254.727	72.75
254.96	89.75
255.193	78.75
255.426	75.75
255.659	71.75
255.892	73.75
256.124	92.75
256.357	76.75
256.59	88.75
256.823	82.75
257.056	85.75
257.289	79.75
257.521	72.75
257.754	88.75
257.987	76.75
258.22	99.75
258.452	91.75
258.685	84.75
258.918	93.75
259.151	84.75
259.383	73.75
259.616	84.75
259.849	83.75
260.081	85.75
260.314	100.75
260.547	76.75
260.779	73.75
261.012	78.75
261.244	84.75
261.477	81.75
261.71	92.75
261.942	95.75
262.175	103.75
262.407	80.75
262.64	84.75
262.872	72.75
263.105	85.75
263.337	84.75
263.57	69.75
263.802	94.75
264.035	93.75
264.267	81.75
264.499	87.75
264.732	87.75
264.964	82.75
265.197	79.75
265.429	73.75
265.661	77.75
265.894	94.75
266.126	89.75
266.358	73.75
266.591	80.75
266.823	74.75
267.055	88.75
267.287	79.75
267.52	89.75
267.752	85.75
267.984	79.75
268.216	83.75
268.448	87.75
268.681	97.75
268.913	104.75
269.145	79.75
269.377	77.75
269.609	87.75
269.841	82.75
270.073	82.75
270.306	77.75
270.538	101.75
270.77	73.75
271.002	86.75
271.234	90.75
271.466	94.75
271.698	92.75
271.93	72.75
272.162	89.75
272.394	88.75
272.626	76.75
272.858	88.75
273.09	84.75
273.322	69.75
273.553	83.75
273.785	83.75
274.017	80.75
274.249	82.75
274.481	89.75
274.713	84.75
274.945	80.75
275.176	85.75
275.408	96.75
275.64	95.75
275.872	94.75
276.104	85.75
276.335	89.75
276.567	102.75
276.799	117.75
277.031	106.75
277.262	96.75
277.494	105.75
277.726	83.75
277.957	86.75
278.189	95.75
278.421	83.75
278.652	73.75
278.884	82.75
279.115	86.75
279.347	106.75
279.579	101.75
279.81	96.75
280.042	111.75
280.273	136.75
280.505	110.75
280.736	102.75
280.968	93.75
281.199	99.75
281.431	102.75
281.662	88.75
281.894	81.75
282.125	95.75
282.356	103.75
282.588	127.75
282.819	113.75
283.051	94.75
283.282	82.75
283.513	101.75
283.745	81.75
283.976	88.75
284.207	89.75
284.439	94.75
284.67	94.75
284.901	85.75
285.132	98.75
285.364	76.75
285.595	62.75
285.826	88.75
286.057	78.75
286.288	94.75
286.52	68.75
286.751	81.75
286.982	86.75
287.213	81.75
287.444	95.75
287.675	97.75
287.906	97.75
288.138	101.75
288.369	78.75
288.6	106.75
288.831	88.75
289.062	92.75
289.293	86.75
289.524	93.75
289.755	91.75
289.986	92.75
290.217	101.75
290.448	86.75
290.679	93.75
290.91	88.75
291.141	87.75
291.371	96.75
291.602	92.75
291.833	92.75
292.064	95.75
292.295	100.75
292.526	89.75
292.757	89.75
292.987	93.75
293.218	94.75
293.449	91.75
293.68	88.75
293.91	90.75
294.141	92.75
294.372	90.75
294.603	90.75
294.833	102.75
295.064	72.75
295.295	93.75
295.525	99.75
295.756	101.75
295.987	102.75
296.217	149.75
296.448	117.75
296.679	95.75
296.909	85.75
297.14	88.75
297.37	87.75
297.601	76.75
297.831	82.75
298.062	99.75
298.292	78.75
298.523	86.75
298.753	84.75
298.984	89.75
299.214	89.75
299.445	92.75
299.675	88.75
299.905	92.75
300.136	74.75
300.366	80.75
300.597	90.75
300.827	77.75
301.057	105.75
301.288	104.75
301.518	105.75
301.748	92.75
301.979	94.75
302.209	95.75
302.439	87.75
302.669	94.75
302.9	78.75
303.13	100.75
303.36	104.75
303.59	92.75
303.82	96.75
304.051	90.75
304.281	89.75
304.511	95.75
304.741	88.75
304.971	81.75
305.201	99.75
305.431	88.75
305.661	80.75
305.891	89.75
306.121	104.75
306.352	94.75
306.582	92.75
306.812	96.75
307.042	96.75
307.272	103.75
307.502	112.75
307.731	116.75
307.961	106.75
308.191	95.75
308.421	90.75
308.651	84.75
308.881	87.75
309.111	91.75
309.341	104.75
309.571	106.75
309.8	96.75
310.03	93.75
310.26	105.75
310.49	103.75
310.72	100.75
310.949	110.75
311.179	100.75
311.409	93.75
311.639	94.75
311.868	83.75
312.098	89.75
312.328	91.75
312.557	113.75
312.787	101.75
313.017	99.75
313.246	95.75
313.476	84.75
313.706	95.75
313.935	98.75
314.165	95.75
314.394	100.75
314.624	97.75
314.853	95.75
315.083	89.75
315.312	72.75
315.542	78.75
315.771	78.75
316.001	99.75
316.23	104.75
316.46	84.75
316.689	89.75
316.919	100.75
317.148	93.75
317.377	94.75
317.607	102.75
317.836	101.75
318.065	113.75
318.295	96.75
318.524	89.75
318.753	106.75
318.983	104.75
319.212	111.75
319.441	111.75
319.67	101.75
319.9	87.75
320.129	101.75
320.358	94.75
320.587	90.75
320.816	99.75
321.046	102.75
321.275	96.75
321.504	102.75
321.733	98.75
321.962	103.75
322.191	99.75
322.42	96.75
322.649	102.75
322.878	113.75
323.108	113.75
323.337	129.75
323.566	118.75
323.795	132.75
324.024	202.75
324.253	361.75
324.482	724.75
324.71	1548.75
324.939	2030.75
325.168	770.75
325.397	215.75
325.626	148.75
325.855	123.75
326.084	102.75
326.313	127.75
326.542	134.75
326.77	212.75
326.999	416.75
327.228	830.75
327.457	1566.75
327.686	1266.75
327.914	386.75
328.143	265.75
328.372	282.75
328.6	184.75
328.829	116.75
329.058	131.75
329.287	143.75
329.515	119.75
329.744	126.75
329.972	198.75
330.201	374.75
330.43	519.75
330.658	262.75
330.887	164.75
331.115	125.75
331.344	104.75
331.572	102.75
331.801	106.75
332.03	86.75
332.258	109.75
332.486	112.75
332.715	104.75
332.943	99.75
333.172	107.75
333.4	106.75
333.629	124.75
333.857	142.75
334.085	188.75
334.314	350.75
334.542	620.75
334.771	584.75
334.999	206.75
335.227	124.75
335.455	103.75
335.684	98.75
335.912	103.75
336.14	98.75
336.369	89.75
336.597	108.75
336.825	100.75
337.053	100.75
337.281	109.75
337.51	96.75
337.738	89.75
337.966	97.75
338.194	84.75
338.422	86.75
338.65	94.75
338.878	97.75
339.106	95.75
339.334	97.75
339.562	84.75
339.79	84.75
340.018	91.75
340.246	88.75
340.474	84.75
340.702	96.75
340.93	90.75
341.158	91.75
341.386	98.75
341.614	91.75
341.842	93.75
342.07	89.75
342.298	89.75
342.526	93.75
342.754	100.75
342.981	81.75
343.209	95.75
343.437	101.75
343.665	89.75
343.893	105.75
344.12	97.75
344.348	102.75
344.576	70.75
344.804	94.75
345.031	97.75
345.259	99.75
345.487	90.75
345.714	100.75
345.942	110.75
346.17	103.75
346.397	82.75
346.625	95.75
346.853	97.75
347.08	102.75
347.308	102.75
347.535	98.75
347.763	103.75
347.99	98.75
348.218	97.75
348.445	94.75
348.673	105.75
348.9	101.75
349.128	85.75
349.355	93.75
349.583	88.75
349.81	90.75
350.037	88.75
350.265	99.75
350.492	100.75
350.72	101.75
350.947	104.75
351.174	111.75
351.402	96.75
351.629	103.75
351.856	95.75
352.083	94.75
352.311	98.75
352.538	100.75
352.765	103.75
352.992	122.75
353.22	94.75
353.447	105.75
353.674	106.75
353.901	111.75
354.128	92.75
354.355	93.75
354.583	100.75
354.81	89.75
355.037	98.75
355.264	108.75
355.491	94.75
355.718	102.75
355.945	82.75
356.172	92.75
356.399	93.75
356.626	96.75
356.853	101.75
357.08	87.75
357.307	89.75
357.534	107.75
357.761	96.75
357.988	101.75
358.215	100.75
358.441	94.75
358.668	107.75
358.895	92.75
359.122	94.75
359.349	97.75
359.576	102.75
359.802	92.75
360.029	110.75
360.256	100.75
360.483	100.75
360.709	109.75
360.936	95.75
361.163	86.75
361.39	91.75
361.616	104.75
361.843	81.75
362.07	90.75
362.296	93.75
362.523	83.75
362.749	96.75
362.976	98.75
363.203	93.75
363.429	95.75
363.656	81.75
363.882	93.75
364.109	72.75
364.335	88.75
364.562	77.75
364.788	97.75
365.015	85.75
365.241	90.75
365.468	108.75
365.694	100.75
365.92	94.75
366.147	87.75
366.373	77.75
366.599	82.75
366.826	99.75
367.052	86.75
367.278	94.75
367.505	79.75
367.731	95.75
367.957	96.75
368.184	89.75
368.41	100.75
368.636	113.75
368.862	119.75
369.089	116.75
369.315	106.75
369.541	101.75
369.767	106.75
369.993	109.75
370.219	78.75
370.445	100.75
370.672	90.75
370.898	92.75
371.124	92.75
371.35	97.75
371.576	96.75
371.802	78.75
372.028	86.75
372.254	80.75
372.48	73.75
372.706	88.75
372.932	73.75
373.158	93.75
373.384	100.75
373.61	85.75
373.835	95.75
374.061	97.75
374.287	94.75
374.513	101.75
374.739	85.75
374.965	98.75
375.191	94.75
375.416	74.75
375.642	72.75
375.868	88.75
376.094	94.75
376.319	85.75
376.545	92.75
376.771	84.75
376.997	105.75
377.222	82.75
377.448	88.75
377.674	95.75
377.899	85.75
378.125	78.75
378.35	106.75
378.576	97.75
378.802	94.75
379.027	83.75
379.253	95.75
379.478	83.75
379.704	107.75
379.929	100.75
380.155	102.75
380.38	79.75
380.606	96.75
380.831	114.75
381.057	101.75
381.282	103.75
381.507	94.75
381.733	90.75
381.958	96.75
382.184	106.75
382.409	95.75
382.634	89.75
382.86	111.75
383.085	104.75
383.31	119.75
383.535	106.75
383.761	103.75
383.986	109.75
384.211	92.75
384.436	102.75
384.662	116.75
384.887	118.75
385.112	116.75
385.337	114.75
385.562	101.75
385.787	111.75
386.013	120.75
386.238	126.75
386.463	126.75
386.688	122.75
386.913	108.75
387.138	121.75
387.363	105.75
387.588	104.75
387.813	100.75
388.038	128.75
388.263	120.75
388.488	121.75
388.713	100.75
388.938	96.75
389.163	102.75
389.387	102.75
389.612	87.75
389.837	86.75
390.062	80.75
390.287	86.75
390.512	99.75
390.736	95.75
390.961	85.75
391.186	82.75
391.411	90.75
391.636	79.75
391.86	95.75
392.085	84.75
392.31	82.75
392.534	77.75
392.759	85.75
392.984	88.75
393.208	92.75
393.433	117.75
393.658	104.75
393.882	81.75
394.107	68.75
394.331	72.75
394.556	79.75
394.78	80.75
395.005	97.75
395.229	86.75
395.454	94.75
395.678	92.75
395.903	105.75
396.127	90.75
396.352	90.75
396.576	96.75
396.801	90.75
397.025	114.75
397.249	83.75
397.474	76.75
397.698	97.75
397.922	88.75
398.147	81.75
398.371	81.75
398.595	77.75
398.82	87.75
399.044	93.75
399.268	79.75
399.492	100.75
399.717	95.75
399.941	86.75
400.165	90.75
400.389	92.75
400.613	68.75
400.837	101.75
401.062	90.75
401.286	89.75
401.51	90.75
401.734	91.75
401.958	84.75
402.182	115.75
402.406	152.75
402.63	119.75
402.854	97.75
403.078	85.75
403.302	78.75
403.526	89.75
403.75	87.75
403.974	78.75
404.198	95.75
404.422	85.75
404.645	89.75
404.869	98.75
405.093	109.75
405.317	97.75
405.541	112.75
405.765	93.75
405.988	107.75
406.212	169.75
406.436	215.75
406.66	123.75
406.883	104.75
407.107	82.75
407.331	99.75
407.555	92.75
407.778	86.75
408.002	82.75
408.226	102.75
408.449	91.75
408.673	85.75
408.896	115.75
409.12	94.75
409.344	100.75
409.567	98.75
409.791	96.75
410.014	97.75
410.238	91.75
410.461	90.75
410.685	110.75
410.908	89.75
411.132	102.75
411.355	102.75
411.578	92.75
411.802	80.75
412.025	89.75
412.249	93.75
412.472	88.75
412.695	119.75
412.919	96.75
413.142	102.75
413.365	86.75
413.589	96.75
413.812	87.75
414.035	89.75
414.258	88.75
414.482	80.75
414.705	82.75
414.928	94.75
415.151	97.75
415.374	116.75
415.597	83.75
415.821	84.75
416.044	85.75
416.267	79.75
416.49	79.75
416.713	87.75
416.936	89.75
417.159	82.75
417.382	88.75
417.605	80.75
417.828	91.75
418.051	88.75
418.274	87.75
418.497	79.75
418.72	78.75
418.943	79.75
419.166	81.75
419.389	90.75
419.611	101.75
419.834	100.75
420.057	94.75
420.28	90.75
420.503	85.75
420.726	75.75
420.948	97.75
421.171	87.75
421.394	90.75
421.617	89.75
421.839	92.75
422.062	97.75
422.285	94.75
422.507	95.75
422.73	117.75
422.953	97.75
423.175	94.75
423.398	87.75
423.621	69.75
423.843	61.75
424.066	86.75
424.288	86.75
424.511	101.75
424.733	116.75
424.956	115.75
425.178	102.75
425.401	86.75
425.623	82.75
425.846	84.75
426.068	99.75
426.291	97.75
426.513	97.75
426.735	101.75
426.958	100.75
427.18	98.75
427.402	138.75
427.625	148.75
427.847	164.75
428.069	149.75
428.292	117.75
428.514	86.75
428.736	80.75
428.958	96.75
429.181	92.75
429.403	68.75
429.625	92.75
429.847	95.75
430.069	104.75
430.292	94.75
430.514	93.75
430.736	88.75
430.958	91.75
431.18	86.75
431.402	86.75
431.624	82.75
431.846	92.75
432.068	90.75
432.29	93.75
432.512	84.75
432.734	78.75
432.956	98.75
433.178	90.75
433.4	103.75
433.622	104.75
433.844	99.75
434.066	81.75
434.287	91.75
434.509	89.75
434.731	97.75
434.953	94.75
435.175	85.75
435.397	101.75
435.618	95.75
435.84	105.75
436.062	120.75
436.284	97.75
436.505	116.75
436.727	102.75
436.949	101.75
437.17	94.75
437.392	91.75
437.614	108.75
437.835	106.75
438.057	125.75
438.278	114.75
438.5	120.75
438.721	134.75
438.943	106.75
439.165	99.75
439.386	78.75
439.608	99.75
439.829	98.75
440.05	133.75
440.272	141.75
440.493	105.75
440.715	90.75
440.936	91.75
441.158	89.75
441.379	80.75
441.6	100.75
441.822	95.75
442.043	98.75
442.264	105.75
442.486	98.75
442.707	83.75
442.928	105.75
443.149	121.75
443.371	127.75
443.592	106.75
443.813	106.75
444.034	106.75
444.255	96.75
444.476	74.75
444.698	86.75
444.919	97.75
445.14	144.75
445.361	124.75
445.582	118.75
445.803	146.75
446.024	147.75
446.245	134.75
446.466	98.75
446.687	92.75
446.908	87.75
447.129	80.75
447.35	87.75
447.571	87.75
447.792	91.75
448.013	92.75
448.234	100.75
448.455	103.75
448.675	114.75
448.896	110.75
449.117	103.75
449.338	109.75
449.559	136.75
449.779	139.75
450	103.75
450.221	78.75
450.442	84.75
450.662	91.75
450.883	99.75
451.104	101.75
451.324	102.75
451.545	85.75
451.766	102.75
451.986	83.75
452.207	82.75
452.428	84.75
452.648	99.75
452.869	99.75
453.089	119.75
453.31	111.75
453.53	94.75
453.751	89.75
453.971	93.75
454.192	106.75
454.412	86.75
454.633	80.75
454.853	96.75
455.073	88.75
455.294	86.75
455.514	118.75
455.734	94.75
455.955	87.75
456.175	86.75
456.395	76.75
456.616	87.75
456.836	78.75
457.056	98.75
457.276	77.75
457.497	81.75
457.717	86.75
457.937	97.75
458.157	90.75
458.377	85.75
458.598	100.75
458.818	152.75
459.038	155.75
459.258	110.75
459.478	89.75
459.698	88.75
459.918	95.75
460.138	86.75
460.358	84.75
460.578	83.75
460.798	96.75
461.018	92.75
461.238	96.75
461.458	88.75
461.678	96.75
461.898	88.75
462.118	89.75
462.338	85.75
462.558	76.75
462.777	97.75
462.997	76.75
463.217	102.75
463.437	84.75
463.657	79.75
463.876	89.75
464.096	97.75
464.316	68.75
464.536	89.75
464.755	92.75
464.975	114.75
465.195	173.75
465.414	161.75
465.634	88.75
465.854	77.75
466.073	74.75
466.293	78.75
466.512	89.75
466.732	88.75
466.951	92.75
467.171	86.75
467.391	97.75
467.61	109.75
467.829	137.75
468.049	227.75
468.268	297.75
468.488	132.75
468.707	93.75
468.927	83.75
469.146	89.75
469.365	97.75
469.585	81.75
469.804	107.75
470.023	93.75
470.243	80.75
470.462	92.75
470.681	114.75
470.901	94.75
471.12	88.75
471.339	88.75
471.558	105.75
471.777	104.75
471.997	160.75
472.216	410.75
472.435	820.75
472.654	250.75
472.873	105.75
473.092	89.75
473.311	87.75
473.53	96.75
473.749	90.75
473.968	100.75
474.187	93.75
474.406	92.75
474.625	97.75
474.844	79.75
475.063	78.75
475.282	83.75
475.501	95.75
475.72	80.75
475.939	83.75
476.158	92.75
476.377	90.75
476.596	102.75
476.814	95.75
477.033	94.75
477.252	111.75
477.471	92.75
477.69	99.75
477.908	82.75
478.127	94.75
478.346	80.75
478.564	86.75
478.783	88.75
479.002	95.75
479.22	107.75
479.439	113.75
479.658	102.75
479.876	88.75
480.095	93.75
480.313	105.75
480.532	116.75
480.751	160.75
480.969	411.75
481.188	1421.75
481.406	848.75
481.624	172.75
481.843	100.75
482.061	92.75
482.28	94.75
482.498	105.75
482.717	92.75
482.935	73.75
483.153	86.75
483.372	102.75
483.59	82.75
483.808	84.75
484.027	87.75
484.245	95.75
484.463	80.75
484.681	104.75
484.9	105.75
485.118	106.75
485.336	94.75
485.554	96.75
485.772	112.75
485.99	99.75
486.209	108.75
486.427	91.75
486.645	118.75
486.863	106.75
487.081	105.75
487.299	98.75
487.517	102.75
487.735	98.75
487.953	100.75
488.171	83.75
488.389	99.75
488.607	96.75
488.825	100.75
489.043	110.75
489.261	90.75
489.479	86.75
489.696	97.75
489.914	85.75
490.132	81.75
490.35	97.75
490.568	90.75
490.786	82.75
491.003	89.75
491.221	92.75
491.439	98.75
491.657	95.75
491.874	100.75
492.092	82.75
492.31	100.75
492.527	79.75
492.745	91.75
492.963	95.75
493.18	84.75
493.398	100.75
493.615	100.75
493.833	85.75
494.05	99.75
494.268	85.75
494.485	102.75
494.703	85.75
494.92	82.75
495.138	99.75
495.355	80.75
495.573	95.75
495.79	78.75
496.008	96.75
496.225	87.75
496.442	87.75
496.66	92.75
496.877	84.75
497.094	101.75
497.312	96.75
497.529	85.75
497.746	86.75
497.963	82.75
498.181	81.75
498.398	95.75
498.615	114.75
498.832	108.75
499.049	96.75
499.267	71.75
499.484	90.75
499.701	94.75
499.918	82.75
500.135	88.75
500.352	95.75
500.569	105.75
500.786	97.75
501.003	97.75
501.22	94.75
501.437	99.75
501.654	85.75
501.871	104.75
502.088	84.75
502.305	82.75
502.522	81.75
502.739	85.75
502.956	89.75
503.172	93.75
503.389	94.75
503.606	105.75
503.823	95.75
504.04	88.75
504.256	89.75
504.473	91.75
504.69	87.75
504.907	93.75
505.123	94.75
505.34	93.75
505.557	93.75
505.773	96.75
505.99	97.75
506.207	95.75
506.423	100.75
506.64	91.75
506.856	89.75
507.073	81.75
507.289	93.75
507.506	93.75
507.722	101.75
507.939	101.75
508.155	77.75
508.372	95.75
508.588	89.75
508.805	110.75
509.021	88.75
509.238	101.75
509.454	83.75
509.67	105.75
509.887	96.75
510.103	124.75
510.319	210.75
510.536	639.75
510.752	2031.75
510.968	560.75
511.184	135.75
511.401	121.75
511.617	99.75
511.833	89.75
512.049	87.75
512.265	91.75
512.481	92.75
512.698	100.75
512.914	108.75
513.13	90.75
513.346	108.75
513.562	80.75
513.778	100.75
513.994	94.75
514.21	104.75
514.426	110.75
514.642	127.75
