Data from Circ_1989_H10_HRD10591_00022.txt Node
Date: Wed Jan 03 12:01:26 EST 2024
User: Yrep
Spectrometer: HR+D1059
Trigger mode: 1
Integration Time (sec): 1.000000E-1
Scans to average: 1
Electric dark correction enabled: true
Nonlinearity correction enabled: false
Boxcar width: 0
XAxis mode: Wavelengths
Number of Pixels in Spectrum: 2048
>>>>>Begin Spectral Data<<<<<
223.165	-5.62
223.4	-5.62
223.635	-5.62
223.869	-24.62
224.104	-19.62
224.338	-11.62
224.573	-21.62
224.808	-6.62
225.042	-8.62
225.277	-6.62
225.511	-2.62
225.746	-2.62
225.98	-4.62
226.215	4.38
226.449	28.38
226.683	24.38
226.918	33.38
227.152	24.38
227.387	31.38
227.621	34.38
227.856	50.38
228.09	64.38
228.324	53.38
228.559	52.38
228.793	60.38
229.027	54.38
229.262	61.38
229.496	68.38
229.73	76.38
229.964	73.38
230.199	80.38
230.433	70.38
230.667	83.38
230.901	68.38
231.136	78.38
231.37	69.38
231.604	80.38
231.838	84.38
232.072	86.38
232.306	87.38
232.541	98.38
232.775	81.38
233.009	84.38
233.243	78.38
233.477	72.38
233.711	82.38
233.945	92.38
234.179	86.38
234.413	66.38
234.647	103.38
234.881	72.38
235.115	81.38
235.349	86.38
235.583	78.38
235.817	87.38
236.051	87.38
236.285	86.38
236.519	90.38
236.753	59.38
236.987	82.38
237.221	80.38
237.455	84.38
237.689	71.38
237.922	88.38
238.156	75.38
238.39	93.38
238.624	80.38
238.858	71.38
239.091	85.38
239.325	71.38
239.559	84.38
239.793	78.38
240.027	78.38
240.26	82.38
240.494	63.38
240.728	94.38
240.961	79.38
241.195	83.38
241.429	80.38
241.662	86.38
241.896	70.38
242.13	74.38
242.363	76.38
242.597	88.38
242.83	81.38
243.064	74.38
243.298	82.38
243.531	80.38
243.765	74.38
243.998	72.38
244.232	85.38
244.465	79.38
244.699	91.38
244.932	85.38
245.166	79.38
245.399	88.38
245.633	70.38
245.866	72.38
246.099	90.38
246.333	78.38
246.566	87.38
246.8	81.38
247.033	82.38
247.266	80.38
247.5	82.38
247.733	82.38
247.966	76.38
248.2	98.38
248.433	83.38
248.666	88.38
248.899	88.38
249.133	84.38
249.366	98.38
249.599	92.38
249.832	74.38
250.066	86.38
250.299	67.38
250.532	80.38
250.765	89.38
250.998	79.38
251.231	85.38
251.465	78.38
251.698	93.38
251.931	88.38
252.164	86.38
252.397	89.38
252.63	73.38
252.863	84.38
253.096	76.38
253.329	89.38
253.562	90.38
253.795	84.38
254.028	85.38
254.261	87.38
254.494	88.38
254.727	84.38
254.96	75.38
255.193	74.38
255.426	69.38
255.659	76.38
255.892	83.38
256.124	81.38
256.357	89.38
256.59	72.38
256.823	69.38
257.056	95.38
257.289	89.38
257.521	84.38
257.754	81.38
257.987	72.38
258.22	82.38
258.452	96.38
258.685	94.38
258.918	92.38
259.151	84.38
259.383	98.38
259.616	90.38
259.849	81.38
260.081	87.38
260.314	90.38
260.547	95.38
260.779	96.38
261.012	97.38
261.244	97.38
261.477	84.38
261.71	84.38
261.942	103.38
262.175	106.38
262.407	80.38
262.64	86.38
262.872	94.38
263.105	84.38
263.337	88.38
263.57	82.38
263.802	96.38
264.035	94.38
264.267	87.38
264.499	89.38
264.732	92.38
264.964	88.38
265.197	92.38
265.429	85.38
265.661	90.38
265.894	78.38
266.126	74.38
266.358	74.38
266.591	75.38
266.823	89.38
267.055	84.38
267.287	80.38
267.52	64.38
267.752	84.38
267.984	84.38
268.216	88.38
268.448	92.38
268.681	93.38
268.913	90.38
269.145	90.38
269.377	86.38
269.609	89.38
269.841	86.38
270.073	86.38
270.306	90.38
270.538	97.38
270.77	82.38
271.002	86.38
271.234	98.38
271.466	90.38
271.698	90.38
271.93	90.38
272.162	97.38
272.394	96.38
272.626	92.38
272.858	96.38
273.09	72.38
273.322	89.38
273.553	98.38
273.785	82.38
274.017	93.38
274.249	95.38
274.481	92.38
274.713	78.38
274.945	99.38
275.176	88.38
275.408	84.38
275.64	86.38
275.872	72.38
276.104	96.38
276.335	99.38
276.567	102.38
276.799	102.38
277.031	106.38
277.262	105.38
277.494	93.38
277.726	82.38
277.957	88.38
278.189	75.38
278.421	84.38
278.652	81.38
278.884	99.38
279.115	114.38
279.347	96.38
279.579	77.38
279.81	94.38
280.042	103.38
280.273	113.38
280.505	107.38
280.736	95.38
280.968	101.38
281.199	98.38
281.431	82.38
281.662	91.38
281.894	100.38
282.125	97.38
282.356	100.38
282.588	104.38
282.819	108.38
283.051	94.38
283.282	112.38
283.513	92.38
283.745	84.38
283.976	87.38
284.207	77.38
284.439	95.38
284.67	91.38
284.901	94.38
285.132	83.38
285.364	94.38
285.595	89.38
285.826	88.38
286.057	81.38
286.288	72.38
286.52	94.38
286.751	80.38
286.982	90.38
287.213	82.38
287.444	91.38
287.675	86.38
287.906	84.38
288.138	89.38
288.369	90.38
288.6	81.38
288.831	94.38
289.062	80.38
289.293	69.38
289.524	90.38
289.755	85.38
289.986	90.38
290.217	90.38
290.448	98.38
290.679	89.38
290.91	92.38
291.141	85.38
291.371	83.38
291.602	98.38
291.833	92.38
292.064	82.38
292.295	88.38
292.526	88.38
292.757	87.38
292.987	91.38
293.218	88.38
293.449	87.38
293.68	88.38
293.91	90.38
294.141	95.38
294.372	88.38
294.603	80.38
294.833	101.38
295.064	98.38
295.295	82.38
295.525	87.38
295.756	95.38
295.987	107.38
296.217	109.38
296.448	102.38
296.679	102.38
296.909	99.38
297.14	97.38
297.37	97.38
297.601	79.38
297.831	71.38
298.062	90.38
298.292	82.38
298.523	93.38
298.753	99.38
298.984	87.38
299.214	80.38
299.445	100.38
299.675	89.38
299.905	88.38
300.136	94.38
300.366	91.38
300.597	88.38
300.827	85.38
301.057	85.38
301.288	107.38
301.518	76.38
301.748	84.38
301.979	94.38
302.209	82.38
302.439	89.38
302.669	96.38
302.9	82.38
303.13	100.38
303.36	106.38
303.59	89.38
303.82	106.38
304.051	84.38
304.281	97.38
304.511	89.38
304.741	71.38
304.971	84.38
305.201	94.38
305.431	94.38
305.661	80.38
305.891	91.38
306.121	94.38
306.352	95.38
306.582	104.38
306.812	91.38
307.042	106.38
307.272	118.38
307.502	105.38
307.731	117.38
307.961	109.38
308.191	82.38
308.421	87.38
308.651	84.38
308.881	82.38
309.111	97.38
309.341	89.38
309.571	96.38
309.8	100.38
310.03	106.38
310.26	86.38
310.49	99.38
310.72	83.38
310.949	105.38
311.179	108.38
311.409	89.38
311.639	87.38
311.868	102.38
312.098	100.38
312.328	102.38
312.557	108.38
312.787	96.38
313.017	101.38
313.246	85.38
313.476	107.38
313.706	98.38
313.935	95.38
314.165	96.38
314.394	90.38
314.624	94.38
314.853	96.38
315.083	112.38
315.312	99.38
315.542	90.38
315.771	105.38
316.001	93.38
316.23	91.38
316.46	84.38
316.689	88.38
316.919	89.38
317.148	85.38
317.377	91.38
317.607	81.38
317.836	95.38
318.065	92.38
318.295	78.38
318.524	95.38
318.753	92.38
318.983	98.38
319.212	102.38
319.441	99.38
319.67	99.38
319.9	101.38
320.129	104.38
320.358	88.38
320.587	95.38
320.816	93.38
321.046	108.38
321.275	99.38
321.504	93.38
321.733	112.38
321.962	104.38
322.191	103.38
322.42	106.38
322.649	108.38
322.878	105.38
323.108	112.38
323.337	109.38
323.566	129.38
323.795	135.38
324.024	158.38
324.253	305.38
324.482	592.38
324.71	1193.38
324.939	1632.38
325.168	619.38
325.397	204.38
325.626	129.38
325.855	110.38
326.084	124.38
326.313	117.38
326.542	124.38
326.77	183.38
326.999	341.38
327.228	679.38
327.457	1274.38
327.686	1033.38
327.914	309.38
328.143	219.38
328.372	212.38
328.6	149.38
328.829	116.38
329.058	116.38
329.287	134.38
329.515	119.38
329.744	126.38
329.972	169.38
330.201	286.38
330.43	378.38
330.658	199.38
330.887	142.38
331.115	126.38
331.344	108.38
331.572	98.38
331.801	87.38
332.03	105.38
332.258	96.38
332.486	94.38
332.715	101.38
332.943	108.38
333.172	103.38
333.4	107.38
333.629	112.38
333.857	138.38
334.085	175.38
334.314	284.38
334.542	478.38
334.771	425.38
334.999	163.38
335.227	114.38
335.455	104.38
335.684	106.38
335.912	114.38
336.14	103.38
336.369	102.38
336.597	93.38
336.825	88.38
337.053	96.38
337.281	99.38
337.51	96.38
337.738	87.38
337.966	91.38
338.194	92.38
338.422	101.38
338.65	108.38
338.878	91.38
339.106	92.38
339.334	105.38
339.562	85.38
339.79	94.38
340.018	96.38
340.246	88.38
340.474	103.38
340.702	97.38
340.93	89.38
341.158	104.38
341.386	102.38
341.614	100.38
341.842	104.38
342.07	85.38
342.298	91.38
342.526	96.38
342.754	98.38
342.981	90.38
343.209	90.38
343.437	95.38
343.665	80.38
343.893	99.38
344.12	89.38
344.348	86.38
344.576	97.38
344.804	95.38
345.031	103.38
345.259	102.38
345.487	92.38
345.714	93.38
345.942	92.38
346.17	104.38
346.397	80.38
346.625	99.38
346.853	86.38
347.08	94.38
347.308	93.38
347.535	107.38
347.763	105.38
347.99	89.38
348.218	94.38
348.445	100.38
348.673	102.38
348.9	100.38
349.128	82.38
349.355	79.38
349.583	79.38
349.81	98.38
350.037	106.38
350.265	105.38
350.492	89.38
350.72	96.38
350.947	105.38
351.174	92.38
351.402	101.38
351.629	91.38
351.856	100.38
352.083	111.38
352.311	100.38
352.538	108.38
352.765	102.38
352.992	116.38
353.22	95.38
353.447	90.38
353.674	111.38
353.901	122.38
354.128	103.38
354.355	96.38
354.583	85.38
354.81	88.38
355.037	95.38
355.264	92.38
355.491	104.38
355.718	108.38
355.945	116.38
356.172	100.38
356.399	102.38
356.626	91.38
356.853	96.38
357.08	87.38
357.307	101.38
357.534	88.38
357.761	89.38
357.988	97.38
358.215	93.38
358.441	93.38
358.668	91.38
358.895	90.38
359.122	93.38
359.349	102.38
359.576	83.38
359.802	104.38
360.029	103.38
360.256	95.38
360.483	99.38
360.709	92.38
360.936	88.38
361.163	92.38
361.39	91.38
361.616	80.38
361.843	81.38
362.07	84.38
362.296	98.38
362.523	95.38
362.749	90.38
362.976	103.38
363.203	98.38
363.429	93.38
363.656	82.38
363.882	102.38
364.109	76.38
364.335	83.38
364.562	84.38
364.788	90.38
365.015	86.38
365.241	94.38
365.468	95.38
365.694	92.38
365.92	110.38
366.147	94.38
366.373	98.38
366.599	99.38
366.826	102.38
367.052	90.38
367.278	92.38
367.505	99.38
367.731	98.38
367.957	95.38
368.184	95.38
368.41	88.38
368.636	100.38
368.862	108.38
369.089	107.38
369.315	102.38
369.541	94.38
369.767	93.38
369.993	104.38
370.219	89.38
370.445	97.38
370.672	89.38
370.898	97.38
371.124	80.38
371.35	73.38
371.576	82.38
371.802	88.38
372.028	81.38
372.254	94.38
372.48	82.38
372.706	79.38
372.932	94.38
373.158	87.38
373.384	89.38
373.61	95.38
373.835	83.38
374.061	86.38
374.287	95.38
374.513	97.38
374.739	86.38
374.965	94.38
375.191	104.38
375.416	92.38
375.642	88.38
375.868	96.38
376.094	98.38
376.319	95.38
376.545	89.38
376.771	91.38
376.997	97.38
377.222	96.38
377.448	97.38
377.674	73.38
377.899	90.38
378.125	87.38
378.35	100.38
378.576	82.38
378.802	83.38
379.027	89.38
379.253	99.38
379.478	94.38
379.704	113.38
379.929	91.38
380.155	108.38
380.38	95.38
380.606	101.38
380.831	81.38
381.057	94.38
381.282	91.38
381.507	107.38
381.733	99.38
381.958	97.38
382.184	111.38
382.409	121.38
382.634	92.38
382.86	111.38
383.085	107.38
383.31	109.38
383.535	89.38
383.761	109.38
383.986	98.38
384.211	111.38
384.436	103.38
384.662	103.38
384.887	94.38
385.112	126.38
385.337	108.38
385.562	115.38
385.787	108.38
386.013	123.38
386.238	96.38
386.463	119.38
386.688	117.38
386.913	115.38
387.138	105.38
387.363	102.38
387.588	98.38
387.813	95.38
388.038	104.38
388.263	120.38
388.488	119.38
388.713	106.38
388.938	107.38
389.163	96.38
389.387	86.38
389.612	104.38
389.837	94.38
390.062	96.38
390.287	103.38
390.512	102.38
390.736	102.38
390.961	92.38
391.186	103.38
391.411	92.38
391.636	100.38
391.86	69.38
392.085	93.38
392.31	95.38
392.534	87.38
392.759	80.38
392.984	81.38
393.208	96.38
393.433	105.38
393.658	89.38
393.882	99.38
394.107	90.38
394.331	75.38
394.556	82.38
394.78	84.38
395.005	94.38
395.229	99.38
395.454	91.38
395.678	87.38
395.903	91.38
396.127	105.38
396.352	98.38
396.576	90.38
396.801	78.38
397.025	96.38
397.249	98.38
397.474	89.38
397.698	91.38
397.922	96.38
398.147	98.38
398.371	93.38
398.595	80.38
398.82	92.38
399.044	103.38
399.268	88.38
399.492	89.38
399.717	105.38
399.941	103.38
400.165	90.38
400.389	92.38
400.613	105.38
400.837	87.38
401.062	78.38
401.286	83.38
401.51	88.38
401.734	96.38
401.958	95.38
402.182	120.38
402.406	137.38
402.63	111.38
402.854	105.38
403.078	110.38
403.302	89.38
403.526	89.38
403.75	92.38
403.974	74.38
404.198	90.38
404.422	88.38
404.645	86.38
404.869	99.38
405.093	105.38
405.317	107.38
405.541	116.38
405.765	100.38
405.988	111.38
406.212	133.38
406.436	181.38
406.66	136.38
406.883	108.38
407.107	91.38
407.331	98.38
407.555	80.38
407.778	86.38
408.002	87.38
408.226	101.38
408.449	83.38
408.673	90.38
408.896	96.38
409.12	96.38
409.344	95.38
409.567	102.38
409.791	91.38
410.014	94.38
410.238	94.38
410.461	100.38
410.685	96.38
410.908	97.38
411.132	121.38
411.355	87.38
411.578	98.38
411.802	96.38
412.025	89.38
412.249	87.38
412.472	94.38
412.695	105.38
412.919	93.38
413.142	101.38
413.365	101.38
413.589	94.38
413.812	90.38
414.035	90.38
414.258	94.38
414.482	98.38
414.705	96.38
414.928	94.38
415.151	97.38
415.374	90.38
415.597	83.38
415.821	86.38
416.044	89.38
416.267	102.38
416.49	80.38
416.713	87.38
416.936	92.38
417.159	86.38
417.382	84.38
417.605	94.38
417.828	102.38
418.051	95.38
418.274	92.38
418.497	96.38
418.72	94.38
418.943	84.38
419.166	86.38
419.389	90.38
419.611	83.38
419.834	94.38
420.057	101.38
420.28	99.38
420.503	84.38
420.726	85.38
420.948	83.38
421.171	82.38
421.394	99.38
421.617	80.38
421.839	98.38
422.062	84.38
422.285	97.38
422.507	101.38
422.73	93.38
422.953	100.38
423.175	95.38
423.398	88.38
423.621	102.38
423.843	78.38
424.066	91.38
424.288	91.38
424.511	87.38
424.733	93.38
424.956	92.38
425.178	94.38
425.401	94.38
425.623	67.38
425.846	97.38
426.068	105.38
426.291	96.38
426.513	87.38
426.735	98.38
426.958	107.38
427.18	101.38
427.402	130.38
427.625	139.38
427.847	140.38
428.069	120.38
428.292	98.38
428.514	105.38
428.736	98.38
428.958	93.38
429.181	85.38
429.403	85.38
429.625	96.38
429.847	88.38
430.069	85.38
430.292	82.38
430.514	87.38
430.736	83.38
430.958	100.38
431.18	91.38
431.402	92.38
431.624	89.38
431.846	82.38
432.068	71.38
432.29	90.38
432.512	105.38
432.734	95.38
432.956	91.38
433.178	107.38
433.4	104.38
433.622	95.38
433.844	104.38
434.066	99.38
434.287	91.38
434.509	84.38
434.731	97.38
434.953	90.38
435.175	87.38
435.397	88.38
435.618	83.38
435.84	108.38
436.062	115.38
436.284	107.38
436.505	90.38
436.727	106.38
436.949	97.38
437.17	82.38
437.392	94.38
437.614	81.38
437.835	98.38
438.057	110.38
438.278	103.38
438.5	90.38
438.721	114.38
438.943	87.38
439.165	105.38
439.386	88.38
439.608	89.38
439.829	97.38
440.05	112.38
440.272	116.38
440.493	102.38
440.715	99.38
440.936	90.38
441.158	96.38
441.379	83.38
441.6	98.38
441.822	92.38
442.043	95.38
442.264	90.38
442.486	100.38
442.707	99.38
442.928	104.38
443.149	100.38
443.371	110.38
443.592	94.38
443.813	105.38
444.034	101.38
444.255	91.38
444.476	78.38
444.698	99.38
444.919	81.38
445.14	124.38
445.361	133.38
445.582	98.38
445.803	110.38
446.024	123.38
446.245	124.38
446.466	116.38
446.687	98.38
446.908	98.38
447.129	81.38
447.35	106.38
447.571	91.38
447.792	96.38
448.013	92.38
448.234	107.38
448.455	87.38
448.675	107.38
448.896	96.38
449.117	91.38
449.338	98.38
449.559	114.38
449.779	121.38
450	97.38
450.221	83.38
450.442	98.38
450.662	98.38
450.883	93.38
451.104	99.38
451.324	79.38
451.545	86.38
451.766	79.38
451.986	84.38
452.207	94.38
452.428	92.38
452.648	81.38
452.869	104.38
453.089	104.38
453.31	116.38
453.53	91.38
453.751	85.38
453.971	98.38
454.192	96.38
454.412	94.38
454.633	85.38
454.853	90.38
455.073	80.38
455.294	95.38
455.514	112.38
455.734	94.38
455.955	69.38
456.175	78.38
456.395	83.38
456.616	89.38
456.836	90.38
457.056	94.38
457.276	102.38
457.497	90.38
457.717	93.38
457.937	87.38
458.157	87.38
458.377	81.38
458.598	102.38
458.818	134.38
459.038	146.38
459.258	105.38
459.478	85.38
459.698	82.38
459.918	93.38
460.138	96.38
460.358	98.38
460.578	74.38
460.798	91.38
461.018	78.38
461.238	84.38
461.458	96.38
461.678	101.38
461.898	100.38
462.118	73.38
462.338	98.38
462.558	88.38
462.777	84.38
462.997	82.38
463.217	98.38
463.437	101.38
463.657	87.38
463.876	95.38
464.096	84.38
464.316	94.38
464.536	93.38
464.755	83.38
464.975	103.38
465.195	142.38
465.414	134.38
465.634	106.38
465.854	87.38
466.073	87.38
466.293	99.38
466.512	99.38
466.732	94.38
466.951	89.38
467.171	98.38
467.391	94.38
467.61	106.38
467.829	107.38
468.049	190.38
468.268	244.38
468.488	96.38
468.707	100.38
468.927	98.38
469.146	88.38
469.365	97.38
469.585	100.38
469.804	95.38
470.023	97.38
470.243	86.38
470.462	97.38
470.681	101.38
470.901	99.38
471.12	96.38
471.339	91.38
471.558	97.38
471.777	106.38
471.997	137.38
472.216	327.38
472.435	662.38
472.654	216.38
472.873	95.38
473.092	96.38
473.311	86.38
473.53	97.38
473.749	96.38
473.968	102.38
474.187	95.38
474.406	94.38
474.625	86.38
474.844	102.38
475.063	97.38
475.282	78.38
475.501	92.38
475.72	97.38
475.939	95.38
476.158	82.38
476.377	88.38
476.596	92.38
476.814	89.38
477.033	99.38
477.252	86.38
477.471	103.38
477.69	84.38
477.908	94.38
478.127	95.38
478.346	82.38
478.564	83.38
478.783	99.38
479.002	91.38
479.22	91.38
479.439	107.38
479.658	108.38
479.876	90.38
480.095	110.38
480.313	96.38
480.532	98.38
480.751	161.38
480.969	312.38
481.188	1107.38
481.406	650.38
481.624	147.38
481.843	98.38
482.061	71.38
482.28	88.38
482.498	90.38
482.717	90.38
482.935	100.38
483.153	94.38
483.372	101.38
483.59	84.38
483.808	84.38
484.027	87.38
484.245	97.38
484.463	104.38
484.681	99.38
484.9	88.38
485.118	92.38
485.336	108.38
485.554	101.38
485.772	111.38
485.99	114.38
486.209	121.38
486.427	121.38
486.645	110.38
486.863	112.38
487.081	107.38
487.299	84.38
487.517	108.38
487.735	89.38
487.953	100.38
488.171	102.38
488.389	107.38
488.607	100.38
488.825	101.38
489.043	102.38
489.261	82.38
489.479	87.38
489.696	80.38
489.914	79.38
490.132	90.38
490.35	87.38
490.568	96.38
490.786	107.38
491.003	99.38
491.221	91.38
491.439	103.38
491.657	96.38
491.874	100.38
492.092	103.38
492.31	104.38
492.527	83.38
492.745	90.38
492.963	92.38
493.18	101.38
493.398	95.38
493.615	88.38
493.833	101.38
494.05	94.38
494.268	92.38
494.485	90.38
494.703	89.38
494.92	97.38
495.138	83.38
495.355	90.38
495.573	107.38
495.79	90.38
496.008	93.38
496.225	97.38
496.442	80.38
496.66	95.38
496.877	90.38
497.094	103.38
497.312	82.38
497.529	90.38
497.746	89.38
497.963	94.38
498.181	89.38
498.398	87.38
498.615	109.38
498.832	110.38
499.049	103.38
499.267	90.38
499.484	85.38
499.701	94.38
499.918	92.38
500.135	107.38
500.352	91.38
500.569	84.38
500.786	104.38
501.003	94.38
501.22	91.38
501.437	90.38
501.654	98.38
501.871	93.38
502.088	86.38
502.305	89.38
502.522	80.38
502.739	99.38
502.956	95.38
503.172	89.38
503.389	103.38
503.606	96.38
503.823	86.38
504.04	94.38
504.256	87.38
504.473	89.38
504.69	105.38
504.907	97.38
505.123	92.38
505.34	92.38
505.557	102.38
505.773	82.38
505.99	104.38
506.207	90.38
506.423	86.38
506.64	94.38
506.856	91.38
507.073	87.38
507.289	110.38
507.506	81.38
507.722	115.38
507.939	102.38
508.155	97.38
508.372	91.38
508.588	99.38
508.805	93.38
509.021	97.38
509.238	89.38
509.454	90.38
509.67	105.38
509.887	126.38
510.103	106.38
510.319	176.38
510.536	542.38
510.752	1646.38
510.968	470.38
511.184	147.38
511.401	96.38
511.617	98.38
511.833	103.38
512.049	93.38
512.265	94.38
512.481	79.38
512.698	97.38
512.914	89.38
513.13	98.38
513.346	105.38
513.562	95.38
513.778	101.38
513.994	104.38
514.21	104.38
514.426	108.38
514.642	112.38
514.858	113.38
