Data from Circ_1989_H10_HRD10591_00052.txt Node
Date: Wed Jan 03 12:01:32 EST 2024
User: Yrep
Spectrometer: HR+D1059
Trigger mode: 1
Integration Time (sec): 1.000000E-1
Scans to average: 1
Electric dark correction enabled: true
Nonlinearity correction enabled: false
Boxcar width: 0
XAxis mode: Wavelengths
Number of Pixels in Spectrum: 2048
>>>>>Begin Spectral Data<<<<<
223.165	-15.56
223.4	-15.56
223.635	-15.56
223.869	-17.56
224.104	-23.56
224.338	-13.56
224.573	-19.56
224.808	-7.56
225.042	-10.56
225.277	8.44
225.511	-8.56
225.746	19.44
225.98	5.44
226.215	7.44
226.449	11.44
226.683	18.44
226.918	26.44
227.152	19.44
227.387	26.44
227.621	34.44
227.856	59.44
228.09	50.44
228.324	47.44
228.559	64.44
228.793	34.44
229.027	58.44
229.262	57.44
229.496	56.44
229.73	83.44
229.964	96.44
230.199	81.44
230.433	90.44
230.667	63.44
230.901	86.44
231.136	90.44
231.37	73.44
231.604	80.44
231.838	82.44
232.072	72.44
232.306	88.44
232.541	83.44
232.775	77.44
233.009	89.44
233.243	71.44
233.477	80.44
233.711	94.44
233.945	82.44
234.179	89.44
234.413	76.44
234.647	94.44
234.881	64.44
235.115	87.44
235.349	82.44
235.583	89.44
235.817	71.44
236.051	70.44
236.285	80.44
236.519	86.44
236.753	70.44
236.987	84.44
237.221	72.44
237.455	84.44
237.689	84.44
237.922	88.44
238.156	86.44
238.39	65.44
238.624	86.44
238.858	88.44
239.091	84.44
239.325	81.44
239.559	80.44
239.793	79.44
240.027	72.44
240.26	83.44
240.494	78.44
240.728	83.44
240.961	73.44
241.195	78.44
241.429	86.44
241.662	84.44
241.896	86.44
242.13	75.44
242.363	70.44
242.597	72.44
242.83	66.44
243.064	63.44
243.298	84.44
243.531	72.44
243.765	78.44
243.998	82.44
244.232	74.44
244.465	82.44
244.699	91.44
244.932	75.44
245.166	71.44
245.399	80.44
245.633	97.44
245.866	90.44
246.099	73.44
246.333	98.44
246.566	84.44
246.8	79.44
247.033	89.44
247.266	80.44
247.5	86.44
247.733	83.44
247.966	95.44
248.2	85.44
248.433	89.44
248.666	79.44
248.899	81.44
249.133	83.44
249.366	92.44
249.599	118.44
249.832	83.44
250.066	92.44
250.299	89.44
250.532	81.44
250.765	79.44
250.998	81.44
251.231	82.44
251.465	87.44
251.698	82.44
251.931	82.44
252.164	84.44
252.397	80.44
252.63	88.44
252.863	97.44
253.096	64.44
253.329	82.44
253.562	72.44
253.795	92.44
254.028	80.44
254.261	98.44
254.494	81.44
254.727	85.44
254.96	79.44
255.193	79.44
255.426	75.44
255.659	73.44
255.892	78.44
256.124	89.44
256.357	75.44
256.59	86.44
256.823	82.44
257.056	91.44
257.289	91.44
257.521	84.44
257.754	81.44
257.987	86.44
258.22	84.44
258.452	80.44
258.685	73.44
258.918	82.44
259.151	80.44
259.383	96.44
259.616	64.44
259.849	102.44
260.081	90.44
260.314	101.44
260.547	89.44
260.779	73.44
261.012	103.44
261.244	94.44
261.477	82.44
261.71	88.44
261.942	114.44
262.175	103.44
262.407	98.44
262.64	94.44
262.872	95.44
263.105	73.44
263.337	90.44
263.57	90.44
263.802	73.44
264.035	105.44
264.267	82.44
264.499	84.44
264.732	84.44
264.964	80.44
265.197	66.44
265.429	72.44
265.661	92.44
265.894	83.44
266.126	90.44
266.358	90.44
266.591	91.44
266.823	77.44
267.055	91.44
267.287	86.44
267.52	99.44
267.752	91.44
267.984	84.44
268.216	95.44
268.448	89.44
268.681	90.44
268.913	76.44
269.145	94.44
269.377	64.44
269.609	100.44
269.841	94.44
270.073	90.44
270.306	97.44
270.538	87.44
270.77	80.44
271.002	78.44
271.234	95.44
271.466	102.44
271.698	93.44
271.93	82.44
272.162	82.44
272.394	78.44
272.626	91.44
272.858	94.44
273.09	84.44
273.322	89.44
273.553	92.44
273.785	88.44
274.017	92.44
274.249	94.44
274.481	94.44
274.713	94.44
274.945	87.44
275.176	84.44
275.408	103.44
275.64	86.44
275.872	91.44
276.104	92.44
276.335	93.44
276.567	101.44
276.799	104.44
277.031	111.44
277.262	115.44
277.494	104.44
277.726	80.44
277.957	106.44
278.189	92.44
278.421	95.44
278.652	98.44
278.884	80.44
279.115	75.44
279.347	91.44
279.579	85.44
279.81	105.44
280.042	119.44
280.273	128.44
280.505	115.44
280.736	96.44
280.968	71.44
281.199	82.44
281.431	89.44
281.662	81.44
281.894	88.44
282.125	99.44
282.356	116.44
282.588	129.44
282.819	117.44
283.051	95.44
283.282	88.44
283.513	78.44
283.745	98.44
283.976	91.44
284.207	76.44
284.439	86.44
284.67	84.44
284.901	83.44
285.132	90.44
285.364	92.44
285.595	86.44
285.826	90.44
286.057	86.44
286.288	93.44
286.52	98.44
286.751	91.44
286.982	103.44
287.213	90.44
287.444	91.44
287.675	74.44
287.906	94.44
288.138	90.44
288.369	94.44
288.6	84.44
288.831	99.44
289.062	89.44
289.293	90.44
289.524	85.44
289.755	89.44
289.986	84.44
290.217	84.44
290.448	89.44
290.679	93.44
290.91	100.44
291.141	80.44
291.371	65.44
291.602	84.44
291.833	88.44
292.064	83.44
292.295	94.44
292.526	95.44
292.757	86.44
292.987	100.44
293.218	84.44
293.449	93.44
293.68	90.44
293.91	83.44
294.141	94.44
294.372	87.44
294.603	89.44
294.833	71.44
295.064	105.44
295.295	91.44
295.525	98.44
295.756	110.44
295.987	91.44
296.217	127.44
296.448	114.44
296.679	90.44
296.909	92.44
297.14	92.44
297.37	86.44
297.601	87.44
297.831	91.44
298.062	102.44
298.292	93.44
298.523	85.44
298.753	93.44
298.984	90.44
299.214	88.44
299.445	91.44
299.675	83.44
299.905	87.44
300.136	107.44
300.366	84.44
300.597	96.44
300.827	98.44
301.057	103.44
301.288	98.44
301.518	96.44
301.748	84.44
301.979	92.44
302.209	98.44
302.439	102.44
302.669	99.44
302.9	99.44
303.13	85.44
303.36	99.44
303.59	99.44
303.82	107.44
304.051	115.44
304.281	88.44
304.511	89.44
304.741	93.44
304.971	87.44
305.201	97.44
305.431	74.44
305.661	97.44
305.891	88.44
306.121	95.44
306.352	101.44
306.582	92.44
306.812	110.44
307.042	89.44
307.272	110.44
307.502	115.44
307.731	134.44
307.961	104.44
308.191	99.44
308.421	106.44
308.651	98.44
308.881	89.44
309.111	100.44
309.341	90.44
309.571	91.44
309.8	97.44
310.03	98.44
310.26	80.44
310.49	89.44
310.72	97.44
310.949	102.44
311.179	93.44
311.409	93.44
311.639	83.44
311.868	98.44
312.098	98.44
312.328	99.44
312.557	112.44
312.787	98.44
313.017	110.44
313.246	109.44
313.476	94.44
313.706	99.44
313.935	91.44
314.165	97.44
314.394	100.44
314.624	102.44
314.853	89.44
315.083	105.44
315.312	97.44
315.542	91.44
315.771	94.44
316.001	96.44
316.23	98.44
316.46	105.44
316.689	96.44
316.919	99.44
317.148	88.44
317.377	104.44
317.607	75.44
317.836	94.44
318.065	94.44
318.295	92.44
318.524	99.44
318.753	100.44
318.983	97.44
319.212	98.44
319.441	111.44
319.67	118.44
319.9	79.44
320.129	89.44
320.358	91.44
320.587	92.44
320.816	95.44
321.046	100.44
321.275	103.44
321.504	103.44
321.733	102.44
321.962	93.44
322.191	98.44
322.42	108.44
322.649	103.44
322.878	103.44
323.108	107.44
323.337	110.44
323.566	132.44
323.795	135.44
324.024	183.44
324.253	320.44
324.482	674.44
324.71	1394.44
324.939	1864.44
325.168	694.44
325.397	234.44
325.626	146.44
325.855	128.44
326.084	126.44
326.313	135.44
326.542	136.44
326.77	203.44
326.999	381.44
327.228	796.44
327.457	1434.44
327.686	1164.44
327.914	362.44
328.143	256.44
328.372	294.44
328.6	186.44
328.829	115.44
329.058	124.44
329.287	140.44
329.515	120.44
329.744	151.44
329.972	232.44
330.201	387.44
330.43	556.44
330.658	261.44
330.887	146.44
331.115	121.44
331.344	113.44
331.572	106.44
331.801	96.44
332.03	101.44
332.258	120.44
332.486	99.44
332.715	103.44
332.943	90.44
333.172	102.44
333.4	113.44
333.629	103.44
333.857	159.44
334.085	223.44
334.314	386.44
334.542	668.44
334.771	634.44
334.999	204.44
335.227	121.44
335.455	106.44
335.684	104.44
335.912	84.44
336.14	106.44
336.369	95.44
336.597	104.44
336.825	103.44
337.053	89.44
337.281	106.44
337.51	96.44
337.738	92.44
337.966	94.44
338.194	106.44
338.422	91.44
338.65	98.44
338.878	88.44
339.106	106.44
339.334	98.44
339.562	90.44
339.79	88.44
340.018	88.44
340.246	91.44
340.474	97.44
340.702	90.44
340.93	95.44
341.158	98.44
341.386	86.44
341.614	91.44
341.842	86.44
342.07	81.44
342.298	84.44
342.526	98.44
342.754	97.44
342.981	99.44
343.209	87.44
343.437	99.44
343.665	106.44
343.893	91.44
344.12	88.44
344.348	103.44
344.576	108.44
344.804	95.44
345.031	79.44
345.259	88.44
345.487	94.44
345.714	96.44
345.942	97.44
346.17	93.44
346.397	100.44
346.625	90.44
346.853	101.44
347.08	88.44
347.308	102.44
347.535	94.44
347.763	100.44
347.99	91.44
348.218	99.44
348.445	101.44
348.673	107.44
348.9	92.44
349.128	97.44
349.355	92.44
349.583	99.44
349.81	94.44
350.037	101.44
350.265	92.44
350.492	102.44
350.72	89.44
350.947	118.44
351.174	100.44
351.402	113.44
351.629	93.44
351.856	82.44
352.083	97.44
352.311	98.44
352.538	99.44
352.765	108.44
352.992	119.44
353.22	105.44
353.447	101.44
353.674	105.44
353.901	96.44
354.128	86.44
354.355	90.44
354.583	82.44
354.81	89.44
355.037	107.44
355.264	86.44
355.491	98.44
355.718	75.44
355.945	102.44
356.172	98.44
356.399	91.44
356.626	96.44
356.853	86.44
357.08	87.44
357.307	92.44
357.534	99.44
357.761	101.44
357.988	91.44
358.215	114.44
358.441	96.44
358.668	98.44
358.895	100.44
359.122	80.44
359.349	96.44
359.576	94.44
359.802	94.44
360.029	113.44
360.256	104.44
360.483	101.44
360.709	88.44
360.936	106.44
361.163	85.44
361.39	96.44
361.616	108.44
361.843	90.44
362.07	99.44
362.296	100.44
362.523	102.44
362.749	83.44
362.976	90.44
363.203	97.44
363.429	88.44
363.656	85.44
363.882	101.44
364.109	78.44
364.335	95.44
364.562	119.44
364.788	88.44
365.015	102.44
365.241	103.44
365.468	89.44
365.694	110.44
365.92	100.44
366.147	84.44
366.373	82.44
366.599	94.44
366.826	100.44
367.052	88.44
367.278	90.44
367.505	84.44
367.731	86.44
367.957	86.44
368.184	84.44
368.41	91.44
368.636	97.44
368.862	111.44
369.089	92.44
369.315	86.44
369.541	93.44
369.767	90.44
369.993	100.44
370.219	83.44
370.445	87.44
370.672	97.44
370.898	92.44
371.124	94.44
371.35	93.44
371.576	83.44
371.802	96.44
372.028	88.44
372.254	69.44
372.48	72.44
372.706	92.44
372.932	94.44
373.158	95.44
373.384	97.44
373.61	88.44
373.835	82.44
374.061	101.44
374.287	105.44
374.513	97.44
374.739	96.44
374.965	91.44
375.191	93.44
375.416	93.44
375.642	81.44
375.868	74.44
376.094	97.44
376.319	79.44
376.545	99.44
376.771	103.44
376.997	91.44
377.222	88.44
377.448	97.44
377.674	99.44
377.899	91.44
378.125	101.44
378.35	99.44
378.576	99.44
378.802	85.44
379.027	104.44
379.253	70.44
379.478	102.44
379.704	86.44
379.929	94.44
380.155	114.44
380.38	103.44
380.606	101.44
380.831	94.44
381.057	96.44
381.282	91.44
381.507	90.44
381.733	94.44
381.958	80.44
382.184	91.44
382.409	102.44
382.634	92.44
382.86	111.44
383.085	120.44
383.31	94.44
383.535	105.44
383.761	103.44
383.986	103.44
384.211	108.44
384.436	95.44
384.662	90.44
384.887	99.44
385.112	107.44
385.337	103.44
385.562	99.44
385.787	111.44
386.013	117.44
386.238	122.44
386.463	104.44
386.688	91.44
386.913	97.44
387.138	115.44
387.363	105.44
387.588	80.44
387.813	107.44
388.038	113.44
388.263	121.44
388.488	92.44
388.713	109.44
388.938	89.44
389.163	100.44
389.387	95.44
389.612	96.44
389.837	93.44
390.062	106.44
390.287	80.44
390.512	100.44
390.736	97.44
390.961	88.44
391.186	99.44
391.411	101.44
391.636	101.44
391.86	82.44
392.085	89.44
392.31	88.44
392.534	96.44
392.759	79.44
392.984	96.44
393.208	89.44
393.433	98.44
393.658	98.44
393.882	81.44
394.107	92.44
394.331	75.44
394.556	87.44
394.78	83.44
395.005	98.44
395.229	81.44
395.454	85.44
395.678	87.44
395.903	89.44
396.127	90.44
396.352	87.44
396.576	82.44
396.801	90.44
397.025	82.44
397.249	81.44
397.474	92.44
397.698	92.44
397.922	81.44
398.147	90.44
398.371	90.44
398.595	97.44
398.82	98.44
399.044	90.44
399.268	70.44
399.492	76.44
399.717	75.44
399.941	81.44
400.165	92.44
400.389	92.44
400.613	102.44
400.837	81.44
401.062	79.44
401.286	94.44
401.51	92.44
401.734	115.44
401.958	118.44
402.182	113.44
402.406	134.44
402.63	119.44
402.854	95.44
403.078	97.44
403.302	91.44
403.526	82.44
403.75	85.44
403.974	83.44
404.198	86.44
404.422	84.44
404.645	93.44
404.869	91.44
405.093	107.44
405.317	107.44
405.541	117.44
405.765	91.44
405.988	109.44
406.212	147.44
406.436	211.44
406.66	139.44
406.883	97.44
407.107	99.44
407.331	100.44
407.555	101.44
407.778	89.44
408.002	96.44
408.226	106.44
408.449	98.44
408.673	101.44
408.896	82.44
409.12	92.44
409.344	72.44
409.567	97.44
409.791	86.44
410.014	87.44
410.238	83.44
410.461	84.44
410.685	100.44
410.908	91.44
411.132	100.44
411.355	88.44
411.578	80.44
411.802	80.44
412.025	94.44
412.249	89.44
412.472	105.44
412.695	98.44
412.919	97.44
413.142	101.44
413.365	86.44
413.589	97.44
413.812	75.44
414.035	105.44
414.258	92.44
414.482	96.44
414.705	94.44
414.928	82.44
415.151	84.44
415.374	84.44
415.597	80.44
415.821	88.44
416.044	91.44
416.267	88.44
416.49	75.44
416.713	101.44
416.936	90.44
417.159	101.44
417.382	88.44
417.605	101.44
417.828	96.44
418.051	104.44
418.274	98.44
418.497	84.44
418.72	90.44
418.943	97.44
419.166	90.44
419.389	97.44
419.611	88.44
419.834	103.44
420.057	90.44
420.28	101.44
420.503	81.44
420.726	89.44
420.948	97.44
421.171	96.44
421.394	108.44
421.617	92.44
421.839	86.44
422.062	80.44
422.285	75.44
422.507	94.44
422.73	103.44
422.953	84.44
423.175	71.44
423.398	92.44
423.621	88.44
423.843	88.44
424.066	100.44
424.288	88.44
424.511	88.44
424.733	103.44
424.956	110.44
425.178	95.44
425.401	106.44
425.623	84.44
425.846	83.44
426.068	87.44
426.291	82.44
426.513	96.44
426.735	84.44
426.958	98.44
427.18	101.44
427.402	122.44
427.625	166.44
427.847	169.44
428.069	158.44
428.292	112.44
428.514	97.44
428.736	98.44
428.958	82.44
429.181	91.44
429.403	86.44
429.625	79.44
429.847	92.44
430.069	106.44
430.292	102.44
430.514	88.44
430.736	85.44
430.958	91.44
431.18	88.44
431.402	83.44
431.624	89.44
431.846	99.44
432.068	93.44
432.29	80.44
432.512	100.44
432.734	89.44
432.956	97.44
433.178	98.44
433.4	90.44
433.622	95.44
433.844	102.44
434.066	100.44
434.287	90.44
434.509	98.44
434.731	102.44
434.953	91.44
435.175	76.44
435.397	95.44
435.618	94.44
435.84	104.44
436.062	114.44
436.284	102.44
436.505	102.44
436.727	94.44
436.949	109.44
437.17	88.44
437.392	82.44
437.614	91.44
437.835	100.44
438.057	102.44
438.278	108.44
438.5	96.44
438.721	106.44
438.943	86.44
439.165	83.44
439.386	83.44
439.608	76.44
439.829	81.44
440.05	110.44
440.272	138.44
440.493	102.44
440.715	73.44
440.936	75.44
441.158	91.44
441.379	86.44
441.6	88.44
441.822	104.44
442.043	73.44
442.264	108.44
442.486	95.44
442.707	101.44
442.928	92.44
443.149	132.44
443.371	127.44
443.592	106.44
443.813	103.44
444.034	89.44
444.255	99.44
444.476	91.44
444.698	86.44
444.919	84.44
445.14	110.44
445.361	116.44
445.582	101.44
445.803	121.44
446.024	129.44
446.245	120.44
446.466	105.44
446.687	86.44
446.908	95.44
447.129	88.44
447.35	93.44
447.571	82.44
447.792	91.44
448.013	99.44
448.234	99.44
448.455	98.44
448.675	99.44
448.896	107.44
449.117	102.44
449.338	106.44
449.559	129.44
449.779	102.44
450	101.44
450.221	101.44
450.442	90.44
450.662	100.44
450.883	101.44
451.104	107.44
451.324	97.44
451.545	79.44
451.766	78.44
451.986	72.44
452.207	84.44
452.428	95.44
452.648	98.44
452.869	108.44
453.089	96.44
453.31	108.44
453.53	104.44
453.751	98.44
453.971	98.44
454.192	106.44
454.412	97.44
454.633	91.44
454.853	97.44
455.073	86.44
455.294	104.44
455.514	88.44
455.734	92.44
455.955	91.44
456.175	96.44
456.395	80.44
456.616	90.44
456.836	90.44
457.056	75.44
457.276	75.44
457.497	100.44
457.717	89.44
457.937	88.44
458.157	78.44
458.377	80.44
458.598	103.44
458.818	139.44
459.038	138.44
459.258	103.44
459.478	98.44
459.698	87.44
459.918	79.44
460.138	83.44
460.358	95.44
460.578	84.44
460.798	90.44
461.018	90.44
461.238	84.44
461.458	87.44
461.678	87.44
461.898	89.44
462.118	74.44
462.338	74.44
462.558	94.44
462.777	86.44
462.997	94.44
463.217	91.44
463.437	104.44
463.657	90.44
463.876	89.44
464.096	92.44
464.316	96.44
464.536	95.44
464.755	99.44
464.975	102.44
465.195	142.44
465.414	140.44
465.634	95.44
465.854	88.44
466.073	94.44
466.293	75.44
466.512	93.44
466.732	88.44
466.951	94.44
467.171	90.44
467.391	89.44
467.61	100.44
467.829	141.44
468.049	252.44
468.268	367.44
468.488	126.44
468.707	116.44
468.927	99.44
469.146	97.44
469.365	88.44
469.585	92.44
469.804	99.44
470.023	90.44
470.243	80.44
470.462	87.44
470.681	96.44
470.901	79.44
471.12	82.44
471.339	102.44
471.558	102.44
471.777	108.44
471.997	163.44
472.216	498.44
472.435	982.44
472.654	282.44
472.873	135.44
473.092	100.44
473.311	92.44
473.53	85.44
473.749	84.44
473.968	95.44
474.187	103.44
474.406	86.44
474.625	99.44
474.844	90.44
475.063	89.44
475.282	98.44
475.501	84.44
475.72	92.44
475.939	103.44
476.158	98.44
476.377	96.44
476.596	96.44
476.814	82.44
477.033	83.44
477.252	88.44
477.471	97.44
477.69	82.44
477.908	97.44
478.127	84.44
478.346	92.44
478.564	109.44
478.783	108.44
479.002	88.44
479.22	99.44
479.439	107.44
479.658	109.44
479.876	93.44
480.095	104.44
480.313	112.44
480.532	127.44
480.751	183.44
480.969	473.44
481.188	1733.44
481.406	1010.44
481.624	172.44
481.843	94.44
482.061	112.44
482.28	87.44
482.498	100.44
482.717	90.44
482.935	104.44
483.153	87.44
483.372	81.44
483.59	86.44
483.808	104.44
484.027	93.44
484.245	106.44
484.463	84.44
484.681	110.44
484.9	94.44
485.118	103.44
485.336	75.44
485.554	90.44
485.772	102.44
485.99	111.44
486.209	99.44
486.427	115.44
486.645	108.44
486.863	97.44
487.081	100.44
487.299	101.44
487.517	98.44
487.735	109.44
487.953	95.44
488.171	85.44
488.389	116.44
488.607	88.44
488.825	99.44
489.043	90.44
489.261	94.44
489.479	79.44
489.696	92.44
489.914	92.44
490.132	91.44
490.35	94.44
490.568	98.44
490.786	99.44
491.003	83.44
491.221	72.44
491.439	89.44
491.657	93.44
491.874	97.44
492.092	97.44
492.31	96.44
492.527	79.44
492.745	86.44
492.963	99.44
493.18	102.44
493.398	88.44
493.615	104.44
493.833	107.44
494.05	103.44
494.268	101.44
494.485	79.44
494.703	101.44
494.92	75.44
495.138	94.44
495.355	106.44
495.573	105.44
495.79	95.44
496.008	91.44
496.225	94.44
496.442	96.44
496.66	104.44
496.877	88.44
497.094	99.44
497.312	91.44
497.529	96.44
497.746	97.44
497.963	93.44
498.181	99.44
498.398	105.44
498.615	104.44
498.832	96.44
499.049	107.44
499.267	96.44
499.484	103.44
499.701	99.44
499.918	84.44
500.135	96.44
500.352	88.44
500.569	90.44
500.786	86.44
501.003	99.44
501.22	84.44
501.437	88.44
501.654	84.44
501.871	109.44
502.088	90.44
502.305	83.44
502.522	95.44
502.739	97.44
502.956	105.44
503.172	98.44
503.389	87.44
503.606	101.44
503.823	85.44
504.04	94.44
504.256	96.44
504.473	93.44
504.69	85.44
504.907	100.44
505.123	76.44
505.34	97.44
505.557	93.44
505.773	92.44
505.99	99.44
506.207	85.44
506.423	88.44
506.64	85.44
506.856	108.44
507.073	107.44
507.289	89.44
507.506	98.44
507.722	121.44
507.939	103.44
508.155	105.44
508.372	100.44
508.588	96.44
508.805	103.44
509.021	90.44
509.238	106.44
509.454	88.44
509.67	88.44
509.887	108.44
510.103	121.44
510.319	174.44
510.536	579.44
510.752	1789.44
510.968	540.44
511.184	142.44
511.401	111.44
511.617	106.44
511.833	87.44
512.049	91.44
512.265	87.44
512.481	90.44
512.698	101.44
512.914	93.44
513.13	104.44
513.346	84.44
513.562	98.44
513.778	95.44
513.994	92.44
514.21	95.44
514.426	105.44
514.642	116.44
