Data from Circ_1989_H10_HRD10591_00015.txt Node
Date: Wed Jan 03 12:01:24 EST 2024
User: Yrep
Spectrometer: HR+D1059
Trigger mode: 1
Integration Time (sec): 1.000000E-1
Scans to average: 1
Electric dark correction enabled: true
Nonlinearity correction enabled: false
Boxcar width: 0
XAxis mode: Wavelengths
Number of Pixels in Spectrum: 2048
>>>>>Begin Spectral Data<<<<<
223.165	-26.75
223.4	-26.75
223.635	-26.75
223.869	-26.75
224.104	-22.75
224.338	-22.75
224.573	-14.75
224.808	-10.75
225.042	-3.75
225.277	-2.75
225.511	13.25
225.746	11.25
225.98	24.25
226.215	3.25
226.449	19.25
226.683	26.25
226.918	19.25
227.152	14.25
227.387	47.25
227.621	38.25
227.856	37.25
228.09	44.25
228.324	35.25
228.559	53.25
228.793	59.25
229.027	70.25
229.262	63.25
229.496	77.25
229.73	80.25
229.964	76.25
230.199	58.25
230.433	78.25
230.667	74.25
230.901	78.25
231.136	75.25
231.37	71.25
231.604	66.25
231.838	83.25
232.072	76.25
232.306	73.25
232.541	77.25
232.775	79.25
233.009	81.25
233.243	81.25
233.477	76.25
233.711	72.25
233.945	73.25
234.179	71.25
234.413	77.25
234.647	67.25
234.881	103.25
235.115	72.25
235.349	76.25
235.583	78.25
235.817	88.25
236.051	64.25
236.285	77.25
236.519	77.25
236.753	78.25
236.987	83.25
237.221	70.25
237.455	88.25
237.689	81.25
237.922	88.25
238.156	67.25
238.39	92.25
238.624	88.25
238.858	76.25
239.091	87.25
239.325	82.25
239.559	66.25
239.793	86.25
240.027	89.25
240.26	85.25
240.494	71.25
240.728	69.25
240.961	56.25
241.195	82.25
241.429	84.25
241.662	53.25
241.896	67.25
242.13	66.25
242.363	60.25
242.597	72.25
242.83	65.25
243.064	65.25
243.298	86.25
243.531	69.25
243.765	76.25
243.998	72.25
244.232	84.25
244.465	80.25
244.699	77.25
244.932	65.25
245.166	63.25
245.399	78.25
245.633	70.25
245.866	57.25
246.099	82.25
246.333	70.25
246.566	87.25
246.8	92.25
247.033	79.25
247.266	78.25
247.5	73.25
247.733	83.25
247.966	94.25
248.2	92.25
248.433	80.25
248.666	86.25
248.899	82.25
249.133	92.25
249.366	75.25
249.599	83.25
249.832	82.25
250.066	86.25
250.299	78.25
250.532	104.25
250.765	79.25
250.998	83.25
251.231	80.25
251.465	77.25
251.698	65.25
251.931	77.25
252.164	89.25
252.397	71.25
252.63	91.25
252.863	77.25
253.096	81.25
253.329	83.25
253.562	78.25
253.795	77.25
254.028	89.25
254.261	82.25
254.494	83.25
254.727	79.25
254.96	82.25
255.193	81.25
255.426	92.25
255.659	79.25
255.892	80.25
256.124	95.25
256.357	65.25
256.59	68.25
256.823	97.25
257.056	70.25
257.289	84.25
257.521	87.25
257.754	80.25
257.987	82.25
258.22	91.25
258.452	78.25
258.685	97.25
258.918	85.25
259.151	76.25
259.383	71.25
259.616	71.25
259.849	94.25
260.081	85.25
260.314	72.25
260.547	80.25
260.779	90.25
261.012	85.25
261.244	86.25
261.477	95.25
261.71	98.25
261.942	103.25
262.175	96.25
262.407	89.25
262.64	85.25
262.872	84.25
263.105	98.25
263.337	87.25
263.57	71.25
263.802	83.25
264.035	70.25
264.267	84.25
264.499	84.25
264.732	83.25
264.964	79.25
265.197	75.25
265.429	84.25
265.661	70.25
265.894	99.25
266.126	91.25
266.358	76.25
266.591	79.25
266.823	73.25
267.055	83.25
267.287	76.25
267.52	80.25
267.752	88.25
267.984	86.25
268.216	77.25
268.448	83.25
268.681	82.25
268.913	81.25
269.145	83.25
269.377	82.25
269.609	84.25
269.841	73.25
270.073	90.25
270.306	83.25
270.538	83.25
270.77	80.25
271.002	96.25
271.234	93.25
271.466	85.25
271.698	93.25
271.93	88.25
272.162	89.25
272.394	82.25
272.626	87.25
272.858	94.25
273.09	99.25
273.322	109.25
273.553	76.25
273.785	89.25
274.017	84.25
274.249	82.25
274.481	89.25
274.713	88.25
274.945	80.25
275.176	86.25
275.408	86.25
275.64	80.25
275.872	71.25
276.104	95.25
276.335	101.25
276.567	96.25
276.799	123.25
277.031	104.25
277.262	114.25
277.494	95.25
277.726	79.25
277.957	69.25
278.189	98.25
278.421	93.25
278.652	80.25
278.884	96.25
279.115	90.25
279.347	90.25
279.579	82.25
279.81	84.25
280.042	111.25
280.273	118.25
280.505	100.25
280.736	99.25
280.968	92.25
281.199	100.25
281.431	103.25
281.662	87.25
281.894	104.25
282.125	91.25
282.356	93.25
282.588	130.25
282.819	101.25
283.051	100.25
283.282	81.25
283.513	75.25
283.745	91.25
283.976	83.25
284.207	87.25
284.439	89.25
284.67	91.25
284.901	75.25
285.132	92.25
285.364	84.25
285.595	95.25
285.826	70.25
286.057	83.25
286.288	89.25
286.52	81.25
286.751	72.25
286.982	87.25
287.213	77.25
287.444	74.25
287.675	76.25
287.906	93.25
288.138	92.25
288.369	99.25
288.6	102.25
288.831	69.25
289.062	91.25
289.293	87.25
289.524	97.25
289.755	81.25
289.986	81.25
290.217	80.25
290.448	84.25
290.679	90.25
290.91	87.25
291.141	87.25
291.371	109.25
291.602	85.25
291.833	76.25
292.064	92.25
292.295	80.25
292.526	92.25
292.757	90.25
292.987	100.25
293.218	77.25
293.449	97.25
293.68	93.25
293.91	100.25
294.141	84.25
294.372	86.25
294.603	85.25
294.833	85.25
295.064	76.25
295.295	87.25
295.525	88.25
295.756	100.25
295.987	92.25
296.217	112.25
296.448	104.25
296.679	80.25
296.909	92.25
297.14	87.25
297.37	90.25
297.601	95.25
297.831	82.25
298.062	72.25
298.292	88.25
298.523	85.25
298.753	105.25
298.984	77.25
299.214	94.25
299.445	95.25
299.675	112.25
299.905	100.25
300.136	93.25
300.366	82.25
300.597	85.25
300.827	75.25
301.057	100.25
301.288	90.25
301.518	95.25
301.748	87.25
301.979	110.25
302.209	81.25
302.439	90.25
302.669	94.25
302.9	98.25
303.13	85.25
303.36	96.25
303.59	86.25
303.82	95.25
304.051	84.25
304.281	85.25
304.511	91.25
304.741	80.25
304.971	84.25
305.201	79.25
305.431	81.25
305.661	77.25
305.891	84.25
306.121	96.25
306.352	86.25
306.582	99.25
306.812	95.25
307.042	95.25
307.272	108.25
307.502	116.25
307.731	111.25
307.961	88.25
308.191	88.25
308.421	99.25
308.651	100.25
308.881	98.25
309.111	83.25
309.341	87.25
309.571	90.25
309.8	103.25
310.03	84.25
310.26	93.25
310.49	77.25
310.72	94.25
310.949	91.25
311.179	94.25
311.409	85.25
311.639	103.25
311.868	80.25
312.098	102.25
312.328	87.25
312.557	89.25
312.787	88.25
313.017	97.25
313.246	92.25
313.476	89.25
313.706	83.25
313.935	103.25
314.165	87.25
314.394	103.25
314.624	80.25
314.853	94.25
315.083	95.25
315.312	84.25
315.542	80.25
315.771	90.25
316.001	96.25
316.23	92.25
316.46	90.25
316.689	82.25
316.919	88.25
317.148	87.25
317.377	105.25
317.607	90.25
317.836	91.25
318.065	103.25
318.295	91.25
318.524	83.25
318.753	86.25
318.983	94.25
319.212	99.25
319.441	99.25
319.67	99.25
319.9	100.25
320.129	102.25
320.358	95.25
320.587	99.25
320.816	72.25
321.046	88.25
321.275	99.25
321.504	92.25
321.733	95.25
321.962	95.25
322.191	97.25
322.42	98.25
322.649	98.25
322.878	110.25
323.108	112.25
323.337	112.25
323.566	116.25
323.795	129.25
324.024	163.25
324.253	306.25
324.482	626.25
324.71	1279.25
324.939	1720.25
325.168	655.25
325.397	214.25
325.626	142.25
325.855	117.25
326.084	115.25
326.313	116.25
326.542	139.25
326.77	195.25
326.999	375.25
327.228	726.25
327.457	1305.25
327.686	1083.25
327.914	337.25
328.143	228.25
328.372	231.25
328.6	156.25
328.829	131.25
329.058	117.25
329.287	121.25
329.515	113.25
329.744	127.25
329.972	177.25
330.201	286.25
330.43	378.25
330.658	209.25
330.887	153.25
331.115	123.25
331.344	99.25
331.572	101.25
331.801	107.25
332.03	94.25
332.258	87.25
332.486	96.25
332.715	101.25
332.943	88.25
333.172	98.25
333.4	103.25
333.629	128.25
333.857	128.25
334.085	180.25
334.314	264.25
334.542	487.25
334.771	459.25
334.999	167.25
335.227	120.25
335.455	118.25
335.684	105.25
335.912	97.25
336.14	96.25
336.369	95.25
336.597	97.25
336.825	106.25
337.053	87.25
337.281	96.25
337.51	89.25
337.738	79.25
337.966	101.25
338.194	96.25
338.422	96.25
338.65	100.25
338.878	102.25
339.106	81.25
339.334	88.25
339.562	92.25
339.79	96.25
340.018	83.25
340.246	100.25
340.474	94.25
340.702	84.25
340.93	79.25
341.158	92.25
341.386	102.25
341.614	89.25
341.842	97.25
342.07	86.25
342.298	89.25
342.526	94.25
342.754	103.25
342.981	81.25
343.209	91.25
343.437	94.25
343.665	80.25
343.893	88.25
344.12	94.25
344.348	98.25
344.576	76.25
344.804	87.25
345.031	92.25
345.259	83.25
345.487	85.25
345.714	99.25
345.942	105.25
346.17	100.25
346.397	86.25
346.625	87.25
346.853	95.25
347.08	85.25
347.308	87.25
347.535	85.25
347.763	104.25
347.99	93.25
348.218	100.25
348.445	108.25
348.673	95.25
348.9	92.25
349.128	99.25
349.355	73.25
349.583	90.25
349.81	95.25
350.037	80.25
350.265	97.25
350.492	83.25
350.72	83.25
350.947	95.25
351.174	105.25
351.402	103.25
351.629	95.25
351.856	96.25
352.083	112.25
352.311	94.25
352.538	92.25
352.765	99.25
352.992	119.25
353.22	104.25
353.447	105.25
353.674	100.25
353.901	110.25
354.128	102.25
354.355	88.25
354.583	106.25
354.81	101.25
355.037	95.25
355.264	100.25
355.491	83.25
355.718	96.25
355.945	101.25
356.172	89.25
356.399	91.25
356.626	98.25
356.853	105.25
357.08	91.25
357.307	70.25
357.534	90.25
357.761	97.25
357.988	101.25
358.215	94.25
358.441	102.25
358.668	84.25
358.895	93.25
359.122	86.25
359.349	67.25
359.576	92.25
359.802	98.25
360.029	107.25
360.256	105.25
360.483	92.25
360.709	98.25
360.936	93.25
361.163	101.25
361.39	83.25
361.616	94.25
361.843	80.25
362.07	93.25
362.296	83.25
362.523	91.25
362.749	89.25
362.976	95.25
363.203	89.25
363.429	91.25
363.656	95.25
363.882	84.25
364.109	74.25
364.335	95.25
364.562	75.25
364.788	88.25
365.015	89.25
365.241	87.25
365.468	104.25
365.694	95.25
365.92	66.25
366.147	99.25
366.373	88.25
366.599	100.25
366.826	83.25
367.052	80.25
367.278	75.25
367.505	79.25
367.731	100.25
367.957	107.25
368.184	87.25
368.41	105.25
368.636	101.25
368.862	103.25
369.089	105.25
369.315	85.25
369.541	94.25
369.767	86.25
369.993	87.25
370.219	84.25
370.445	98.25
370.672	92.25
370.898	92.25
371.124	92.25
371.35	76.25
371.576	90.25
371.802	88.25
372.028	73.25
372.254	70.25
372.48	87.25
372.706	88.25
372.932	92.25
373.158	81.25
373.384	107.25
373.61	85.25
373.835	76.25
374.061	81.25
374.287	100.25
374.513	90.25
374.739	96.25
374.965	84.25
375.191	83.25
375.416	96.25
375.642	88.25
375.868	103.25
376.094	105.25
376.319	81.25
376.545	98.25
376.771	80.25
376.997	85.25
377.222	92.25
377.448	85.25
377.674	91.25
377.899	82.25
378.125	92.25
378.35	100.25
378.576	94.25
378.802	88.25
379.027	91.25
379.253	97.25
379.478	105.25
379.704	97.25
379.929	95.25
380.155	95.25
380.38	95.25
380.606	98.25
380.831	88.25
381.057	89.25
381.282	98.25
381.507	105.25
381.733	97.25
381.958	94.25
382.184	96.25
382.409	106.25
382.634	97.25
382.86	95.25
383.085	114.25
383.31	113.25
383.535	115.25
383.761	91.25
383.986	125.25
384.211	109.25
384.436	109.25
384.662	103.25
384.887	103.25
385.112	122.25
385.337	114.25
385.562	128.25
385.787	109.25
386.013	117.25
386.238	108.25
386.463	117.25
386.688	114.25
386.913	116.25
387.138	109.25
387.363	112.25
387.588	100.25
387.813	104.25
388.038	105.25
388.263	119.25
388.488	116.25
388.713	99.25
388.938	103.25
389.163	94.25
389.387	97.25
389.612	104.25
389.837	93.25
390.062	89.25
390.287	91.25
390.512	97.25
390.736	90.25
390.961	86.25
391.186	97.25
391.411	98.25
391.636	84.25
391.86	81.25
392.085	72.25
392.31	95.25
392.534	87.25
392.759	80.25
392.984	88.25
393.208	104.25
393.433	115.25
393.658	102.25
393.882	89.25
394.107	77.25
394.331	99.25
394.556	93.25
394.78	93.25
395.005	95.25
395.229	86.25
395.454	80.25
395.678	90.25
395.903	93.25
396.127	84.25
396.352	95.25
396.576	88.25
396.801	77.25
397.025	98.25
397.249	82.25
397.474	88.25
397.698	88.25
397.922	95.25
398.147	99.25
398.371	79.25
398.595	91.25
398.82	72.25
399.044	80.25
399.268	96.25
399.492	86.25
399.717	84.25
399.941	99.25
400.165	103.25
400.389	78.25
400.613	80.25
400.837	79.25
401.062	95.25
401.286	89.25
401.51	93.25
401.734	87.25
401.958	86.25
402.182	100.25
402.406	134.25
402.63	95.25
402.854	91.25
403.078	80.25
403.302	94.25
403.526	102.25
403.75	84.25
403.974	75.25
404.198	85.25
404.422	84.25
404.645	78.25
404.869	94.25
405.093	93.25
405.317	97.25
405.541	97.25
405.765	91.25
405.988	105.25
406.212	145.25
406.436	176.25
406.66	126.25
406.883	80.25
407.107	100.25
407.331	87.25
407.555	96.25
407.778	88.25
408.002	92.25
408.226	93.25
408.449	83.25
408.673	97.25
408.896	99.25
409.12	81.25
409.344	86.25
409.567	81.25
409.791	96.25
410.014	96.25
410.238	107.25
410.461	96.25
410.685	99.25
410.908	87.25
411.132	101.25
411.355	100.25
411.578	97.25
411.802	87.25
412.025	93.25
412.249	86.25
412.472	99.25
412.695	115.25
412.919	100.25
413.142	89.25
413.365	101.25
413.589	97.25
413.812	78.25
414.035	93.25
414.258	92.25
414.482	83.25
414.705	90.25
414.928	96.25
415.151	83.25
415.374	81.25
415.597	75.25
415.821	95.25
416.044	92.25
416.267	89.25
416.49	84.25
416.713	83.25
416.936	100.25
417.159	93.25
417.382	85.25
417.605	89.25
417.828	98.25
418.051	95.25
418.274	73.25
418.497	89.25
418.72	73.25
418.943	95.25
419.166	86.25
419.389	83.25
419.611	83.25
419.834	88.25
420.057	93.25
420.28	89.25
420.503	97.25
420.726	86.25
420.948	94.25
421.171	108.25
421.394	99.25
421.617	73.25
421.839	84.25
422.062	98.25
422.285	88.25
422.507	97.25
422.73	96.25
422.953	98.25
423.175	88.25
423.398	92.25
423.621	89.25
423.843	77.25
424.066	98.25
424.288	95.25
424.511	94.25
424.733	86.25
424.956	99.25
425.178	91.25
425.401	87.25
425.623	99.25
425.846	86.25
426.068	87.25
426.291	98.25
426.513	102.25
426.735	95.25
426.958	87.25
427.18	106.25
427.402	135.25
427.625	159.25
427.847	148.25
428.069	134.25
428.292	94.25
428.514	84.25
428.736	88.25
428.958	81.25
429.181	87.25
429.403	81.25
429.625	79.25
429.847	96.25
430.069	88.25
430.292	88.25
430.514	92.25
430.736	89.25
430.958	96.25
431.18	69.25
431.402	88.25
431.624	78.25
431.846	89.25
432.068	96.25
432.29	100.25
432.512	83.25
432.734	79.25
432.956	84.25
433.178	93.25
433.4	96.25
433.622	99.25
433.844	91.25
434.066	80.25
434.287	88.25
434.509	87.25
434.731	92.25
434.953	89.25
435.175	79.25
435.397	76.25
435.618	99.25
435.84	83.25
436.062	115.25
436.284	102.25
436.505	93.25
436.727	111.25
436.949	101.25
437.17	83.25
437.392	80.25
437.614	95.25
437.835	84.25
438.057	111.25
438.278	112.25
438.5	112.25
438.721	91.25
438.943	97.25
439.165	86.25
439.386	82.25
439.608	76.25
439.829	93.25
440.05	117.25
440.272	119.25
440.493	107.25
440.715	94.25
440.936	77.25
441.158	93.25
441.379	83.25
441.6	85.25
441.822	92.25
442.043	86.25
442.264	87.25
442.486	90.25
442.707	86.25
442.928	101.25
443.149	120.25
443.371	114.25
443.592	103.25
443.813	95.25
444.034	97.25
444.255	84.25
444.476	79.25
444.698	84.25
444.919	88.25
445.14	139.25
445.361	117.25
445.582	96.25
445.803	130.25
446.024	122.25
446.245	118.25
446.466	97.25
446.687	93.25
446.908	74.25
447.129	80.25
447.35	67.25
447.571	95.25
447.792	85.25
448.013	100.25
448.234	85.25
448.455	94.25
448.675	113.25
448.896	118.25
449.117	97.25
449.338	113.25
449.559	131.25
449.779	118.25
450	100.25
450.221	102.25
450.442	90.25
450.662	92.25
450.883	93.25
451.104	102.25
451.324	94.25
451.545	83.25
451.766	82.25
451.986	88.25
452.207	101.25
452.428	80.25
452.648	92.25
452.869	99.25
453.089	107.25
453.31	97.25
453.53	103.25
453.751	87.25
453.971	94.25
454.192	104.25
454.412	96.25
454.633	81.25
454.853	88.25
455.073	76.25
455.294	85.25
455.514	85.25
455.734	91.25
455.955	85.25
456.175	80.25
456.395	93.25
456.616	79.25
456.836	86.25
457.056	84.25
457.276	83.25
457.497	80.25
457.717	92.25
457.937	82.25
458.157	86.25
458.377	87.25
458.598	110.25
458.818	131.25
459.038	128.25
459.258	99.25
459.478	93.25
459.698	76.25
459.918	85.25
460.138	89.25
460.358	86.25
460.578	90.25
460.798	85.25
461.018	91.25
461.238	94.25
461.458	90.25
461.678	73.25
461.898	88.25
462.118	86.25
462.338	86.25
462.558	89.25
462.777	91.25
462.997	79.25
463.217	84.25
463.437	94.25
463.657	89.25
463.876	99.25
464.096	95.25
464.316	92.25
464.536	84.25
464.755	87.25
464.975	104.25
465.195	142.25
465.414	120.25
465.634	83.25
465.854	98.25
466.073	77.25
466.293	77.25
466.512	77.25
466.732	85.25
466.951	82.25
467.171	89.25
467.391	94.25
467.61	106.25
467.829	127.25
468.049	204.25
468.268	263.25
468.488	128.25
468.707	84.25
468.927	81.25
469.146	93.25
469.365	91.25
469.585	75.25
469.804	107.25
470.023	91.25
470.243	104.25
470.462	80.25
470.681	100.25
470.901	97.25
471.12	77.25
471.339	100.25
471.558	97.25
471.777	109.25
471.997	138.25
472.216	339.25
472.435	654.25
472.654	232.25
472.873	111.25
473.092	90.25
473.311	77.25
473.53	85.25
473.749	80.25
473.968	101.25
474.187	99.25
474.406	101.25
474.625	92.25
474.844	84.25
475.063	92.25
475.282	86.25
475.501	89.25
475.72	103.25
475.939	92.25
476.158	104.25
476.377	83.25
476.596	91.25
476.814	79.25
477.033	86.25
477.252	92.25
477.471	75.25
477.69	95.25
477.908	78.25
478.127	90.25
478.346	91.25
478.564	100.25
478.783	101.25
479.002	93.25
479.22	96.25
479.439	107.25
479.658	104.25
479.876	101.25
480.095	95.25
480.313	104.25
480.532	112.25
480.751	124.25
480.969	329.25
481.188	1190.25
481.406	685.25
481.624	157.25
481.843	99.25
482.061	86.25
482.28	96.25
482.498	92.25
482.717	88.25
482.935	88.25
483.153	89.25
483.372	90.25
483.59	83.25
483.808	89.25
484.027	87.25
484.245	103.25
484.463	73.25
484.681	98.25
484.9	85.25
485.118	99.25
485.336	79.25
485.554	105.25
485.772	104.25
485.99	101.25
486.209	104.25
486.427	99.25
486.645	110.25
486.863	108.25
487.081	102.25
487.299	99.25
487.517	91.25
487.735	103.25
487.953	97.25
488.171	96.25
488.389	88.25
488.607	91.25
488.825	86.25
489.043	89.25
489.261	79.25
489.479	77.25
489.696	84.25
489.914	82.25
490.132	91.25
490.35	94.25
490.568	92.25
490.786	80.25
491.003	92.25
491.221	96.25
491.439	77.25
491.657	95.25
491.874	91.25
492.092	93.25
492.31	101.25
492.527	92.25
492.745	87.25
492.963	88.25
493.18	83.25
493.398	85.25
493.615	99.25
493.833	84.25
494.05	89.25
494.268	107.25
494.485	91.25
494.703	71.25
494.92	80.25
495.138	70.25
495.355	103.25
495.573	98.25
495.79	103.25
496.008	106.25
496.225	89.25
496.442	90.25
496.66	94.25
496.877	96.25
497.094	81.25
497.312	95.25
497.529	82.25
497.746	84.25
497.963	87.25
498.181	95.25
498.398	106.25
498.615	105.25
498.832	103.25
499.049	95.25
499.267	92.25
499.484	87.25
499.701	88.25
499.918	75.25
500.135	104.25
500.352	79.25
500.569	88.25
500.786	82.25
501.003	91.25
501.22	94.25
501.437	93.25
501.654	102.25
501.871	94.25
502.088	76.25
502.305	90.25
502.522	105.25
502.739	72.25
502.956	86.25
503.172	87.25
503.389	97.25
503.606	116.25
503.823	103.25
504.04	104.25
504.256	96.25
504.473	79.25
504.69	80.25
504.907	93.25
505.123	83.25
505.34	95.25
505.557	89.25
505.773	87.25
505.99	93.25
506.207	85.25
506.423	94.25
506.64	94.25
506.856	83.25
507.073	82.25
507.289	102.25
507.506	99.25
507.722	105.25
507.939	96.25
508.155	84.25
508.372	78.25
508.588	98.25
508.805	105.25
509.021	75.25
509.238	95.25
509.454	81.25
509.67	109.25
509.887	124.25
510.103	118.25
510.319	180.25
510.536	544.25
510.752	1658.25
510.968	502.25
511.184	121.25
511.401	99.25
511.617	93.25
511.833	87.25
512.049	99.25
512.265	94.25
512.481	88.25
512.698	84.25
512.914	93.25
513.13	87.25
513.346	87.25
513.562	98.25
513.778	100.25
513.994	96.25
514.21	89.25
514.426	119.25
514.642	116.25
514.858	111.25
515.074	136.25
515.29	352.25
515.506	1051.25
515.721	416.25
