Data from Circ_1989_H10_HRD10591_00046.txt Node
Date: Wed Jan 03 12:01:30 EST 2024
User: Yrep
Spectrometer: HR+D1059
Trigger mode: 1
Integration Time (sec): 1.000000E-1
Scans to average: 1
Electric dark correction enabled: true
Nonlinearity correction enabled: false
Boxcar width: 0
XAxis mode: Wavelengths
Number of Pixels in Spectrum: 2048
>>>>>Begin Spectral Data<<<<<
223.165	-14.5
223.4	-14.5
223.635	-14.5
223.869	-14.5
224.104	-20.5
224.338	-33.5
224.573	-18.5
224.808	-9.5
225.042	-7.5
225.277	0.5
225.511	-10.5
225.746	7.5
225.98	8.5
226.215	15.5
226.449	24.5
226.683	26.5
226.918	21.5
227.152	24.5
227.387	37.5
227.621	28.5
227.856	51.5
228.09	47.5
228.324	55.5
228.559	58.5
228.793	63.5
229.027	67.5
229.262	69.5
229.496	72.5
229.73	80.5
229.964	66.5
230.199	63.5
230.433	84.5
230.667	79.5
230.901	84.5
231.136	83.5
231.37	80.5
231.604	81.5
231.838	69.5
232.072	87.5
232.306	69.5
232.541	89.5
232.775	72.5
233.009	91.5
233.243	86.5
233.477	85.5
233.711	73.5
233.945	82.5
234.179	85.5
234.413	76.5
234.647	82.5
234.881	89.5
235.115	93.5
235.349	84.5
235.583	82.5
235.817	69.5
236.051	74.5
236.285	76.5
236.519	79.5
236.753	82.5
236.987	93.5
237.221	85.5
237.455	87.5
237.689	91.5
237.922	62.5
238.156	74.5
238.39	83.5
238.624	79.5
238.858	78.5
239.091	80.5
239.325	98.5
239.559	85.5
239.793	73.5
240.027	89.5
240.26	62.5
240.494	77.5
240.728	83.5
240.961	67.5
241.195	94.5
241.429	80.5
241.662	80.5
241.896	79.5
242.13	81.5
242.363	63.5
242.597	76.5
242.83	70.5
243.064	58.5
243.298	82.5
243.531	91.5
243.765	78.5
243.998	78.5
244.232	79.5
244.465	82.5
244.699	85.5
244.932	86.5
245.166	87.5
245.399	78.5
245.633	86.5
245.866	81.5
246.099	73.5
246.333	87.5
246.566	81.5
246.8	83.5
247.033	76.5
247.266	80.5
247.5	85.5
247.733	82.5
247.966	87.5
248.2	72.5
248.433	77.5
248.666	79.5
248.899	82.5
249.133	78.5
249.366	94.5
249.599	96.5
249.832	86.5
250.066	75.5
250.299	74.5
250.532	83.5
250.765	86.5
250.998	81.5
251.231	77.5
251.465	72.5
251.698	82.5
251.931	79.5
252.164	98.5
252.397	71.5
252.63	78.5
252.863	72.5
253.096	77.5
253.329	77.5
253.562	70.5
253.795	77.5
254.028	89.5
254.261	79.5
254.494	60.5
254.727	82.5
254.96	74.5
255.193	80.5
255.426	90.5
255.659	81.5
255.892	78.5
256.124	69.5
256.357	85.5
256.59	83.5
256.823	96.5
257.056	84.5
257.289	90.5
257.521	97.5
257.754	87.5
257.987	85.5
258.22	96.5
258.452	82.5
258.685	83.5
258.918	84.5
259.151	94.5
259.383	84.5
259.616	82.5
259.849	82.5
260.081	73.5
260.314	77.5
260.547	87.5
260.779	82.5
261.012	91.5
261.244	93.5
261.477	88.5
261.71	106.5
261.942	98.5
262.175	91.5
262.407	92.5
262.64	93.5
262.872	75.5
263.105	93.5
263.337	87.5
263.57	93.5
263.802	77.5
264.035	79.5
264.267	88.5
264.499	91.5
264.732	98.5
264.964	83.5
265.197	74.5
265.429	101.5
265.661	85.5
265.894	93.5
266.126	91.5
266.358	73.5
266.591	71.5
266.823	89.5
267.055	68.5
267.287	83.5
267.52	83.5
267.752	77.5
267.984	82.5
268.216	85.5
268.448	97.5
268.681	95.5
268.913	87.5
269.145	80.5
269.377	82.5
269.609	73.5
269.841	81.5
270.073	79.5
270.306	75.5
270.538	86.5
270.77	89.5
271.002	78.5
271.234	97.5
271.466	96.5
271.698	78.5
271.93	82.5
272.162	90.5
272.394	86.5
272.626	88.5
272.858	74.5
273.09	84.5
273.322	72.5
273.553	91.5
273.785	83.5
274.017	81.5
274.249	97.5
274.481	78.5
274.713	96.5
274.945	95.5
275.176	85.5
275.408	91.5
275.64	92.5
275.872	99.5
276.104	97.5
276.335	70.5
276.567	101.5
276.799	96.5
277.031	98.5
277.262	102.5
277.494	90.5
277.726	94.5
277.957	83.5
278.189	95.5
278.421	87.5
278.652	90.5
278.884	79.5
279.115	82.5
279.347	91.5
279.579	73.5
279.81	90.5
280.042	132.5
280.273	122.5
280.505	113.5
280.736	85.5
280.968	77.5
281.199	89.5
281.431	97.5
281.662	93.5
281.894	96.5
282.125	113.5
282.356	107.5
282.588	116.5
282.819	112.5
283.051	81.5
283.282	88.5
283.513	99.5
283.745	101.5
283.976	93.5
284.207	84.5
284.439	89.5
284.67	74.5
284.901	100.5
285.132	93.5
285.364	71.5
285.595	87.5
285.826	101.5
286.057	81.5
286.288	73.5
286.52	89.5
286.751	107.5
286.982	79.5
287.213	90.5
287.444	105.5
287.675	93.5
287.906	83.5
288.138	100.5
288.369	99.5
288.6	110.5
288.831	105.5
289.062	83.5
289.293	84.5
289.524	87.5
289.755	89.5
289.986	88.5
290.217	94.5
290.448	80.5
290.679	90.5
290.91	93.5
291.141	90.5
291.371	103.5
291.602	91.5
291.833	96.5
292.064	96.5
292.295	89.5
292.526	81.5
292.757	96.5
292.987	83.5
293.218	82.5
293.449	81.5
293.68	89.5
293.91	94.5
294.141	85.5
294.372	82.5
294.603	94.5
294.833	91.5
295.064	88.5
295.295	92.5
295.525	104.5
295.756	83.5
295.987	122.5
296.217	119.5
296.448	129.5
296.679	93.5
296.909	95.5
297.14	94.5
297.37	91.5
297.601	87.5
297.831	87.5
298.062	97.5
298.292	91.5
298.523	101.5
298.753	97.5
298.984	86.5
299.214	93.5
299.445	96.5
299.675	105.5
299.905	102.5
300.136	103.5
300.366	78.5
300.597	81.5
300.827	87.5
301.057	97.5
301.288	103.5
301.518	97.5
301.748	93.5
301.979	101.5
302.209	89.5
302.439	86.5
302.669	104.5
302.9	77.5
303.13	77.5
303.36	104.5
303.59	97.5
303.82	104.5
304.051	89.5
304.281	100.5
304.511	98.5
304.741	88.5
304.971	97.5
305.201	71.5
305.431	95.5
305.661	95.5
305.891	96.5
306.121	99.5
306.352	95.5
306.582	106.5
306.812	115.5
307.042	100.5
307.272	111.5
307.502	114.5
307.731	128.5
307.961	90.5
308.191	78.5
308.421	98.5
308.651	90.5
308.881	78.5
309.111	89.5
309.341	101.5
309.571	94.5
309.8	96.5
310.03	98.5
310.26	115.5
310.49	92.5
310.72	95.5
310.949	105.5
311.179	81.5
311.409	91.5
311.639	98.5
311.868	85.5
312.098	88.5
312.328	113.5
312.557	117.5
312.787	110.5
313.017	96.5
313.246	88.5
313.476	87.5
313.706	94.5
313.935	85.5
314.165	89.5
314.394	109.5
314.624	101.5
314.853	89.5
315.083	99.5
315.312	90.5
315.542	87.5
315.771	101.5
316.001	101.5
316.23	91.5
316.46	85.5
316.689	108.5
316.919	94.5
317.148	87.5
317.377	95.5
317.607	93.5
317.836	90.5
318.065	88.5
318.295	90.5
318.524	74.5
318.753	103.5
318.983	102.5
319.212	86.5
319.441	116.5
319.67	96.5
319.9	92.5
320.129	100.5
320.358	103.5
320.587	106.5
320.816	87.5
321.046	93.5
321.275	83.5
321.504	98.5
321.733	88.5
321.962	100.5
322.191	100.5
322.42	101.5
322.649	98.5
322.878	116.5
323.108	103.5
323.337	90.5
323.566	113.5
323.795	136.5
324.024	181.5
324.253	333.5
324.482	667.5
324.71	1362.5
324.939	1747.5
325.168	651.5
325.397	219.5
325.626	141.5
325.855	107.5
326.084	128.5
326.313	141.5
326.542	133.5
326.77	202.5
326.999	371.5
327.228	754.5
327.457	1357.5
327.686	1105.5
327.914	353.5
328.143	268.5
328.372	266.5
328.6	168.5
328.829	117.5
329.058	114.5
329.287	117.5
329.515	129.5
329.744	157.5
329.972	234.5
330.201	358.5
330.43	477.5
330.658	242.5
330.887	150.5
331.115	120.5
331.344	90.5
331.572	111.5
331.801	97.5
332.03	95.5
332.258	101.5
332.486	91.5
332.715	86.5
332.943	99.5
333.172	104.5
333.4	92.5
333.629	115.5
333.857	146.5
334.085	211.5
334.314	337.5
334.542	609.5
334.771	578.5
334.999	208.5
335.227	115.5
335.455	105.5
335.684	116.5
335.912	115.5
336.14	101.5
336.369	91.5
336.597	100.5
336.825	107.5
337.053	85.5
337.281	84.5
337.51	102.5
337.738	94.5
337.966	90.5
338.194	98.5
338.422	87.5
338.65	95.5
338.878	107.5
339.106	81.5
339.334	90.5
339.562	90.5
339.79	85.5
340.018	89.5
340.246	88.5
340.474	94.5
340.702	94.5
340.93	85.5
341.158	88.5
341.386	90.5
341.614	102.5
341.842	94.5
342.07	80.5
342.298	89.5
342.526	96.5
342.754	102.5
342.981	93.5
343.209	112.5
343.437	91.5
343.665	82.5
343.893	89.5
344.12	93.5
344.348	116.5
344.576	87.5
344.804	78.5
345.031	88.5
345.259	108.5
345.487	89.5
345.714	104.5
345.942	82.5
346.17	92.5
346.397	89.5
346.625	96.5
346.853	90.5
347.08	103.5
347.308	101.5
347.535	104.5
347.763	101.5
347.99	102.5
348.218	90.5
348.445	92.5
348.673	106.5
348.9	91.5
349.128	97.5
349.355	104.5
349.583	92.5
349.81	96.5
350.037	93.5
350.265	98.5
350.492	109.5
350.72	98.5
350.947	101.5
351.174	99.5
351.402	109.5
351.629	97.5
351.856	90.5
352.083	89.5
352.311	102.5
352.538	100.5
352.765	102.5
352.992	106.5
353.22	103.5
353.447	94.5
353.674	93.5
353.901	101.5
354.128	92.5
354.355	106.5
354.583	101.5
354.81	102.5
355.037	106.5
355.264	73.5
355.491	104.5
355.718	95.5
355.945	103.5
356.172	86.5
356.399	105.5
356.626	96.5
356.853	97.5
357.08	92.5
357.307	90.5
357.534	93.5
357.761	87.5
357.988	85.5
358.215	93.5
358.441	103.5
358.668	99.5
358.895	91.5
359.122	96.5
359.349	86.5
359.576	98.5
359.802	106.5
360.029	107.5
360.256	105.5
360.483	92.5
360.709	101.5
360.936	102.5
361.163	106.5
361.39	107.5
361.616	102.5
361.843	87.5
362.07	89.5
362.296	98.5
362.523	101.5
362.749	87.5
362.976	87.5
363.203	98.5
363.429	89.5
363.656	87.5
363.882	89.5
364.109	91.5
364.335	94.5
364.562	88.5
364.788	90.5
365.015	85.5
365.241	96.5
365.468	105.5
365.694	117.5
365.92	98.5
366.147	94.5
366.373	89.5
366.599	91.5
366.826	89.5
367.052	95.5
367.278	93.5
367.505	93.5
367.731	86.5
367.957	102.5
368.184	99.5
368.41	102.5
368.636	116.5
368.862	121.5
369.089	102.5
369.315	94.5
369.541	74.5
369.767	103.5
369.993	92.5
370.219	86.5
370.445	95.5
370.672	99.5
370.898	90.5
371.124	102.5
371.35	98.5
371.576	94.5
371.802	95.5
372.028	108.5
372.254	93.5
372.48	96.5
372.706	96.5
372.932	89.5
373.158	79.5
373.384	85.5
373.61	86.5
373.835	87.5
374.061	85.5
374.287	81.5
374.513	91.5
374.739	90.5
374.965	106.5
375.191	106.5
375.416	88.5
375.642	98.5
375.868	105.5
376.094	101.5
376.319	88.5
376.545	100.5
376.771	95.5
376.997	95.5
377.222	91.5
377.448	98.5
377.674	81.5
377.899	99.5
378.125	94.5
378.35	102.5
378.576	94.5
378.802	107.5
379.027	102.5
379.253	84.5
379.478	98.5
379.704	96.5
379.929	93.5
380.155	93.5
380.38	95.5
380.606	94.5
380.831	93.5
381.057	95.5
381.282	96.5
381.507	90.5
381.733	91.5
381.958	97.5
382.184	114.5
382.409	100.5
382.634	105.5
382.86	100.5
383.085	104.5
383.31	101.5
383.535	104.5
383.761	104.5
383.986	111.5
384.211	95.5
384.436	103.5
384.662	104.5
384.887	108.5
385.112	102.5
385.337	93.5
385.562	100.5
385.787	94.5
386.013	94.5
386.238	94.5
386.463	110.5
386.688	113.5
386.913	114.5
387.138	90.5
387.363	93.5
387.588	106.5
387.813	96.5
388.038	122.5
388.263	107.5
388.488	111.5
388.713	99.5
388.938	106.5
389.163	98.5
389.387	98.5
389.612	100.5
389.837	74.5
390.062	95.5
390.287	82.5
390.512	79.5
390.736	86.5
390.961	78.5
391.186	98.5
391.411	100.5
391.636	92.5
391.86	87.5
392.085	82.5
392.31	93.5
392.534	89.5
392.759	88.5
392.984	94.5
393.208	86.5
393.433	105.5
393.658	101.5
393.882	96.5
394.107	87.5
394.331	90.5
394.556	96.5
394.78	71.5
395.005	92.5
395.229	88.5
395.454	95.5
395.678	86.5
395.903	70.5
396.127	92.5
396.352	83.5
396.576	98.5
396.801	98.5
397.025	96.5
397.249	93.5
397.474	81.5
397.698	88.5
397.922	83.5
398.147	86.5
398.371	98.5
398.595	105.5
398.82	80.5
399.044	82.5
399.268	100.5
399.492	93.5
399.717	89.5
399.941	97.5
400.165	87.5
400.389	89.5
400.613	105.5
400.837	84.5
401.062	71.5
401.286	93.5
401.51	86.5
401.734	97.5
401.958	92.5
402.182	108.5
402.406	144.5
402.63	108.5
402.854	95.5
403.078	82.5
403.302	73.5
403.526	97.5
403.75	99.5
403.974	87.5
404.198	85.5
404.422	102.5
404.645	81.5
404.869	84.5
405.093	81.5
405.317	124.5
405.541	92.5
405.765	89.5
405.988	105.5
406.212	166.5
406.436	189.5
406.66	131.5
406.883	90.5
407.107	86.5
407.331	93.5
407.555	103.5
407.778	107.5
408.002	89.5
408.226	70.5
408.449	84.5
408.673	81.5
408.896	94.5
409.12	93.5
409.344	83.5
409.567	88.5
409.791	86.5
410.014	102.5
410.238	90.5
410.461	91.5
410.685	106.5
410.908	86.5
411.132	103.5
411.355	93.5
411.578	94.5
411.802	100.5
412.025	97.5
412.249	94.5
412.472	85.5
412.695	104.5
412.919	88.5
413.142	85.5
413.365	82.5
413.589	82.5
413.812	94.5
414.035	86.5
414.258	111.5
414.482	82.5
414.705	87.5
414.928	87.5
415.151	87.5
415.374	98.5
415.597	95.5
415.821	94.5
416.044	88.5
416.267	94.5
416.49	92.5
416.713	74.5
416.936	89.5
417.159	91.5
417.382	89.5
417.605	106.5
417.828	89.5
418.051	83.5
418.274	93.5
418.497	83.5
418.72	86.5
418.943	93.5
419.166	84.5
419.389	103.5
419.611	110.5
419.834	91.5
420.057	93.5
420.28	101.5
420.503	89.5
420.726	93.5
420.948	87.5
421.171	89.5
421.394	84.5
421.617	76.5
421.839	82.5
422.062	82.5
422.285	85.5
422.507	101.5
422.73	76.5
422.953	82.5
423.175	85.5
423.398	94.5
423.621	101.5
423.843	89.5
424.066	97.5
424.288	97.5
424.511	98.5
424.733	103.5
424.956	79.5
425.178	94.5
425.401	79.5
425.623	87.5
425.846	85.5
426.068	89.5
426.291	74.5
426.513	101.5
426.735	99.5
426.958	93.5
427.18	93.5
427.402	114.5
427.625	153.5
427.847	151.5
428.069	149.5
428.292	113.5
428.514	83.5
428.736	80.5
428.958	89.5
429.181	89.5
429.403	89.5
429.625	90.5
429.847	82.5
430.069	100.5
430.292	89.5
430.514	79.5
430.736	89.5
430.958	97.5
431.18	74.5
431.402	86.5
431.624	105.5
431.846	89.5
432.068	80.5
432.29	97.5
432.512	92.5
432.734	82.5
432.956	81.5
433.178	93.5
433.4	96.5
433.622	85.5
433.844	96.5
434.066	92.5
434.287	87.5
434.509	91.5
434.731	85.5
434.953	90.5
435.175	90.5
435.397	89.5
435.618	102.5
435.84	98.5
436.062	102.5
436.284	94.5
436.505	95.5
436.727	100.5
436.949	108.5
437.17	97.5
437.392	94.5
437.614	101.5
437.835	104.5
438.057	99.5
438.278	98.5
438.5	100.5
438.721	115.5
438.943	95.5
439.165	85.5
439.386	91.5
439.608	102.5
439.829	103.5
440.05	107.5
440.272	120.5
440.493	96.5
440.715	93.5
440.936	90.5
441.158	82.5
441.379	93.5
441.6	98.5
441.822	78.5
442.043	94.5
442.264	90.5
442.486	86.5
442.707	103.5
442.928	89.5
443.149	108.5
443.371	114.5
443.592	100.5
443.813	102.5
444.034	99.5
444.255	75.5
444.476	96.5
444.698	97.5
444.919	83.5
445.14	117.5
445.361	101.5
445.582	110.5
445.803	129.5
446.024	118.5
446.245	115.5
446.466	97.5
446.687	92.5
446.908	85.5
447.129	84.5
447.35	82.5
447.571	98.5
447.792	85.5
448.013	101.5
448.234	98.5
448.455	98.5
448.675	90.5
448.896	94.5
449.117	103.5
449.338	92.5
449.559	111.5
449.779	113.5
450	93.5
450.221	87.5
450.442	93.5
450.662	98.5
450.883	99.5
451.104	100.5
451.324	85.5
451.545	82.5
451.766	84.5
451.986	93.5
452.207	100.5
452.428	77.5
452.648	104.5
452.869	99.5
453.089	124.5
453.31	106.5
453.53	96.5
453.751	83.5
453.971	98.5
454.192	96.5
454.412	93.5
454.633	79.5
454.853	77.5
455.073	79.5
455.294	88.5
455.514	94.5
455.734	81.5
455.955	85.5
456.175	72.5
456.395	79.5
456.616	89.5
456.836	91.5
457.056	79.5
457.276	86.5
457.497	81.5
457.717	92.5
457.937	100.5
458.157	89.5
458.377	83.5
458.598	107.5
458.818	114.5
459.038	144.5
459.258	114.5
459.478	91.5
459.698	74.5
459.918	84.5
460.138	90.5
460.358	86.5
460.578	79.5
460.798	89.5
461.018	96.5
461.238	78.5
461.458	94.5
461.678	74.5
461.898	94.5
462.118	85.5
462.338	90.5
462.558	85.5
462.777	81.5
462.997	86.5
463.217	96.5
463.437	85.5
463.657	85.5
463.876	87.5
464.096	84.5
464.316	87.5
464.536	78.5
464.755	99.5
464.975	94.5
465.195	121.5
465.414	140.5
465.634	100.5
465.854	77.5
466.073	98.5
466.293	95.5
466.512	78.5
466.732	87.5
466.951	93.5
467.171	101.5
467.391	72.5
467.61	111.5
467.829	107.5
468.049	254.5
468.268	312.5
468.488	132.5
468.707	93.5
468.927	86.5
469.146	93.5
469.365	94.5
469.585	95.5
469.804	93.5
470.023	102.5
470.243	89.5
470.462	113.5
470.681	101.5
470.901	98.5
471.12	85.5
471.339	106.5
471.558	100.5
471.777	113.5
471.997	157.5
472.216	439.5
472.435	877.5
472.654	248.5
472.873	98.5
473.092	80.5
473.311	94.5
473.53	77.5
473.749	94.5
473.968	93.5
474.187	83.5
474.406	108.5
474.625	88.5
474.844	102.5
475.063	75.5
475.282	86.5
475.501	79.5
475.72	96.5
475.939	79.5
476.158	79.5
476.377	92.5
476.596	86.5
476.814	88.5
477.033	89.5
477.252	89.5
477.471	88.5
477.69	81.5
477.908	94.5
478.127	87.5
478.346	88.5
478.564	78.5
478.783	97.5
479.002	102.5
479.22	95.5
479.439	106.5
479.658	107.5
479.876	104.5
480.095	103.5
480.313	104.5
480.532	114.5
480.751	173.5
480.969	439.5
481.188	1556.5
481.406	875.5
481.624	175.5
481.843	95.5
482.061	99.5
482.28	91.5
482.498	94.5
482.717	88.5
482.935	87.5
483.153	90.5
483.372	89.5
483.59	96.5
483.808	87.5
484.027	103.5
484.245	93.5
484.463	80.5
484.681	98.5
484.9	102.5
485.118	99.5
485.336	89.5
485.554	93.5
485.772	116.5
485.99	104.5
486.209	102.5
486.427	104.5
486.645	103.5
486.863	110.5
487.081	84.5
487.299	106.5
487.517	101.5
487.735	92.5
487.953	95.5
488.171	89.5
488.389	91.5
488.607	100.5
488.825	96.5
489.043	98.5
489.261	101.5
489.479	88.5
489.696	91.5
489.914	89.5
490.132	97.5
490.35	89.5
490.568	86.5
490.786	89.5
491.003	91.5
491.221	94.5
491.439	95.5
491.657	102.5
491.874	100.5
492.092	89.5
492.31	101.5
492.527	93.5
492.745	95.5
492.963	74.5
493.18	89.5
493.398	81.5
493.615	99.5
493.833	105.5
494.05	91.5
494.268	100.5
494.485	94.5
494.703	90.5
494.92	83.5
495.138	86.5
495.355	93.5
495.573	94.5
495.79	92.5
496.008	104.5
496.225	91.5
496.442	93.5
496.66	103.5
496.877	97.5
497.094	98.5
497.312	87.5
497.529	92.5
497.746	97.5
497.963	91.5
498.181	99.5
498.398	89.5
498.615	97.5
498.832	110.5
499.049	103.5
499.267	85.5
499.484	88.5
499.701	93.5
499.918	79.5
500.135	91.5
500.352	92.5
500.569	105.5
500.786	96.5
501.003	84.5
501.22	92.5
501.437	84.5
501.654	99.5
501.871	101.5
502.088	103.5
502.305	104.5
502.522	86.5
502.739	95.5
502.956	92.5
503.172	110.5
503.389	111.5
503.606	111.5
503.823	93.5
504.04	74.5
504.256	106.5
504.473	93.5
504.69	103.5
504.907	94.5
505.123	87.5
505.34	101.5
505.557	98.5
505.773	84.5
505.99	90.5
506.207	85.5
506.423	82.5
506.64	83.5
506.856	93.5
507.073	89.5
507.289	99.5
507.506	96.5
507.722	100.5
507.939	102.5
508.155	93.5
508.372	96.5
508.588	96.5
508.805	86.5
509.021	107.5
509.238	94.5
509.454	89.5
509.67	93.5
509.887	105.5
510.103	118.5
510.319	183.5
510.536	571.5
510.752	1733.5
510.968	512.5
511.184	131.5
511.401	93.5
511.617	103.5
511.833	93.5
512.049	102.5
512.265	89.5
512.481	91.5
512.698	110.5
512.914	86.5
513.13	85.5
513.346	73.5
513.562	99.5
513.778	104.5
513.994	97.5
514.21	96.5
514.426	118.5
514.642	112.5
514.858	122.5
515.074	147.5
515.29	335.5
515.506	1056.5
515.721	413.5
515.937	134.5
516.153	107.5
516.369	100.5
516.585	88.5
516.801	96.5
517.016	97.5
517.232	88.5
517.448	85.5
517.664	102.5
517.879	94.5
518.095	101.5
518.311	104.5
518.527	106.5
518.742	96.5
518.958	77.5
519.173	101.5
519.389	96.5
519.605	99.5
519.82	80.5
520.036	103.5
520.251	108.5
520.467	113.5
520.682	103.5
520.898	110.5
521.113	100.5
521.329	143.5
521.544	171.5
521.76	419.5
521.975	1726.5
522.19	1051.5
522.406	253.5
522.621	115.5
522.836	95.5
523.052	89.5
523.267	106.5
523.482	98.5
523.698	96.5
523.913	112.5
524.128	113.5
524.343	101.5
524.559	90.5
524.774	85.5
524.989	89.5
525.204	92.5
525.419	107.5
525.634	86.5
525.849	97.5
526.064	91.5
526.28	91.5
526.495	100.5
526.71	97.5
526.925	85.5
527.14	87.5
527.355	83.5
527.57	85.5
527.785	93.5
527.999	94.5
528.214	87.5
528.429	100.5
528.644	111.5
528.859	95.5
529.074	100.5
529.289	115.5
529.503	165.5
529.718	97.5
529.933	121.5
530.148	100.5
530.363	98.5
530.577	85.5
530.792	89.5
531.007	88.5
531.221	97.5
531.436	95.5
531.651	97.5
531.865	97.5
532.08	98.5
532.295	97.5
532.509	95.5
532.724	91.5
532.938	96.5
533.153	86.5
533.367	101.5
533.582	99.5
533.796	79.5
534.011	83.5
534.225	97.5
534.44	95.5
