Data from Circ_1989_H10_HRD10591_00060.txt Node
Date: Wed Jan 03 12:01:33 EST 2024
User: Yrep
Spectrometer: HR+D1059
Trigger mode: 1
Integration Time (sec): 1.000000E-1
Scans to average: 1
Electric dark correction enabled: true
Nonlinearity correction enabled: false
Boxcar width: 0
XAxis mode: Wavelengths
Number of Pixels in Spectrum: 2048
>>>>>Begin Spectral Data<<<<<
223.165	-13.12
223.4	-13.12
223.635	-13.12
223.869	-18.12
224.104	-31.12
224.338	-14.12
224.573	-13.12
224.808	-12.12
225.042	-0.12
225.277	3.88
225.511	-8.12
225.746	-8.12
225.98	-2.12
226.215	7.88
226.449	22.88
226.683	23.88
226.918	29.88
227.152	31.88
227.387	32.88
227.621	44.88
227.856	63.88
228.09	52.88
228.324	50.88
228.559	58.88
228.793	58.88
229.027	47.88
229.262	51.88
229.496	74.88
229.73	92.88
229.964	94.88
230.199	70.88
230.433	69.88
230.667	80.88
230.901	80.88
231.136	84.88
231.37	68.88
231.604	79.88
231.838	74.88
232.072	74.88
232.306	67.88
232.541	78.88
232.775	79.88
233.009	75.88
233.243	87.88
233.477	86.88
233.711	80.88
233.945	81.88
234.179	77.88
234.413	65.88
234.647	70.88
234.881	77.88
235.115	91.88
235.349	61.88
235.583	67.88
235.817	68.88
236.051	94.88
236.285	83.88
236.519	66.88
236.753	74.88
236.987	68.88
237.221	71.88
237.455	82.88
237.689	82.88
237.922	77.88
238.156	76.88
238.39	80.88
238.624	71.88
238.858	81.88
239.091	74.88
239.325	59.88
239.559	61.88
239.793	76.88
240.027	76.88
240.26	71.88
240.494	74.88
240.728	96.88
240.961	63.88
241.195	86.88
241.429	75.88
241.662	64.88
241.896	72.88
242.13	68.88
242.363	66.88
242.597	80.88
242.83	85.88
243.064	70.88
243.298	90.88
243.531	83.88
243.765	76.88
243.998	76.88
244.232	79.88
244.465	82.88
244.699	64.88
244.932	76.88
245.166	62.88
245.399	72.88
245.633	71.88
245.866	75.88
246.099	68.88
246.333	70.88
246.566	86.88
246.8	81.88
247.033	68.88
247.266	72.88
247.5	69.88
247.733	74.88
247.966	80.88
248.2	95.88
248.433	86.88
248.666	79.88
248.899	85.88
249.133	76.88
249.366	96.88
249.599	96.88
249.832	71.88
250.066	71.88
250.299	86.88
250.532	86.88
250.765	71.88
250.998	66.88
251.231	85.88
251.465	81.88
251.698	83.88
251.931	82.88
252.164	83.88
252.397	79.88
252.63	78.88
252.863	79.88
253.096	78.88
253.329	79.88
253.562	79.88
253.795	63.88
254.028	84.88
254.261	67.88
254.494	80.88
254.727	80.88
254.96	83.88
255.193	82.88
255.426	78.88
255.659	75.88
255.892	76.88
256.124	83.88
256.357	84.88
256.59	84.88
256.823	69.88
257.056	88.88
257.289	82.88
257.521	82.88
257.754	81.88
257.987	81.88
258.22	92.88
258.452	89.88
258.685	84.88
258.918	85.88
259.151	68.88
259.383	81.88
259.616	83.88
259.849	81.88
260.081	87.88
260.314	70.88
260.547	76.88
260.779	87.88
261.012	99.88
261.244	86.88
261.477	92.88
261.71	99.88
261.942	105.88
262.175	125.88
262.407	99.88
262.64	86.88
262.872	89.88
263.105	87.88
263.337	84.88
263.57	74.88
263.802	69.88
264.035	75.88
264.267	64.88
264.499	74.88
264.732	82.88
264.964	85.88
265.197	95.88
265.429	82.88
265.661	81.88
265.894	75.88
266.126	85.88
266.358	78.88
266.591	72.88
266.823	82.88
267.055	69.88
267.287	78.88
267.52	84.88
267.752	91.88
267.984	88.88
268.216	84.88
268.448	78.88
268.681	85.88
268.913	84.88
269.145	100.88
269.377	80.88
269.609	81.88
269.841	95.88
270.073	78.88
270.306	76.88
270.538	90.88
270.77	87.88
271.002	86.88
271.234	86.88
271.466	103.88
271.698	86.88
271.93	86.88
272.162	90.88
272.394	82.88
272.626	73.88
272.858	107.88
273.09	70.88
273.322	84.88
273.553	88.88
273.785	85.88
274.017	86.88
274.249	85.88
274.481	83.88
274.713	86.88
274.945	85.88
275.176	96.88
275.408	102.88
275.64	100.88
275.872	94.88
276.104	78.88
276.335	90.88
276.567	95.88
276.799	110.88
277.031	126.88
277.262	145.88
277.494	117.88
277.726	83.88
277.957	82.88
278.189	85.88
278.421	90.88
278.652	81.88
278.884	71.88
279.115	82.88
279.347	83.88
279.579	99.88
279.81	109.88
280.042	123.88
280.273	160.88
280.505	138.88
280.736	104.88
280.968	88.88
281.199	84.88
281.431	92.88
281.662	91.88
281.894	91.88
282.125	90.88
282.356	123.88
282.588	126.88
282.819	104.88
283.051	89.88
283.282	82.88
283.513	98.88
283.745	83.88
283.976	84.88
284.207	90.88
284.439	62.88
284.67	84.88
284.901	78.88
285.132	79.88
285.364	103.88
285.595	88.88
285.826	87.88
286.057	72.88
286.288	77.88
286.52	76.88
286.751	90.88
286.982	89.88
287.213	86.88
287.444	91.88
287.675	77.88
287.906	92.88
288.138	106.88
288.369	91.88
288.6	91.88
288.831	82.88
289.062	101.88
289.293	105.88
289.524	91.88
289.755	92.88
289.986	90.88
290.217	88.88
290.448	86.88
290.679	81.88
290.91	91.88
291.141	74.88
291.371	80.88
291.602	80.88
291.833	80.88
292.064	85.88
292.295	85.88
292.526	87.88
292.757	86.88
292.987	87.88
293.218	94.88
293.449	90.88
293.68	95.88
293.91	105.88
294.141	88.88
294.372	98.88
294.603	72.88
294.833	66.88
295.064	85.88
295.295	99.88
295.525	75.88
295.756	104.88
295.987	107.88
296.217	140.88
296.448	125.88
296.679	90.88
296.909	92.88
297.14	93.88
297.37	88.88
297.601	81.88
297.831	86.88
298.062	82.88
298.292	88.88
298.523	87.88
298.753	98.88
298.984	108.88
299.214	91.88
299.445	83.88
299.675	93.88
299.905	99.88
300.136	90.88
300.366	88.88
300.597	75.88
300.827	98.88
301.057	85.88
301.288	98.88
301.518	87.88
301.748	89.88
301.979	102.88
302.209	89.88
302.439	100.88
302.669	95.88
302.9	100.88
303.13	91.88
303.36	98.88
303.59	100.88
303.82	104.88
304.051	85.88
304.281	74.88
304.511	94.88
304.741	104.88
304.971	83.88
305.201	89.88
305.431	90.88
305.661	77.88
305.891	100.88
306.121	98.88
306.352	100.88
306.582	107.88
306.812	95.88
307.042	112.88
307.272	112.88
307.502	149.88
307.731	131.88
307.961	102.88
308.191	89.88
308.421	94.88
308.651	100.88
308.881	99.88
309.111	106.88
309.341	90.88
309.571	94.88
309.8	99.88
310.03	98.88
310.26	107.88
310.49	104.88
310.72	88.88
310.949	100.88
311.179	100.88
311.409	86.88
311.639	87.88
311.868	98.88
312.098	97.88
312.328	96.88
312.557	96.88
312.787	92.88
313.017	96.88
313.246	91.88
313.476	83.88
313.706	94.88
313.935	102.88
314.165	94.88
314.394	99.88
314.624	97.88
314.853	95.88
315.083	100.88
315.312	94.88
315.542	82.88
315.771	94.88
316.001	92.88
316.23	90.88
316.46	87.88
316.689	77.88
316.919	93.88
317.148	101.88
317.377	79.88
317.607	105.88
317.836	94.88
318.065	94.88
318.295	91.88
318.524	88.88
318.753	98.88
318.983	88.88
319.212	111.88
319.441	106.88
319.67	107.88
319.9	94.88
320.129	108.88
320.358	89.88
320.587	88.88
320.816	102.88
321.046	93.88
321.275	104.88
321.504	98.88
321.733	112.88
321.962	99.88
322.191	98.88
322.42	119.88
322.649	99.88
322.878	100.88
323.108	122.88
323.337	111.88
323.566	129.88
323.795	135.88
324.024	208.88
324.253	376.88
324.482	803.88
324.71	1636.88
324.939	2231.88
325.168	827.88
325.397	249.88
325.626	148.88
325.855	122.88
326.084	120.88
326.313	139.88
326.542	146.88
326.77	223.88
326.999	456.88
327.228	898.88
327.457	1692.88
327.686	1342.88
327.914	438.88
328.143	359.88
328.372	400.88
328.6	248.88
328.829	137.88
329.058	142.88
329.287	161.88
329.515	161.88
329.744	176.88
329.972	300.88
330.201	560.88
330.43	798.88
330.658	400.88
330.887	190.88
331.115	150.88
331.344	111.88
331.572	95.88
331.801	111.88
332.03	104.88
332.258	103.88
332.486	97.88
332.715	94.88
332.943	97.88
333.172	101.88
333.4	107.88
333.629	129.88
333.857	162.88
334.085	277.88
334.314	530.88
334.542	1025.88
334.771	947.88
334.999	260.88
335.227	142.88
335.455	115.88
335.684	114.88
335.912	97.88
336.14	99.88
336.369	104.88
336.597	111.88
336.825	110.88
337.053	94.88
337.281	99.88
337.51	89.88
337.738	93.88
337.966	96.88
338.194	90.88
338.422	93.88
338.65	99.88
338.878	98.88
339.106	94.88
339.334	96.88
339.562	87.88
339.79	90.88
340.018	105.88
340.246	101.88
340.474	87.88
340.702	93.88
340.93	88.88
341.158	96.88
341.386	92.88
341.614	103.88
341.842	92.88
342.07	90.88
342.298	93.88
342.526	96.88
342.754	95.88
342.981	99.88
343.209	95.88
343.437	85.88
343.665	87.88
343.893	96.88
344.12	86.88
344.348	86.88
344.576	81.88
344.804	78.88
345.031	101.88
345.259	91.88
345.487	100.88
345.714	80.88
345.942	98.88
346.17	79.88
346.397	94.88
346.625	89.88
346.853	91.88
347.08	86.88
347.308	103.88
347.535	82.88
347.763	98.88
347.99	102.88
348.218	96.88
348.445	113.88
348.673	94.88
348.9	88.88
349.128	107.88
349.355	86.88
349.583	95.88
349.81	90.88
350.037	99.88
350.265	96.88
350.492	74.88
350.72	100.88
350.947	94.88
351.174	110.88
351.402	120.88
351.629	98.88
351.856	110.88
352.083	98.88
352.311	104.88
352.538	110.88
352.765	114.88
352.992	111.88
353.22	110.88
353.447	103.88
353.674	97.88
353.901	93.88
354.128	95.88
354.355	101.88
354.583	93.88
354.81	94.88
355.037	94.88
355.264	100.88
355.491	100.88
355.718	94.88
355.945	104.88
356.172	92.88
356.399	87.88
356.626	99.88
356.853	109.88
357.08	102.88
357.307	86.88
357.534	90.88
357.761	92.88
357.988	98.88
358.215	81.88
358.441	90.88
358.668	86.88
358.895	83.88
359.122	62.88
359.349	71.88
359.576	82.88
359.802	118.88
360.029	126.88
360.256	127.88
360.483	118.88
360.709	98.88
360.936	94.88
361.163	93.88
361.39	79.88
361.616	107.88
361.843	94.88
362.07	87.88
362.296	100.88
362.523	106.88
362.749	102.88
362.976	109.88
363.203	89.88
363.429	79.88
363.656	101.88
363.882	76.88
364.109	90.88
364.335	97.88
364.562	83.88
364.788	87.88
365.015	91.88
365.241	108.88
365.468	110.88
365.694	98.88
365.92	101.88
366.147	92.88
366.373	91.88
366.599	88.88
366.826	69.88
367.052	90.88
367.278	93.88
367.505	81.88
367.731	90.88
367.957	80.88
368.184	95.88
368.41	109.88
368.636	110.88
368.862	130.88
369.089	108.88
369.315	87.88
369.541	87.88
369.767	85.88
369.993	116.88
370.219	94.88
370.445	80.88
370.672	89.88
370.898	74.88
371.124	87.88
371.35	83.88
371.576	86.88
371.802	80.88
372.028	80.88
372.254	80.88
372.48	84.88
372.706	86.88
372.932	84.88
373.158	83.88
373.384	96.88
373.61	83.88
373.835	92.88
374.061	88.88
374.287	85.88
374.513	96.88
374.739	98.88
374.965	85.88
375.191	79.88
375.416	89.88
375.642	90.88
375.868	106.88
376.094	91.88
376.319	93.88
376.545	84.88
376.771	90.88
376.997	104.88
377.222	80.88
377.448	94.88
377.674	92.88
377.899	90.88
378.125	65.88
378.35	96.88
378.576	94.88
378.802	86.88
379.027	97.88
379.253	90.88
379.478	100.88
379.704	84.88
379.929	89.88
380.155	84.88
380.38	96.88
380.606	76.88
380.831	92.88
381.057	93.88
381.282	93.88
381.507	91.88
381.733	97.88
381.958	91.88
382.184	88.88
382.409	95.88
382.634	85.88
382.86	90.88
383.085	103.88
383.31	91.88
383.535	90.88
383.761	93.88
383.986	95.88
384.211	95.88
384.436	94.88
384.662	84.88
384.887	94.88
385.112	90.88
385.337	113.88
385.562	108.88
385.787	89.88
386.013	111.88
386.238	110.88
386.463	103.88
386.688	107.88
386.913	100.88
387.138	94.88
387.363	95.88
387.588	95.88
387.813	92.88
388.038	99.88
388.263	108.88
388.488	107.88
388.713	99.88
388.938	93.88
389.163	93.88
389.387	111.88
389.612	91.88
389.837	91.88
390.062	85.88
390.287	78.88
390.512	86.88
390.736	97.88
390.961	87.88
391.186	99.88
391.411	93.88
391.636	95.88
391.86	92.88
392.085	76.88
392.31	87.88
392.534	87.88
392.759	90.88
392.984	92.88
393.208	75.88
393.433	104.88
393.658	92.88
393.882	103.88
394.107	92.88
394.331	68.88
394.556	72.88
394.78	88.88
395.005	87.88
395.229	87.88
395.454	80.88
395.678	82.88
395.903	88.88
396.127	96.88
396.352	83.88
396.576	67.88
396.801	87.88
397.025	90.88
397.249	95.88
397.474	77.88
397.698	76.88
397.922	96.88
398.147	92.88
398.371	62.88
398.595	82.88
398.82	77.88
399.044	92.88
399.268	83.88
399.492	94.88
399.717	81.88
399.941	93.88
400.165	94.88
400.389	90.88
400.613	81.88
400.837	90.88
401.062	75.88
401.286	84.88
401.51	95.88
401.734	99.88
401.958	110.88
402.182	112.88
402.406	155.88
402.63	131.88
402.854	91.88
403.078	80.88
403.302	76.88
403.526	97.88
403.75	96.88
403.974	101.88
404.198	89.88
404.422	84.88
404.645	79.88
404.869	87.88
405.093	97.88
405.317	103.88
405.541	114.88
405.765	118.88
405.988	126.88
406.212	160.88
406.436	215.88
406.66	159.88
406.883	95.88
407.107	93.88
407.331	87.88
407.555	100.88
407.778	99.88
408.002	79.88
408.226	80.88
408.449	78.88
408.673	90.88
408.896	92.88
409.12	92.88
409.344	94.88
409.567	87.88
409.791	79.88
410.014	85.88
410.238	78.88
410.461	89.88
410.685	93.88
410.908	97.88
411.132	104.88
411.355	89.88
411.578	85.88
411.802	89.88
412.025	90.88
412.249	95.88
412.472	93.88
412.695	122.88
412.919	107.88
413.142	97.88
413.365	88.88
413.589	86.88
413.812	87.88
414.035	92.88
414.258	80.88
414.482	103.88
414.705	99.88
414.928	96.88
415.151	97.88
415.374	83.88
415.597	79.88
415.821	92.88
416.044	75.88
416.267	94.88
416.49	84.88
416.713	84.88
416.936	83.88
417.159	93.88
417.382	88.88
417.605	88.88
417.828	107.88
418.051	99.88
418.274	81.88
418.497	100.88
418.72	99.88
418.943	101.88
419.166	107.88
419.389	92.88
419.611	95.88
419.834	98.88
420.057	95.88
420.28	98.88
420.503	70.88
420.726	82.88
420.948	97.88
421.171	92.88
421.394	80.88
421.617	77.88
421.839	94.88
422.062	83.88
422.285	88.88
422.507	92.88
422.73	88.88
422.953	87.88
423.175	93.88
423.398	83.88
423.621	80.88
423.843	79.88
424.066	59.88
424.288	90.88
424.511	100.88
424.733	103.88
424.956	102.88
425.178	89.88
425.401	103.88
425.623	84.88
425.846	81.88
426.068	93.88
426.291	97.88
426.513	90.88
426.735	73.88
426.958	93.88
427.18	108.88
427.402	141.88
427.625	192.88
427.847	177.88
428.069	172.88
428.292	103.88
428.514	103.88
428.736	91.88
428.958	94.88
429.181	80.88
429.403	81.88
429.625	94.88
429.847	101.88
430.069	107.88
430.292	93.88
430.514	74.88
430.736	88.88
430.958	86.88
431.18	76.88
431.402	89.88
431.624	79.88
431.846	83.88
432.068	79.88
432.29	83.88
432.512	85.88
432.734	90.88
432.956	100.88
433.178	109.88
433.4	86.88
433.622	84.88
433.844	95.88
434.066	90.88
434.287	82.88
434.509	90.88
434.731	75.88
434.953	86.88
435.175	77.88
435.397	90.88
435.618	92.88
435.84	105.88
436.062	113.88
436.284	114.88
436.505	112.88
436.727	99.88
436.949	94.88
437.17	78.88
437.392	84.88
437.614	85.88
437.835	112.88
438.057	121.88
438.278	111.88
438.5	90.88
438.721	122.88
438.943	96.88
439.165	94.88
439.386	89.88
439.608	94.88
439.829	108.88
440.05	129.88
440.272	160.88
440.493	97.88
440.715	95.88
440.936	79.88
441.158	91.88
441.379	94.88
441.6	77.88
441.822	94.88
442.043	90.88
442.264	117.88
442.486	107.88
442.707	88.88
442.928	103.88
443.149	134.88
443.371	127.88
443.592	107.88
443.813	116.88
444.034	116.88
444.255	93.88
444.476	92.88
444.698	87.88
444.919	88.88
445.14	115.88
445.361	133.88
445.582	124.88
445.803	155.88
446.024	138.88
446.245	148.88
446.466	112.88
446.687	98.88
446.908	85.88
447.129	91.88
447.35	81.88
447.571	95.88
447.792	92.88
448.013	92.88
448.234	88.88
448.455	100.88
448.675	107.88
448.896	115.88
449.117	92.88
449.338	98.88
449.559	129.88
449.779	147.88
450	83.88
450.221	94.88
450.442	91.88
450.662	85.88
450.883	98.88
451.104	103.88
451.324	98.88
451.545	103.88
451.766	76.88
451.986	78.88
452.207	88.88
452.428	93.88
452.648	107.88
452.869	113.88
453.089	101.88
453.31	112.88
453.53	80.88
453.751	86.88
453.971	109.88
454.192	114.88
454.412	99.88
454.633	90.88
454.853	82.88
455.073	90.88
455.294	87.88
455.514	98.88
455.734	87.88
455.955	92.88
456.175	85.88
456.395	78.88
456.616	72.88
456.836	82.88
457.056	82.88
457.276	79.88
457.497	85.88
457.717	75.88
457.937	98.88
458.157	96.88
458.377	83.88
458.598	96.88
458.818	158.88
459.038	177.88
459.258	117.88
459.478	89.88
459.698	88.88
459.918	83.88
460.138	72.88
460.358	91.88
460.578	74.88
460.798	92.88
461.018	92.88
461.238	93.88
461.458	82.88
461.678	78.88
461.898	88.88
462.118	90.88
462.338	87.88
462.558	72.88
462.777	81.88
462.997	86.88
463.217	91.88
463.437	82.88
463.657	76.88
463.876	91.88
464.096	97.88
464.316	95.88
464.536	101.88
464.755	86.88
464.975	98.88
465.195	163.88
465.414	162.88
465.634	100.88
465.854	90.88
466.073	102.88
466.293	85.88
466.512	83.88
466.732	89.88
466.951	87.88
467.171	81.88
467.391	90.88
467.61	124.88
467.829	154.88
468.049	331.88
468.268	496.88
468.488	147.88
468.707	90.88
468.927	91.88
469.146	94.88
469.365	84.88
469.585	84.88
469.804	111.88
470.023	106.88
470.243	78.88
470.462	95.88
470.681	135.88
470.901	90.88
471.12	99.88
471.339	103.88
471.558	101.88
471.777	128.88
471.997	208.88
472.216	635.88
472.435	1411.88
472.654	375.88
472.873	125.88
473.092	83.88
473.311	86.88
473.53	88.88
473.749	86.88
473.968	100.88
474.187	104.88
474.406	93.88
474.625	75.88
474.844	78.88
475.063	100.88
475.282	88.88
475.501	81.88
475.72	94.88
475.939	71.88
476.158	84.88
476.377	87.88
476.596	85.88
476.814	85.88
477.033	91.88
477.252	94.88
477.471	86.88
477.69	90.88
477.908	98.88
478.127	90.88
478.346	92.88
478.564	86.88
478.783	100.88
479.002	96.88
479.22	103.88
479.439	114.88
479.658	118.88
479.876	115.88
480.095	100.88
480.313	94.88
480.532	123.88
480.751	220.88
480.969	622.88
481.188	2490.88
481.406	1413.88
481.624	230.88
481.843	113.88
482.061	98.88
482.28	101.88
482.498	101.88
482.717	78.88
482.935	92.88
483.153	85.88
483.372	91.88
483.59	81.88
483.808	82.88
484.027	80.88
484.245	86.88
484.463	98.88
484.681	92.88
484.9	87.88
485.118	93.88
485.336	94.88
485.554	89.88
485.772	94.88
485.99	103.88
486.209	110.88
486.427	87.88
486.645	115.88
486.863	123.88
487.081	106.88
487.299	104.88
487.517	83.88
487.735	93.88
487.953	90.88
488.171	93.88
488.389	90.88
488.607	96.88
488.825	90.88
489.043	88.88
489.261	96.88
489.479	88.88
489.696	94.88
489.914	102.88
490.132	84.88
490.35	91.88
490.568	95.88
490.786	80.88
491.003	84.88
491.221	86.88
491.439	82.88
491.657	94.88
491.874	97.88
492.092	84.88
492.31	80.88
492.527	97.88
492.745	104.88
492.963	95.88
493.18	79.88
493.398	94.88
493.615	85.88
493.833	75.88
494.05	85.88
494.268	87.88
494.485	90.88
494.703	90.88
494.92	99.88
495.138	87.88
495.355	89.88
495.573	98.88
495.79	86.88
496.008	91.88
496.225	83.88
496.442	94.88
496.66	103.88
496.877	94.88
497.094	94.88
497.312	89.88
497.529	74.88
497.746	79.88
497.963	79.88
498.181	82.88
498.398	76.88
498.615	110.88
498.832	100.88
499.049	82.88
499.267	81.88
499.484	96.88
499.701	91.88
499.918	81.88
500.135	88.88
500.352	82.88
500.569	96.88
500.786	98.88
501.003	75.88
501.22	93.88
501.437	90.88
501.654	86.88
501.871	107.88
502.088	87.88
502.305	74.88
502.522	91.88
502.739	85.88
502.956	88.88
503.172	96.88
503.389	96.88
503.606	98.88
503.823	100.88
504.04	88.88
504.256	79.88
504.473	80.88
504.69	82.88
504.907	93.88
505.123	96.88
505.34	84.88
505.557	90.88
505.773	89.88
505.99	85.88
506.207	103.88
506.423	82.88
506.64	83.88
506.856	80.88
507.073	87.88
507.289	84.88
507.506	100.88
507.722	114.88
507.939	108.88
508.155	92.88
508.372	101.88
508.588	88.88
508.805	89.88
509.021	90.88
509.238	96.88
509.454	100.88
509.67	94.88
509.887	98.88
510.103	119.88
510.319	198.88
510.536	705.88
510.752	2332.88
510.968	660.88
511.184	139.88
511.401	100.88
511.617	96.88
511.833	97.88
512.049	94.88
512.265	87.88
512.481	98.88
512.698	90.88
512.914	91.88
513.13	104.88
513.346	92.88
513.562	86.88
513.778	83.88
513.994	98.88
514.21	96.88
514.426	113.88
514.642	146.88
514.858	116.88
515.074	177.88
515.29	474.88
