Data from Circ_1989_H10_HRD10591_00025.txt Node
Date: Wed Jan 03 12:01:26 EST 2024
User: Yrep
Spectrometer: HR+D1059
Trigger mode: 1
Integration Time (sec): 1.000000E-1
Scans to average: 1
Electric dark correction enabled: true
Nonlinearity correction enabled: false
Boxcar width: 0
XAxis mode: Wavelengths
Number of Pixels in Spectrum: 2048
>>>>>Begin Spectral Data<<<<<
223.165	-5.31
223.4	-5.31
223.635	-5.31
223.869	-29.31
224.104	-20.31
224.338	-22.31
224.573	-17.31
224.808	-15.31
225.042	-9.31
225.277	-10.31
225.511	3.69
225.746	7.69
225.98	-0.31
226.215	19.69
226.449	21.69
226.683	21.69
226.918	26.69
227.152	28.69
227.387	24.69
227.621	25.69
227.856	45.69
228.09	22.69
228.324	42.69
228.559	43.69
228.793	52.69
229.027	50.69
229.262	64.69
229.496	67.69
229.73	67.69
229.964	71.69
230.199	59.69
230.433	66.69
230.667	75.69
230.901	97.69
231.136	68.69
231.37	85.69
231.604	63.69
231.838	87.69
232.072	67.69
232.306	76.69
232.541	71.69
232.775	83.69
233.009	67.69
233.243	67.69
233.477	88.69
233.711	78.69
233.945	61.69
234.179	73.69
234.413	77.69
234.647	80.69
234.881	78.69
235.115	77.69
235.349	73.69
235.583	88.69
235.817	84.69
236.051	67.69
236.285	75.69
236.519	79.69
236.753	83.69
236.987	89.69
237.221	71.69
237.455	84.69
237.689	76.69
237.922	67.69
238.156	68.69
238.39	77.69
238.624	75.69
238.858	63.69
239.091	77.69
239.325	78.69
239.559	63.69
239.793	89.69
240.027	82.69
240.26	87.69
240.494	77.69
240.728	73.69
240.961	61.69
241.195	83.69
241.429	57.69
241.662	70.69
241.896	84.69
242.13	72.69
242.363	64.69
242.597	77.69
242.83	64.69
243.064	77.69
243.298	78.69
243.531	81.69
243.765	74.69
243.998	62.69
244.232	82.69
244.465	77.69
244.699	80.69
244.932	80.69
245.166	68.69
245.399	82.69
245.633	67.69
245.866	83.69
246.099	81.69
246.333	75.69
246.566	65.69
246.8	84.69
247.033	85.69
247.266	78.69
247.5	75.69
247.733	79.69
247.966	81.69
248.2	96.69
248.433	83.69
248.666	85.69
248.899	81.69
249.133	75.69
249.366	88.69
249.599	84.69
249.832	74.69
250.066	87.69
250.299	83.69
250.532	79.69
250.765	68.69
250.998	76.69
251.231	90.69
251.465	71.69
251.698	74.69
251.931	72.69
252.164	76.69
252.397	75.69
252.63	73.69
252.863	60.69
253.096	71.69
253.329	80.69
253.562	79.69
253.795	79.69
254.028	80.69
254.261	88.69
254.494	74.69
254.727	82.69
254.96	79.69
255.193	76.69
255.426	53.69
255.659	81.69
255.892	67.69
256.124	82.69
256.357	79.69
256.59	81.69
256.823	82.69
257.056	76.69
257.289	90.69
257.521	80.69
257.754	72.69
257.987	84.69
258.22	82.69
258.452	89.69
258.685	84.69
258.918	87.69
259.151	73.69
259.383	75.69
259.616	86.69
259.849	68.69
260.081	99.69
260.314	82.69
260.547	82.69
260.779	84.69
261.012	82.69
261.244	75.69
261.477	66.69
261.71	84.69
261.942	103.69
262.175	96.69
262.407	87.69
262.64	78.69
262.872	81.69
263.105	79.69
263.337	85.69
263.57	84.69
263.802	79.69
264.035	89.69
264.267	85.69
264.499	77.69
264.732	87.69
264.964	83.69
265.197	67.69
265.429	77.69
265.661	74.69
265.894	93.69
266.126	98.69
266.358	71.69
266.591	69.69
266.823	79.69
267.055	69.69
267.287	58.69
267.52	87.69
267.752	89.69
267.984	80.69
268.216	88.69
268.448	82.69
268.681	81.69
268.913	84.69
269.145	56.69
269.377	80.69
269.609	77.69
269.841	75.69
270.073	69.69
270.306	66.69
270.538	87.69
270.77	77.69
271.002	87.69
271.234	85.69
271.466	61.69
271.698	77.69
271.93	68.69
272.162	85.69
272.394	86.69
272.626	96.69
272.858	89.69
273.09	78.69
273.322	71.69
273.553	79.69
273.785	78.69
274.017	90.69
274.249	80.69
274.481	75.69
274.713	75.69
274.945	75.69
275.176	79.69
275.408	80.69
275.64	79.69
275.872	91.69
276.104	93.69
276.335	69.69
276.567	106.69
276.799	115.69
277.031	107.69
277.262	108.69
277.494	102.69
277.726	77.69
277.957	82.69
278.189	74.69
278.421	69.69
278.652	81.69
278.884	89.69
279.115	76.69
279.347	90.69
279.579	74.69
279.81	89.69
280.042	98.69
280.273	121.69
280.505	105.69
280.736	81.69
280.968	67.69
281.199	76.69
281.431	73.69
281.662	87.69
281.894	82.69
282.125	98.69
282.356	110.69
282.588	139.69
282.819	112.69
283.051	84.69
283.282	62.69
283.513	91.69
283.745	76.69
283.976	92.69
284.207	69.69
284.439	89.69
284.67	88.69
284.901	90.69
285.132	74.69
285.364	81.69
285.595	96.69
285.826	85.69
286.057	78.69
286.288	86.69
286.52	75.69
286.751	78.69
286.982	75.69
287.213	101.69
287.444	95.69
287.675	88.69
287.906	73.69
288.138	92.69
288.369	91.69
288.6	104.69
288.831	82.69
289.062	82.69
289.293	87.69
289.524	89.69
289.755	82.69
289.986	76.69
290.217	73.69
290.448	75.69
290.679	84.69
290.91	82.69
291.141	85.69
291.371	98.69
291.602	84.69
291.833	89.69
292.064	90.69
292.295	99.69
292.526	85.69
292.757	77.69
292.987	87.69
293.218	83.69
293.449	94.69
293.68	89.69
293.91	79.69
294.141	82.69
294.372	85.69
294.603	76.69
294.833	92.69
295.064	75.69
295.295	84.69
295.525	86.69
295.756	93.69
295.987	118.69
296.217	121.69
296.448	115.69
296.679	87.69
296.909	88.69
297.14	82.69
297.37	87.69
297.601	84.69
297.831	91.69
298.062	89.69
298.292	91.69
298.523	87.69
298.753	99.69
298.984	83.69
299.214	76.69
299.445	91.69
299.675	73.69
299.905	93.69
300.136	83.69
300.366	84.69
300.597	95.69
300.827	86.69
301.057	102.69
301.288	82.69
301.518	78.69
301.748	99.69
301.979	100.69
302.209	91.69
302.439	86.69
302.669	88.69
302.9	80.69
303.13	86.69
303.36	91.69
303.59	84.69
303.82	105.69
304.051	85.69
304.281	74.69
304.511	81.69
304.741	73.69
304.971	82.69
305.201	90.69
305.431	76.69
305.661	48.69
305.891	80.69
306.121	85.69
306.352	78.69
306.582	86.69
306.812	107.69
307.042	102.69
307.272	101.69
307.502	118.69
307.731	113.69
307.961	90.69
308.191	96.69
308.421	97.69
308.651	86.69
308.881	85.69
309.111	89.69
309.341	91.69
309.571	101.69
309.8	77.69
310.03	100.69
310.26	87.69
310.49	89.69
310.72	102.69
310.949	96.69
311.179	85.69
311.409	80.69
311.639	91.69
311.868	100.69
312.098	96.69
312.328	87.69
312.557	97.69
312.787	93.69
313.017	98.69
313.246	72.69
313.476	75.69
313.706	77.69
313.935	83.69
314.165	84.69
314.394	87.69
314.624	99.69
314.853	92.69
315.083	87.69
315.312	79.69
315.542	83.69
315.771	88.69
316.001	73.69
316.23	93.69
316.46	81.69
316.689	76.69
316.919	82.69
317.148	89.69
317.377	95.69
317.607	75.69
317.836	91.69
318.065	90.69
318.295	82.69
318.524	77.69
318.753	90.69
318.983	93.69
319.212	99.69
319.441	90.69
319.67	94.69
319.9	85.69
320.129	92.69
320.358	98.69
320.587	100.69
320.816	100.69
321.046	91.69
321.275	107.69
321.504	94.69
321.733	83.69
321.962	98.69
322.191	98.69
322.42	98.69
322.649	115.69
322.878	107.69
323.108	107.69
323.337	106.69
323.566	108.69
323.795	128.69
324.024	174.69
324.253	322.69
324.482	686.69
324.71	1380.69
324.939	1841.69
325.168	672.69
325.397	210.69
325.626	139.69
325.855	106.69
326.084	126.69
326.313	136.69
326.542	130.69
326.77	202.69
326.999	391.69
327.228	797.69
327.457	1436.69
327.686	1168.69
327.914	348.69
328.143	239.69
328.372	259.69
328.6	158.69
328.829	127.69
329.058	113.69
329.287	122.69
329.515	115.69
329.744	118.69
329.972	187.69
330.201	330.69
330.43	447.69
330.658	224.69
330.887	139.69
331.115	117.69
331.344	96.69
331.572	110.69
331.801	95.69
332.03	99.69
332.258	84.69
332.486	96.69
332.715	101.69
332.943	106.69
333.172	89.69
333.4	81.69
333.629	107.69
333.857	127.69
334.085	202.69
334.314	337.69
334.542	557.69
334.771	536.69
334.999	173.69
335.227	114.69
335.455	91.69
335.684	84.69
335.912	95.69
336.14	103.69
336.369	101.69
336.597	93.69
336.825	96.69
337.053	83.69
337.281	91.69
337.51	88.69
337.738	92.69
337.966	99.69
338.194	86.69
338.422	104.69
338.65	88.69
338.878	107.69
339.106	99.69
339.334	79.69
339.562	94.69
339.79	72.69
340.018	91.69
340.246	91.69
340.474	85.69
340.702	93.69
340.93	92.69
341.158	84.69
341.386	94.69
341.614	69.69
341.842	79.69
342.07	83.69
342.298	75.69
342.526	79.69
342.754	84.69
342.981	82.69
343.209	78.69
343.437	91.69
343.665	83.69
343.893	79.69
344.12	75.69
344.348	83.69
344.576	92.69
344.804	76.69
345.031	100.69
345.259	87.69
345.487	73.69
345.714	97.69
345.942	87.69
346.17	83.69
346.397	83.69
346.625	82.69
346.853	80.69
347.08	76.69
347.308	97.69
347.535	94.69
347.763	85.69
347.99	103.69
348.218	106.69
348.445	91.69
348.673	89.69
348.9	91.69
349.128	104.69
349.355	81.69
349.583	89.69
349.81	76.69
350.037	90.69
350.265	95.69
350.492	79.69
350.72	87.69
350.947	98.69
351.174	96.69
351.402	98.69
351.629	85.69
351.856	87.69
352.083	98.69
352.311	87.69
352.538	98.69
352.765	99.69
352.992	107.69
353.22	100.69
353.447	107.69
353.674	91.69
353.901	83.69
354.128	95.69
354.355	86.69
354.583	104.69
354.81	104.69
355.037	84.69
355.264	97.69
355.491	80.69
355.718	82.69
355.945	86.69
356.172	92.69
356.399	84.69
356.626	87.69
356.853	93.69
357.08	99.69
357.307	87.69
357.534	78.69
357.761	98.69
357.988	98.69
358.215	83.69
358.441	80.69
358.668	96.69
358.895	83.69
359.122	93.69
359.349	96.69
359.576	86.69
359.802	79.69
360.029	85.69
360.256	113.69
360.483	95.69
360.709	98.69
360.936	89.69
361.163	94.69
361.39	87.69
361.616	95.69
361.843	78.69
362.07	90.69
362.296	117.69
362.523	91.69
362.749	91.69
362.976	78.69
363.203	82.69
363.429	84.69
363.656	68.69
363.882	77.69
364.109	90.69
364.335	96.69
364.562	93.69
364.788	90.69
365.015	59.69
365.241	80.69
365.468	101.69
365.694	101.69
365.92	79.69
366.147	76.69
366.373	78.69
366.599	82.69
366.826	93.69
367.052	93.69
367.278	82.69
367.505	69.69
367.731	96.69
367.957	78.69
368.184	98.69
368.41	98.69
368.636	98.69
368.862	109.69
369.089	99.69
369.315	98.69
369.541	84.69
369.767	99.69
369.993	90.69
370.219	96.69
370.445	77.69
370.672	87.69
370.898	88.69
371.124	75.69
371.35	81.69
371.576	86.69
371.802	89.69
372.028	87.69
372.254	71.69
372.48	90.69
372.706	69.69
372.932	75.69
373.158	85.69
373.384	99.69
373.61	88.69
373.835	75.69
374.061	102.69
374.287	83.69
374.513	100.69
374.739	82.69
374.965	101.69
375.191	94.69
375.416	74.69
375.642	75.69
375.868	85.69
376.094	79.69
376.319	103.69
376.545	92.69
376.771	82.69
376.997	93.69
377.222	77.69
377.448	77.69
377.674	81.69
377.899	88.69
378.125	76.69
378.35	79.69
378.576	95.69
378.802	87.69
379.027	105.69
379.253	97.69
379.478	81.69
379.704	88.69
379.929	82.69
380.155	99.69
380.38	91.69
380.606	80.69
380.831	100.69
381.057	94.69
381.282	73.69
381.507	75.69
381.733	87.69
381.958	94.69
382.184	84.69
382.409	89.69
382.634	100.69
382.86	93.69
383.085	114.69
383.31	99.69
383.535	100.69
383.761	104.69
383.986	92.69
384.211	86.69
384.436	95.69
384.662	92.69
384.887	98.69
385.112	103.69
385.337	114.69
385.562	103.69
385.787	103.69
386.013	104.69
386.238	115.69
386.463	102.69
386.688	111.69
386.913	105.69
387.138	93.69
387.363	97.69
387.588	90.69
387.813	104.69
388.038	108.69
388.263	115.69
388.488	115.69
388.713	86.69
388.938	81.69
389.163	85.69
389.387	95.69
389.612	82.69
389.837	63.69
390.062	88.69
390.287	92.69
390.512	89.69
390.736	82.69
390.961	63.69
391.186	92.69
391.411	107.69
391.636	83.69
391.86	76.69
392.085	71.69
392.31	84.69
392.534	68.69
392.759	83.69
392.984	101.69
393.208	97.69
393.433	102.69
393.658	88.69
393.882	89.69
394.107	85.69
394.331	83.69
394.556	79.69
394.78	86.69
395.005	75.69
395.229	74.69
395.454	85.69
395.678	79.69
395.903	87.69
396.127	88.69
396.352	78.69
396.576	88.69
396.801	93.69
397.025	101.69
397.249	65.69
397.474	77.69
397.698	91.69
397.922	89.69
398.147	86.69
398.371	96.69
398.595	88.69
398.82	77.69
399.044	82.69
399.268	81.69
399.492	79.69
399.717	91.69
399.941	93.69
400.165	86.69
400.389	78.69
400.613	73.69
400.837	81.69
401.062	85.69
401.286	77.69
401.51	76.69
401.734	92.69
401.958	120.69
402.182	115.69
402.406	129.69
402.63	101.69
402.854	86.69
403.078	85.69
403.302	75.69
403.526	71.69
403.75	68.69
403.974	100.69
404.198	86.69
404.422	81.69
404.645	81.69
404.869	79.69
405.093	89.69
405.317	101.69
405.541	107.69
405.765	83.69
405.988	110.69
406.212	158.69
406.436	189.69
406.66	127.69
406.883	95.69
407.107	91.69
407.331	89.69
407.555	87.69
407.778	98.69
408.002	79.69
408.226	75.69
408.449	79.69
408.673	78.69
408.896	84.69
409.12	91.69
409.344	85.69
409.567	76.69
409.791	81.69
410.014	85.69
410.238	87.69
410.461	81.69
410.685	82.69
410.908	91.69
411.132	100.69
411.355	79.69
411.578	92.69
411.802	81.69
412.025	85.69
412.249	95.69
412.472	100.69
412.695	97.69
412.919	78.69
413.142	75.69
413.365	81.69
413.589	63.69
413.812	80.69
414.035	91.69
414.258	87.69
414.482	81.69
414.705	71.69
414.928	90.69
415.151	88.69
415.374	82.69
415.597	83.69
415.821	76.69
416.044	105.69
416.267	87.69
416.49	75.69
416.713	86.69
416.936	95.69
417.159	79.69
417.382	79.69
417.605	91.69
417.828	93.69
418.051	93.69
418.274	78.69
418.497	69.69
418.72	76.69
418.943	83.69
419.166	92.69
419.389	88.69
419.611	88.69
419.834	85.69
420.057	91.69
420.28	79.69
420.503	84.69
420.726	76.69
420.948	85.69
421.171	75.69
421.394	87.69
421.617	96.69
421.839	82.69
422.062	81.69
422.285	86.69
422.507	91.69
422.73	91.69
422.953	89.69
423.175	89.69
423.398	75.69
423.621	86.69
423.843	90.69
424.066	93.69
424.288	86.69
424.511	97.69
424.733	79.69
424.956	96.69
425.178	93.69
425.401	89.69
425.623	91.69
425.846	78.69
426.068	87.69
426.291	85.69
426.513	88.69
426.735	79.69
426.958	87.69
427.18	96.69
427.402	140.69
427.625	147.69
427.847	163.69
428.069	153.69
428.292	98.69
428.514	101.69
428.736	73.69
428.958	89.69
429.181	82.69
429.403	81.69
429.625	76.69
429.847	92.69
430.069	85.69
430.292	83.69
430.514	79.69
430.736	79.69
430.958	89.69
431.18	88.69
431.402	85.69
431.624	87.69
431.846	79.69
432.068	96.69
432.29	95.69
432.512	87.69
432.734	76.69
432.956	83.69
433.178	81.69
433.4	80.69
433.622	94.69
433.844	80.69
434.066	86.69
434.287	83.69
434.509	91.69
434.731	97.69
434.953	75.69
435.175	89.69
435.397	90.69
435.618	85.69
435.84	96.69
436.062	120.69
436.284	111.69
436.505	101.69
436.727	96.69
436.949	85.69
437.17	71.69
437.392	79.69
437.614	85.69
437.835	95.69
438.057	103.69
438.278	92.69
438.5	90.69
438.721	95.69
438.943	93.69
439.165	86.69
439.386	91.69
439.608	84.69
439.829	83.69
440.05	130.69
440.272	125.69
440.493	91.69
440.715	85.69
440.936	82.69
441.158	84.69
441.379	95.69
441.6	83.69
441.822	101.69
442.043	91.69
442.264	90.69
442.486	96.69
442.707	86.69
442.928	81.69
443.149	114.69
443.371	109.69
443.592	104.69
443.813	111.69
444.034	83.69
444.255	69.69
444.476	98.69
444.698	87.69
444.919	94.69
445.14	115.69
445.361	107.69
445.582	88.69
445.803	126.69
446.024	117.69
446.245	123.69
446.466	100.69
446.687	83.69
446.908	77.69
447.129	74.69
447.35	91.69
447.571	78.69
447.792	75.69
448.013	101.69
448.234	98.69
448.455	97.69
448.675	88.69
448.896	99.69
449.117	99.69
449.338	87.69
449.559	125.69
449.779	106.69
450	78.69
450.221	89.69
450.442	79.69
450.662	90.69
450.883	96.69
451.104	98.69
451.324	95.69
451.545	83.69
451.766	93.69
451.986	78.69
452.207	90.69
452.428	100.69
452.648	91.69
452.869	104.69
453.089	99.69
453.31	108.69
453.53	89.69
453.751	100.69
453.971	84.69
454.192	92.69
454.412	83.69
454.633	82.69
454.853	69.69
455.073	97.69
455.294	89.69
455.514	104.69
455.734	95.69
455.955	86.69
456.175	73.69
456.395	77.69
456.616	98.69
456.836	73.69
457.056	77.69
457.276	58.69
457.497	81.69
457.717	85.69
457.937	83.69
458.157	97.69
458.377	86.69
458.598	96.69
458.818	125.69
459.038	133.69
459.258	97.69
459.478	96.69
459.698	93.69
459.918	82.69
460.138	66.69
460.358	77.69
460.578	76.69
460.798	79.69
461.018	89.69
461.238	76.69
461.458	78.69
461.678	71.69
461.898	75.69
462.118	86.69
462.338	76.69
462.558	84.69
462.777	73.69
462.997	86.69
463.217	86.69
463.437	78.69
463.657	86.69
463.876	88.69
464.096	75.69
464.316	92.69
464.536	92.69
464.755	93.69
464.975	113.69
465.195	133.69
465.414	136.69
465.634	103.69
465.854	82.69
466.073	92.69
466.293	89.69
466.512	81.69
466.732	83.69
466.951	92.69
467.171	96.69
467.391	88.69
467.61	113.69
467.829	135.69
468.049	208.69
468.268	292.69
468.488	117.69
468.707	79.69
468.927	82.69
469.146	73.69
469.365	91.69
469.585	85.69
469.804	87.69
470.023	90.69
470.243	89.69
470.462	108.69
470.681	99.69
470.901	79.69
471.12	84.69
471.339	91.69
471.558	83.69
471.777	100.69
471.997	145.69
472.216	413.69
472.435	795.69
472.654	227.69
472.873	95.69
473.092	84.69
473.311	97.69
473.53	67.69
473.749	79.69
473.968	85.69
474.187	94.69
474.406	95.69
474.625	76.69
474.844	91.69
475.063	80.69
475.282	84.69
475.501	75.69
475.72	85.69
475.939	82.69
476.158	90.69
476.377	92.69
476.596	82.69
476.814	81.69
477.033	99.69
477.252	83.69
477.471	69.69
477.69	93.69
477.908	90.69
478.127	82.69
478.346	76.69
478.564	76.69
478.783	92.69
479.002	84.69
479.22	93.69
479.439	85.69
479.658	91.69
479.876	92.69
480.095	90.69
480.313	113.69
480.532	115.69
480.751	166.69
480.969	397.69
481.188	1404.69
481.406	837.69
481.624	153.69
481.843	78.69
482.061	87.69
482.28	88.69
482.498	99.69
482.717	85.69
482.935	63.69
483.153	85.69
483.372	78.69
483.59	88.69
483.808	92.69
484.027	92.69
484.245	96.69
484.463	85.69
484.681	100.69
484.9	85.69
485.118	86.69
485.336	96.69
485.554	76.69
485.772	108.69
485.99	98.69
486.209	93.69
486.427	95.69
486.645	100.69
486.863	103.69
487.081	101.69
487.299	84.69
487.517	89.69
487.735	95.69
487.953	99.69
488.171	79.69
488.389	98.69
488.607	94.69
488.825	77.69
489.043	93.69
489.261	97.69
489.479	78.69
489.696	83.69
489.914	92.69
490.132	84.69
490.35	80.69
490.568	82.69
490.786	91.69
491.003	76.69
491.221	88.69
491.439	96.69
491.657	100.69
491.874	87.69
492.092	99.69
492.31	95.69
492.527	95.69
492.745	91.69
492.963	82.69
493.18	103.69
493.398	84.69
493.615	100.69
493.833	92.69
494.05	104.69
494.268	75.69
494.485	79.69
494.703	75.69
494.92	84.69
495.138	85.69
495.355	78.69
495.573	94.69
495.79	90.69
496.008	96.69
496.225	90.69
496.442	92.69
496.66	85.69
496.877	85.69
497.094	82.69
497.312	77.69
497.529	75.69
497.746	62.69
497.963	85.69
498.181	86.69
498.398	94.69
498.615	89.69
498.832	104.69
499.049	92.69
499.267	89.69
499.484	81.69
499.701	88.69
499.918	93.69
500.135	97.69
500.352	85.69
500.569	90.69
500.786	93.69
501.003	100.69
501.22	89.69
501.437	87.69
501.654	73.69
501.871	95.69
502.088	87.69
502.305	82.69
502.522	105.69
502.739	93.69
502.956	91.69
503.172	68.69
503.389	95.69
503.606	82.69
503.823	87.69
504.04	91.69
504.256	88.69
504.473	79.69
504.69	72.69
504.907	95.69
505.123	87.69
505.34	82.69
505.557	91.69
505.773	93.69
505.99	73.69
506.207	76.69
506.423	75.69
506.64	85.69
506.856	88.69
507.073	97.69
507.289	84.69
507.506	72.69
507.722	93.69
507.939	117.69
508.155	92.69
508.372	79.69
508.588	100.69
508.805	96.69
509.021	94.69
509.238	77.69
509.454	89.69
509.67	95.69
509.887	99.69
510.103	113.69
510.319	199.69
510.536	631.69
510.752	1927.69
510.968	532.69
511.184	140.69
511.401	106.69
511.617	89.69
511.833	87.69
512.049	88.69
512.265	81.69
512.481	82.69
512.698	89.69
512.914	89.69
513.13	95.69
513.346	94.69
513.562	87.69
513.778	86.69
513.994	98.69
514.21	103.69
514.426	113.69
514.642	120.69
514.858	125.69
515.074	155.69
515.29	394.69
515.506	1183.69
515.721	471.69
515.937	142.69
516.153	91.69
516.369	88.69
516.585	97.69
516.801	108.69
517.016	92.69
