Data from Circ_1989_H10_HRD10591_00063.txt Node
Date: Wed Jan 03 12:01:34 EST 2024
User: Yrep
Spectrometer: HR+D1059
Trigger mode: 1
Integration Time (sec): 1.000000E-1
Scans to average: 1
Electric dark correction enabled: true
Nonlinearity correction enabled: false
Boxcar width: 0
XAxis mode: Wavelengths
Number of Pixels in Spectrum: 2048
>>>>>Begin Spectral Data<<<<<
223.165	-22.06
223.4	-22.06
223.635	-22.06
223.869	-27.06
224.104	-13.06
224.338	-22.06
224.573	-10.06
224.808	-5.06
225.042	-16.06
225.277	12.94
225.511	5.94
225.746	4.94
225.98	1.94
226.215	6.94
226.449	11.94
226.683	16.94
226.918	18.94
227.152	34.94
227.387	30.94
227.621	47.94
227.856	36.94
228.09	34.94
228.324	70.94
228.559	50.94
228.793	58.94
229.027	77.94
229.262	59.94
229.496	72.94
229.73	80.94
229.964	76.94
230.199	69.94
230.433	71.94
230.667	78.94
230.901	77.94
231.136	77.94
231.37	70.94
231.604	84.94
231.838	81.94
232.072	86.94
232.306	85.94
232.541	81.94
232.775	78.94
233.009	76.94
233.243	88.94
233.477	83.94
233.711	87.94
233.945	94.94
234.179	99.94
234.413	81.94
234.647	79.94
234.881	82.94
235.115	74.94
235.349	77.94
235.583	72.94
235.817	76.94
236.051	74.94
236.285	82.94
236.519	81.94
236.753	74.94
236.987	66.94
237.221	72.94
237.455	98.94
237.689	68.94
237.922	63.94
238.156	72.94
238.39	79.94
238.624	79.94
238.858	70.94
239.091	72.94
239.325	64.94
239.559	90.94
239.793	84.94
240.027	100.94
240.26	75.94
240.494	82.94
240.728	81.94
240.961	71.94
241.195	81.94
241.429	61.94
241.662	74.94
241.896	90.94
242.13	76.94
242.363	67.94
242.597	84.94
242.83	91.94
243.064	72.94
243.298	78.94
243.531	67.94
243.765	76.94
243.998	78.94
244.232	82.94
244.465	66.94
244.699	90.94
244.932	78.94
245.166	73.94
245.399	74.94
245.633	76.94
245.866	81.94
246.099	91.94
246.333	76.94
246.566	78.94
246.8	95.94
247.033	79.94
247.266	85.94
247.5	80.94
247.733	86.94
247.966	76.94
248.2	74.94
248.433	72.94
248.666	88.94
248.899	76.94
249.133	86.94
249.366	90.94
249.599	91.94
249.832	68.94
250.066	79.94
250.299	82.94
250.532	84.94
250.765	67.94
250.998	80.94
251.231	73.94
251.465	76.94
251.698	82.94
251.931	68.94
252.164	90.94
252.397	78.94
252.63	72.94
252.863	86.94
253.096	88.94
253.329	71.94
253.562	66.94
253.795	86.94
254.028	89.94
254.261	78.94
254.494	93.94
254.727	86.94
254.96	84.94
255.193	91.94
255.426	93.94
255.659	83.94
255.892	84.94
256.124	82.94
256.357	81.94
256.59	83.94
256.823	84.94
257.056	79.94
257.289	92.94
257.521	91.94
257.754	62.94
257.987	67.94
258.22	90.94
258.452	89.94
258.685	87.94
258.918	80.94
259.151	84.94
259.383	89.94
259.616	92.94
259.849	75.94
260.081	97.94
260.314	80.94
260.547	69.94
260.779	81.94
261.012	97.94
261.244	103.94
261.477	86.94
261.71	91.94
261.942	98.94
262.175	124.94
262.407	82.94
262.64	78.94
262.872	83.94
263.105	86.94
263.337	85.94
263.57	72.94
263.802	82.94
264.035	77.94
264.267	93.94
264.499	74.94
264.732	81.94
264.964	83.94
265.197	82.94
265.429	85.94
265.661	84.94
265.894	79.94
266.126	99.94
266.358	71.94
266.591	86.94
266.823	79.94
267.055	68.94
267.287	82.94
267.52	87.94
267.752	81.94
267.984	79.94
268.216	85.94
268.448	86.94
268.681	79.94
268.913	81.94
269.145	73.94
269.377	76.94
269.609	87.94
269.841	74.94
270.073	89.94
270.306	100.94
270.538	76.94
270.77	92.94
271.002	88.94
271.234	91.94
271.466	80.94
271.698	94.94
271.93	84.94
272.162	94.94
272.394	82.94
272.626	72.94
272.858	96.94
273.09	69.94
273.322	76.94
273.553	75.94
273.785	83.94
274.017	85.94
274.249	78.94
274.481	87.94
274.713	85.94
274.945	88.94
275.176	72.94
275.408	101.94
275.64	104.94
275.872	102.94
276.104	96.94
276.335	84.94
276.567	99.94
276.799	114.94
277.031	126.94
277.262	133.94
277.494	104.94
277.726	94.94
277.957	92.94
278.189	95.94
278.421	93.94
278.652	90.94
278.884	84.94
279.115	78.94
279.347	90.94
279.579	91.94
279.81	117.94
280.042	118.94
280.273	165.94
280.505	131.94
280.736	96.94
280.968	80.94
281.199	86.94
281.431	93.94
281.662	88.94
281.894	87.94
282.125	97.94
282.356	117.94
282.588	129.94
282.819	110.94
283.051	82.94
283.282	74.94
283.513	79.94
283.745	87.94
283.976	89.94
284.207	85.94
284.439	79.94
284.67	76.94
284.901	78.94
285.132	93.94
285.364	97.94
285.595	99.94
285.826	88.94
286.057	91.94
286.288	76.94
286.52	98.94
286.751	83.94
286.982	94.94
287.213	99.94
287.444	75.94
287.675	92.94
287.906	100.94
288.138	82.94
288.369	85.94
288.6	91.94
288.831	82.94
289.062	93.94
289.293	75.94
289.524	83.94
289.755	107.94
289.986	80.94
290.217	86.94
290.448	84.94
290.679	83.94
290.91	86.94
291.141	92.94
291.371	87.94
291.602	82.94
291.833	82.94
292.064	84.94
292.295	75.94
292.526	71.94
292.757	90.94
292.987	76.94
293.218	97.94
293.449	91.94
293.68	89.94
293.91	102.94
294.141	95.94
294.372	65.94
294.603	82.94
294.833	93.94
295.064	88.94
295.295	87.94
295.525	87.94
295.756	82.94
295.987	109.94
296.217	122.94
296.448	118.94
296.679	91.94
296.909	93.94
297.14	78.94
297.37	84.94
297.601	90.94
297.831	87.94
298.062	99.94
298.292	90.94
298.523	72.94
298.753	99.94
298.984	72.94
299.214	83.94
299.445	100.94
299.675	95.94
299.905	86.94
300.136	76.94
300.366	74.94
300.597	86.94
300.827	96.94
301.057	118.94
301.288	95.94
301.518	96.94
301.748	98.94
301.979	96.94
302.209	93.94
302.439	80.94
302.669	83.94
302.9	94.94
303.13	95.94
303.36	96.94
303.59	105.94
303.82	107.94
304.051	83.94
304.281	82.94
304.511	93.94
304.741	76.94
304.971	92.94
305.201	80.94
305.431	80.94
305.661	78.94
305.891	96.94
306.121	101.94
306.352	102.94
306.582	108.94
306.812	109.94
307.042	103.94
307.272	108.94
307.502	131.94
307.731	134.94
307.961	104.94
308.191	87.94
308.421	66.94
308.651	94.94
308.881	80.94
309.111	100.94
309.341	96.94
309.571	102.94
309.8	101.94
310.03	90.94
310.26	95.94
310.49	104.94
310.72	104.94
310.949	98.94
311.179	94.94
311.409	100.94
311.639	83.94
311.868	87.94
312.098	96.94
312.328	76.94
312.557	110.94
312.787	107.94
313.017	94.94
313.246	90.94
313.476	100.94
313.706	92.94
313.935	86.94
314.165	99.94
314.394	94.94
314.624	100.94
314.853	83.94
315.083	96.94
315.312	98.94
315.542	100.94
315.771	96.94
316.001	100.94
316.23	82.94
316.46	93.94
316.689	82.94
316.919	98.94
317.148	91.94
317.377	80.94
317.607	103.94
317.836	99.94
318.065	94.94
318.295	90.94
318.524	96.94
318.753	94.94
318.983	101.94
319.212	109.94
319.441	114.94
319.67	102.94
319.9	101.94
320.129	94.94
320.358	85.94
320.587	103.94
320.816	101.94
321.046	87.94
321.275	107.94
321.504	103.94
321.733	110.94
321.962	107.94
322.191	98.94
322.42	100.94
322.649	119.94
322.878	116.94
323.108	132.94
323.337	133.94
323.566	135.94
323.795	145.94
324.024	226.94
324.253	408.94
324.482	838.94
324.71	1767.94
324.939	2368.94
325.168	872.94
325.397	246.94
325.626	147.94
325.855	136.94
326.084	130.94
326.313	117.94
326.542	137.94
326.77	226.94
326.999	478.94
327.228	962.94
327.457	1779.94
327.686	1463.94
327.914	418.94
328.143	348.94
328.372	385.94
328.6	236.94
328.829	150.94
329.058	138.94
329.287	140.94
329.515	130.94
329.744	182.94
329.972	290.94
330.201	538.94
330.43	770.94
330.658	354.94
330.887	185.94
331.115	151.94
331.344	121.94
331.572	98.94
331.801	104.94
332.03	95.94
332.258	107.94
332.486	114.94
332.715	106.94
332.943	94.94
333.172	107.94
333.4	102.94
333.629	141.94
333.857	168.94
334.085	278.94
334.314	543.94
334.542	997.94
334.771	914.94
334.999	261.94
335.227	130.94
335.455	102.94
335.684	109.94
335.912	114.94
336.14	88.94
336.369	102.94
336.597	94.94
336.825	88.94
337.053	92.94
337.281	91.94
337.51	99.94
337.738	97.94
337.966	84.94
338.194	105.94
338.422	98.94
338.65	89.94
338.878	79.94
339.106	95.94
339.334	90.94
339.562	79.94
339.79	91.94
340.018	92.94
340.246	95.94
340.474	93.94
340.702	108.94
340.93	100.94
341.158	81.94
341.386	86.94
341.614	106.94
341.842	99.94
342.07	99.94
342.298	80.94
342.526	81.94
342.754	85.94
342.981	82.94
343.209	85.94
343.437	90.94
343.665	84.94
343.893	91.94
344.12	93.94
344.348	97.94
344.576	94.94
344.804	86.94
345.031	96.94
345.259	96.94
345.487	98.94
345.714	99.94
345.942	92.94
346.17	86.94
346.397	85.94
346.625	82.94
346.853	94.94
347.08	85.94
347.308	94.94
347.535	102.94
347.763	109.94
347.99	103.94
348.218	113.94
348.445	99.94
348.673	92.94
348.9	94.94
349.128	90.94
349.355	91.94
349.583	99.94
349.81	100.94
350.037	96.94
350.265	81.94
350.492	94.94
350.72	98.94
350.947	95.94
351.174	103.94
351.402	103.94
351.629	111.94
351.856	110.94
352.083	92.94
352.311	104.94
352.538	107.94
352.765	96.94
352.992	119.94
353.22	95.94
353.447	109.94
353.674	115.94
353.901	101.94
354.128	96.94
354.355	104.94
354.583	91.94
354.81	93.94
355.037	93.94
355.264	91.94
355.491	92.94
355.718	87.94
355.945	91.94
356.172	102.94
356.399	93.94
356.626	83.94
356.853	71.94
357.08	91.94
357.307	88.94
357.534	95.94
357.761	96.94
357.988	97.94
358.215	98.94
358.441	94.94
358.668	103.94
358.895	85.94
359.122	80.94
359.349	90.94
359.576	95.94
359.802	115.94
360.029	119.94
360.256	119.94
360.483	102.94
360.709	92.94
360.936	84.94
361.163	92.94
361.39	101.94
361.616	100.94
361.843	89.94
362.07	110.94
362.296	87.94
362.523	89.94
362.749	86.94
362.976	98.94
363.203	91.94
363.429	68.94
363.656	88.94
363.882	97.94
364.109	94.94
364.335	90.94
364.562	84.94
364.788	88.94
365.015	88.94
365.241	96.94
365.468	102.94
365.694	96.94
365.92	97.94
366.147	98.94
366.373	99.94
366.599	84.94
366.826	90.94
367.052	87.94
367.278	93.94
367.505	92.94
367.731	86.94
367.957	97.94
368.184	103.94
368.41	92.94
368.636	109.94
368.862	108.94
369.089	112.94
369.315	94.94
369.541	116.94
369.767	93.94
369.993	93.94
370.219	91.94
370.445	84.94
370.672	81.94
370.898	66.94
371.124	78.94
371.35	78.94
371.576	79.94
371.802	74.94
372.028	76.94
372.254	87.94
372.48	88.94
372.706	78.94
372.932	81.94
373.158	77.94
373.384	82.94
373.61	84.94
373.835	92.94
374.061	94.94
374.287	89.94
374.513	96.94
374.739	82.94
374.965	82.94
375.191	79.94
375.416	87.94
375.642	75.94
375.868	91.94
376.094	78.94
376.319	96.94
376.545	88.94
376.771	84.94
376.997	77.94
377.222	90.94
377.448	83.94
377.674	77.94
377.899	84.94
378.125	91.94
378.35	88.94
378.576	91.94
378.802	87.94
379.027	99.94
379.253	83.94
379.478	86.94
379.704	71.94
379.929	89.94
380.155	90.94
380.38	98.94
380.606	95.94
380.831	86.94
381.057	93.94
381.282	92.94
381.507	92.94
381.733	101.94
381.958	99.94
382.184	95.94
382.409	92.94
382.634	100.94
382.86	91.94
383.085	89.94
383.31	96.94
383.535	107.94
383.761	107.94
383.986	101.94
384.211	101.94
384.436	91.94
384.662	89.94
384.887	92.94
385.112	103.94
385.337	102.94
385.562	83.94
385.787	104.94
386.013	112.94
386.238	120.94
386.463	98.94
386.688	103.94
386.913	106.94
387.138	96.94
387.363	107.94
387.588	100.94
387.813	111.94
388.038	103.94
388.263	96.94
388.488	108.94
388.713	85.94
388.938	100.94
389.163	94.94
389.387	106.94
389.612	86.94
389.837	80.94
390.062	88.94
390.287	77.94
390.512	73.94
390.736	79.94
390.961	99.94
391.186	94.94
391.411	97.94
391.636	93.94
391.86	93.94
392.085	82.94
392.31	82.94
392.534	69.94
392.759	97.94
392.984	91.94
393.208	83.94
393.433	79.94
393.658	76.94
393.882	80.94
394.107	84.94
394.331	87.94
394.556	85.94
394.78	98.94
395.005	94.94
395.229	83.94
395.454	74.94
395.678	78.94
395.903	87.94
396.127	96.94
396.352	95.94
396.576	86.94
396.801	74.94
397.025	74.94
397.249	88.94
397.474	92.94
397.698	91.94
397.922	78.94
398.147	85.94
398.371	80.94
398.595	86.94
398.82	76.94
399.044	81.94
399.268	76.94
399.492	83.94
399.717	102.94
399.941	87.94
400.165	86.94
400.389	102.94
400.613	78.94
400.837	78.94
401.062	78.94
401.286	81.94
401.51	80.94
401.734	68.94
401.958	90.94
402.182	111.94
402.406	142.94
402.63	109.94
402.854	113.94
403.078	88.94
403.302	83.94
403.526	83.94
403.75	94.94
403.974	76.94
404.198	90.94
404.422	83.94
404.645	72.94
404.869	100.94
405.093	95.94
405.317	114.94
405.541	109.94
405.765	127.94
405.988	120.94
406.212	153.94
406.436	208.94
406.66	147.94
406.883	98.94
407.107	99.94
407.331	101.94
407.555	105.94
407.778	87.94
408.002	89.94
408.226	94.94
408.449	91.94
408.673	90.94
408.896	90.94
409.12	102.94
409.344	79.94
409.567	87.94
409.791	91.94
410.014	100.94
410.238	84.94
410.461	95.94
410.685	97.94
410.908	93.94
411.132	109.94
411.355	90.94
411.578	72.94
411.802	92.94
412.025	91.94
412.249	95.94
412.472	104.94
412.695	108.94
412.919	81.94
413.142	100.94
413.365	87.94
413.589	87.94
413.812	76.94
414.035	85.94
414.258	68.94
414.482	80.94
414.705	75.94
414.928	95.94
415.151	87.94
415.374	87.94
415.597	94.94
415.821	88.94
416.044	97.94
416.267	88.94
416.49	79.94
416.713	86.94
416.936	96.94
417.159	90.94
417.382	92.94
417.605	96.94
417.828	97.94
418.051	102.94
418.274	93.94
418.497	91.94
418.72	91.94
418.943	97.94
419.166	85.94
419.389	106.94
419.611	88.94
419.834	92.94
420.057	90.94
420.28	80.94
420.503	74.94
420.726	86.94
420.948	81.94
421.171	96.94
421.394	87.94
421.617	110.94
421.839	107.94
422.062	84.94
422.285	95.94
422.507	101.94
422.73	93.94
422.953	95.94
423.175	74.94
423.398	82.94
423.621	86.94
423.843	88.94
424.066	82.94
424.288	92.94
424.511	90.94
424.733	85.94
424.956	114.94
425.178	101.94
425.401	103.94
425.623	107.94
425.846	84.94
426.068	94.94
426.291	90.94
426.513	85.94
426.735	93.94
426.958	100.94
427.18	103.94
427.402	149.94
427.625	187.94
427.847	193.94
428.069	177.94
428.292	107.94
428.514	110.94
428.736	101.94
428.958	85.94
429.181	79.94
429.403	82.94
429.625	99.94
429.847	92.94
430.069	99.94
430.292	90.94
430.514	84.94
430.736	77.94
430.958	102.94
431.18	87.94
431.402	85.94
431.624	91.94
431.846	64.94
432.068	88.94
432.29	82.94
432.512	96.94
432.734	90.94
432.956	102.94
433.178	108.94
433.4	100.94
433.622	102.94
433.844	91.94
434.066	76.94
434.287	86.94
434.509	94.94
434.731	94.94
434.953	96.94
435.175	90.94
435.397	95.94
435.618	98.94
435.84	97.94
436.062	143.94
436.284	126.94
436.505	99.94
436.727	100.94
436.949	96.94
437.17	64.94
437.392	77.94
437.614	86.94
437.835	104.94
438.057	111.94
438.278	114.94
438.5	103.94
438.721	117.94
438.943	98.94
439.165	83.94
439.386	96.94
439.608	80.94
439.829	92.94
440.05	147.94
440.272	168.94
440.493	123.94
440.715	106.94
440.936	89.94
441.158	77.94
441.379	98.94
441.6	82.94
441.822	101.94
442.043	93.94
442.264	104.94
442.486	110.94
442.707	88.94
442.928	109.94
443.149	132.94
443.371	138.94
443.592	114.94
443.813	116.94
444.034	115.94
444.255	105.94
444.476	79.94
444.698	76.94
444.919	88.94
445.14	128.94
445.361	112.94
445.582	112.94
445.803	149.94
446.024	140.94
446.245	155.94
446.466	116.94
446.687	77.94
446.908	84.94
447.129	92.94
447.35	93.94
447.571	92.94
447.792	82.94
448.013	94.94
448.234	106.94
448.455	97.94
448.675	119.94
448.896	141.94
449.117	106.94
449.338	90.94
449.559	139.94
449.779	144.94
450	95.94
450.221	104.94
450.442	81.94
450.662	102.94
450.883	100.94
451.104	124.94
451.324	104.94
451.545	87.94
451.766	94.94
451.986	92.94
452.207	86.94
452.428	92.94
452.648	104.94
452.869	106.94
453.089	111.94
453.31	103.94
453.53	98.94
453.751	96.94
453.971	102.94
454.192	113.94
454.412	88.94
454.633	100.94
454.853	101.94
455.073	85.94
455.294	97.94
455.514	102.94
455.734	94.94
455.955	81.94
456.175	76.94
456.395	87.94
456.616	87.94
456.836	93.94
457.056	82.94
457.276	80.94
457.497	75.94
457.717	85.94
457.937	84.94
458.157	86.94
458.377	111.94
458.598	102.94
458.818	148.94
459.038	155.94
459.258	112.94
459.478	85.94
459.698	78.94
459.918	90.94
460.138	92.94
460.358	88.94
460.578	95.94
460.798	99.94
461.018	98.94
461.238	79.94
461.458	74.94
461.678	90.94
461.898	85.94
462.118	75.94
462.338	83.94
462.558	64.94
462.777	90.94
462.997	94.94
463.217	86.94
463.437	96.94
463.657	82.94
463.876	102.94
464.096	99.94
464.316	109.94
464.536	88.94
464.755	85.94
464.975	109.94
465.195	175.94
465.414	163.94
465.634	115.94
465.854	91.94
466.073	91.94
466.293	82.94
466.512	93.94
466.732	68.94
466.951	78.94
467.171	101.94
467.391	96.94
467.61	128.94
467.829	148.94
468.049	338.94
468.268	462.94
468.488	156.94
468.707	95.94
468.927	86.94
469.146	82.94
469.365	83.94
469.585	88.94
469.804	98.94
470.023	92.94
470.243	103.94
470.462	106.94
470.681	117.94
470.901	83.94
471.12	83.94
471.339	90.94
471.558	97.94
471.777	125.94
471.997	210.94
472.216	613.94
472.435	1358.94
472.654	349.94
472.873	112.94
473.092	90.94
473.311	90.94
473.53	103.94
473.749	95.94
473.968	87.94
474.187	114.94
474.406	92.94
474.625	99.94
474.844	85.94
475.063	87.94
475.282	93.94
475.501	91.94
475.72	92.94
475.939	98.94
476.158	74.94
476.377	75.94
476.596	78.94
476.814	85.94
477.033	91.94
477.252	93.94
477.471	82.94
477.69	83.94
477.908	98.94
478.127	86.94
478.346	103.94
478.564	103.94
478.783	117.94
479.002	101.94
479.22	98.94
479.439	102.94
479.658	98.94
479.876	100.94
480.095	106.94
480.313	103.94
480.532	135.94
480.751	194.94
480.969	605.94
481.188	2426.94
481.406	1383.94
481.624	234.94
481.843	111.94
482.061	98.94
482.28	95.94
482.498	92.94
482.717	97.94
482.935	86.94
483.153	79.94
483.372	91.94
483.59	87.94
483.808	70.94
484.027	80.94
484.245	94.94
484.463	96.94
484.681	90.94
484.9	90.94
485.118	96.94
485.336	99.94
485.554	101.94
485.772	86.94
485.99	93.94
486.209	99.94
486.427	117.94
486.645	113.94
486.863	113.94
487.081	92.94
487.299	93.94
487.517	100.94
487.735	87.94
487.953	82.94
488.171	84.94
488.389	91.94
488.607	103.94
488.825	104.94
489.043	84.94
489.261	85.94
489.479	90.94
489.696	86.94
489.914	94.94
490.132	87.94
490.35	100.94
490.568	85.94
490.786	78.94
491.003	84.94
491.221	93.94
491.439	83.94
491.657	91.94
491.874	76.94
492.092	95.94
492.31	80.94
492.527	95.94
492.745	91.94
492.963	97.94
493.18	98.94
493.398	106.94
493.615	100.94
493.833	91.94
494.05	82.94
494.268	100.94
494.485	77.94
494.703	83.94
494.92	88.94
495.138	76.94
495.355	73.94
495.573	91.94
495.79	84.94
496.008	83.94
496.225	83.94
496.442	88.94
496.66	98.94
496.877	93.94
497.094	81.94
497.312	80.94
497.529	89.94
497.746	88.94
497.963	99.94
498.181	86.94
498.398	91.94
498.615	99.94
498.832	98.94
499.049	93.94
499.267	96.94
499.484	87.94
499.701	83.94
499.918	96.94
500.135	81.94
500.352	78.94
500.569	106.94
500.786	93.94
501.003	92.94
501.22	91.94
501.437	90.94
501.654	88.94
501.871	110.94
502.088	101.94
502.305	85.94
502.522	101.94
502.739	99.94
502.956	87.94
503.172	84.94
503.389	103.94
503.606	105.94
503.823	100.94
504.04	84.94
504.256	78.94
504.473	84.94
504.69	97.94
504.907	83.94
505.123	84.94
505.34	106.94
505.557	91.94
505.773	100.94
505.99	95.94
506.207	95.94
506.423	76.94
506.64	98.94
506.856	92.94
507.073	81.94
507.289	92.94
507.506	99.94
507.722	105.94
507.939	111.94
508.155	85.94
508.372	83.94
508.588	88.94
508.805	103.94
509.021	77.94
509.238	96.94
509.454	93.94
509.67	111.94
509.887	104.94
510.103	134.94
510.319	193.94
510.536	652.94
510.752	2088.94
510.968	582.94
511.184	126.94
511.401	114.94
511.617	104.94
511.833	96.94
512.049	101.94
512.265	82.94
512.481	88.94
512.698	88.94
512.914	85.94
513.13	101.94
513.346	86.94
513.562	92.94
513.778	95.94
513.994	101.94
514.21	94.94
514.426	114.94
514.642	125.94
514.858	130.94
515.074	160.94
