Data from Circ_1989_H10_HRD10591_00011.txt Node
Date: Wed Jan 03 12:01:23 EST 2024
User: Yrep
Spectrometer: HR+D1059
Trigger mode: 1
Integration Time (sec): 1.000000E-1
Scans to average: 1
Electric dark correction enabled: true
Nonlinearity correction enabled: false
Boxcar width: 0
XAxis mode: Wavelengths
Number of Pixels in Spectrum: 2048
>>>>>Begin Spectral Data<<<<<
223.165	-19.25
223.4	-19.25
223.635	-19.25
223.869	-26.25
224.104	-24.25
224.338	-9.25
224.573	-15.25
224.808	-12.25
225.042	1.75
225.277	8.75
225.511	1.75
225.746	-2.25
225.98	7.75
226.215	-1.25
226.449	14.75
226.683	7.75
226.918	24.75
227.152	42.75
227.387	34.75
227.621	44.75
227.856	43.75
228.09	48.75
228.324	51.75
228.559	67.75
228.793	61.75
229.027	72.75
229.262	71.75
229.496	72.75
229.73	74.75
229.964	84.75
230.199	65.75
230.433	72.75
230.667	75.75
230.901	90.75
231.136	82.75
231.37	62.75
231.604	70.75
231.838	92.75
232.072	75.75
232.306	80.75
232.541	82.75
232.775	93.75
233.009	85.75
233.243	75.75
233.477	82.75
233.711	74.75
233.945	90.75
234.179	83.75
234.413	83.75
234.647	87.75
234.881	76.75
235.115	86.75
235.349	76.75
235.583	89.75
235.817	92.75
236.051	80.75
236.285	76.75
236.519	75.75
236.753	82.75
236.987	84.75
237.221	98.75
237.455	85.75
237.689	70.75
237.922	54.75
238.156	61.75
238.39	72.75
238.624	73.75
238.858	66.75
239.091	72.75
239.325	71.75
239.559	79.75
239.793	86.75
240.027	69.75
240.26	73.75
240.494	84.75
240.728	78.75
240.961	92.75
241.195	98.75
241.429	84.75
241.662	86.75
241.896	71.75
242.13	62.75
242.363	89.75
242.597	82.75
242.83	86.75
243.064	82.75
243.298	85.75
243.531	72.75
243.765	65.75
243.998	74.75
244.232	86.75
244.465	82.75
244.699	80.75
244.932	87.75
245.166	71.75
245.399	79.75
245.633	80.75
245.866	76.75
246.099	80.75
246.333	67.75
246.566	88.75
246.8	76.75
247.033	74.75
247.266	88.75
247.5	94.75
247.733	84.75
247.966	78.75
248.2	85.75
248.433	95.75
248.666	79.75
248.899	79.75
249.133	69.75
249.366	93.75
249.599	107.75
249.832	90.75
250.066	76.75
250.299	81.75
250.532	76.75
250.765	90.75
250.998	87.75
251.231	92.75
251.465	86.75
251.698	60.75
251.931	78.75
252.164	79.75
252.397	75.75
252.63	84.75
252.863	87.75
253.096	86.75
253.329	87.75
253.562	89.75
253.795	102.75
254.028	96.75
254.261	86.75
254.494	96.75
254.727	84.75
254.96	90.75
255.193	92.75
255.426	81.75
255.659	87.75
255.892	84.75
256.124	85.75
256.357	82.75
256.59	95.75
256.823	75.75
257.056	97.75
257.289	88.75
257.521	88.75
257.754	81.75
257.987	86.75
258.22	87.75
258.452	96.75
258.685	91.75
258.918	91.75
259.151	74.75
259.383	74.75
259.616	93.75
259.849	87.75
260.081	93.75
260.314	96.75
260.547	75.75
260.779	86.75
261.012	84.75
261.244	80.75
261.477	102.75
261.71	87.75
261.942	82.75
262.175	100.75
262.407	75.75
262.64	86.75
262.872	91.75
263.105	91.75
263.337	107.75
263.57	78.75
263.802	89.75
264.035	103.75
264.267	83.75
264.499	97.75
264.732	89.75
264.964	88.75
265.197	75.75
265.429	90.75
265.661	91.75
265.894	94.75
266.126	94.75
266.358	90.75
266.591	76.75
266.823	78.75
267.055	78.75
267.287	75.75
267.52	80.75
267.752	85.75
267.984	101.75
268.216	85.75
268.448	89.75
268.681	88.75
268.913	87.75
269.145	71.75
269.377	88.75
269.609	86.75
269.841	89.75
270.073	93.75
270.306	82.75
270.538	86.75
270.77	82.75
271.002	97.75
271.234	83.75
271.466	86.75
271.698	94.75
271.93	88.75
272.162	105.75
272.394	86.75
272.626	98.75
272.858	102.75
273.09	91.75
273.322	92.75
273.553	83.75
273.785	85.75
274.017	96.75
274.249	90.75
274.481	90.75
274.713	85.75
274.945	87.75
275.176	79.75
275.408	95.75
275.64	83.75
275.872	95.75
276.104	101.75
276.335	92.75
276.567	94.75
276.799	115.75
277.031	100.75
277.262	113.75
277.494	88.75
277.726	89.75
277.957	86.75
278.189	91.75
278.421	94.75
278.652	94.75
278.884	91.75
279.115	79.75
279.347	95.75
279.579	90.75
279.81	92.75
280.042	115.75
280.273	97.75
280.505	105.75
280.736	86.75
280.968	81.75
281.199	91.75
281.431	98.75
281.662	103.75
281.894	93.75
282.125	98.75
282.356	112.75
282.588	122.75
282.819	103.75
283.051	86.75
283.282	83.75
283.513	98.75
283.745	74.75
283.976	87.75
284.207	79.75
284.439	83.75
284.67	84.75
284.901	90.75
285.132	91.75
285.364	80.75
285.595	104.75
285.826	71.75
286.057	88.75
286.288	83.75
286.52	92.75
286.751	87.75
286.982	88.75
287.213	89.75
287.444	96.75
287.675	78.75
287.906	80.75
288.138	99.75
288.369	81.75
288.6	94.75
288.831	99.75
289.062	89.75
289.293	87.75
289.524	96.75
289.755	81.75
289.986	90.75
290.217	84.75
290.448	100.75
290.679	96.75
290.91	80.75
291.141	86.75
291.371	98.75
291.602	86.75
291.833	102.75
292.064	110.75
292.295	90.75
292.526	91.75
292.757	91.75
292.987	95.75
293.218	82.75
293.449	82.75
293.68	86.75
293.91	86.75
294.141	89.75
294.372	92.75
294.603	90.75
294.833	82.75
295.064	88.75
295.295	105.75
295.525	83.75
295.756	95.75
295.987	123.75
296.217	129.75
296.448	111.75
296.679	101.75
296.909	93.75
297.14	91.75
297.37	90.75
297.601	83.75
297.831	90.75
298.062	87.75
298.292	95.75
298.523	90.75
298.753	80.75
298.984	98.75
299.214	101.75
299.445	87.75
299.675	91.75
299.905	91.75
300.136	87.75
300.366	97.75
300.597	102.75
300.827	83.75
301.057	95.75
301.288	86.75
301.518	90.75
301.748	68.75
301.979	107.75
302.209	114.75
302.439	99.75
302.669	75.75
302.9	97.75
303.13	92.75
303.36	95.75
303.59	97.75
303.82	93.75
304.051	94.75
304.281	68.75
304.511	94.75
304.741	87.75
304.971	90.75
305.201	104.75
305.431	76.75
305.661	99.75
305.891	101.75
306.121	99.75
306.352	100.75
306.582	103.75
306.812	100.75
307.042	97.75
307.272	110.75
307.502	106.75
307.731	121.75
307.961	102.75
308.191	101.75
308.421	80.75
308.651	94.75
308.881	96.75
309.111	95.75
309.341	90.75
309.571	92.75
309.8	95.75
310.03	97.75
310.26	95.75
310.49	101.75
310.72	106.75
310.949	99.75
311.179	105.75
311.409	95.75
311.639	74.75
311.868	80.75
312.098	106.75
312.328	103.75
312.557	115.75
312.787	101.75
313.017	92.75
313.246	96.75
313.476	81.75
313.706	90.75
313.935	80.75
314.165	91.75
314.394	105.75
314.624	109.75
314.853	97.75
315.083	101.75
315.312	96.75
315.542	88.75
315.771	81.75
316.001	98.75
316.23	103.75
316.46	88.75
316.689	85.75
316.919	88.75
317.148	102.75
317.377	101.75
317.607	94.75
317.836	89.75
318.065	92.75
318.295	93.75
318.524	96.75
318.753	100.75
318.983	96.75
319.212	90.75
319.441	84.75
319.67	106.75
319.9	105.75
320.129	104.75
320.358	91.75
320.587	96.75
320.816	91.75
321.046	99.75
321.275	104.75
321.504	90.75
321.733	98.75
321.962	86.75
322.191	82.75
322.42	99.75
322.649	96.75
322.878	117.75
323.108	108.75
323.337	110.75
323.566	107.75
323.795	151.75
324.024	180.75
324.253	309.75
324.482	628.75
324.71	1299.75
324.939	1736.75
325.168	634.75
325.397	221.75
325.626	122.75
325.855	136.75
326.084	123.75
326.313	121.75
326.542	151.75
326.77	190.75
326.999	375.75
327.228	714.75
327.457	1344.75
327.686	1072.75
327.914	318.75
328.143	218.75
328.372	210.75
328.6	142.75
328.829	119.75
329.058	126.75
329.287	119.75
329.515	108.75
329.744	136.75
329.972	160.75
330.201	245.75
330.43	341.75
330.658	188.75
330.887	145.75
331.115	121.75
331.344	99.75
331.572	106.75
331.801	98.75
332.03	97.75
332.258	112.75
332.486	111.75
332.715	99.75
332.943	116.75
333.172	102.75
333.4	95.75
333.629	118.75
333.857	123.75
334.085	159.75
334.314	274.75
334.542	418.75
334.771	407.75
334.999	153.75
335.227	111.75
335.455	103.75
335.684	98.75
335.912	113.75
336.14	107.75
336.369	95.75
336.597	96.75
336.825	91.75
337.053	94.75
337.281	94.75
337.51	87.75
337.738	84.75
337.966	101.75
338.194	84.75
338.422	100.75
338.65	95.75
338.878	96.75
339.106	91.75
339.334	100.75
339.562	100.75
339.79	96.75
340.018	89.75
340.246	94.75
340.474	87.75
340.702	89.75
340.93	80.75
341.158	95.75
341.386	89.75
341.614	94.75
341.842	98.75
342.07	105.75
342.298	86.75
342.526	105.75
342.754	111.75
342.981	97.75
343.209	98.75
343.437	118.75
343.665	98.75
343.893	94.75
344.12	98.75
344.348	101.75
344.576	86.75
344.804	96.75
345.031	96.75
345.259	111.75
345.487	105.75
345.714	101.75
345.942	107.75
346.17	82.75
346.397	76.75
346.625	90.75
346.853	99.75
347.08	90.75
347.308	102.75
347.535	95.75
347.763	91.75
347.99	99.75
348.218	104.75
348.445	111.75
348.673	99.75
348.9	82.75
349.128	96.75
349.355	98.75
349.583	87.75
349.81	94.75
350.037	104.75
350.265	101.75
350.492	103.75
350.72	95.75
350.947	112.75
351.174	118.75
351.402	111.75
351.629	92.75
351.856	104.75
352.083	101.75
352.311	96.75
352.538	95.75
352.765	86.75
352.992	108.75
353.22	108.75
353.447	95.75
353.674	96.75
353.901	97.75
354.128	91.75
354.355	108.75
354.583	115.75
354.81	102.75
355.037	89.75
355.264	100.75
355.491	80.75
355.718	104.75
355.945	110.75
356.172	107.75
356.399	93.75
356.626	108.75
356.853	87.75
357.08	86.75
357.307	95.75
357.534	82.75
357.761	102.75
357.988	92.75
358.215	99.75
358.441	110.75
358.668	106.75
358.895	107.75
359.122	96.75
359.349	86.75
359.576	75.75
359.802	103.75
360.029	100.75
360.256	111.75
360.483	104.75
360.709	97.75
360.936	88.75
361.163	84.75
361.39	85.75
361.616	97.75
361.843	85.75
362.07	88.75
362.296	94.75
362.523	95.75
362.749	85.75
362.976	94.75
363.203	90.75
363.429	82.75
363.656	83.75
363.882	97.75
364.109	96.75
364.335	89.75
364.562	86.75
364.788	86.75
365.015	99.75
365.241	86.75
365.468	96.75
365.694	97.75
365.92	99.75
366.147	82.75
366.373	104.75
366.599	91.75
366.826	87.75
367.052	96.75
367.278	87.75
367.505	88.75
367.731	80.75
367.957	90.75
368.184	91.75
368.41	88.75
368.636	106.75
368.862	121.75
369.089	108.75
369.315	102.75
369.541	96.75
369.767	91.75
369.993	86.75
370.219	100.75
370.445	98.75
370.672	90.75
370.898	99.75
371.124	88.75
371.35	79.75
371.576	96.75
371.802	89.75
372.028	82.75
372.254	78.75
372.48	94.75
372.706	96.75
372.932	105.75
373.158	92.75
373.384	80.75
373.61	84.75
373.835	92.75
374.061	90.75
374.287	94.75
374.513	82.75
374.739	88.75
374.965	86.75
375.191	87.75
375.416	90.75
375.642	96.75
375.868	84.75
376.094	100.75
376.319	89.75
376.545	103.75
376.771	80.75
376.997	96.75
377.222	85.75
377.448	94.75
377.674	103.75
377.899	97.75
378.125	98.75
378.35	100.75
378.576	105.75
378.802	87.75
379.027	110.75
379.253	105.75
379.478	94.75
379.704	104.75
379.929	103.75
380.155	98.75
380.38	96.75
380.606	106.75
380.831	110.75
381.057	106.75
381.282	98.75
381.507	105.75
381.733	98.75
381.958	98.75
382.184	100.75
382.409	116.75
382.634	118.75
382.86	103.75
383.085	117.75
383.31	101.75
383.535	99.75
383.761	116.75
383.986	112.75
384.211	113.75
384.436	101.75
384.662	116.75
384.887	111.75
385.112	105.75
385.337	121.75
385.562	107.75
385.787	122.75
386.013	126.75
386.238	109.75
386.463	118.75
386.688	127.75
386.913	133.75
387.138	117.75
387.363	119.75
387.588	118.75
387.813	118.75
388.038	128.75
388.263	131.75
388.488	122.75
388.713	99.75
388.938	91.75
389.163	99.75
389.387	95.75
389.612	96.75
389.837	82.75
390.062	90.75
390.287	98.75
390.512	98.75
390.736	91.75
390.961	84.75
391.186	63.75
391.411	102.75
391.636	83.75
391.86	97.75
392.085	98.75
392.31	69.75
392.534	80.75
392.759	99.75
392.984	97.75
393.208	97.75
393.433	111.75
393.658	111.75
393.882	94.75
394.107	98.75
394.331	104.75
394.556	86.75
394.78	100.75
395.005	82.75
395.229	90.75
395.454	102.75
395.678	83.75
395.903	87.75
396.127	104.75
396.352	96.75
396.576	105.75
396.801	107.75
397.025	99.75
397.249	96.75
397.474	99.75
397.698	97.75
397.922	81.75
398.147	81.75
398.371	90.75
398.595	88.75
398.82	82.75
399.044	89.75
399.268	83.75
399.492	92.75
399.717	88.75
399.941	75.75
400.165	101.75
400.389	100.75
400.613	80.75
400.837	86.75
401.062	101.75
401.286	92.75
401.51	79.75
401.734	92.75
401.958	96.75
402.182	106.75
402.406	131.75
402.63	109.75
402.854	94.75
403.078	86.75
403.302	85.75
403.526	86.75
403.75	89.75
403.974	103.75
404.198	100.75
404.422	91.75
404.645	99.75
404.869	100.75
405.093	97.75
405.317	109.75
405.541	99.75
405.765	100.75
405.988	106.75
406.212	144.75
406.436	183.75
406.66	120.75
406.883	94.75
407.107	98.75
407.331	84.75
407.555	102.75
407.778	98.75
408.002	90.75
408.226	98.75
408.449	95.75
408.673	85.75
408.896	84.75
409.12	94.75
409.344	94.75
409.567	97.75
409.791	97.75
410.014	84.75
410.238	92.75
410.461	80.75
410.685	91.75
410.908	95.75
411.132	103.75
411.355	97.75
411.578	86.75
411.802	101.75
412.025	87.75
412.249	97.75
412.472	91.75
412.695	102.75
412.919	97.75
413.142	96.75
413.365	95.75
413.589	108.75
413.812	95.75
414.035	104.75
414.258	84.75
414.482	96.75
414.705	89.75
414.928	101.75
415.151	98.75
415.374	82.75
415.597	87.75
415.821	71.75
416.044	89.75
416.267	75.75
416.49	85.75
416.713	98.75
416.936	84.75
417.159	81.75
417.382	98.75
417.605	99.75
417.828	100.75
418.051	108.75
418.274	95.75
418.497	94.75
418.72	100.75
418.943	87.75
419.166	98.75
419.389	95.75
419.611	90.75
419.834	94.75
420.057	107.75
420.28	99.75
420.503	88.75
420.726	95.75
420.948	87.75
421.171	82.75
421.394	94.75
421.617	89.75
421.839	88.75
422.062	83.75
422.285	85.75
422.507	98.75
422.73	118.75
422.953	97.75
423.175	96.75
423.398	83.75
423.621	100.75
423.843	90.75
424.066	82.75
424.288	86.75
424.511	83.75
424.733	97.75
424.956	107.75
425.178	98.75
425.401	108.75
425.623	102.75
425.846	88.75
426.068	86.75
426.291	90.75
426.513	90.75
426.735	89.75
426.958	96.75
427.18	100.75
427.402	125.75
427.625	145.75
427.847	140.75
428.069	135.75
428.292	100.75
428.514	91.75
428.736	94.75
428.958	102.75
429.181	74.75
429.403	92.75
429.625	88.75
429.847	92.75
430.069	88.75
430.292	102.75
430.514	86.75
430.736	82.75
430.958	83.75
431.18	93.75
431.402	98.75
431.624	79.75
431.846	97.75
432.068	88.75
432.29	86.75
432.512	91.75
432.734	92.75
432.956	108.75
433.178	85.75
433.4	96.75
433.622	97.75
433.844	94.75
434.066	92.75
434.287	89.75
434.509	89.75
434.731	86.75
434.953	92.75
435.175	94.75
435.397	91.75
435.618	97.75
435.84	92.75
436.062	106.75
436.284	104.75
436.505	84.75
436.727	101.75
436.949	92.75
437.17	75.75
437.392	94.75
437.614	96.75
437.835	109.75
438.057	103.75
438.278	99.75
438.5	88.75
438.721	108.75
438.943	99.75
439.165	102.75
439.386	86.75
439.608	91.75
439.829	91.75
440.05	103.75
440.272	131.75
440.493	98.75
440.715	92.75
440.936	92.75
441.158	101.75
441.379	85.75
441.6	89.75
441.822	91.75
442.043	85.75
442.264	104.75
442.486	98.75
442.707	91.75
442.928	112.75
443.149	115.75
443.371	125.75
443.592	115.75
443.813	105.75
444.034	96.75
444.255	89.75
444.476	88.75
444.698	84.75
444.919	98.75
445.14	143.75
445.361	126.75
445.582	104.75
445.803	124.75
446.024	128.75
446.245	121.75
446.466	115.75
446.687	88.75
446.908	91.75
447.129	85.75
447.35	82.75
447.571	83.75
447.792	75.75
448.013	71.75
448.234	101.75
448.455	80.75
448.675	96.75
448.896	115.75
449.117	114.75
449.338	110.75
449.559	128.75
449.779	120.75
450	93.75
450.221	88.75
450.442	82.75
450.662	85.75
450.883	94.75
451.104	101.75
451.324	97.75
451.545	87.75
451.766	87.75
451.986	82.75
452.207	87.75
452.428	82.75
452.648	95.75
452.869	98.75
453.089	89.75
453.31	93.75
453.53	100.75
453.751	103.75
453.971	103.75
454.192	103.75
454.412	107.75
454.633	102.75
454.853	81.75
455.073	84.75
455.294	82.75
455.514	88.75
455.734	79.75
455.955	87.75
456.175	85.75
456.395	85.75
456.616	90.75
456.836	79.75
457.056	98.75
457.276	98.75
457.497	76.75
457.717	88.75
457.937	84.75
458.157	87.75
458.377	100.75
458.598	105.75
458.818	127.75
459.038	141.75
459.258	117.75
459.478	99.75
459.698	79.75
459.918	84.75
460.138	80.75
460.358	90.75
460.578	94.75
460.798	86.75
461.018	95.75
461.238	76.75
461.458	94.75
461.678	91.75
461.898	87.75
462.118	96.75
462.338	92.75
462.558	82.75
462.777	78.75
462.997	89.75
463.217	88.75
463.437	71.75
463.657	82.75
463.876	82.75
464.096	98.75
464.316	80.75
464.536	90.75
464.755	99.75
464.975	100.75
465.195	138.75
465.414	124.75
465.634	75.75
465.854	99.75
466.073	95.75
466.293	92.75
466.512	92.75
466.732	91.75
466.951	92.75
467.171	91.75
467.391	85.75
467.61	117.75
467.829	113.75
468.049	182.75
468.268	220.75
468.488	118.75
468.707	90.75
468.927	92.75
469.146	84.75
469.365	79.75
469.585	86.75
469.804	89.75
470.023	92.75
470.243	99.75
470.462	91.75
470.681	97.75
470.901	78.75
471.12	87.75
471.339	89.75
471.558	98.75
471.777	105.75
471.997	128.75
472.216	311.75
472.435	576.75
472.654	209.75
472.873	112.75
473.092	94.75
473.311	91.75
473.53	93.75
473.749	87.75
473.968	99.75
474.187	103.75
474.406	91.75
474.625	95.75
474.844	78.75
475.063	95.75
475.282	86.75
475.501	94.75
475.72	93.75
475.939	88.75
476.158	74.75
476.377	82.75
476.596	97.75
476.814	90.75
477.033	86.75
477.252	99.75
477.471	105.75
477.69	87.75
477.908	88.75
478.127	94.75
478.346	95.75
478.564	95.75
478.783	84.75
479.002	97.75
479.22	88.75
479.439	102.75
479.658	104.75
479.876	98.75
480.095	95.75
480.313	99.75
480.532	104.75
480.751	131.75
480.969	291.75
481.188	1004.75
481.406	609.75
481.624	162.75
481.843	91.75
482.061	98.75
482.28	107.75
482.498	91.75
482.717	85.75
482.935	88.75
483.153	93.75
483.372	86.75
483.59	86.75
483.808	75.75
484.027	103.75
484.245	90.75
484.463	90.75
484.681	89.75
484.9	93.75
485.118	97.75
485.336	98.75
485.554	89.75
485.772	104.75
485.99	102.75
486.209	125.75
486.427	115.75
486.645	121.75
486.863	116.75
487.081	102.75
487.299	104.75
487.517	101.75
487.735	96.75
487.953	99.75
488.171	95.75
488.389	95.75
488.607	92.75
488.825	88.75
489.043	100.75
489.261	90.75
489.479	86.75
489.696	83.75
489.914	98.75
490.132	100.75
490.35	95.75
490.568	85.75
490.786	83.75
491.003	94.75
491.221	87.75
491.439	90.75
491.657	103.75
491.874	94.75
492.092	97.75
492.31	95.75
492.527	95.75
492.745	95.75
492.963	96.75
493.18	103.75
493.398	91.75
493.615	105.75
493.833	80.75
494.05	92.75
494.268	94.75
494.485	85.75
494.703	86.75
494.92	87.75
495.138	96.75
495.355	91.75
495.573	88.75
495.79	92.75
496.008	90.75
496.225	102.75
496.442	87.75
496.66	93.75
496.877	88.75
497.094	106.75
497.312	88.75
497.529	104.75
497.746	97.75
497.963	105.75
498.181	99.75
498.398	110.75
498.615	112.75
498.832	112.75
499.049	91.75
499.267	103.75
499.484	98.75
499.701	86.75
499.918	82.75
500.135	78.75
500.352	94.75
500.569	80.75
500.786	80.75
501.003	107.75
501.22	103.75
501.437	81.75
501.654	87.75
501.871	101.75
502.088	100.75
502.305	89.75
502.522	94.75
502.739	93.75
502.956	96.75
503.172	94.75
503.389	94.75
503.606	87.75
503.823	94.75
504.04	88.75
504.256	102.75
504.473	88.75
504.69	91.75
504.907	103.75
505.123	89.75
505.34	84.75
505.557	89.75
505.773	82.75
505.99	101.75
506.207	105.75
506.423	101.75
506.64	85.75
506.856	83.75
507.073	80.75
507.289	88.75
507.506	98.75
507.722	105.75
507.939	105.75
508.155	104.75
508.372	93.75
508.588	99.75
508.805	82.75
509.021	89.75
509.238	87.75
509.454	84.75
509.67	102.75
509.887	105.75
510.103	125.75
510.319	181.75
510.536	513.75
510.752	1671.75
510.968	479.75
511.184	133.75
511.401	100.75
511.617	94.75
511.833	81.75
512.049	77.75
512.265	83.75
512.481	98.75
512.698	88.75
512.914	101.75
513.13	88.75
513.346	93.75
513.562	89.75
513.778	93.75
513.994	102.75
514.21	105.75
514.426	92.75
514.642	123.75
514.858	93.75
