Data from Circ_1989_H10_HRD10591_00068.txt Node
Date: Wed Jan 03 12:01:35 EST 2024
User: Yrep
Spectrometer: HR+D1059
Trigger mode: 1
Integration Time (sec): 1.000000E-1
Scans to average: 1
Electric dark correction enabled: true
Nonlinearity correction enabled: false
Boxcar width: 0
XAxis mode: Wavelengths
Number of Pixels in Spectrum: 2048
>>>>>Begin Spectral Data<<<<<
223.165	-24.38
223.4	-24.38
223.635	-24.38
223.869	-17.38
224.104	-15.38
224.338	-12.38
224.573	-18.38
224.808	-21.38
225.042	-1.38
225.277	-4.38
225.511	-13.38
225.746	-1.38
225.98	11.62
226.215	22.62
226.449	18.62
226.683	20.62
226.918	15.62
227.152	40.62
227.387	27.62
227.621	22.62
227.856	49.62
228.09	28.62
228.324	58.62
228.559	54.62
228.793	53.62
229.027	64.62
229.262	57.62
229.496	59.62
229.73	80.62
229.964	80.62
230.199	67.62
230.433	76.62
230.667	97.62
230.901	100.62
231.136	85.62
231.37	67.62
231.604	85.62
231.838	92.62
232.072	74.62
232.306	86.62
232.541	82.62
232.775	85.62
233.009	77.62
233.243	77.62
233.477	78.62
233.711	79.62
233.945	79.62
234.179	78.62
234.413	102.62
234.647	90.62
234.881	61.62
235.115	74.62
235.349	76.62
235.583	80.62
235.817	84.62
236.051	81.62
236.285	86.62
236.519	75.62
236.753	78.62
236.987	82.62
237.221	87.62
237.455	64.62
237.689	78.62
237.922	64.62
238.156	66.62
238.39	69.62
238.624	65.62
238.858	65.62
239.091	75.62
239.325	70.62
239.559	82.62
239.793	68.62
240.027	82.62
240.26	84.62
240.494	83.62
240.728	80.62
240.961	71.62
241.195	76.62
241.429	74.62
241.662	80.62
241.896	69.62
242.13	60.62
242.363	80.62
242.597	60.62
242.83	76.62
243.064	84.62
243.298	68.62
243.531	87.62
243.765	65.62
243.998	59.62
244.232	76.62
244.465	78.62
244.699	78.62
244.932	83.62
245.166	78.62
245.399	79.62
245.633	79.62
245.866	86.62
246.099	66.62
246.333	80.62
246.566	79.62
246.8	70.62
247.033	65.62
247.266	76.62
247.5	74.62
247.733	86.62
247.966	62.62
248.2	65.62
248.433	84.62
248.666	76.62
248.899	80.62
249.133	96.62
249.366	102.62
249.599	90.62
249.832	75.62
250.066	73.62
250.299	79.62
250.532	91.62
250.765	90.62
250.998	76.62
251.231	75.62
251.465	91.62
251.698	90.62
251.931	93.62
252.164	79.62
252.397	66.62
252.63	82.62
252.863	91.62
253.096	70.62
253.329	69.62
253.562	93.62
253.795	96.62
254.028	65.62
254.261	74.62
254.494	80.62
254.727	81.62
254.96	86.62
255.193	92.62
255.426	79.62
255.659	69.62
255.892	84.62
256.124	85.62
256.357	71.62
256.59	84.62
256.823	78.62
257.056	100.62
257.289	97.62
257.521	92.62
257.754	89.62
257.987	73.62
258.22	88.62
258.452	90.62
258.685	85.62
258.918	87.62
259.151	86.62
259.383	78.62
259.616	78.62
259.849	83.62
260.081	88.62
260.314	82.62
260.547	100.62
260.779	85.62
261.012	94.62
261.244	90.62
261.477	66.62
261.71	72.62
261.942	111.62
262.175	118.62
262.407	96.62
262.64	66.62
262.872	81.62
263.105	80.62
263.337	87.62
263.57	82.62
263.802	72.62
264.035	85.62
264.267	76.62
264.499	82.62
264.732	88.62
264.964	86.62
265.197	71.62
265.429	87.62
265.661	77.62
265.894	76.62
266.126	81.62
266.358	84.62
266.591	78.62
266.823	80.62
267.055	87.62
267.287	87.62
267.52	95.62
267.752	92.62
267.984	83.62
268.216	71.62
268.448	80.62
268.681	66.62
268.913	72.62
269.145	78.62
269.377	93.62
269.609	64.62
269.841	81.62
270.073	74.62
270.306	81.62
270.538	71.62
270.77	69.62
271.002	77.62
271.234	88.62
271.466	80.62
271.698	84.62
271.93	82.62
272.162	90.62
272.394	102.62
272.626	80.62
272.858	88.62
273.09	83.62
273.322	78.62
273.553	77.62
273.785	84.62
274.017	97.62
274.249	78.62
274.481	86.62
274.713	92.62
274.945	86.62
275.176	94.62
275.408	88.62
275.64	103.62
275.872	103.62
276.104	93.62
276.335	108.62
276.567	93.62
276.799	115.62
277.031	123.62
277.262	121.62
277.494	104.62
277.726	85.62
277.957	98.62
278.189	96.62
278.421	83.62
278.652	82.62
278.884	95.62
279.115	83.62
279.347	100.62
279.579	89.62
279.81	107.62
280.042	108.62
280.273	143.62
280.505	100.62
280.736	72.62
280.968	92.62
281.199	86.62
281.431	82.62
281.662	91.62
281.894	91.62
282.125	101.62
282.356	105.62
282.588	130.62
282.819	109.62
283.051	87.62
283.282	84.62
283.513	105.62
283.745	81.62
283.976	82.62
284.207	98.62
284.439	80.62
284.67	84.62
284.901	80.62
285.132	92.62
285.364	80.62
285.595	92.62
285.826	83.62
286.057	99.62
286.288	95.62
286.52	85.62
286.751	71.62
286.982	64.62
287.213	92.62
287.444	83.62
287.675	82.62
287.906	85.62
288.138	68.62
288.369	88.62
288.6	95.62
288.831	83.62
289.062	88.62
289.293	82.62
289.524	86.62
289.755	80.62
289.986	82.62
290.217	85.62
290.448	85.62
290.679	77.62
290.91	99.62
291.141	90.62
291.371	96.62
291.602	93.62
291.833	97.62
292.064	91.62
292.295	99.62
292.526	90.62
292.757	76.62
292.987	68.62
293.218	93.62
293.449	84.62
293.68	82.62
293.91	76.62
294.141	77.62
294.372	89.62
294.603	87.62
294.833	93.62
295.064	94.62
295.295	93.62
295.525	84.62
295.756	91.62
295.987	114.62
296.217	135.62
296.448	125.62
296.679	88.62
296.909	87.62
297.14	76.62
297.37	68.62
297.601	86.62
297.831	78.62
298.062	94.62
298.292	83.62
298.523	91.62
298.753	74.62
298.984	87.62
299.214	85.62
299.445	78.62
299.675	85.62
299.905	99.62
300.136	92.62
300.366	75.62
300.597	92.62
300.827	100.62
301.057	85.62
301.288	94.62
301.518	91.62
301.748	108.62
301.979	105.62
302.209	86.62
302.439	103.62
302.669	90.62
302.9	80.62
303.13	93.62
303.36	80.62
303.59	110.62
303.82	108.62
304.051	104.62
304.281	92.62
304.511	95.62
304.741	81.62
304.971	83.62
305.201	86.62
305.431	97.62
305.661	80.62
305.891	81.62
306.121	71.62
306.352	85.62
306.582	101.62
306.812	98.62
307.042	93.62
307.272	127.62
307.502	123.62
307.731	144.62
307.961	109.62
308.191	77.62
308.421	109.62
308.651	94.62
308.881	87.62
309.111	96.62
309.341	81.62
309.571	97.62
309.8	86.62
310.03	86.62
310.26	94.62
310.49	94.62
310.72	97.62
310.949	94.62
311.179	106.62
311.409	90.62
311.639	91.62
311.868	87.62
312.098	104.62
312.328	97.62
312.557	94.62
312.787	96.62
313.017	93.62
313.246	110.62
313.476	94.62
313.706	83.62
313.935	88.62
314.165	101.62
314.394	103.62
314.624	98.62
314.853	98.62
315.083	96.62
315.312	93.62
315.542	85.62
315.771	109.62
316.001	92.62
316.23	94.62
316.46	89.62
316.689	87.62
316.919	100.62
317.148	87.62
317.377	92.62
317.607	88.62
317.836	84.62
318.065	92.62
318.295	89.62
318.524	106.62
318.753	85.62
318.983	93.62
319.212	85.62
319.441	108.62
319.67	93.62
319.9	96.62
320.129	102.62
320.358	103.62
320.587	94.62
320.816	91.62
321.046	102.62
321.275	104.62
321.504	88.62
321.733	93.62
321.962	88.62
322.191	106.62
322.42	89.62
322.649	112.62
322.878	110.62
323.108	110.62
323.337	104.62
323.566	122.62
323.795	143.62
324.024	188.62
324.253	351.62
324.482	708.62
324.71	1487.62
324.939	2018.62
325.168	749.62
325.397	233.62
325.626	155.62
325.855	131.62
326.084	131.62
326.313	130.62
326.542	156.62
326.77	191.62
326.999	389.62
327.228	827.62
327.457	1538.62
327.686	1249.62
327.914	390.62
328.143	278.62
328.372	332.62
328.6	220.62
328.829	126.62
329.058	130.62
329.287	149.62
329.515	131.62
329.744	141.62
329.972	222.62
330.201	490.62
330.43	678.62
330.658	325.62
330.887	182.62
331.115	130.62
331.344	109.62
331.572	113.62
331.801	113.62
332.03	100.62
332.258	109.62
332.486	99.62
332.715	100.62
332.943	103.62
333.172	78.62
333.4	107.62
333.629	100.62
333.857	163.62
334.085	237.62
334.314	429.62
334.542	796.62
334.771	749.62
334.999	238.62
335.227	117.62
335.455	100.62
335.684	99.62
335.912	93.62
336.14	114.62
336.369	86.62
336.597	99.62
336.825	129.62
337.053	87.62
337.281	85.62
337.51	92.62
337.738	88.62
337.966	94.62
338.194	109.62
338.422	84.62
338.65	91.62
338.878	86.62
339.106	87.62
339.334	98.62
339.562	79.62
339.79	81.62
340.018	89.62
340.246	96.62
340.474	85.62
340.702	100.62
340.93	87.62
341.158	81.62
341.386	81.62
341.614	95.62
341.842	101.62
342.07	102.62
342.298	87.62
342.526	87.62
342.754	86.62
342.981	80.62
343.209	91.62
343.437	111.62
343.665	90.62
343.893	91.62
344.12	93.62
344.348	99.62
344.576	93.62
344.804	100.62
345.031	85.62
345.259	92.62
345.487	89.62
345.714	80.62
345.942	93.62
346.17	103.62
346.397	104.62
346.625	91.62
346.853	78.62
347.08	90.62
347.308	84.62
347.535	100.62
347.763	84.62
347.99	101.62
348.218	97.62
348.445	86.62
348.673	111.62
348.9	111.62
349.128	94.62
349.355	99.62
349.583	96.62
349.81	96.62
350.037	93.62
350.265	101.62
350.492	105.62
350.72	96.62
350.947	95.62
351.174	98.62
351.402	102.62
351.629	96.62
351.856	101.62
352.083	102.62
352.311	104.62
352.538	109.62
352.765	106.62
352.992	95.62
353.22	92.62
353.447	97.62
353.674	85.62
353.901	102.62
354.128	107.62
354.355	90.62
354.583	107.62
354.81	102.62
355.037	110.62
355.264	93.62
355.491	86.62
355.718	95.62
355.945	90.62
356.172	100.62
356.399	97.62
356.626	91.62
356.853	92.62
357.08	96.62
357.307	83.62
357.534	91.62
357.761	89.62
357.988	80.62
358.215	93.62
358.441	91.62
358.668	96.62
358.895	102.62
359.122	96.62
359.349	88.62
359.576	88.62
359.802	100.62
360.029	108.62
360.256	94.62
360.483	91.62
360.709	83.62
360.936	98.62
361.163	101.62
361.39	91.62
361.616	91.62
361.843	88.62
362.07	100.62
362.296	108.62
362.523	95.62
362.749	86.62
362.976	98.62
363.203	85.62
363.429	82.62
363.656	88.62
363.882	88.62
364.109	88.62
364.335	89.62
364.562	93.62
364.788	78.62
365.015	82.62
365.241	94.62
365.468	103.62
365.694	103.62
365.92	94.62
366.147	94.62
366.373	102.62
366.599	89.62
366.826	92.62
367.052	80.62
367.278	82.62
367.505	84.62
367.731	93.62
367.957	93.62
368.184	84.62
368.41	92.62
368.636	119.62
368.862	104.62
369.089	87.62
369.315	94.62
369.541	85.62
369.767	94.62
369.993	70.62
370.219	85.62
370.445	81.62
370.672	90.62
370.898	96.62
371.124	73.62
371.35	92.62
371.576	81.62
371.802	90.62
372.028	91.62
372.254	87.62
372.48	84.62
372.706	85.62
372.932	87.62
373.158	75.62
373.384	89.62
373.61	93.62
373.835	96.62
374.061	97.62
374.287	87.62
374.513	79.62
374.739	92.62
374.965	80.62
375.191	95.62
375.416	94.62
375.642	99.62
375.868	90.62
376.094	93.62
376.319	89.62
376.545	84.62
376.771	100.62
376.997	94.62
377.222	84.62
377.448	99.62
377.674	90.62
377.899	78.62
378.125	100.62
378.35	97.62
378.576	97.62
378.802	90.62
379.027	81.62
379.253	79.62
379.478	91.62
379.704	99.62
379.929	85.62
380.155	80.62
380.38	86.62
380.606	80.62
380.831	83.62
381.057	92.62
381.282	58.62
381.507	82.62
381.733	94.62
381.958	96.62
382.184	108.62
382.409	96.62
382.634	100.62
382.86	91.62
383.085	88.62
383.31	86.62
383.535	93.62
383.761	97.62
383.986	90.62
384.211	82.62
384.436	103.62
384.662	103.62
384.887	94.62
385.112	89.62
385.337	88.62
385.562	98.62
385.787	98.62
386.013	90.62
386.238	119.62
386.463	103.62
386.688	103.62
386.913	94.62
387.138	92.62
387.363	86.62
387.588	109.62
387.813	100.62
388.038	95.62
388.263	107.62
388.488	104.62
388.713	102.62
388.938	89.62
389.163	92.62
389.387	99.62
389.612	83.62
389.837	83.62
390.062	104.62
390.287	97.62
390.512	94.62
390.736	88.62
390.961	86.62
391.186	100.62
391.411	91.62
391.636	93.62
391.86	97.62
392.085	86.62
392.31	75.62
392.534	87.62
392.759	92.62
392.984	72.62
393.208	86.62
393.433	99.62
393.658	96.62
393.882	85.62
394.107	85.62
394.331	87.62
394.556	76.62
394.78	86.62
395.005	84.62
395.229	86.62
395.454	90.62
395.678	87.62
395.903	87.62
396.127	93.62
396.352	88.62
396.576	92.62
396.801	90.62
397.025	91.62
397.249	83.62
397.474	90.62
397.698	96.62
397.922	92.62
398.147	87.62
398.371	89.62
398.595	91.62
398.82	91.62
399.044	84.62
399.268	90.62
399.492	88.62
399.717	87.62
399.941	91.62
400.165	91.62
400.389	78.62
400.613	82.62
400.837	91.62
401.062	81.62
401.286	88.62
401.51	98.62
401.734	76.62
401.958	104.62
402.182	119.62
402.406	146.62
402.63	123.62
402.854	103.62
403.078	89.62
403.302	86.62
403.526	74.62
403.75	86.62
403.974	89.62
404.198	82.62
404.422	102.62
404.645	88.62
404.869	93.62
405.093	117.62
405.317	108.62
405.541	108.62
405.765	97.62
405.988	115.62
406.212	144.62
406.436	188.62
406.66	139.62
406.883	99.62
407.107	88.62
407.331	95.62
407.555	91.62
407.778	99.62
408.002	94.62
408.226	98.62
408.449	85.62
408.673	100.62
408.896	104.62
409.12	92.62
409.344	88.62
409.567	91.62
409.791	98.62
410.014	86.62
410.238	100.62
410.461	92.62
410.685	90.62
410.908	103.62
411.132	96.62
411.355	86.62
411.578	86.62
411.802	83.62
412.025	83.62
412.249	99.62
412.472	103.62
412.695	108.62
412.919	108.62
413.142	73.62
413.365	90.62
413.589	96.62
413.812	71.62
414.035	82.62
414.258	82.62
414.482	80.62
414.705	83.62
414.928	86.62
415.151	94.62
415.374	96.62
415.597	88.62
415.821	103.62
416.044	84.62
416.267	92.62
416.49	78.62
416.713	78.62
416.936	81.62
417.159	87.62
417.382	83.62
417.605	84.62
417.828	96.62
418.051	82.62
418.274	87.62
418.497	85.62
418.72	70.62
418.943	87.62
419.166	98.62
419.389	96.62
419.611	88.62
419.834	90.62
420.057	96.62
420.28	84.62
420.503	93.62
420.726	82.62
420.948	79.62
421.171	98.62
421.394	85.62
421.617	89.62
421.839	91.62
422.062	102.62
422.285	84.62
422.507	90.62
422.73	81.62
422.953	82.62
423.175	70.62
423.398	83.62
423.621	91.62
423.843	99.62
424.066	96.62
424.288	93.62
424.511	87.62
424.733	92.62
424.956	113.62
425.178	92.62
425.401	102.62
425.623	91.62
425.846	86.62
426.068	80.62
426.291	90.62
426.513	95.62
426.735	98.62
426.958	94.62
427.18	109.62
427.402	140.62
427.625	178.62
427.847	162.62
428.069	161.62
428.292	115.62
428.514	95.62
428.736	83.62
428.958	78.62
429.181	90.62
429.403	94.62
429.625	90.62
429.847	106.62
430.069	113.62
430.292	79.62
430.514	84.62
430.736	71.62
430.958	99.62
431.18	85.62
431.402	90.62
431.624	76.62
431.846	82.62
432.068	85.62
432.29	68.62
432.512	83.62
432.734	82.62
432.956	97.62
433.178	86.62
433.4	110.62
433.622	95.62
433.844	99.62
434.066	97.62
434.287	74.62
434.509	87.62
434.731	84.62
434.953	88.62
435.175	97.62
435.397	83.62
435.618	82.62
435.84	96.62
436.062	112.62
436.284	108.62
436.505	110.62
436.727	85.62
436.949	94.62
437.17	85.62
437.392	102.62
437.614	83.62
437.835	99.62
438.057	108.62
438.278	95.62
438.5	108.62
438.721	103.62
438.943	92.62
439.165	87.62
439.386	108.62
439.608	91.62
439.829	92.62
440.05	113.62
440.272	138.62
440.493	100.62
440.715	93.62
440.936	103.62
441.158	100.62
441.379	87.62
441.6	102.62
441.822	101.62
442.043	88.62
442.264	89.62
442.486	72.62
442.707	94.62
442.928	110.62
443.149	132.62
443.371	127.62
443.592	114.62
443.813	104.62
444.034	100.62
444.255	91.62
444.476	99.62
444.698	74.62
444.919	83.62
445.14	113.62
445.361	116.62
445.582	104.62
445.803	150.62
446.024	147.62
446.245	131.62
446.466	118.62
446.687	86.62
446.908	78.62
447.129	83.62
447.35	82.62
447.571	84.62
447.792	103.62
448.013	85.62
448.234	103.62
448.455	87.62
448.675	108.62
448.896	112.62
449.117	95.62
449.338	103.62
449.559	127.62
449.779	113.62
450	86.62
450.221	75.62
450.442	89.62
450.662	100.62
450.883	99.62
451.104	123.62
451.324	109.62
451.545	91.62
451.766	63.62
451.986	92.62
452.207	88.62
452.428	101.62
452.648	97.62
452.869	115.62
453.089	111.62
453.31	101.62
453.53	100.62
453.751	103.62
453.971	102.62
454.192	95.62
454.412	92.62
454.633	86.62
454.853	86.62
455.073	87.62
455.294	79.62
455.514	95.62
455.734	64.62
455.955	76.62
456.175	87.62
456.395	81.62
456.616	88.62
456.836	89.62
457.056	71.62
457.276	78.62
457.497	98.62
457.717	90.62
457.937	101.62
458.157	88.62
458.377	88.62
458.598	107.62
458.818	140.62
459.038	157.62
459.258	113.62
459.478	98.62
459.698	98.62
459.918	94.62
460.138	95.62
460.358	84.62
460.578	79.62
460.798	80.62
461.018	89.62
461.238	94.62
461.458	91.62
461.678	88.62
461.898	87.62
462.118	98.62
462.338	87.62
462.558	94.62
462.777	91.62
462.997	80.62
463.217	76.62
463.437	86.62
463.657	84.62
463.876	79.62
464.096	92.62
464.316	93.62
464.536	92.62
464.755	102.62
464.975	106.62
465.195	148.62
465.414	150.62
465.634	102.62
465.854	87.62
466.073	97.62
466.293	81.62
466.512	81.62
466.732	83.62
466.951	86.62
467.171	91.62
467.391	112.62
467.61	112.62
467.829	134.62
468.049	304.62
468.268	412.62
468.488	136.62
468.707	98.62
468.927	88.62
469.146	85.62
469.365	88.62
469.585	98.62
469.804	78.62
470.023	94.62
470.243	82.62
470.462	105.62
470.681	107.62
470.901	90.62
471.12	99.62
471.339	94.62
471.558	112.62
471.777	104.62
471.997	170.62
472.216	538.62
472.435	1170.62
472.654	308.62
472.873	123.62
473.092	87.62
473.311	94.62
473.53	77.62
473.749	91.62
473.968	89.62
474.187	85.62
474.406	92.62
474.625	90.62
474.844	82.62
475.063	91.62
475.282	78.62
475.501	87.62
475.72	76.62
475.939	87.62
476.158	78.62
476.377	96.62
476.596	88.62
476.814	78.62
477.033	89.62
477.252	92.62
477.471	98.62
477.69	87.62
477.908	94.62
478.127	104.62
478.346	94.62
478.564	87.62
478.783	84.62
479.002	97.62
479.22	101.62
479.439	111.62
479.658	105.62
479.876	110.62
480.095	110.62
480.313	111.62
480.532	123.62
480.751	173.62
480.969	498.62
481.188	2026.62
481.406	1207.62
481.624	236.62
481.843	108.62
482.061	96.62
482.28	92.62
482.498	80.62
482.717	91.62
482.935	71.62
483.153	98.62
483.372	88.62
483.59	92.62
483.808	86.62
484.027	96.62
484.245	92.62
484.463	97.62
484.681	96.62
484.9	83.62
485.118	102.62
485.336	99.62
485.554	89.62
485.772	103.62
485.99	105.62
486.209	99.62
486.427	93.62
486.645	106.62
486.863	108.62
487.081	91.62
487.299	86.62
487.517	95.62
487.735	94.62
487.953	90.62
488.171	97.62
488.389	94.62
488.607	98.62
488.825	87.62
489.043	95.62
489.261	87.62
489.479	96.62
489.696	93.62
489.914	88.62
490.132	96.62
490.35	98.62
490.568	82.62
490.786	81.62
491.003	88.62
491.221	91.62
491.439	94.62
491.657	87.62
491.874	101.62
492.092	87.62
492.31	93.62
492.527	91.62
492.745	78.62
492.963	86.62
493.18	79.62
493.398	101.62
493.615	91.62
493.833	91.62
494.05	88.62
494.268	88.62
494.485	74.62
494.703	87.62
494.92	88.62
495.138	90.62
495.355	86.62
495.573	84.62
495.79	90.62
496.008	88.62
496.225	78.62
496.442	88.62
496.66	75.62
496.877	95.62
497.094	94.62
497.312	89.62
497.529	79.62
497.746	97.62
497.963	83.62
498.181	93.62
498.398	78.62
498.615	106.62
498.832	112.62
499.049	88.62
499.267	96.62
499.484	81.62
499.701	91.62
499.918	102.62
500.135	91.62
500.352	83.62
500.569	94.62
500.786	90.62
501.003	67.62
501.22	94.62
501.437	89.62
501.654	103.62
501.871	93.62
502.088	85.62
502.305	93.62
502.522	94.62
502.739	90.62
502.956	92.62
503.172	90.62
503.389	102.62
503.606	102.62
503.823	92.62
504.04	86.62
504.256	85.62
504.473	85.62
504.69	90.62
504.907	99.62
505.123	90.62
505.34	94.62
505.557	93.62
505.773	103.62
505.99	91.62
506.207	87.62
506.423	93.62
506.64	96.62
506.856	91.62
507.073	90.62
507.289	103.62
507.506	84.62
507.722	101.62
507.939	112.62
508.155	95.62
508.372	101.62
508.588	86.62
508.805	93.62
509.021	99.62
509.238	88.62
509.454	96.62
509.67	100.62
509.887	110.62
510.103	127.62
510.319	181.62
510.536	618.62
510.752	1994.62
510.968	573.62
511.184	128.62
511.401	100.62
511.617	100.62
511.833	103.62
512.049	92.62
512.265	100.62
512.481	80.62
512.698	77.62
512.914	88.62
513.13	85.62
513.346	100.62
513.562	95.62
513.778	84.62
513.994	91.62
514.21	103.62
514.426	110.62
514.642	114.62
514.858	111.62
515.074	154.62
515.29	398.62
515.506	1369.62
