Data from Circ_1989_H10_HRD10591_00091.txt Node
Date: Wed Jan 03 12:01:39 EST 2024
User: Yrep
Spectrometer: HR+D1059
Trigger mode: 1
Integration Time (sec): 1.000000E-1
Scans to average: 1
Electric dark correction enabled: true
Nonlinearity correction enabled: false
Boxcar width: 0
XAxis mode: Wavelengths
Number of Pixels in Spectrum: 2048
>>>>>Begin Spectral Data<<<<<
223.165	-18.56
223.4	-18.56
223.635	-18.56
223.869	-25.56
224.104	-23.56
224.338	-13.56
224.573	-8.56
224.808	-10.56
225.042	-21.56
225.277	-3.56
225.511	6.44
225.746	-0.56
225.98	15.44
226.215	15.44
226.449	18.44
226.683	29.44
226.918	24.44
227.152	16.44
227.387	40.44
227.621	44.44
227.856	37.44
228.09	37.44
228.324	59.44
228.559	74.44
228.793	61.44
229.027	81.44
229.262	70.44
229.496	68.44
229.73	88.44
229.964	81.44
230.199	68.44
230.433	75.44
230.667	81.44
230.901	77.44
231.136	82.44
231.37	86.44
231.604	73.44
231.838	75.44
232.072	81.44
232.306	78.44
232.541	80.44
232.775	81.44
233.009	79.44
233.243	82.44
233.477	88.44
233.711	89.44
233.945	91.44
234.179	79.44
234.413	71.44
234.647	74.44
234.881	72.44
235.115	68.44
235.349	77.44
235.583	88.44
235.817	81.44
236.051	73.44
236.285	88.44
236.519	82.44
236.753	81.44
236.987	83.44
237.221	79.44
237.455	85.44
237.689	80.44
237.922	85.44
238.156	75.44
238.39	89.44
238.624	71.44
238.858	81.44
239.091	81.44
239.325	78.44
239.559	77.44
239.793	82.44
240.027	91.44
240.26	86.44
240.494	80.44
240.728	96.44
240.961	83.44
241.195	85.44
241.429	83.44
241.662	77.44
241.896	77.44
242.13	88.44
242.363	81.44
242.597	90.44
242.83	62.44
243.064	66.44
243.298	79.44
243.531	81.44
243.765	81.44
243.998	83.44
244.232	83.44
244.465	72.44
244.699	75.44
244.932	82.44
245.166	64.44
245.399	78.44
245.633	78.44
245.866	71.44
246.099	83.44
246.333	89.44
246.566	78.44
246.8	81.44
247.033	91.44
247.266	73.44
247.5	83.44
247.733	88.44
247.966	95.44
248.2	91.44
248.433	97.44
248.666	65.44
248.899	80.44
249.133	93.44
249.366	96.44
249.599	97.44
249.832	91.44
250.066	83.44
250.299	71.44
250.532	79.44
250.765	77.44
250.998	83.44
251.231	88.44
251.465	85.44
251.698	90.44
251.931	85.44
252.164	79.44
252.397	84.44
252.63	88.44
252.863	62.44
253.096	86.44
253.329	81.44
253.562	77.44
253.795	103.44
254.028	89.44
254.261	73.44
254.494	81.44
254.727	81.44
254.96	79.44
255.193	88.44
255.426	72.44
255.659	72.44
255.892	95.44
256.124	86.44
256.357	81.44
256.59	87.44
256.823	91.44
257.056	71.44
257.289	83.44
257.521	74.44
257.754	78.44
257.987	85.44
258.22	73.44
258.452	89.44
258.685	90.44
258.918	75.44
259.151	92.44
259.383	82.44
259.616	87.44
259.849	78.44
260.081	82.44
260.314	85.44
260.547	79.44
260.779	91.44
261.012	107.44
261.244	103.44
261.477	87.44
261.71	95.44
261.942	103.44
262.175	113.44
262.407	101.44
262.64	91.44
262.872	86.44
263.105	84.44
263.337	84.44
263.57	80.44
263.802	96.44
264.035	89.44
264.267	88.44
264.499	91.44
264.732	89.44
264.964	64.44
265.197	83.44
265.429	87.44
265.661	76.44
265.894	79.44
266.126	78.44
266.358	83.44
266.591	76.44
266.823	72.44
267.055	91.44
267.287	80.44
267.52	89.44
267.752	95.44
267.984	74.44
268.216	79.44
268.448	88.44
268.681	96.44
268.913	101.44
269.145	107.44
269.377	77.44
269.609	80.44
269.841	89.44
270.073	95.44
270.306	88.44
270.538	85.44
270.77	78.44
271.002	79.44
271.234	90.44
271.466	83.44
271.698	96.44
271.93	95.44
272.162	85.44
272.394	101.44
272.626	82.44
272.858	86.44
273.09	83.44
273.322	84.44
273.553	101.44
273.785	89.44
274.017	79.44
274.249	85.44
274.481	86.44
274.713	77.44
274.945	93.44
275.176	79.44
275.408	82.44
275.64	99.44
275.872	100.44
276.104	89.44
276.335	97.44
276.567	107.44
276.799	99.44
277.031	109.44
277.262	135.44
277.494	112.44
277.726	87.44
277.957	84.44
278.189	81.44
278.421	78.44
278.652	90.44
278.884	74.44
279.115	85.44
279.347	93.44
279.579	94.44
279.81	101.44
280.042	118.44
280.273	145.44
280.505	111.44
280.736	84.44
280.968	89.44
281.199	100.44
281.431	80.44
281.662	94.44
281.894	99.44
282.125	100.44
282.356	121.44
282.588	131.44
282.819	121.44
283.051	85.44
283.282	76.44
283.513	78.44
283.745	85.44
283.976	80.44
284.207	109.44
284.439	96.44
284.67	72.44
284.901	93.44
285.132	85.44
285.364	74.44
285.595	76.44
285.826	74.44
286.057	97.44
286.288	75.44
286.52	95.44
286.751	98.44
286.982	80.44
287.213	89.44
287.444	94.44
287.675	95.44
287.906	91.44
288.138	84.44
288.369	89.44
288.6	83.44
288.831	99.44
289.062	93.44
289.293	91.44
289.524	83.44
289.755	85.44
289.986	84.44
290.217	79.44
290.448	79.44
290.679	95.44
290.91	97.44
291.141	83.44
291.371	101.44
291.602	99.44
291.833	88.44
292.064	99.44
292.295	93.44
292.526	96.44
292.757	89.44
292.987	81.44
293.218	90.44
293.449	88.44
293.68	91.44
293.91	83.44
294.141	88.44
294.372	84.44
294.603	79.44
294.833	102.44
295.064	98.44
295.295	78.44
295.525	99.44
295.756	115.44
295.987	109.44
296.217	129.44
296.448	102.44
296.679	64.44
296.909	79.44
297.14	85.44
297.37	96.44
297.601	90.44
297.831	93.44
298.062	81.44
298.292	93.44
298.523	90.44
298.753	87.44
298.984	97.44
299.214	89.44
299.445	83.44
299.675	89.44
299.905	97.44
300.136	80.44
300.366	81.44
300.597	89.44
300.827	87.44
301.057	99.44
301.288	106.44
301.518	87.44
301.748	92.44
301.979	89.44
302.209	102.44
302.439	87.44
302.669	87.44
302.9	90.44
303.13	96.44
303.36	106.44
303.59	113.44
303.82	111.44
304.051	98.44
304.281	90.44
304.511	92.44
304.741	95.44
304.971	82.44
305.201	109.44
305.431	80.44
305.661	92.44
305.891	90.44
306.121	102.44
306.352	93.44
306.582	104.44
306.812	98.44
307.042	106.44
307.272	117.44
307.502	132.44
307.731	127.44
307.961	114.44
308.191	103.44
308.421	98.44
308.651	85.44
308.881	89.44
309.111	94.44
309.341	83.44
309.571	90.44
309.8	103.44
310.03	111.44
310.26	98.44
310.49	90.44
310.72	107.44
310.949	108.44
311.179	101.44
311.409	96.44
311.639	101.44
311.868	101.44
312.098	96.44
312.328	98.44
312.557	105.44
312.787	97.44
313.017	91.44
313.246	97.44
313.476	87.44
313.706	104.44
313.935	116.44
314.165	97.44
314.394	103.44
314.624	90.44
314.853	92.44
315.083	91.44
315.312	83.44
315.542	89.44
315.771	101.44
316.001	88.44
316.23	87.44
316.46	99.44
316.689	85.44
316.919	97.44
317.148	88.44
317.377	110.44
317.607	98.44
317.836	96.44
318.065	98.44
318.295	101.44
318.524	92.44
318.753	95.44
318.983	91.44
319.212	118.44
319.441	99.44
319.67	97.44
319.9	101.44
320.129	107.44
320.358	90.44
320.587	84.44
320.816	91.44
321.046	107.44
321.275	96.44
321.504	87.44
321.733	99.44
321.962	105.44
322.191	107.44
322.42	90.44
322.649	111.44
322.878	101.44
323.108	109.44
323.337	126.44
323.566	126.44
323.795	150.44
324.024	187.44
324.253	341.44
324.482	726.44
324.71	1544.44
324.939	2069.44
325.168	772.44
325.397	240.44
325.626	143.44
325.855	130.44
326.084	120.44
326.313	136.44
326.542	153.44
326.77	218.44
326.999	434.44
327.228	866.44
327.457	1607.44
327.686	1337.44
327.914	406.44
328.143	303.44
328.372	337.44
328.6	211.44
328.829	128.44
329.058	137.44
329.287	134.44
329.515	128.44
329.744	171.44
329.972	255.44
330.201	483.44
330.43	667.44
330.658	347.44
330.887	181.44
331.115	136.44
331.344	108.44
331.572	91.44
331.801	98.44
332.03	114.44
332.258	98.44
332.486	98.44
332.715	103.44
332.943	97.44
333.172	99.44
333.4	100.44
333.629	131.44
333.857	166.44
334.085	250.44
334.314	457.44
334.542	879.44
334.771	811.44
334.999	258.44
335.227	126.44
335.455	103.44
335.684	104.44
335.912	103.44
336.14	109.44
336.369	109.44
336.597	97.44
336.825	112.44
337.053	102.44
337.281	108.44
337.51	86.44
337.738	85.44
337.966	93.44
338.194	94.44
338.422	78.44
338.65	97.44
338.878	77.44
339.106	99.44
339.334	98.44
339.562	99.44
339.79	87.44
340.018	102.44
340.246	84.44
340.474	89.44
340.702	84.44
340.93	96.44
341.158	84.44
341.386	96.44
341.614	100.44
341.842	98.44
342.07	92.44
342.298	90.44
342.526	90.44
342.754	94.44
342.981	106.44
343.209	83.44
343.437	112.44
343.665	90.44
343.893	89.44
344.12	84.44
344.348	94.44
344.576	90.44
344.804	81.44
345.031	91.44
345.259	94.44
345.487	93.44
345.714	96.44
345.942	106.44
346.17	90.44
346.397	105.44
346.625	94.44
346.853	90.44
347.08	87.44
347.308	99.44
347.535	89.44
347.763	97.44
347.99	100.44
348.218	103.44
348.445	108.44
348.673	85.44
348.9	106.44
349.128	87.44
349.355	98.44
349.583	107.44
349.81	93.44
350.037	101.44
350.265	95.44
350.492	96.44
350.72	96.44
350.947	105.44
351.174	101.44
351.402	107.44
351.629	96.44
351.856	99.44
352.083	103.44
352.311	100.44
352.538	106.44
352.765	76.44
352.992	101.44
353.22	114.44
353.447	103.44
353.674	104.44
353.901	103.44
354.128	94.44
354.355	94.44
354.583	90.44
354.81	90.44
355.037	86.44
355.264	95.44
355.491	95.44
355.718	78.44
355.945	97.44
356.172	95.44
356.399	87.44
356.626	102.44
356.853	83.44
357.08	97.44
357.307	91.44
357.534	87.44
357.761	97.44
357.988	91.44
358.215	84.44
358.441	92.44
358.668	102.44
358.895	91.44
359.122	88.44
359.349	95.44
359.576	92.44
359.802	100.44
360.029	110.44
360.256	98.44
360.483	89.44
360.709	93.44
360.936	103.44
361.163	102.44
361.39	97.44
361.616	93.44
361.843	89.44
362.07	94.44
362.296	106.44
362.523	90.44
362.749	89.44
362.976	105.44
363.203	73.44
363.429	91.44
363.656	95.44
363.882	97.44
364.109	82.44
364.335	97.44
364.562	84.44
364.788	86.44
365.015	99.44
365.241	94.44
365.468	103.44
365.694	94.44
365.92	93.44
366.147	76.44
366.373	95.44
366.599	92.44
366.826	99.44
367.052	104.44
367.278	90.44
367.505	96.44
367.731	89.44
367.957	98.44
368.184	97.44
368.41	108.44
368.636	109.44
368.862	120.44
369.089	109.44
369.315	87.44
369.541	106.44
369.767	96.44
369.993	97.44
370.219	94.44
370.445	85.44
370.672	94.44
370.898	94.44
371.124	82.44
371.35	93.44
371.576	80.44
371.802	95.44
372.028	88.44
372.254	91.44
372.48	100.44
372.706	83.44
372.932	84.44
373.158	97.44
373.384	98.44
373.61	94.44
373.835	88.44
374.061	84.44
374.287	90.44
374.513	80.44
374.739	82.44
374.965	101.44
375.191	87.44
375.416	79.44
375.642	85.44
375.868	97.44
376.094	85.44
376.319	87.44
376.545	100.44
376.771	86.44
376.997	87.44
377.222	87.44
377.448	97.44
377.674	97.44
377.899	87.44
378.125	95.44
378.35	91.44
378.576	89.44
378.802	93.44
379.027	77.44
379.253	89.44
379.478	98.44
379.704	95.44
379.929	88.44
380.155	93.44
380.38	93.44
380.606	89.44
380.831	97.44
381.057	107.44
381.282	96.44
381.507	83.44
381.733	92.44
381.958	100.44
382.184	91.44
382.409	93.44
382.634	77.44
382.86	104.44
383.085	88.44
383.31	99.44
383.535	93.44
383.761	94.44
383.986	94.44
384.211	82.44
384.436	88.44
384.662	94.44
384.887	105.44
385.112	93.44
385.337	93.44
385.562	94.44
385.787	101.44
386.013	101.44
386.238	98.44
386.463	104.44
386.688	113.44
386.913	104.44
387.138	109.44
387.363	117.44
387.588	101.44
387.813	96.44
388.038	94.44
388.263	99.44
388.488	99.44
388.713	85.44
388.938	98.44
389.163	93.44
389.387	101.44
389.612	100.44
389.837	88.44
390.062	93.44
390.287	87.44
390.512	89.44
390.736	95.44
390.961	84.44
391.186	99.44
391.411	89.44
391.636	106.44
391.86	79.44
392.085	74.44
392.31	92.44
392.534	84.44
392.759	87.44
392.984	98.44
393.208	80.44
393.433	104.44
393.658	86.44
393.882	83.44
394.107	82.44
394.331	98.44
394.556	94.44
394.78	100.44
395.005	95.44
395.229	86.44
395.454	105.44
395.678	72.44
395.903	93.44
396.127	86.44
396.352	87.44
396.576	82.44
396.801	104.44
397.025	96.44
397.249	89.44
397.474	92.44
397.698	81.44
397.922	72.44
398.147	87.44
398.371	79.44
398.595	100.44
398.82	81.44
399.044	98.44
399.268	83.44
399.492	82.44
399.717	93.44
399.941	96.44
400.165	93.44
400.389	103.44
400.613	91.44
400.837	90.44
401.062	78.44
401.286	85.44
401.51	104.44
401.734	91.44
401.958	81.44
402.182	119.44
402.406	153.44
402.63	134.44
402.854	105.44
403.078	86.44
403.302	93.44
403.526	97.44
403.75	79.44
403.974	74.44
404.198	77.44
404.422	68.44
404.645	84.44
404.869	88.44
405.093	114.44
405.317	111.44
405.541	112.44
405.765	119.44
405.988	117.44
406.212	147.44
406.436	199.44
406.66	143.44
406.883	100.44
407.107	88.44
407.331	85.44
407.555	104.44
407.778	104.44
408.002	97.44
408.226	96.44
408.449	85.44
408.673	73.44
408.896	93.44
409.12	106.44
409.344	78.44
409.567	82.44
409.791	87.44
410.014	91.44
410.238	82.44
410.461	99.44
410.685	86.44
410.908	103.44
411.132	101.44
411.355	100.44
411.578	99.44
411.802	94.44
412.025	92.44
412.249	102.44
412.472	97.44
412.695	120.44
412.919	94.44
413.142	99.44
413.365	85.44
413.589	107.44
413.812	109.44
414.035	97.44
414.258	98.44
414.482	99.44
414.705	113.44
414.928	95.44
415.151	96.44
415.374	98.44
415.597	93.44
415.821	98.44
416.044	89.44
416.267	77.44
416.49	80.44
416.713	84.44
416.936	90.44
417.159	94.44
417.382	86.44
417.605	85.44
417.828	86.44
418.051	77.44
418.274	80.44
418.497	84.44
418.72	96.44
418.943	95.44
419.166	82.44
419.389	82.44
419.611	88.44
419.834	73.44
420.057	84.44
420.28	86.44
420.503	80.44
420.726	85.44
420.948	97.44
421.171	98.44
421.394	91.44
421.617	83.44
421.839	92.44
422.062	83.44
422.285	78.44
422.507	87.44
422.73	92.44
422.953	106.44
423.175	87.44
423.398	88.44
423.621	87.44
423.843	96.44
424.066	81.44
424.288	100.44
424.511	104.44
424.733	97.44
424.956	106.44
425.178	94.44
425.401	85.44
425.623	89.44
425.846	97.44
426.068	95.44
426.291	89.44
426.513	94.44
426.735	99.44
426.958	98.44
427.18	97.44
427.402	133.44
427.625	186.44
427.847	164.44
428.069	165.44
428.292	110.44
428.514	101.44
428.736	94.44
428.958	79.44
429.181	84.44
429.403	91.44
429.625	91.44
429.847	71.44
430.069	105.44
430.292	99.44
430.514	85.44
430.736	82.44
430.958	104.44
431.18	97.44
431.402	83.44
431.624	90.44
431.846	66.44
432.068	85.44
432.29	98.44
432.512	100.44
432.734	74.44
432.956	90.44
433.178	93.44
433.4	94.44
433.622	93.44
433.844	95.44
434.066	100.44
434.287	103.44
434.509	90.44
434.731	97.44
434.953	84.44
435.175	74.44
435.397	81.44
435.618	89.44
435.84	106.44
436.062	117.44
436.284	109.44
436.505	85.44
436.727	89.44
436.949	111.44
437.17	85.44
437.392	103.44
437.614	84.44
437.835	100.44
438.057	117.44
438.278	106.44
438.5	103.44
438.721	108.44
438.943	95.44
439.165	84.44
439.386	69.44
439.608	92.44
439.829	94.44
440.05	119.44
440.272	156.44
440.493	104.44
440.715	106.44
440.936	100.44
441.158	91.44
441.379	82.44
441.6	83.44
441.822	110.44
442.043	95.44
442.264	94.44
442.486	106.44
442.707	96.44
442.928	112.44
443.149	151.44
443.371	121.44
443.592	94.44
443.813	108.44
444.034	115.44
444.255	96.44
444.476	104.44
444.698	80.44
444.919	75.44
445.14	119.44
445.361	104.44
445.582	108.44
445.803	148.44
446.024	139.44
446.245	127.44
446.466	112.44
446.687	101.44
446.908	83.44
447.129	103.44
447.35	91.44
447.571	95.44
447.792	97.44
448.013	103.44
448.234	103.44
448.455	93.44
448.675	127.44
448.896	110.44
449.117	89.44
449.338	103.44
449.559	134.44
449.779	141.44
450	93.44
450.221	85.44
450.442	90.44
450.662	81.44
450.883	97.44
451.104	114.44
451.324	96.44
451.545	93.44
451.766	81.44
451.986	94.44
452.207	83.44
452.428	103.44
452.648	98.44
452.869	100.44
453.089	111.44
453.31	104.44
453.53	98.44
453.751	97.44
453.971	79.44
454.192	119.44
454.412	96.44
454.633	83.44
454.853	86.44
455.073	92.44
455.294	90.44
455.514	97.44
455.734	99.44
455.955	85.44
456.175	89.44
456.395	90.44
456.616	94.44
456.836	73.44
457.056	87.44
457.276	84.44
457.497	93.44
457.717	90.44
457.937	96.44
458.157	96.44
458.377	100.44
458.598	107.44
458.818	142.44
459.038	153.44
459.258	116.44
459.478	96.44
459.698	81.44
459.918	97.44
460.138	86.44
460.358	88.44
460.578	80.44
460.798	93.44
461.018	88.44
461.238	98.44
461.458	86.44
461.678	95.44
461.898	84.44
462.118	85.44
462.338	85.44
462.558	96.44
462.777	86.44
462.997	83.44
463.217	101.44
463.437	87.44
463.657	93.44
463.876	89.44
464.096	99.44
464.316	98.44
464.536	96.44
464.755	95.44
464.975	94.44
465.195	147.44
465.414	156.44
465.634	104.44
465.854	97.44
466.073	73.44
466.293	101.44
466.512	87.44
466.732	100.44
466.951	82.44
467.171	101.44
467.391	111.44
467.61	131.44
467.829	136.44
468.049	298.44
468.268	451.44
468.488	145.44
468.707	116.44
468.927	85.44
469.146	102.44
469.365	105.44
469.585	102.44
469.804	85.44
470.023	103.44
470.243	91.44
470.462	94.44
470.681	99.44
470.901	100.44
471.12	111.44
471.339	87.44
471.558	96.44
471.777	120.44
471.997	198.44
472.216	593.44
472.435	1247.44
472.654	325.44
472.873	133.44
473.092	97.44
473.311	91.44
473.53	95.44
473.749	88.44
473.968	88.44
474.187	93.44
474.406	97.44
474.625	77.44
474.844	86.44
475.063	91.44
475.282	99.44
475.501	82.44
475.72	97.44
475.939	97.44
476.158	88.44
476.377	90.44
476.596	91.44
476.814	98.44
477.033	96.44
477.252	90.44
477.471	82.44
477.69	78.44
477.908	90.44
478.127	106.44
478.346	90.44
478.564	95.44
478.783	88.44
479.002	85.44
479.22	107.44
479.439	112.44
479.658	97.44
479.876	117.44
480.095	91.44
480.313	108.44
480.532	141.44
480.751	184.44
480.969	565.44
481.188	2165.44
481.406	1240.44
481.624	226.44
481.843	107.44
482.061	100.44
482.28	98.44
482.498	77.44
482.717	104.44
482.935	104.44
483.153	97.44
483.372	97.44
483.59	98.44
483.808	83.44
484.027	89.44
484.245	96.44
484.463	88.44
484.681	93.44
484.9	83.44
485.118	103.44
485.336	94.44
485.554	88.44
485.772	112.44
485.99	100.44
486.209	106.44
486.427	114.44
486.645	110.44
486.863	115.44
487.081	117.44
487.299	99.44
487.517	101.44
487.735	85.44
487.953	94.44
488.171	109.44
488.389	93.44
488.607	90.44
488.825	100.44
489.043	95.44
489.261	95.44
489.479	89.44
489.696	104.44
489.914	91.44
490.132	91.44
490.35	98.44
490.568	94.44
490.786	90.44
491.003	109.44
491.221	102.44
491.439	72.44
491.657	89.44
491.874	84.44
492.092	95.44
492.31	98.44
492.527	102.44
492.745	103.44
492.963	98.44
493.18	96.44
493.398	86.44
493.615	97.44
493.833	91.44
494.05	84.44
494.268	89.44
494.485	85.44
494.703	102.44
494.92	96.44
495.138	89.44
495.355	98.44
495.573	95.44
495.79	110.44
496.008	90.44
496.225	88.44
496.442	88.44
496.66	96.44
496.877	89.44
497.094	85.44
497.312	83.44
497.529	83.44
497.746	99.44
497.963	95.44
498.181	83.44
498.398	95.44
498.615	115.44
498.832	96.44
499.049	94.44
499.267	86.44
499.484	93.44
499.701	85.44
499.918	81.44
500.135	83.44
500.352	97.44
500.569	90.44
500.786	95.44
501.003	89.44
501.22	87.44
501.437	87.44
501.654	90.44
501.871	86.44
502.088	96.44
502.305	99.44
502.522	103.44
502.739	93.44
502.956	98.44
503.172	101.44
503.389	87.44
503.606	103.44
503.823	100.44
504.04	90.44
504.256	96.44
504.473	92.44
504.69	95.44
504.907	97.44
505.123	99.44
505.34	85.44
505.557	81.44
505.773	108.44
505.99	88.44
506.207	93.44
506.423	106.44
506.64	91.44
506.856	85.44
507.073	86.44
507.289	93.44
507.506	92.44
507.722	119.44
507.939	108.44
508.155	93.44
508.372	102.44
508.588	99.44
508.805	86.44
509.021	88.44
509.238	89.44
509.454	88.44
509.67	89.44
509.887	102.44
510.103	128.44
510.319	185.44
510.536	561.44
510.752	1882.44
510.968	557.44
511.184	149.44
511.401	108.44
511.617	88.44
511.833	96.44
512.049	87.44
512.265	104.44
512.481	71.44
512.698	102.44
512.914	101.44
513.13	101.44
513.346	100.44
513.562	105.44
513.778	95.44
513.994	107.44
514.21	98.44
514.426	110.44
514.642	133.44
514.858	121.44
