Data from Circ_1989_H10_HRD10591_00028.txt Node
Date: Wed Jan 03 12:01:27 EST 2024
User: Yrep
Spectrometer: HR+D1059
Trigger mode: 1
Integration Time (sec): 1.000000E-1
Scans to average: 1
Electric dark correction enabled: true
Nonlinearity correction enabled: false
Boxcar width: 0
XAxis mode: Wavelengths
Number of Pixels in Spectrum: 2048
>>>>>Begin Spectral Data<<<<<
223.165	-20.44
223.4	-20.44
223.635	-20.44
223.869	-11.44
224.104	-36.44
224.338	-9.44
224.573	-10.44
224.808	-12.44
225.042	-16.44
225.277	-11.44
225.511	10.56
225.746	0.56
225.98	18.56
226.215	18.56
226.449	27.56
226.683	15.56
226.918	16.56
227.152	20.56
227.387	27.56
227.621	34.56
227.856	38.56
228.09	45.56
228.324	44.56
228.559	53.56
228.793	43.56
229.027	59.56
229.262	67.56
229.496	62.56
229.73	77.56
229.964	87.56
230.199	66.56
230.433	80.56
230.667	82.56
230.901	80.56
231.136	79.56
231.37	82.56
231.604	69.56
231.838	90.56
232.072	90.56
232.306	78.56
232.541	83.56
232.775	85.56
233.009	68.56
233.243	71.56
233.477	64.56
233.711	83.56
233.945	61.56
234.179	84.56
234.413	82.56
234.647	80.56
234.881	99.56
235.115	69.56
235.349	81.56
235.583	80.56
235.817	88.56
236.051	82.56
236.285	66.56
236.519	78.56
236.753	74.56
236.987	67.56
237.221	67.56
237.455	90.56
237.689	76.56
237.922	82.56
238.156	68.56
238.39	70.56
238.624	77.56
238.858	76.56
239.091	63.56
239.325	78.56
239.559	80.56
239.793	83.56
240.027	66.56
240.26	77.56
240.494	80.56
240.728	60.56
240.961	79.56
241.195	61.56
241.429	83.56
241.662	94.56
241.896	76.56
242.13	76.56
242.363	83.56
242.597	53.56
242.83	70.56
243.064	62.56
243.298	87.56
243.531	74.56
243.765	77.56
243.998	79.56
244.232	77.56
244.465	62.56
244.699	86.56
244.932	98.56
245.166	74.56
245.399	84.56
245.633	80.56
245.866	75.56
246.099	78.56
246.333	83.56
246.566	82.56
246.8	61.56
247.033	90.56
247.266	71.56
247.5	88.56
247.733	92.56
247.966	75.56
248.2	74.56
248.433	76.56
248.666	93.56
248.899	95.56
249.133	82.56
249.366	112.56
249.599	93.56
249.832	68.56
250.066	78.56
250.299	75.56
250.532	67.56
250.765	80.56
250.998	88.56
251.231	89.56
251.465	78.56
251.698	77.56
251.931	78.56
252.164	76.56
252.397	79.56
252.63	79.56
252.863	76.56
253.096	74.56
253.329	79.56
253.562	78.56
253.795	83.56
254.028	88.56
254.261	78.56
254.494	76.56
254.727	80.56
254.96	73.56
255.193	70.56
255.426	69.56
255.659	61.56
255.892	95.56
256.124	93.56
256.357	85.56
256.59	85.56
256.823	77.56
257.056	90.56
257.289	78.56
257.521	79.56
257.754	66.56
257.987	82.56
258.22	67.56
258.452	86.56
258.685	85.56
258.918	84.56
259.151	74.56
259.383	69.56
259.616	81.56
259.849	72.56
260.081	76.56
260.314	70.56
260.547	96.56
260.779	84.56
261.012	87.56
261.244	94.56
261.477	89.56
261.71	96.56
261.942	103.56
262.175	102.56
262.407	91.56
262.64	71.56
262.872	86.56
263.105	74.56
263.337	76.56
263.57	85.56
263.802	83.56
264.035	82.56
264.267	95.56
264.499	88.56
264.732	94.56
264.964	82.56
265.197	75.56
265.429	84.56
265.661	93.56
265.894	74.56
266.126	78.56
266.358	89.56
266.591	90.56
266.823	76.56
267.055	83.56
267.287	77.56
267.52	88.56
267.752	109.56
267.984	79.56
268.216	84.56
268.448	79.56
268.681	93.56
268.913	85.56
269.145	83.56
269.377	68.56
269.609	81.56
269.841	90.56
270.073	90.56
270.306	80.56
270.538	79.56
270.77	95.56
271.002	88.56
271.234	91.56
271.466	97.56
271.698	82.56
271.93	76.56
272.162	79.56
272.394	85.56
272.626	78.56
272.858	81.56
273.09	79.56
273.322	94.56
273.553	82.56
273.785	88.56
274.017	58.56
274.249	86.56
274.481	80.56
274.713	88.56
274.945	90.56
275.176	82.56
275.408	90.56
275.64	94.56
275.872	83.56
276.104	97.56
276.335	78.56
276.567	94.56
276.799	107.56
277.031	127.56
277.262	128.56
277.494	100.56
277.726	90.56
277.957	75.56
278.189	94.56
278.421	78.56
278.652	84.56
278.884	83.56
279.115	85.56
279.347	84.56
279.579	105.56
279.81	102.56
280.042	125.56
280.273	144.56
280.505	95.56
280.736	94.56
280.968	84.56
281.199	96.56
281.431	89.56
281.662	96.56
281.894	96.56
282.125	103.56
282.356	115.56
282.588	129.56
282.819	96.56
283.051	84.56
283.282	81.56
283.513	67.56
283.745	72.56
283.976	84.56
284.207	92.56
284.439	75.56
284.67	92.56
284.901	104.56
285.132	91.56
285.364	89.56
285.595	79.56
285.826	93.56
286.057	100.56
286.288	87.56
286.52	83.56
286.751	99.56
286.982	102.56
287.213	77.56
287.444	82.56
287.675	74.56
287.906	86.56
288.138	71.56
288.369	79.56
288.6	92.56
288.831	78.56
289.062	91.56
289.293	72.56
289.524	83.56
289.755	84.56
289.986	88.56
290.217	80.56
290.448	93.56
290.679	107.56
290.91	102.56
291.141	86.56
291.371	81.56
291.602	87.56
291.833	88.56
292.064	87.56
292.295	68.56
292.526	86.56
292.757	91.56
292.987	108.56
293.218	86.56
293.449	74.56
293.68	89.56
293.91	88.56
294.141	78.56
294.372	83.56
294.603	88.56
294.833	80.56
295.064	80.56
295.295	80.56
295.525	86.56
295.756	101.56
295.987	102.56
296.217	112.56
296.448	104.56
296.679	101.56
296.909	80.56
297.14	92.56
297.37	91.56
297.601	85.56
297.831	84.56
298.062	74.56
298.292	82.56
298.523	94.56
298.753	93.56
298.984	89.56
299.214	87.56
299.445	85.56
299.675	100.56
299.905	93.56
300.136	86.56
300.366	85.56
300.597	101.56
300.827	93.56
301.057	109.56
301.288	103.56
301.518	85.56
301.748	84.56
301.979	102.56
302.209	86.56
302.439	107.56
302.669	90.56
302.9	90.56
303.13	86.56
303.36	100.56
303.59	117.56
303.82	121.56
304.051	87.56
304.281	111.56
304.511	83.56
304.741	78.56
304.971	82.56
305.201	104.56
305.431	101.56
305.661	98.56
305.891	79.56
306.121	101.56
306.352	95.56
306.582	94.56
306.812	105.56
307.042	103.56
307.272	106.56
307.502	114.56
307.731	114.56
307.961	95.56
308.191	90.56
308.421	86.56
308.651	99.56
308.881	97.56
309.111	98.56
309.341	100.56
309.571	91.56
309.8	82.56
310.03	88.56
310.26	103.56
310.49	99.56
310.72	99.56
310.949	94.56
311.179	84.56
311.409	86.56
311.639	95.56
311.868	102.56
312.098	96.56
312.328	88.56
312.557	98.56
312.787	100.56
313.017	95.56
313.246	104.56
313.476	72.56
313.706	101.56
313.935	91.56
314.165	86.56
314.394	95.56
314.624	92.56
314.853	87.56
315.083	92.56
315.312	87.56
315.542	93.56
315.771	93.56
316.001	89.56
316.23	95.56
316.46	70.56
316.689	90.56
316.919	83.56
317.148	99.56
317.377	104.56
317.607	99.56
317.836	87.56
318.065	76.56
318.295	95.56
318.524	92.56
318.753	80.56
318.983	86.56
319.212	107.56
319.441	106.56
319.67	104.56
319.9	86.56
320.129	96.56
320.358	94.56
320.587	89.56
320.816	101.56
321.046	101.56
321.275	90.56
321.504	95.56
321.733	110.56
321.962	100.56
322.191	101.56
322.42	104.56
322.649	100.56
322.878	100.56
323.108	122.56
323.337	111.56
323.566	123.56
323.795	143.56
324.024	189.56
324.253	338.56
324.482	697.56
324.71	1471.56
324.939	2023.56
325.168	742.56
325.397	229.56
325.626	141.56
325.855	128.56
326.084	113.56
326.313	130.56
326.542	155.56
326.77	205.56
326.999	370.56
327.228	805.56
327.457	1510.56
327.686	1240.56
327.914	379.56
328.143	256.56
328.372	290.56
328.6	197.56
328.829	128.56
329.058	135.56
329.287	151.56
329.515	126.56
329.744	144.56
329.972	219.56
330.201	382.56
330.43	546.56
330.658	280.56
330.887	163.56
331.115	125.56
331.344	102.56
331.572	105.56
331.801	92.56
332.03	100.56
332.258	89.56
332.486	93.56
332.715	90.56
332.943	95.56
333.172	103.56
333.4	111.56
333.629	107.56
333.857	133.56
334.085	208.56
334.314	385.56
334.542	666.56
334.771	658.56
334.999	215.56
335.227	120.56
335.455	108.56
335.684	107.56
335.912	98.56
336.14	94.56
336.369	104.56
336.597	97.56
336.825	100.56
337.053	89.56
337.281	102.56
337.51	104.56
337.738	88.56
337.966	108.56
338.194	96.56
338.422	90.56
338.65	97.56
338.878	92.56
339.106	86.56
339.334	83.56
339.562	86.56
339.79	79.56
340.018	84.56
340.246	92.56
340.474	96.56
340.702	95.56
340.93	96.56
341.158	91.56
341.386	92.56
341.614	83.56
341.842	92.56
342.07	95.56
342.298	79.56
342.526	75.56
342.754	77.56
342.981	77.56
343.209	85.56
343.437	100.56
343.665	93.56
343.893	87.56
344.12	98.56
344.348	92.56
344.576	87.56
344.804	79.56
345.031	92.56
345.259	103.56
345.487	102.56
345.714	110.56
345.942	94.56
346.17	92.56
346.397	90.56
346.625	72.56
346.853	84.56
347.08	98.56
347.308	92.56
347.535	85.56
347.763	96.56
347.99	111.56
348.218	91.56
348.445	115.56
348.673	110.56
348.9	96.56
349.128	87.56
349.355	99.56
349.583	90.56
349.81	85.56
350.037	84.56
350.265	87.56
350.492	102.56
350.72	98.56
350.947	98.56
351.174	100.56
351.402	100.56
351.629	112.56
351.856	107.56
352.083	101.56
352.311	99.56
352.538	95.56
352.765	74.56
352.992	100.56
353.22	127.56
353.447	95.56
353.674	100.56
353.901	98.56
354.128	88.56
354.355	93.56
354.583	95.56
354.81	99.56
355.037	82.56
355.264	91.56
355.491	94.56
355.718	84.56
355.945	94.56
356.172	91.56
356.399	93.56
356.626	90.56
356.853	95.56
357.08	85.56
357.307	91.56
357.534	93.56
357.761	83.56
357.988	98.56
358.215	104.56
358.441	116.56
358.668	98.56
358.895	79.56
359.122	79.56
359.349	93.56
359.576	91.56
359.802	99.56
360.029	110.56
360.256	118.56
360.483	93.56
360.709	91.56
360.936	86.56
361.163	95.56
361.39	90.56
361.616	88.56
361.843	80.56
362.07	86.56
362.296	104.56
362.523	78.56
362.749	83.56
362.976	100.56
363.203	94.56
363.429	85.56
363.656	92.56
363.882	89.56
364.109	84.56
364.335	106.56
364.562	95.56
364.788	98.56
365.015	96.56
365.241	92.56
365.468	108.56
365.694	103.56
365.92	89.56
366.147	84.56
366.373	102.56
366.599	93.56
366.826	94.56
367.052	98.56
367.278	110.56
367.505	88.56
367.731	85.56
367.957	84.56
368.184	84.56
368.41	93.56
368.636	109.56
368.862	113.56
369.089	100.56
369.315	80.56
369.541	92.56
369.767	89.56
369.993	89.56
370.219	86.56
370.445	80.56
370.672	85.56
370.898	87.56
371.124	92.56
371.35	78.56
371.576	89.56
371.802	86.56
372.028	84.56
372.254	77.56
372.48	84.56
372.706	70.56
372.932	65.56
373.158	71.56
373.384	94.56
373.61	82.56
373.835	84.56
374.061	81.56
374.287	100.56
374.513	83.56
374.739	84.56
374.965	90.56
375.191	94.56
375.416	91.56
375.642	93.56
375.868	100.56
376.094	103.56
376.319	87.56
376.545	95.56
376.771	87.56
376.997	90.56
377.222	88.56
377.448	97.56
377.674	80.56
377.899	82.56
378.125	88.56
378.35	94.56
378.576	100.56
378.802	88.56
379.027	81.56
379.253	88.56
379.478	88.56
379.704	83.56
379.929	84.56
380.155	80.56
380.38	88.56
380.606	91.56
380.831	102.56
381.057	108.56
381.282	90.56
381.507	91.56
381.733	89.56
381.958	79.56
382.184	105.56
382.409	101.56
382.634	92.56
382.86	101.56
383.085	103.56
383.31	103.56
383.535	87.56
383.761	87.56
383.986	100.56
384.211	93.56
384.436	99.56
384.662	105.56
384.887	90.56
385.112	108.56
385.337	109.56
385.562	86.56
385.787	95.56
386.013	97.56
386.238	100.56
386.463	98.56
386.688	105.56
386.913	110.56
387.138	95.56
387.363	97.56
387.588	92.56
387.813	111.56
388.038	114.56
388.263	106.56
388.488	117.56
388.713	96.56
388.938	91.56
389.163	97.56
389.387	110.56
389.612	87.56
389.837	95.56
390.062	70.56
390.287	88.56
390.512	75.56
390.736	93.56
390.961	86.56
391.186	85.56
391.411	90.56
391.636	93.56
391.86	77.56
392.085	69.56
392.31	90.56
392.534	92.56
392.759	92.56
392.984	81.56
393.208	93.56
393.433	87.56
393.658	85.56
393.882	79.56
394.107	89.56
394.331	85.56
394.556	92.56
394.78	76.56
395.005	87.56
395.229	75.56
395.454	95.56
395.678	78.56
395.903	90.56
396.127	70.56
396.352	79.56
396.576	87.56
396.801	101.56
397.025	79.56
397.249	83.56
397.474	92.56
397.698	96.56
397.922	92.56
398.147	83.56
398.371	81.56
398.595	96.56
398.82	85.56
399.044	68.56
399.268	92.56
399.492	90.56
399.717	79.56
399.941	71.56
400.165	97.56
400.389	97.56
400.613	91.56
400.837	91.56
401.062	83.56
401.286	86.56
401.51	83.56
401.734	87.56
401.958	95.56
402.182	119.56
402.406	143.56
402.63	118.56
402.854	86.56
403.078	88.56
403.302	90.56
403.526	75.56
403.75	78.56
403.974	67.56
404.198	95.56
404.422	68.56
404.645	87.56
404.869	103.56
405.093	95.56
405.317	105.56
405.541	110.56
405.765	100.56
405.988	110.56
406.212	174.56
406.436	219.56
406.66	146.56
406.883	95.56
407.107	92.56
407.331	90.56
407.555	103.56
407.778	91.56
408.002	87.56
408.226	84.56
408.449	89.56
408.673	89.56
408.896	85.56
409.12	93.56
409.344	94.56
409.567	81.56
409.791	77.56
410.014	67.56
410.238	92.56
410.461	71.56
410.685	86.56
410.908	103.56
411.132	105.56
411.355	106.56
411.578	99.56
411.802	90.56
412.025	83.56
412.249	91.56
412.472	97.56
412.695	106.56
412.919	87.56
413.142	92.56
413.365	82.56
413.589	91.56
413.812	82.56
414.035	82.56
414.258	79.56
414.482	106.56
414.705	95.56
414.928	104.56
415.151	92.56
415.374	80.56
415.597	91.56
415.821	96.56
416.044	87.56
416.267	85.56
416.49	88.56
416.713	80.56
416.936	84.56
417.159	80.56
417.382	89.56
417.605	76.56
417.828	94.56
418.051	80.56
418.274	87.56
418.497	78.56
418.72	66.56
418.943	90.56
419.166	88.56
419.389	88.56
419.611	93.56
419.834	71.56
420.057	86.56
420.28	92.56
420.503	71.56
420.726	80.56
420.948	82.56
421.171	100.56
421.394	88.56
421.617	94.56
421.839	95.56
422.062	77.56
422.285	96.56
422.507	84.56
422.73	102.56
422.953	102.56
423.175	95.56
423.398	84.56
423.621	74.56
423.843	95.56
424.066	89.56
424.288	94.56
424.511	84.56
424.733	97.56
424.956	99.56
425.178	98.56
425.401	91.56
425.623	91.56
425.846	86.56
426.068	99.56
426.291	87.56
426.513	88.56
426.735	89.56
426.958	93.56
427.18	108.56
427.402	113.56
427.625	170.56
427.847	156.56
428.069	144.56
428.292	112.56
428.514	81.56
428.736	81.56
428.958	85.56
429.181	81.56
429.403	92.56
429.625	90.56
429.847	78.56
430.069	96.56
430.292	85.56
430.514	90.56
430.736	80.56
430.958	101.56
431.18	88.56
431.402	78.56
431.624	77.56
431.846	94.56
432.068	91.56
432.29	89.56
432.512	82.56
432.734	80.56
432.956	87.56
433.178	99.56
433.4	89.56
433.622	72.56
433.844	78.56
434.066	77.56
434.287	100.56
434.509	94.56
434.731	88.56
434.953	94.56
435.175	94.56
435.397	104.56
435.618	97.56
435.84	109.56
436.062	113.56
436.284	124.56
436.505	98.56
436.727	112.56
436.949	77.56
437.17	87.56
437.392	88.56
437.614	99.56
437.835	112.56
438.057	104.56
438.278	121.56
438.5	108.56
438.721	123.56
438.943	106.56
439.165	78.56
439.386	83.56
439.608	90.56
439.829	100.56
440.05	110.56
440.272	145.56
440.493	98.56
440.715	96.56
440.936	87.56
441.158	81.56
441.379	97.56
441.6	90.56
441.822	99.56
442.043	90.56
442.264	96.56
442.486	103.56
442.707	102.56
442.928	92.56
443.149	128.56
443.371	124.56
443.592	109.56
443.813	107.56
444.034	102.56
444.255	90.56
444.476	90.56
444.698	80.56
444.919	97.56
445.14	129.56
445.361	125.56
445.582	107.56
445.803	126.56
446.024	117.56
446.245	125.56
446.466	89.56
446.687	97.56
446.908	86.56
447.129	90.56
447.35	92.56
447.571	93.56
447.792	94.56
448.013	113.56
448.234	104.56
448.455	91.56
448.675	100.56
448.896	95.56
449.117	103.56
449.338	102.56
449.559	110.56
449.779	122.56
450	98.56
450.221	91.56
450.442	98.56
450.662	90.56
450.883	99.56
451.104	93.56
451.324	99.56
451.545	85.56
451.766	93.56
451.986	82.56
452.207	80.56
452.428	83.56
452.648	111.56
452.869	97.56
453.089	104.56
453.31	118.56
453.53	80.56
453.751	83.56
453.971	89.56
454.192	106.56
454.412	97.56
454.633	79.56
454.853	95.56
455.073	86.56
455.294	90.56
455.514	83.56
455.734	79.56
455.955	92.56
456.175	88.56
456.395	76.56
456.616	76.56
456.836	79.56
457.056	96.56
457.276	85.56
457.497	98.56
457.717	81.56
457.937	91.56
458.157	82.56
458.377	83.56
458.598	108.56
458.818	139.56
459.038	158.56
459.258	110.56
459.478	91.56
459.698	94.56
459.918	86.56
460.138	80.56
460.358	85.56
460.578	95.56
460.798	82.56
461.018	91.56
461.238	84.56
461.458	97.56
461.678	80.56
461.898	93.56
462.118	93.56
462.338	93.56
462.558	86.56
462.777	92.56
462.997	94.56
463.217	97.56
463.437	88.56
463.657	92.56
463.876	80.56
464.096	93.56
464.316	83.56
464.536	93.56
464.755	78.56
464.975	119.56
465.195	169.56
465.414	154.56
465.634	90.56
465.854	92.56
466.073	85.56
466.293	93.56
466.512	77.56
466.732	77.56
466.951	86.56
467.171	90.56
467.391	104.56
467.61	106.56
467.829	133.56
468.049	270.56
468.268	330.56
468.488	118.56
468.707	92.56
468.927	65.56
469.146	90.56
469.365	93.56
469.585	97.56
469.804	90.56
470.023	88.56
470.243	93.56
470.462	88.56
470.681	111.56
470.901	98.56
471.12	89.56
471.339	100.56
471.558	95.56
471.777	107.56
471.997	183.56
472.216	478.56
472.435	950.56
472.654	266.56
472.873	110.56
473.092	100.56
473.311	90.56
473.53	79.56
473.749	78.56
473.968	95.56
474.187	106.56
474.406	88.56
474.625	92.56
474.844	93.56
475.063	74.56
475.282	87.56
475.501	84.56
475.72	84.56
475.939	85.56
476.158	91.56
476.377	91.56
476.596	84.56
476.814	96.56
477.033	97.56
477.252	92.56
477.471	81.56
477.69	82.56
477.908	91.56
478.127	88.56
478.346	89.56
478.564	79.56
478.783	92.56
479.002	89.56
479.22	97.56
479.439	102.56
479.658	92.56
479.876	85.56
480.095	106.56
480.313	101.56
480.532	111.56
480.751	152.56
480.969	445.56
481.188	1669.56
481.406	982.56
481.624	183.56
481.843	100.56
482.061	103.56
482.28	99.56
482.498	85.56
482.717	108.56
482.935	76.56
483.153	101.56
483.372	90.56
483.59	98.56
483.808	92.56
484.027	100.56
484.245	93.56
484.463	84.56
484.681	101.56
484.9	82.56
485.118	90.56
485.336	93.56
485.554	101.56
485.772	103.56
485.99	94.56
486.209	103.56
486.427	114.56
486.645	101.56
486.863	104.56
487.081	92.56
487.299	103.56
487.517	92.56
487.735	103.56
487.953	76.56
488.171	91.56
488.389	89.56
488.607	99.56
488.825	89.56
489.043	90.56
489.261	89.56
489.479	96.56
489.696	85.56
489.914	74.56
490.132	84.56
490.35	79.56
490.568	92.56
490.786	82.56
491.003	75.56
491.221	86.56
491.439	88.56
491.657	80.56
491.874	92.56
492.092	79.56
492.31	93.56
492.527	93.56
492.745	91.56
492.963	92.56
493.18	95.56
493.398	82.56
493.615	89.56
493.833	97.56
494.05	90.56
494.268	86.56
494.485	94.56
494.703	84.56
494.92	83.56
495.138	96.56
495.355	84.56
495.573	90.56
495.79	95.56
496.008	95.56
496.225	82.56
496.442	78.56
496.66	92.56
496.877	84.56
497.094	94.56
497.312	94.56
497.529	87.56
497.746	85.56
497.963	84.56
498.181	97.56
498.398	80.56
498.615	94.56
498.832	94.56
499.049	96.56
499.267	85.56
499.484	78.56
499.701	86.56
499.918	87.56
500.135	77.56
500.352	84.56
500.569	81.56
500.786	96.56
501.003	96.56
501.22	75.56
501.437	86.56
501.654	86.56
501.871	108.56
502.088	82.56
502.305	102.56
502.522	95.56
502.739	94.56
502.956	84.56
503.172	87.56
503.389	96.56
503.606	112.56
503.823	91.56
504.04	82.56
504.256	95.56
504.473	102.56
504.69	91.56
504.907	80.56
505.123	80.56
505.34	100.56
505.557	90.56
505.773	94.56
505.99	81.56
506.207	91.56
506.423	78.56
506.64	86.56
506.856	90.56
507.073	86.56
507.289	86.56
507.506	84.56
507.722	115.56
507.939	94.56
508.155	84.56
508.372	82.56
508.588	99.56
508.805	79.56
509.021	85.56
509.238	89.56
509.454	92.56
509.67	98.56
509.887	109.56
510.103	123.56
510.319	193.56
510.536	680.56
510.752	2216.56
510.968	622.56
511.184	155.56
511.401	106.56
511.617	100.56
511.833	99.56
512.049	91.56
512.265	94.56
512.481	92.56
512.698	76.56
512.914	94.56
513.13	91.56
513.346	86.56
513.562	94.56
513.778	91.56
513.994	80.56
514.21	94.56
514.426	113.56
514.642	149.56
514.858	117.56
515.074	158.56
515.29	446.56
515.506	1452.56
515.721	516.56
