Data from Circ_1989_H10_HRD10591_00005.txt Node
Date: Wed Jan 03 12:01:22 EST 2024
User: Yrep
Spectrometer: HR+D1059
Trigger mode: 1
Integration Time (sec): 1.000000E-1
Scans to average: 1
Electric dark correction enabled: true
Nonlinearity correction enabled: false
Boxcar width: 0
XAxis mode: Wavelengths
Number of Pixels in Spectrum: 2048
>>>>>Begin Spectral Data<<<<<
223.165	-19
223.4	-19
223.635	-19
223.869	-23
224.104	-16
224.338	-7
224.573	-18
224.808	-1
225.042	-5
225.277	-18
225.511	-9
225.746	-7
225.98	-5
226.215	14
226.449	18
226.683	26
226.918	34
227.152	36
227.387	46
227.621	34
227.856	36
228.09	53
228.324	51
228.559	40
228.793	55
229.027	74
229.262	67
229.496	84
229.73	83
229.964	71
230.199	76
230.433	83
230.667	78
230.901	74
231.136	69
231.37	75
231.604	87
231.838	86
232.072	86
232.306	86
232.541	84
232.775	79
233.009	88
233.243	83
233.477	84
233.711	99
233.945	89
234.179	84
234.413	87
234.647	90
234.881	84
235.115	67
235.349	84
235.583	74
235.817	84
236.051	81
236.285	74
236.519	80
236.753	74
236.987	75
237.221	99
237.455	73
237.689	73
237.922	83
238.156	80
238.39	86
238.624	72
238.858	87
239.091	66
239.325	70
239.559	82
239.793	77
240.027	84
240.26	80
240.494	75
240.728	85
240.961	64
241.195	76
241.429	82
241.662	66
241.896	68
242.13	76
242.363	72
242.597	90
242.83	79
243.064	75
243.298	83
243.531	88
243.765	72
243.998	65
244.232	78
244.465	97
244.699	94
244.932	87
245.166	90
245.399	83
245.633	79
245.866	75
246.099	82
246.333	86
246.566	95
246.8	78
247.033	72
247.266	91
247.5	78
247.733	76
247.966	68
248.2	75
248.433	80
248.666	82
248.899	89
249.133	75
249.366	90
249.599	84
249.832	82
250.066	80
250.299	79
250.532	86
250.765	97
250.998	86
251.231	88
251.465	80
251.698	86
251.931	61
252.164	79
252.397	80
252.63	84
252.863	77
253.096	71
253.329	86
253.562	65
253.795	73
254.028	73
254.261	71
254.494	84
254.727	88
254.96	70
255.193	70
255.426	79
255.659	91
255.892	81
256.124	90
256.357	85
256.59	85
256.823	93
257.056	98
257.289	80
257.521	83
257.754	87
257.987	88
258.22	71
258.452	72
258.685	76
258.918	87
259.151	81
259.383	100
259.616	83
259.849	91
260.081	96
260.314	87
260.547	82
260.779	92
261.012	95
261.244	83
261.477	94
261.71	88
261.942	100
262.175	95
262.407	84
262.64	76
262.872	91
263.105	82
263.337	83
263.57	92
263.802	92
264.035	74
264.267	94
264.499	95
264.732	90
264.964	81
265.197	70
265.429	95
265.661	98
265.894	87
266.126	83
266.358	64
266.591	84
266.823	92
267.055	89
267.287	74
267.52	91
267.752	93
267.984	95
268.216	90
268.448	91
268.681	83
268.913	80
269.145	82
269.377	76
269.609	96
269.841	94
270.073	95
270.306	89
270.538	78
270.77	86
271.002	88
271.234	73
271.466	83
271.698	75
271.93	95
272.162	91
272.394	88
272.626	80
272.858	87
273.09	98
273.322	80
273.553	90
273.785	91
274.017	93
274.249	68
274.481	80
274.713	99
274.945	110
275.176	87
275.408	92
275.64	99
275.872	83
276.104	86
276.335	99
276.567	96
276.799	100
277.031	99
277.262	91
277.494	89
277.726	94
277.957	90
278.189	85
278.421	98
278.652	76
278.884	78
279.115	90
279.347	99
279.579	85
279.81	101
280.042	105
280.273	100
280.505	94
280.736	89
280.968	73
281.199	89
281.431	88
281.662	82
281.894	89
282.125	99
282.356	100
282.588	112
282.819	115
283.051	86
283.282	87
283.513	106
283.745	88
283.976	86
284.207	96
284.439	91
284.67	95
284.901	95
285.132	91
285.364	92
285.595	79
285.826	99
286.057	96
286.288	84
286.52	84
286.751	80
286.982	90
287.213	87
287.444	75
287.675	71
287.906	79
288.138	93
288.369	92
288.6	81
288.831	91
289.062	99
289.293	78
289.524	92
289.755	87
289.986	93
290.217	73
290.448	82
290.679	94
290.91	89
291.141	94
291.371	93
291.602	83
291.833	86
292.064	92
292.295	89
292.526	90
292.757	94
292.987	84
293.218	76
293.449	78
293.68	95
293.91	86
294.141	100
294.372	98
294.603	81
294.833	81
295.064	92
295.295	94
295.525	89
295.756	101
295.987	103
296.217	126
296.448	118
296.679	97
296.909	90
297.14	100
297.37	89
297.601	91
297.831	95
298.062	97
298.292	87
298.523	112
298.753	85
298.984	86
299.214	81
299.445	91
299.675	86
299.905	96
300.136	87
300.366	91
300.597	85
300.827	87
301.057	85
301.288	106
301.518	90
301.748	98
301.979	98
302.209	93
302.439	71
302.669	82
302.9	92
303.13	99
303.36	109
303.59	100
303.82	111
304.051	100
304.281	89
304.511	100
304.741	80
304.971	94
305.201	84
305.431	91
305.661	97
305.891	94
306.121	91
306.352	93
306.582	102
306.812	105
307.042	84
307.272	102
307.502	101
307.731	118
307.961	114
308.191	106
308.421	104
308.651	92
308.881	100
309.111	104
309.341	101
309.571	107
309.8	87
310.03	98
310.26	99
310.49	81
310.72	108
310.949	95
311.179	108
311.409	92
311.639	106
311.868	108
312.098	97
312.328	107
312.557	91
312.787	108
313.017	94
313.246	91
313.476	105
313.706	107
313.935	98
314.165	84
314.394	98
314.624	99
314.853	91
315.083	99
315.312	95
315.542	83
315.771	89
316.001	104
316.23	94
316.46	92
316.689	104
316.919	97
317.148	97
317.377	88
317.607	99
317.836	92
318.065	99
318.295	93
318.524	94
318.753	98
318.983	97
319.212	101
319.441	95
319.67	100
319.9	107
320.129	89
320.358	99
320.587	89
320.816	99
321.046	94
321.275	87
321.504	94
321.733	103
321.962	107
322.191	109
322.42	112
322.649	113
322.878	98
323.108	100
323.337	116
323.566	121
323.795	127
324.024	158
324.253	316
324.482	638
324.71	1225
324.939	1647
325.168	613
325.397	191
325.626	152
325.855	127
326.084	127
326.313	113
326.542	149
326.77	203
326.999	353
327.228	740
327.457	1283
327.686	1051
327.914	322
328.143	219
328.372	194
328.6	146
328.829	113
329.058	121
329.287	120
329.515	101
329.744	103
329.972	165
330.201	232
330.43	313
330.658	162
330.887	131
331.115	123
331.344	96
331.572	100
331.801	111
332.03	104
332.258	100
332.486	96
332.715	86
332.943	97
333.172	107
333.4	102
333.629	105
333.857	130
334.085	148
334.314	231
334.542	375
334.771	352
334.999	137
335.227	104
335.455	102
335.684	109
335.912	111
336.14	107
336.369	92
336.597	105
336.825	89
337.053	101
337.281	101
337.51	94
337.738	104
337.966	103
338.194	106
338.422	94
338.65	104
338.878	98
339.106	94
339.334	91
339.562	94
339.79	99
340.018	107
340.246	90
340.474	97
340.702	98
340.93	99
341.158	101
341.386	95
341.614	94
341.842	104
342.07	99
342.298	108
342.526	89
342.754	92
342.981	81
343.209	91
343.437	99
343.665	91
343.893	86
344.12	104
344.348	115
344.576	92
344.804	94
345.031	116
345.259	98
345.487	98
345.714	89
345.942	102
346.17	95
346.397	105
346.625	110
346.853	91
347.08	91
347.308	87
347.535	90
347.763	86
347.99	93
348.218	86
348.445	110
348.673	82
348.9	108
349.128	100
349.355	94
349.583	107
349.81	94
350.037	90
350.265	115
350.492	92
350.72	113
350.947	110
351.174	108
351.402	106
351.629	111
351.856	90
352.083	95
352.311	100
352.538	102
352.765	106
352.992	104
353.22	113
353.447	112
353.674	106
353.901	102
354.128	92
354.355	91
354.583	103
354.81	106
355.037	98
355.264	103
355.491	99
355.718	107
355.945	105
356.172	110
356.399	104
356.626	99
356.853	104
357.08	104
357.307	91
357.534	101
357.761	101
357.988	92
358.215	94
358.441	102
358.668	96
358.895	103
359.122	86
359.349	91
359.576	92
359.802	98
360.029	103
360.256	105
360.483	106
360.709	93
360.936	93
361.163	93
361.39	96
361.616	92
361.843	87
362.07	105
362.296	99
362.523	89
362.749	91
362.976	88
363.203	87
363.429	99
363.656	82
363.882	103
364.109	92
364.335	90
364.562	99
364.788	103
365.015	100
365.241	94
365.468	103
365.694	113
365.92	91
366.147	100
366.373	104
366.599	79
366.826	82
367.052	95
367.278	91
367.505	84
367.731	95
367.957	91
368.184	89
368.41	94
368.636	93
368.862	127
369.089	92
369.315	105
369.541	94
369.767	85
369.993	85
370.219	99
370.445	86
370.672	100
370.898	97
371.124	100
371.35	86
371.576	90
371.802	99
372.028	89
372.254	93
372.48	89
372.706	95
372.932	92
373.158	85
373.384	103
373.61	84
373.835	90
374.061	91
374.287	93
374.513	102
374.739	97
374.965	98
375.191	98
375.416	89
375.642	87
375.868	96
376.094	97
376.319	98
376.545	84
376.771	99
376.997	97
377.222	99
377.448	104
377.674	92
377.899	106
378.125	97
378.35	96
378.576	96
378.802	112
379.027	78
379.253	102
379.478	113
379.704	100
379.929	90
380.155	94
380.38	107
380.606	108
380.831	107
381.057	112
381.282	120
381.507	109
381.733	120
381.958	95
382.184	107
382.409	104
382.634	106
382.86	109
383.085	122
383.31	104
383.535	108
383.761	111
383.986	112
384.211	120
384.436	131
384.662	116
384.887	119
385.112	117
385.337	128
385.562	131
385.787	129
386.013	121
386.238	155
386.463	130
386.688	136
386.913	123
387.138	125
387.363	118
387.588	127
387.813	120
388.038	145
388.263	153
388.488	139
388.713	98
388.938	100
389.163	102
389.387	99
389.612	109
389.837	103
390.062	106
390.287	101
390.512	102
390.736	73
390.961	95
391.186	85
391.411	87
391.636	92
391.86	91
392.085	91
392.31	100
392.534	86
392.759	83
392.984	94
393.208	98
393.433	115
393.658	116
393.882	88
394.107	85
394.331	94
394.556	79
394.78	95
395.005	94
395.229	92
395.454	95
395.678	86
395.903	88
396.127	96
396.352	81
396.576	104
396.801	98
397.025	106
397.249	88
397.474	99
397.698	82
397.922	84
398.147	86
398.371	103
398.595	99
398.82	84
399.044	92
399.268	101
399.492	110
399.717	84
399.941	86
400.165	96
400.389	95
400.613	95
400.837	94
401.062	87
401.286	97
401.51	84
401.734	100
401.958	90
402.182	105
402.406	134
402.63	105
402.854	104
403.078	82
403.302	80
403.526	100
403.75	97
403.974	104
404.198	78
404.422	102
404.645	79
404.869	97
405.093	99
405.317	122
405.541	91
405.765	101
405.988	107
406.212	120
406.436	190
406.66	122
406.883	95
407.107	86
407.331	93
407.555	101
407.778	99
408.002	96
408.226	81
408.449	88
408.673	83
408.896	99
409.12	97
409.344	91
409.567	87
409.791	92
410.014	99
410.238	81
410.461	98
410.685	82
410.908	102
411.132	101
411.355	89
411.578	110
411.802	89
412.025	86
412.249	110
412.472	103
412.695	120
412.919	112
413.142	95
413.365	108
413.589	111
413.812	85
414.035	109
414.258	94
414.482	91
414.705	95
414.928	87
415.151	93
415.374	104
415.597	90
415.821	99
416.044	92
416.267	84
416.49	88
416.713	100
416.936	90
417.159	102
417.382	98
417.605	79
417.828	92
418.051	103
418.274	104
418.497	88
418.72	102
418.943	102
419.166	96
419.389	95
419.611	94
419.834	88
420.057	95
420.28	94
420.503	92
420.726	96
420.948	98
421.171	97
421.394	102
421.617	95
421.839	98
422.062	102
422.285	89
422.507	100
422.73	105
422.953	90
423.175	82
423.398	104
423.621	103
423.843	90
424.066	76
424.288	94
424.511	90
424.733	107
424.956	79
425.178	87
425.401	96
425.623	95
425.846	90
426.068	93
426.291	100
426.513	90
426.735	82
426.958	97
427.18	102
427.402	125
427.625	155
427.847	136
428.069	123
428.292	104
428.514	102
428.736	93
428.958	91
429.181	73
429.403	88
429.625	83
429.847	96
430.069	102
430.292	88
430.514	82
430.736	83
430.958	80
431.18	79
431.402	84
431.624	91
431.846	84
432.068	80
432.29	87
432.512	91
432.734	80
432.956	82
433.178	106
433.4	104
433.622	107
433.844	87
434.066	80
434.287	83
434.509	84
434.731	94
434.953	79
435.175	91
435.397	93
435.618	106
435.84	110
436.062	101
436.284	112
436.505	109
436.727	94
436.949	94
437.17	84
437.392	78
437.614	96
437.835	103
438.057	114
438.278	106
438.5	87
438.721	111
438.943	92
439.165	84
439.386	92
439.608	95
439.829	106
440.05	100
440.272	133
440.493	98
440.715	94
440.936	98
441.158	86
441.379	85
441.6	95
441.822	104
442.043	89
442.264	101
442.486	101
442.707	93
442.928	99
443.149	115
443.371	107
443.592	95
443.813	107
444.034	103
444.255	100
444.476	95
444.698	91
444.919	88
445.14	143
445.361	112
445.582	108
445.803	114
446.024	124
446.245	129
446.466	111
446.687	90
446.908	80
447.129	81
447.35	97
447.571	102
447.792	102
448.013	99
448.234	103
448.455	98
448.675	101
448.896	113
449.117	91
449.338	104
449.559	104
449.779	112
450	86
450.221	89
450.442	89
450.662	107
450.883	95
451.104	89
451.324	88
451.545	92
451.766	102
451.986	89
452.207	82
452.428	92
452.648	118
452.869	120
453.089	105
453.31	104
453.53	89
453.751	104
453.971	87
454.192	103
454.412	90
454.633	85
454.853	90
455.073	82
455.294	95
455.514	103
455.734	83
455.955	83
456.175	95
456.395	81
456.616	92
456.836	89
457.056	74
457.276	98
457.497	90
457.717	91
457.937	90
458.157	80
458.377	91
458.598	103
458.818	132
459.038	148
459.258	103
459.478	98
459.698	94
459.918	85
460.138	95
460.358	79
460.578	82
460.798	83
461.018	86
461.238	94
461.458	83
461.678	84
461.898	91
462.118	87
462.338	96
462.558	86
462.777	90
462.997	81
463.217	87
463.437	88
463.657	95
463.876	86
464.096	75
464.316	84
464.536	99
464.755	93
464.975	87
465.195	130
465.414	123
465.634	87
465.854	89
466.073	93
466.293	87
466.512	91
466.732	94
466.951	82
467.171	82
467.391	96
467.61	99
467.829	111
468.049	151
468.268	210
468.488	115
468.707	88
468.927	94
469.146	113
469.365	97
469.585	91
469.804	105
470.023	108
470.243	90
470.462	92
470.681	103
470.901	71
471.12	84
471.339	104
471.558	82
471.777	104
471.997	118
472.216	272
472.435	479
472.654	166
472.873	106
473.092	104
473.311	89
473.53	96
473.749	97
473.968	112
474.187	105
474.406	92
474.625	90
474.844	80
475.063	90
475.282	97
475.501	94
475.72	95
475.939	96
476.158	80
476.377	85
476.596	85
476.814	101
477.033	94
477.252	89
477.471	98
477.69	83
477.908	102
478.127	89
478.346	97
478.564	89
478.783	89
479.002	84
479.22	86
479.439	99
479.658	106
479.876	108
480.095	83
480.313	102
480.532	99
480.751	123
480.969	263
481.188	855
481.406	531
481.624	160
481.843	98
482.061	85
482.28	82
482.498	89
482.717	92
482.935	86
483.153	89
483.372	94
483.59	88
483.808	91
484.027	94
484.245	95
484.463	95
484.681	105
484.9	83
485.118	108
485.336	83
485.554	106
485.772	101
485.99	112
486.209	103
486.427	118
486.645	123
486.863	113
487.081	90
487.299	108
487.517	106
487.735	102
487.953	97
488.171	94
488.389	114
488.607	97
488.825	94
489.043	102
489.261	98
489.479	97
489.696	98
489.914	94
490.132	98
490.35	100
490.568	97
490.786	98
491.003	95
491.221	103
491.439	101
491.657	91
491.874	82
492.092	95
492.31	84
492.527	108
492.745	93
492.963	96
493.18	88
493.398	86
493.615	107
493.833	103
494.05	76
494.268	92
494.485	99
494.703	108
494.92	84
495.138	96
495.355	86
495.573	82
495.79	87
496.008	109
496.225	90
496.442	94
496.66	98
496.877	93
497.094	105
497.312	72
497.529	89
497.746	91
497.963	98
498.181	99
498.398	102
498.615	122
498.832	102
499.049	86
499.267	95
499.484	86
499.701	99
499.918	91
500.135	96
500.352	111
500.569	84
500.786	96
501.003	81
501.22	98
501.437	82
501.654	92
501.871	97
502.088	99
502.305	108
502.522	103
502.739	81
502.956	82
503.172	100
503.389	93
503.606	95
503.823	99
504.04	89
504.256	87
504.473	97
504.69	79
504.907	95
505.123	97
505.34	81
505.557	92
505.773	86
505.99	82
506.207	87
506.423	92
506.64	75
506.856	82
507.073	81
507.289	100
507.506	87
507.722	103
507.939	102
508.155	99
508.372	96
508.588	102
508.805	81
509.021	87
509.238	103
509.454	99
509.67	99
509.887	117
510.103	114
510.319	190
510.536	554
510.752	1648
510.968	487
511.184	148
511.401	115
511.617	120
511.833	101
512.049	89
512.265	103
512.481	95
512.698	97
512.914	112
513.13	87
513.346	100
513.562	95
513.778	87
513.994	103
514.21	93
514.426	97
514.642	127
514.858	119
515.074	154
515.29	340
515.506	990
515.721	392
515.937	128
516.153	107
516.369	93
516.585	90
516.801	82
517.016	107
517.232	90
517.448	93
517.664	102
517.879	86
518.095	96
518.311	112
518.527	74
518.742	86
518.958	96
519.173	106
519.389	107
519.605	106
519.82	99
520.036	106
520.251	123
520.467	107
520.682	99
520.898	94
521.113	99
521.329	120
521.544	168
521.76	410
521.975	1645
522.19	1004
522.406	226
522.621	120
522.836	104
523.052	102
523.267	110
523.482	115
523.698	89
523.913	116
524.128	101
524.343	93
524.559	106
524.774	86
524.989	82
525.204	90
525.419	98
525.634	96
525.849	106
526.064	112
526.28	102
526.495	86
526.71	89
526.925	89
527.14	81
527.355	94
527.57	93
527.785	87
527.999	102
528.214	93
528.429	94
528.644	92
528.859	82
529.074	86
529.289	105
529.503	150
529.718	115
529.933	93
530.148	83
530.363	85
530.577	88
530.792	94
531.007	96
531.221	102
531.436	94
531.651	84
531.865	83
532.08	97
532.295	94
532.509	89
532.724	94
532.938	87
533.153	98
533.367	95
533.582	97
533.796	86
534.011	93
534.225	98
534.44	97
534.654	93
534.868	88
535.083	96
535.297	84
535.511	106
535.726	100
535.94	98
536.154	104
536.369	102
536.583	100
536.797	98
537.011	86
537.225	94
537.44	94
537.654	75
537.868	87
538.082	75
538.296	86
538.51	99
538.724	73
538.938	91
539.153	88
539.367	96
539.581	105
539.795	82
540.009	87
540.222	99
540.436	92
540.65	97
540.864	100
541.078	84
541.292	81
541.506	85
541.72	87
541.934	83
542.147	82
542.361	96
542.575	86
542.789	89
543.002	92
543.216	93
543.43	96
543.644	99
543.857	97
544.071	99
544.285	107
544.498	79
544.712	73
544.925	80
545.139	99
545.352	82
545.566	82
545.779	94
545.993	88
546.206	91
546.42	94
546.633	88
546.847	89
547.06	79
547.274	88
547.487	85
547.7	92
547.914	88
548.127	95
548.34	80
548.554	99
548.767	88
548.98	92
549.193	103
549.407	91
549.62	88
549.833	84
550.046	94
550.259	93
550.473	104
550.686	100
550.899	92
551.112	97
551.325	101
551.538	95
551.751	88
551.964	89
552.177	113
552.39	87
552.603	80
552.816	82
553.029	93
553.242	93
553.455	98
553.667	95
553.88	94
554.093	91
554.306	91
554.519	92
554.732	98
554.944	90
555.157	96
555.37	98
555.583	94
555.795	85
556.008	79
556.221	89
556.433	86
556.646	88
556.859	98
557.071	93
557.284	97
557.496	93
557.709	90
557.921	94
558.134	97
558.346	85
558.559	98
558.771	92
558.984	84
559.196	106
559.409	97
559.621	98
559.833	87
560.046	89
560.258	82
560.47	90
560.683	97
560.895	90
561.107	98
561.32	89
561.532	98
561.744	100
561.956	95
562.168	98
562.381	90
562.593	106
562.805	94
563.017	101
563.229	90
563.441	83
563.653	105
563.865	88
564.077	92
564.289	93
564.501	89
564.713	84
564.925	103
565.137	105
565.349	96
565.561	95
565.773	82
565.985	88
566.197	98
566.408	80
566.62	80
566.832	85
567.044	112
567.255	108
567.467	95
567.679	74
567.891	82
568.102	89
568.314	85
568.526	73
568.737	103
568.949	82
569.161	87
569.372	90
569.584	98
569.795	95
570.007	115
570.218	190
570.43	99
570.641	101
570.853	94
571.064	87
571.276	87
571.487	91
571.698	89
571.91	100
572.121	86
572.333	92
572.544	75
572.755	85
572.966	94
573.178	83
573.389	90
573.6	90
573.811	93
574.023	89
574.234	86
574.445	86
574.656	88
574.867	92
575.078	82
575.289	74
575.501	82
575.712	96
575.923	102
576.134	95
576.345	85
576.556	90
576.767	80
576.978	85
577.188	103
577.399	100
577.61	83
577.821	107
578.032	105
578.243	200
578.454	516
578.665	166
578.875	94
579.086	96
579.297	85
579.508	86
579.718	102
579.929	90
580.14	81
580.35	93
580.561	107
580.772	97
580.982	89
581.193	90
581.403	89
581.614	87
581.825	89
582.035	92
582.246	96
