Data from Circ_1989_H10_HRD10591_00023.txt Node
Date: Wed Jan 03 12:01:26 EST 2024
User: Yrep
Spectrometer: HR+D1059
Trigger mode: 1
Integration Time (sec): 1.000000E-1
Scans to average: 1
Electric dark correction enabled: true
Nonlinearity correction enabled: false
Boxcar width: 0
XAxis mode: Wavelengths
Number of Pixels in Spectrum: 2048
>>>>>Begin Spectral Data<<<<<
223.165	-6.62
223.4	-6.62
223.635	-6.62
223.869	-21.62
224.104	-19.62
224.338	-24.62
224.573	-12.62
224.808	-17.62
225.042	-7.62
225.277	-5.62
225.511	-12.62
225.746	11.38
225.98	5.38
226.215	13.38
226.449	25.38
226.683	23.38
226.918	25.38
227.152	24.38
227.387	31.38
227.621	18.38
227.856	49.38
228.09	51.38
228.324	52.38
228.559	60.38
228.793	52.38
229.027	70.38
229.262	56.38
229.496	53.38
229.73	64.38
229.964	69.38
230.199	71.38
230.433	75.38
230.667	77.38
230.901	69.38
231.136	79.38
231.37	77.38
231.604	76.38
231.838	85.38
232.072	75.38
232.306	80.38
232.541	62.38
232.775	72.38
233.009	83.38
233.243	94.38
233.477	78.38
233.711	70.38
233.945	85.38
234.179	84.38
234.413	75.38
234.647	84.38
234.881	79.38
235.115	81.38
235.349	72.38
235.583	65.38
235.817	79.38
236.051	68.38
236.285	79.38
236.519	86.38
236.753	83.38
236.987	81.38
237.221	73.38
237.455	75.38
237.689	75.38
237.922	70.38
238.156	82.38
238.39	72.38
238.624	83.38
238.858	79.38
239.091	78.38
239.325	67.38
239.559	77.38
239.793	76.38
240.027	72.38
240.26	76.38
240.494	83.38
240.728	78.38
240.961	69.38
241.195	77.38
241.429	78.38
241.662	75.38
241.896	72.38
242.13	68.38
242.363	60.38
242.597	73.38
242.83	89.38
243.064	69.38
243.298	91.38
243.531	73.38
243.765	56.38
243.998	63.38
244.232	88.38
244.465	69.38
244.699	87.38
244.932	89.38
245.166	79.38
245.399	85.38
245.633	76.38
245.866	78.38
246.099	72.38
246.333	83.38
246.566	68.38
246.8	64.38
247.033	73.38
247.266	76.38
247.5	78.38
247.733	79.38
247.966	81.38
248.2	83.38
248.433	81.38
248.666	76.38
248.899	78.38
249.133	84.38
249.366	88.38
249.599	77.38
249.832	94.38
250.066	85.38
250.299	69.38
250.532	71.38
250.765	77.38
250.998	69.38
251.231	56.38
251.465	80.38
251.698	90.38
251.931	93.38
252.164	77.38
252.397	84.38
252.63	73.38
252.863	83.38
253.096	83.38
253.329	85.38
253.562	84.38
253.795	85.38
254.028	84.38
254.261	77.38
254.494	79.38
254.727	77.38
254.96	96.38
255.193	67.38
255.426	88.38
255.659	82.38
255.892	91.38
256.124	79.38
256.357	82.38
256.59	82.38
256.823	76.38
257.056	78.38
257.289	75.38
257.521	77.38
257.754	67.38
257.987	85.38
258.22	84.38
258.452	88.38
258.685	95.38
258.918	99.38
259.151	84.38
259.383	72.38
259.616	85.38
259.849	99.38
260.081	85.38
260.314	87.38
260.547	77.38
260.779	82.38
261.012	88.38
261.244	81.38
261.477	87.38
261.71	86.38
261.942	102.38
262.175	109.38
262.407	86.38
262.64	83.38
262.872	78.38
263.105	102.38
263.337	101.38
263.57	97.38
263.802	85.38
264.035	80.38
264.267	81.38
264.499	81.38
264.732	76.38
264.964	77.38
265.197	81.38
265.429	88.38
265.661	93.38
265.894	78.38
266.126	104.38
266.358	90.38
266.591	86.38
266.823	78.38
267.055	81.38
267.287	77.38
267.52	78.38
267.752	68.38
267.984	88.38
268.216	82.38
268.448	87.38
268.681	89.38
268.913	96.38
269.145	94.38
269.377	80.38
269.609	94.38
269.841	87.38
270.073	83.38
270.306	83.38
270.538	85.38
270.77	82.38
271.002	88.38
271.234	81.38
271.466	75.38
271.698	83.38
271.93	76.38
272.162	82.38
272.394	95.38
272.626	76.38
272.858	82.38
273.09	85.38
273.322	87.38
273.553	93.38
273.785	85.38
274.017	80.38
274.249	80.38
274.481	79.38
274.713	72.38
274.945	99.38
275.176	85.38
275.408	88.38
275.64	84.38
275.872	99.38
276.104	95.38
276.335	91.38
276.567	85.38
276.799	115.38
277.031	102.38
277.262	106.38
277.494	95.38
277.726	94.38
277.957	87.38
278.189	80.38
278.421	89.38
278.652	77.38
278.884	86.38
279.115	77.38
279.347	92.38
279.579	89.38
279.81	79.38
280.042	103.38
280.273	127.38
280.505	104.38
280.736	86.38
280.968	88.38
281.199	88.38
281.431	82.38
281.662	92.38
281.894	80.38
282.125	97.38
282.356	118.38
282.588	125.38
282.819	100.38
283.051	91.38
283.282	81.38
283.513	85.38
283.745	76.38
283.976	91.38
284.207	85.38
284.439	79.38
284.67	73.38
284.901	81.38
285.132	80.38
285.364	100.38
285.595	86.38
285.826	93.38
286.057	80.38
286.288	80.38
286.52	84.38
286.751	88.38
286.982	78.38
287.213	68.38
287.444	85.38
287.675	83.38
287.906	87.38
288.138	92.38
288.369	98.38
288.6	77.38
288.831	82.38
289.062	99.38
289.293	94.38
289.524	78.38
289.755	96.38
289.986	81.38
290.217	82.38
290.448	88.38
290.679	85.38
290.91	86.38
291.141	94.38
291.371	89.38
291.602	84.38
291.833	91.38
292.064	85.38
292.295	92.38
292.526	93.38
292.757	92.38
292.987	87.38
293.218	92.38
293.449	81.38
293.68	99.38
293.91	85.38
294.141	86.38
294.372	72.38
294.603	78.38
294.833	88.38
295.064	100.38
295.295	93.38
295.525	98.38
295.756	85.38
295.987	113.38
296.217	117.38
296.448	109.38
296.679	91.38
296.909	92.38
297.14	91.38
297.37	79.38
297.601	92.38
297.831	93.38
298.062	83.38
298.292	94.38
298.523	100.38
298.753	82.38
298.984	84.38
299.214	111.38
299.445	92.38
299.675	93.38
299.905	83.38
300.136	78.38
300.366	87.38
300.597	83.38
300.827	85.38
301.057	96.38
301.288	99.38
301.518	96.38
301.748	87.38
301.979	93.38
302.209	82.38
302.439	80.38
302.669	80.38
302.9	90.38
303.13	84.38
303.36	79.38
303.59	99.38
303.82	108.38
304.051	86.38
304.281	82.38
304.511	93.38
304.741	87.38
304.971	92.38
305.201	102.38
305.431	92.38
305.661	86.38
305.891	82.38
306.121	88.38
306.352	91.38
306.582	102.38
306.812	109.38
307.042	102.38
307.272	115.38
307.502	93.38
307.731	108.38
307.961	96.38
308.191	92.38
308.421	101.38
308.651	95.38
308.881	73.38
309.111	82.38
309.341	82.38
309.571	81.38
309.8	84.38
310.03	105.38
310.26	95.38
310.49	99.38
310.72	90.38
310.949	104.38
311.179	78.38
311.409	94.38
311.639	97.38
311.868	98.38
312.098	98.38
312.328	98.38
312.557	111.38
312.787	91.38
313.017	86.38
313.246	85.38
313.476	93.38
313.706	90.38
313.935	98.38
314.165	91.38
314.394	90.38
314.624	93.38
314.853	95.38
315.083	99.38
315.312	90.38
315.542	87.38
315.771	105.38
316.001	102.38
316.23	83.38
316.46	76.38
316.689	85.38
316.919	91.38
317.148	97.38
317.377	88.38
317.607	94.38
317.836	99.38
318.065	94.38
318.295	82.38
318.524	98.38
318.753	94.38
318.983	83.38
319.212	102.38
319.441	109.38
319.67	89.38
319.9	89.38
320.129	89.38
320.358	91.38
320.587	90.38
320.816	109.38
321.046	102.38
321.275	89.38
321.504	96.38
321.733	83.38
321.962	97.38
322.191	93.38
322.42	91.38
322.649	97.38
322.878	106.38
323.108	113.38
323.337	118.38
323.566	115.38
323.795	123.38
324.024	157.38
324.253	331.38
324.482	636.38
324.71	1247.38
324.939	1676.38
325.168	638.38
325.397	221.38
325.626	125.38
325.855	118.38
326.084	96.38
326.313	129.38
326.542	133.38
326.77	183.38
326.999	357.38
327.228	712.38
327.457	1331.38
327.686	1051.38
327.914	328.38
328.143	246.38
328.372	231.38
328.6	172.38
328.829	109.38
329.058	117.38
329.287	128.38
329.515	120.38
329.744	108.38
329.972	203.38
330.201	311.38
330.43	415.38
330.658	239.38
330.887	153.38
331.115	128.38
331.344	104.38
331.572	99.38
331.801	111.38
332.03	96.38
332.258	108.38
332.486	100.38
332.715	80.38
332.943	88.38
333.172	104.38
333.4	93.38
333.629	101.38
333.857	136.38
334.085	193.38
334.314	316.38
334.542	523.38
334.771	471.38
334.999	175.38
335.227	111.38
335.455	110.38
335.684	92.38
335.912	98.38
336.14	93.38
336.369	105.38
336.597	98.38
336.825	101.38
337.053	92.38
337.281	105.38
337.51	91.38
337.738	92.38
337.966	88.38
338.194	90.38
338.422	87.38
338.65	104.38
338.878	82.38
339.106	85.38
339.334	97.38
339.562	79.38
339.79	88.38
340.018	81.38
340.246	86.38
340.474	106.38
340.702	104.38
340.93	95.38
341.158	96.38
341.386	93.38
341.614	87.38
341.842	80.38
342.07	87.38
342.298	97.38
342.526	91.38
342.754	87.38
342.981	94.38
343.209	85.38
343.437	98.38
343.665	92.38
343.893	83.38
344.12	82.38
344.348	87.38
344.576	76.38
344.804	86.38
345.031	100.38
345.259	92.38
345.487	84.38
345.714	92.38
345.942	100.38
346.17	87.38
346.397	75.38
346.625	101.38
346.853	92.38
347.08	96.38
347.308	72.38
347.535	88.38
347.763	104.38
347.99	86.38
348.218	105.38
348.445	90.38
348.673	91.38
348.9	92.38
349.128	101.38
349.355	90.38
349.583	89.38
349.81	87.38
350.037	89.38
350.265	91.38
350.492	89.38
350.72	99.38
350.947	100.38
351.174	92.38
351.402	92.38
351.629	92.38
351.856	100.38
352.083	115.38
352.311	99.38
352.538	115.38
352.765	97.38
352.992	104.38
353.22	104.38
353.447	92.38
353.674	100.38
353.901	93.38
354.128	105.38
354.355	83.38
354.583	94.38
354.81	97.38
355.037	91.38
355.264	82.38
355.491	91.38
355.718	101.38
355.945	87.38
356.172	110.38
356.399	91.38
356.626	104.38
356.853	79.38
357.08	85.38
357.307	89.38
357.534	87.38
357.761	88.38
357.988	90.38
358.215	97.38
358.441	90.38
358.668	89.38
358.895	85.38
359.122	84.38
359.349	86.38
359.576	84.38
359.802	93.38
360.029	107.38
360.256	97.38
360.483	95.38
360.709	81.38
360.936	81.38
361.163	79.38
361.39	93.38
361.616	84.38
361.843	89.38
362.07	100.38
362.296	96.38
362.523	94.38
362.749	89.38
362.976	110.38
363.203	97.38
363.429	96.38
363.656	76.38
363.882	88.38
364.109	79.38
364.335	87.38
364.562	79.38
364.788	97.38
365.015	95.38
365.241	88.38
365.468	100.38
365.694	94.38
365.92	101.38
366.147	79.38
366.373	93.38
366.599	77.38
366.826	90.38
367.052	89.38
367.278	87.38
367.505	89.38
367.731	94.38
367.957	83.38
368.184	80.38
368.41	88.38
368.636	99.38
368.862	98.38
369.089	105.38
369.315	97.38
369.541	91.38
369.767	85.38
369.993	93.38
370.219	87.38
370.445	86.38
370.672	97.38
370.898	104.38
371.124	86.38
371.35	96.38
371.576	87.38
371.802	84.38
372.028	89.38
372.254	91.38
372.48	84.38
372.706	76.38
372.932	82.38
373.158	75.38
373.384	77.38
373.61	90.38
373.835	77.38
374.061	75.38
374.287	95.38
374.513	89.38
374.739	81.38
374.965	76.38
375.191	85.38
375.416	80.38
375.642	94.38
375.868	100.38
376.094	102.38
376.319	98.38
376.545	86.38
376.771	78.38
376.997	96.38
377.222	100.38
377.448	91.38
377.674	75.38
377.899	100.38
378.125	99.38
378.35	91.38
378.576	97.38
378.802	94.38
379.027	80.38
379.253	81.38
379.478	97.38
379.704	104.38
379.929	85.38
380.155	92.38
380.38	94.38
380.606	92.38
380.831	97.38
381.057	92.38
381.282	101.38
381.507	102.38
381.733	103.38
381.958	105.38
382.184	105.38
382.409	88.38
382.634	107.38
382.86	91.38
383.085	93.38
383.31	98.38
383.535	86.38
383.761	104.38
383.986	100.38
384.211	98.38
384.436	79.38
384.662	93.38
384.887	98.38
385.112	107.38
385.337	110.38
385.562	111.38
385.787	96.38
386.013	112.38
386.238	116.38
386.463	93.38
386.688	117.38
386.913	108.38
387.138	106.38
387.363	106.38
387.588	95.38
387.813	91.38
388.038	108.38
388.263	117.38
388.488	118.38
388.713	102.38
388.938	88.38
389.163	65.38
389.387	92.38
389.612	83.38
389.837	94.38
390.062	88.38
390.287	94.38
390.512	77.38
390.736	87.38
390.961	95.38
391.186	95.38
391.411	91.38
391.636	75.38
391.86	77.38
392.085	91.38
392.31	96.38
392.534	93.38
392.759	91.38
392.984	71.38
393.208	91.38
393.433	99.38
393.658	97.38
393.882	94.38
394.107	88.38
394.331	100.38
394.556	89.38
394.78	77.38
395.005	92.38
395.229	89.38
395.454	89.38
395.678	92.38
395.903	85.38
396.127	84.38
396.352	94.38
396.576	87.38
396.801	88.38
397.025	103.38
397.249	85.38
397.474	79.38
397.698	80.38
397.922	78.38
398.147	80.38
398.371	86.38
398.595	93.38
398.82	96.38
399.044	94.38
399.268	84.38
399.492	85.38
399.717	90.38
399.941	95.38
400.165	92.38
400.389	91.38
400.613	94.38
400.837	77.38
401.062	82.38
401.286	86.38
401.51	93.38
401.734	89.38
401.958	76.38
402.182	107.38
402.406	136.38
402.63	100.38
402.854	86.38
403.078	73.38
403.302	71.38
403.526	94.38
403.75	80.38
403.974	88.38
404.198	83.38
404.422	82.38
404.645	93.38
404.869	88.38
405.093	99.38
405.317	91.38
405.541	97.38
405.765	98.38
405.988	101.38
406.212	145.38
406.436	184.38
406.66	122.38
406.883	96.38
407.107	99.38
407.331	99.38
407.555	89.38
407.778	90.38
408.002	84.38
408.226	78.38
408.449	81.38
408.673	82.38
408.896	105.38
409.12	79.38
409.344	79.38
409.567	92.38
409.791	77.38
410.014	82.38
410.238	96.38
410.461	83.38
410.685	85.38
410.908	69.38
411.132	93.38
411.355	105.38
411.578	96.38
411.802	87.38
412.025	89.38
412.249	88.38
412.472	98.38
412.695	109.38
412.919	79.38
413.142	101.38
413.365	95.38
413.589	80.38
413.812	81.38
414.035	102.38
414.258	73.38
414.482	93.38
414.705	78.38
414.928	105.38
415.151	82.38
415.374	94.38
415.597	83.38
415.821	91.38
416.044	83.38
416.267	81.38
416.49	83.38
416.713	78.38
416.936	91.38
417.159	77.38
417.382	86.38
417.605	86.38
417.828	95.38
418.051	78.38
418.274	82.38
418.497	71.38
418.72	89.38
418.943	99.38
419.166	79.38
419.389	99.38
419.611	97.38
419.834	93.38
420.057	70.38
420.28	84.38
420.503	84.38
420.726	100.38
420.948	98.38
421.171	84.38
421.394	93.38
421.617	97.38
421.839	86.38
422.062	96.38
422.285	85.38
422.507	100.38
422.73	89.38
422.953	93.38
423.175	100.38
423.398	82.38
423.621	71.38
423.843	86.38
424.066	91.38
424.288	83.38
424.511	69.38
424.733	97.38
424.956	95.38
425.178	93.38
425.401	89.38
425.623	95.38
425.846	99.38
426.068	83.38
426.291	84.38
426.513	89.38
426.735	91.38
426.958	99.38
427.18	96.38
427.402	112.38
427.625	153.38
427.847	154.38
428.069	149.38
428.292	91.38
428.514	98.38
428.736	95.38
428.958	88.38
429.181	96.38
429.403	88.38
429.625	83.38
429.847	86.38
430.069	99.38
430.292	80.38
430.514	80.38
430.736	72.38
430.958	87.38
431.18	94.38
431.402	99.38
431.624	84.38
431.846	84.38
432.068	80.38
432.29	76.38
432.512	91.38
432.734	86.38
432.956	80.38
433.178	101.38
433.4	91.38
433.622	94.38
433.844	81.38
434.066	94.38
434.287	87.38
434.509	78.38
434.731	86.38
434.953	77.38
435.175	86.38
435.397	104.38
435.618	92.38
435.84	95.38
436.062	106.38
436.284	109.38
436.505	95.38
436.727	103.38
436.949	94.38
437.17	87.38
437.392	85.38
437.614	89.38
437.835	87.38
438.057	107.38
438.278	117.38
438.5	103.38
438.721	108.38
438.943	99.38
439.165	83.38
439.386	84.38
439.608	100.38
439.829	102.38
440.05	117.38
440.272	133.38
440.493	107.38
440.715	93.38
440.936	81.38
441.158	83.38
441.379	84.38
441.6	88.38
441.822	96.38
442.043	85.38
442.264	101.38
442.486	73.38
442.707	84.38
442.928	100.38
443.149	104.38
443.371	121.38
443.592	95.38
443.813	86.38
444.034	98.38
444.255	94.38
444.476	79.38
444.698	92.38
444.919	87.38
445.14	130.38
445.361	129.38
445.582	109.38
445.803	121.38
446.024	120.38
446.245	127.38
446.466	106.38
446.687	89.38
446.908	80.38
447.129	76.38
447.35	90.38
447.571	92.38
447.792	99.38
448.013	89.38
448.234	103.38
448.455	94.38
448.675	91.38
448.896	105.38
449.117	79.38
449.338	104.38
449.559	102.38
449.779	118.38
450	85.38
450.221	77.38
450.442	101.38
450.662	97.38
450.883	93.38
451.104	98.38
451.324	95.38
451.545	79.38
451.766	92.38
451.986	84.38
452.207	96.38
452.428	77.38
452.648	96.38
452.869	104.38
453.089	115.38
453.31	102.38
453.53	85.38
453.751	91.38
453.971	98.38
454.192	86.38
454.412	77.38
454.633	83.38
454.853	86.38
455.073	88.38
455.294	77.38
455.514	100.38
455.734	65.38
455.955	85.38
456.175	89.38
456.395	79.38
456.616	94.38
456.836	95.38
457.056	93.38
457.276	91.38
457.497	89.38
457.717	77.38
457.937	93.38
458.157	85.38
458.377	91.38
458.598	99.38
458.818	135.38
459.038	143.38
459.258	113.38
459.478	78.38
459.698	82.38
459.918	81.38
460.138	84.38
460.358	84.38
460.578	86.38
460.798	87.38
461.018	82.38
461.238	76.38
461.458	90.38
461.678	86.38
461.898	90.38
462.118	73.38
462.338	84.38
462.558	83.38
462.777	70.38
462.997	85.38
463.217	77.38
463.437	78.38
463.657	99.38
463.876	89.38
464.096	80.38
464.316	88.38
464.536	101.38
464.755	78.38
464.975	111.38
465.195	140.38
465.414	149.38
465.634	102.38
465.854	91.38
466.073	82.38
466.293	101.38
466.512	80.38
466.732	72.38
466.951	62.38
467.171	83.38
467.391	103.38
467.61	96.38
467.829	110.38
468.049	205.38
468.268	287.38
468.488	121.38
468.707	82.38
468.927	89.38
469.146	97.38
469.365	79.38
469.585	91.38
469.804	100.38
470.023	85.38
470.243	88.38
470.462	106.38
470.681	97.38
470.901	79.38
471.12	80.38
471.339	85.38
471.558	81.38
471.777	101.38
471.997	147.38
472.216	367.38
472.435	708.38
472.654	214.38
472.873	96.38
473.092	94.38
473.311	85.38
473.53	76.38
473.749	78.38
473.968	92.38
474.187	85.38
474.406	88.38
474.625	90.38
474.844	86.38
475.063	89.38
475.282	79.38
475.501	92.38
475.72	88.38
475.939	108.38
476.158	88.38
476.377	97.38
476.596	100.38
476.814	84.38
477.033	89.38
477.252	92.38
477.471	83.38
477.69	87.38
477.908	87.38
478.127	85.38
478.346	88.38
478.564	91.38
478.783	80.38
479.002	96.38
479.22	99.38
479.439	107.38
479.658	110.38
479.876	92.38
480.095	101.38
480.313	115.38
480.532	108.38
480.751	142.38
480.969	342.38
481.188	1270.38
481.406	745.38
481.624	166.38
481.843	95.38
482.061	88.38
482.28	97.38
482.498	103.38
482.717	80.38
482.935	95.38
483.153	79.38
483.372	88.38
483.59	86.38
483.808	97.38
484.027	101.38
484.245	90.38
484.463	84.38
484.681	93.38
484.9	95.38
485.118	91.38
485.336	95.38
485.554	96.38
485.772	110.38
485.99	98.38
486.209	101.38
486.427	103.38
486.645	124.38
486.863	101.38
487.081	97.38
487.299	108.38
487.517	82.38
487.735	95.38
487.953	94.38
488.171	87.38
488.389	96.38
488.607	95.38
488.825	97.38
489.043	86.38
489.261	86.38
489.479	88.38
489.696	95.38
489.914	96.38
490.132	85.38
490.35	93.38
490.568	73.38
490.786	90.38
491.003	89.38
491.221	95.38
491.439	94.38
491.657	72.38
491.874	89.38
492.092	80.38
492.31	99.38
492.527	86.38
492.745	92.38
492.963	94.38
493.18	99.38
493.398	78.38
493.615	83.38
493.833	90.38
494.05	79.38
494.268	83.38
494.485	98.38
494.703	84.38
494.92	84.38
495.138	97.38
495.355	89.38
495.573	94.38
495.79	80.38
496.008	85.38
496.225	91.38
496.442	80.38
496.66	89.38
496.877	100.38
497.094	100.38
497.312	92.38
497.529	79.38
497.746	88.38
497.963	95.38
498.181	88.38
498.398	83.38
498.615	101.38
498.832	99.38
499.049	99.38
499.267	97.38
499.484	77.38
499.701	93.38
499.918	84.38
500.135	89.38
500.352	81.38
500.569	82.38
500.786	100.38
501.003	91.38
501.22	97.38
501.437	92.38
501.654	78.38
501.871	100.38
502.088	94.38
502.305	81.38
502.522	84.38
502.739	72.38
502.956	91.38
503.172	78.38
503.389	93.38
503.606	101.38
503.823	102.38
504.04	77.38
504.256	87.38
504.473	87.38
504.69	99.38
504.907	93.38
505.123	100.38
505.34	79.38
505.557	87.38
505.773	77.38
505.99	93.38
506.207	78.38
506.423	87.38
506.64	93.38
506.856	80.38
507.073	81.38
507.289	100.38
507.506	91.38
507.722	104.38
507.939	99.38
508.155	106.38
508.372	99.38
508.588	92.38
508.805	85.38
509.021	88.38
509.238	97.38
509.454	91.38
509.67	95.38
509.887	96.38
510.103	112.38
510.319	190.38
510.536	557.38
510.752	1766.38
510.968	510.38
511.184	138.38
511.401	111.38
511.617	113.38
511.833	104.38
512.049	94.38
512.265	90.38
512.481	90.38
512.698	80.38
512.914	95.38
513.13	92.38
513.346	101.38
513.562	88.38
513.778	91.38
513.994	96.38
514.21	89.38
514.426	120.38
514.642	121.38
514.858	108.38
515.074	142.38
515.29	331.38
515.506	1061.38
515.721	403.38
515.937	127.38
516.153	109.38
