Data from Circ_1989_H10_HRD10591_00002.txt Node
Date: Wed Jan 03 12:01:22 EST 2024
User: Yrep
Spectrometer: HR+D1059
Trigger mode: 1
Integration Time (sec): 1.000000E-1
Scans to average: 1
Electric dark correction enabled: true
Nonlinearity correction enabled: false
Boxcar width: 0
XAxis mode: Wavelengths
Number of Pixels in Spectrum: 2048
>>>>>Begin Spectral Data<<<<<
223.165	-9.81
223.4	-9.81
223.635	-9.81
223.869	-15.81
224.104	-15.81
224.338	-10.81
224.573	-24.81
224.808	-12.81
225.042	-7.81
225.277	-14.81
225.511	-4.81
225.746	12.19
225.98	18.19
226.215	6.19
226.449	14.19
226.683	22.19
226.918	20.19
227.152	24.19
227.387	24.19
227.621	33.19
227.856	34.19
228.09	30.19
228.324	59.19
228.559	53.19
228.793	55.19
229.027	57.19
229.262	62.19
229.496	66.19
229.73	71.19
229.964	70.19
230.199	80.19
230.433	80.19
230.667	75.19
230.901	80.19
231.136	65.19
231.37	86.19
231.604	82.19
231.838	72.19
232.072	76.19
232.306	58.19
232.541	81.19
232.775	72.19
233.009	90.19
233.243	82.19
233.477	86.19
233.711	83.19
233.945	84.19
234.179	82.19
234.413	93.19
234.647	79.19
234.881	78.19
235.115	67.19
235.349	80.19
235.583	69.19
235.817	67.19
236.051	74.19
236.285	86.19
236.519	81.19
236.753	77.19
236.987	78.19
237.221	82.19
237.455	90.19
237.689	90.19
237.922	77.19
238.156	86.19
238.39	63.19
238.624	74.19
238.858	83.19
239.091	69.19
239.325	61.19
239.559	72.19
239.793	78.19
240.027	79.19
240.26	69.19
240.494	74.19
240.728	67.19
240.961	69.19
241.195	86.19
241.429	63.19
241.662	74.19
241.896	80.19
242.13	68.19
242.363	78.19
242.597	86.19
242.83	85.19
243.064	84.19
243.298	70.19
243.531	76.19
243.765	88.19
243.998	90.19
244.232	86.19
244.465	76.19
244.699	86.19
244.932	68.19
245.166	60.19
245.399	77.19
245.633	76.19
245.866	81.19
246.099	88.19
246.333	80.19
246.566	78.19
246.8	69.19
247.033	96.19
247.266	88.19
247.5	74.19
247.733	75.19
247.966	76.19
248.2	90.19
248.433	91.19
248.666	70.19
248.899	85.19
249.133	90.19
249.366	102.19
249.599	84.19
249.832	75.19
250.066	77.19
250.299	80.19
250.532	88.19
250.765	80.19
250.998	87.19
251.231	76.19
251.465	82.19
251.698	83.19
251.931	78.19
252.164	89.19
252.397	79.19
252.63	79.19
252.863	89.19
253.096	83.19
253.329	92.19
253.562	39.19
253.795	90.19
254.028	96.19
254.261	80.19
254.494	74.19
254.727	77.19
254.96	78.19
255.193	78.19
255.426	90.19
255.659	76.19
255.892	91.19
256.124	76.19
256.357	81.19
256.59	88.19
256.823	90.19
257.056	88.19
257.289	80.19
257.521	74.19
257.754	82.19
257.987	72.19
258.22	71.19
258.452	74.19
258.685	80.19
258.918	82.19
259.151	66.19
259.383	84.19
259.616	78.19
259.849	77.19
260.081	84.19
260.314	75.19
260.547	76.19
260.779	82.19
261.012	78.19
261.244	78.19
261.477	86.19
261.71	92.19
261.942	96.19
262.175	111.19
262.407	89.19
262.64	97.19
262.872	93.19
263.105	86.19
263.337	78.19
263.57	85.19
263.802	79.19
264.035	78.19
264.267	85.19
264.499	80.19
264.732	93.19
264.964	74.19
265.197	90.19
265.429	70.19
265.661	91.19
265.894	93.19
266.126	77.19
266.358	76.19
266.591	78.19
266.823	70.19
267.055	74.19
267.287	79.19
267.52	66.19
267.752	81.19
267.984	92.19
268.216	79.19
268.448	88.19
268.681	90.19
268.913	90.19
269.145	92.19
269.377	74.19
269.609	75.19
269.841	91.19
270.073	92.19
270.306	79.19
270.538	96.19
270.77	88.19
271.002	79.19
271.234	84.19
271.466	94.19
271.698	80.19
271.93	80.19
272.162	87.19
272.394	88.19
272.626	95.19
272.858	76.19
273.09	73.19
273.322	92.19
273.553	82.19
273.785	92.19
274.017	84.19
274.249	74.19
274.481	85.19
274.713	76.19
274.945	87.19
275.176	92.19
275.408	83.19
275.64	94.19
275.872	86.19
276.104	82.19
276.335	86.19
276.567	84.19
276.799	98.19
277.031	108.19
277.262	101.19
277.494	78.19
277.726	89.19
277.957	94.19
278.189	78.19
278.421	94.19
278.652	92.19
278.884	93.19
279.115	78.19
279.347	69.19
279.579	90.19
279.81	99.19
280.042	86.19
280.273	113.19
280.505	90.19
280.736	97.19
280.968	88.19
281.199	89.19
281.431	82.19
281.662	96.19
281.894	94.19
282.125	86.19
282.356	102.19
282.588	117.19
282.819	100.19
283.051	87.19
283.282	90.19
283.513	87.19
283.745	100.19
283.976	83.19
284.207	89.19
284.439	77.19
284.67	78.19
284.901	106.19
285.132	102.19
285.364	88.19
285.595	71.19
285.826	79.19
286.057	80.19
286.288	76.19
286.52	94.19
286.751	87.19
286.982	79.19
287.213	78.19
287.444	82.19
287.675	98.19
287.906	98.19
288.138	93.19
288.369	92.19
288.6	95.19
288.831	90.19
289.062	79.19
289.293	77.19
289.524	78.19
289.755	71.19
289.986	77.19
290.217	64.19
290.448	95.19
290.679	91.19
290.91	92.19
291.141	89.19
291.371	92.19
291.602	87.19
291.833	87.19
292.064	80.19
292.295	75.19
292.526	70.19
292.757	85.19
292.987	88.19
293.218	88.19
293.449	93.19
293.68	71.19
293.91	92.19
294.141	90.19
294.372	87.19
294.603	88.19
294.833	72.19
295.064	104.19
295.295	85.19
295.525	90.19
295.756	101.19
295.987	102.19
296.217	113.19
296.448	109.19
296.679	90.19
296.909	87.19
297.14	100.19
297.37	70.19
297.601	69.19
297.831	82.19
298.062	84.19
298.292	84.19
298.523	87.19
298.753	86.19
298.984	79.19
299.214	85.19
299.445	95.19
299.675	79.19
299.905	90.19
300.136	64.19
300.366	77.19
300.597	91.19
300.827	91.19
301.057	100.19
301.288	71.19
301.518	75.19
301.748	99.19
301.979	98.19
302.209	96.19
302.439	89.19
302.669	86.19
302.9	74.19
303.13	95.19
303.36	88.19
303.59	94.19
303.82	94.19
304.051	86.19
304.281	82.19
304.511	110.19
304.741	77.19
304.971	86.19
305.201	95.19
305.431	82.19
305.661	88.19
305.891	84.19
306.121	96.19
306.352	104.19
306.582	94.19
306.812	85.19
307.042	98.19
307.272	96.19
307.502	106.19
307.731	99.19
307.961	93.19
308.191	94.19
308.421	93.19
308.651	95.19
308.881	94.19
309.111	79.19
309.341	98.19
309.571	111.19
309.8	98.19
310.03	104.19
310.26	84.19
310.49	98.19
310.72	88.19
310.949	98.19
311.179	86.19
311.409	90.19
311.639	87.19
311.868	100.19
312.098	96.19
312.328	94.19
312.557	90.19
312.787	90.19
313.017	89.19
313.246	93.19
313.476	93.19
313.706	86.19
313.935	90.19
314.165	92.19
314.394	101.19
314.624	98.19
314.853	99.19
315.083	102.19
315.312	96.19
315.542	82.19
315.771	91.19
316.001	99.19
316.23	94.19
316.46	89.19
316.689	87.19
316.919	93.19
317.148	89.19
317.377	93.19
317.607	89.19
317.836	94.19
318.065	85.19
318.295	94.19
318.524	98.19
318.753	97.19
318.983	92.19
319.212	104.19
319.441	100.19
319.67	103.19
319.9	102.19
320.129	90.19
320.358	103.19
320.587	84.19
320.816	94.19
321.046	100.19
321.275	95.19
321.504	93.19
321.733	95.19
321.962	93.19
322.191	101.19
322.42	90.19
322.649	97.19
322.878	102.19
323.108	112.19
323.337	110.19
323.566	113.19
323.795	148.19
324.024	180.19
324.253	311.19
324.482	686.19
324.71	1380.19
324.939	1838.19
325.168	668.19
325.397	207.19
325.626	133.19
325.855	134.19
326.084	112.19
326.313	124.19
326.542	140.19
326.77	196.19
326.999	371.19
327.228	799.19
327.457	1395.19
327.686	1126.19
327.914	338.19
328.143	230.19
328.372	221.19
328.6	142.19
328.829	126.19
329.058	114.19
329.287	122.19
329.515	115.19
329.744	140.19
329.972	171.19
330.201	280.19
330.43	372.19
330.658	205.19
330.887	140.19
331.115	122.19
331.344	96.19
331.572	108.19
331.801	104.19
332.03	94.19
332.258	90.19
332.486	101.19
332.715	98.19
332.943	107.19
333.172	109.19
333.4	106.19
333.629	97.19
333.857	134.19
334.085	166.19
334.314	274.19
334.542	488.19
334.771	444.19
334.999	172.19
335.227	113.19
335.455	95.19
335.684	98.19
335.912	90.19
336.14	95.19
336.369	84.19
336.597	90.19
336.825	97.19
337.053	91.19
337.281	87.19
337.51	89.19
337.738	94.19
337.966	76.19
338.194	88.19
338.422	88.19
338.65	84.19
338.878	83.19
339.106	72.19
339.334	104.19
339.562	79.19
339.79	86.19
340.018	95.19
340.246	83.19
340.474	95.19
340.702	91.19
340.93	92.19
341.158	95.19
341.386	106.19
341.614	80.19
341.842	90.19
342.07	89.19
342.298	99.19
342.526	91.19
342.754	82.19
342.981	93.19
343.209	79.19
343.437	114.19
343.665	95.19
343.893	95.19
344.12	83.19
344.348	82.19
344.576	71.19
344.804	100.19
345.031	96.19
345.259	80.19
345.487	94.19
345.714	88.19
345.942	79.19
346.17	92.19
346.397	110.19
346.625	90.19
346.853	84.19
347.08	87.19
347.308	89.19
347.535	87.19
347.763	81.19
347.99	87.19
348.218	91.19
348.445	103.19
348.673	110.19
348.9	99.19
349.128	96.19
349.355	95.19
349.583	101.19
349.81	101.19
350.037	92.19
350.265	99.19
350.492	87.19
350.72	90.19
350.947	95.19
351.174	114.19
351.402	108.19
351.629	105.19
351.856	104.19
352.083	105.19
352.311	104.19
352.538	107.19
352.765	98.19
352.992	115.19
353.22	115.19
353.447	108.19
353.674	106.19
353.901	94.19
354.128	96.19
354.355	95.19
354.583	99.19
354.81	94.19
355.037	106.19
355.264	105.19
355.491	92.19
355.718	103.19
355.945	90.19
356.172	88.19
356.399	98.19
356.626	99.19
356.853	90.19
357.08	94.19
357.307	91.19
357.534	74.19
357.761	96.19
357.988	111.19
358.215	94.19
358.441	87.19
358.668	98.19
358.895	90.19
359.122	95.19
359.349	98.19
359.576	85.19
359.802	96.19
360.029	110.19
360.256	94.19
360.483	95.19
360.709	84.19
360.936	91.19
361.163	90.19
361.39	104.19
361.616	108.19
361.843	98.19
362.07	92.19
362.296	91.19
362.523	92.19
362.749	81.19
362.976	95.19
363.203	104.19
363.429	96.19
363.656	78.19
363.882	90.19
364.109	97.19
364.335	95.19
364.562	94.19
364.788	99.19
365.015	89.19
365.241	89.19
365.468	104.19
365.694	99.19
365.92	90.19
366.147	83.19
366.373	90.19
366.599	90.19
366.826	85.19
367.052	82.19
367.278	82.19
367.505	97.19
367.731	89.19
367.957	104.19
368.184	96.19
368.41	93.19
368.636	108.19
368.862	114.19
369.089	122.19
369.315	92.19
369.541	94.19
369.767	84.19
369.993	82.19
370.219	92.19
370.445	85.19
370.672	96.19
370.898	76.19
371.124	99.19
371.35	103.19
371.576	87.19
371.802	87.19
372.028	96.19
372.254	87.19
372.48	84.19
372.706	83.19
372.932	89.19
373.158	94.19
373.384	91.19
373.61	82.19
373.835	90.19
374.061	90.19
374.287	101.19
374.513	100.19
374.739	91.19
374.965	91.19
375.191	88.19
375.416	95.19
375.642	97.19
375.868	91.19
376.094	86.19
376.319	84.19
376.545	95.19
376.771	79.19
376.997	98.19
377.222	81.19
377.448	93.19
377.674	79.19
377.899	94.19
378.125	76.19
378.35	95.19
378.576	82.19
378.802	117.19
379.027	97.19
379.253	84.19
379.478	96.19
379.704	95.19
379.929	96.19
380.155	97.19
380.38	107.19
380.606	96.19
380.831	92.19
381.057	100.19
381.282	108.19
381.507	99.19
381.733	114.19
381.958	119.19
382.184	106.19
382.409	103.19
382.634	122.19
382.86	99.19
383.085	111.19
383.31	101.19
383.535	112.19
383.761	109.19
383.986	109.19
384.211	122.19
384.436	106.19
384.662	126.19
384.887	143.19
385.112	124.19
385.337	143.19
385.562	138.19
385.787	130.19
386.013	132.19
386.238	144.19
386.463	130.19
386.688	129.19
386.913	132.19
387.138	134.19
387.363	118.19
387.588	115.19
387.813	125.19
388.038	121.19
388.263	157.19
388.488	154.19
388.713	114.19
388.938	82.19
389.163	92.19
389.387	97.19
389.612	100.19
389.837	85.19
390.062	86.19
390.287	89.19
390.512	83.19
390.736	88.19
390.961	103.19
391.186	84.19
391.411	95.19
391.636	100.19
391.86	97.19
392.085	95.19
392.31	79.19
392.534	99.19
392.759	79.19
392.984	98.19
393.208	107.19
393.433	112.19
393.658	96.19
393.882	78.19
394.107	79.19
394.331	85.19
394.556	82.19
394.78	92.19
395.005	92.19
395.229	80.19
395.454	94.19
395.678	85.19
395.903	72.19
396.127	88.19
396.352	98.19
396.576	94.19
396.801	98.19
397.025	117.19
397.249	94.19
397.474	86.19
397.698	79.19
397.922	89.19
398.147	76.19
398.371	88.19
398.595	92.19
398.82	69.19
399.044	94.19
399.268	85.19
399.492	76.19
399.717	90.19
399.941	86.19
400.165	61.19
400.389	92.19
400.613	88.19
400.837	78.19
401.062	101.19
401.286	94.19
401.51	96.19
401.734	93.19
401.958	105.19
402.182	99.19
402.406	147.19
402.63	117.19
402.854	98.19
403.078	92.19
403.302	83.19
403.526	91.19
403.75	84.19
403.974	85.19
404.198	80.19
404.422	90.19
404.645	83.19
404.869	82.19
405.093	85.19
405.317	116.19
405.541	104.19
405.765	98.19
405.988	121.19
406.212	150.19
406.436	196.19
406.66	138.19
406.883	103.19
407.107	101.19
407.331	108.19
407.555	93.19
407.778	80.19
408.002	84.19
408.226	91.19
408.449	84.19
408.673	71.19
408.896	87.19
409.12	92.19
409.344	84.19
409.567	86.19
409.791	78.19
410.014	105.19
410.238	109.19
410.461	92.19
410.685	102.19
410.908	97.19
411.132	110.19
411.355	104.19
411.578	70.19
411.802	90.19
412.025	93.19
412.249	90.19
412.472	96.19
412.695	114.19
412.919	97.19
413.142	86.19
413.365	99.19
413.589	67.19
413.812	82.19
414.035	91.19
414.258	100.19
414.482	88.19
414.705	88.19
414.928	100.19
415.151	103.19
415.374	94.19
415.597	93.19
415.821	79.19
416.044	84.19
416.267	94.19
416.49	86.19
416.713	91.19
416.936	91.19
417.159	92.19
417.382	100.19
417.605	82.19
417.828	97.19
418.051	98.19
418.274	95.19
418.497	84.19
418.72	74.19
418.943	102.19
419.166	87.19
419.389	82.19
419.611	95.19
419.834	95.19
420.057	92.19
420.28	86.19
420.503	97.19
420.726	91.19
420.948	101.19
421.171	84.19
421.394	90.19
421.617	92.19
421.839	97.19
422.062	88.19
422.285	101.19
422.507	91.19
422.73	115.19
422.953	85.19
423.175	71.19
423.398	91.19
423.621	88.19
423.843	87.19
424.066	88.19
424.288	75.19
424.511	101.19
424.733	92.19
424.956	103.19
425.178	95.19
425.401	95.19
425.623	88.19
425.846	85.19
426.068	85.19
426.291	89.19
426.513	104.19
426.735	91.19
426.958	102.19
427.18	94.19
427.402	127.19
427.625	163.19
427.847	138.19
428.069	138.19
428.292	98.19
428.514	90.19
428.736	78.19
428.958	84.19
429.181	84.19
429.403	104.19
429.625	87.19
429.847	86.19
430.069	101.19
430.292	86.19
430.514	92.19
430.736	78.19
430.958	91.19
431.18	68.19
431.402	97.19
431.624	97.19
431.846	92.19
432.068	90.19
432.29	83.19
432.512	87.19
432.734	93.19
432.956	94.19
433.178	100.19
433.4	93.19
433.622	90.19
433.844	85.19
434.066	98.19
434.287	87.19
434.509	94.19
434.731	91.19
434.953	85.19
435.175	93.19
435.397	92.19
435.618	88.19
435.84	96.19
436.062	103.19
436.284	105.19
436.505	96.19
436.727	91.19
436.949	74.19
437.17	85.19
437.392	79.19
437.614	91.19
437.835	103.19
438.057	110.19
438.278	107.19
438.5	98.19
438.721	109.19
438.943	86.19
439.165	96.19
439.386	92.19
439.608	91.19
439.829	94.19
440.05	112.19
440.272	133.19
440.493	95.19
440.715	84.19
440.936	75.19
441.158	90.19
441.379	74.19
441.6	87.19
441.822	84.19
442.043	74.19
442.264	103.19
442.486	93.19
442.707	90.19
442.928	95.19
443.149	114.19
443.371	121.19
443.592	96.19
443.813	111.19
444.034	97.19
444.255	78.19
444.476	84.19
444.698	96.19
444.919	82.19
445.14	125.19
445.361	118.19
445.582	110.19
445.803	132.19
446.024	114.19
446.245	111.19
446.466	107.19
446.687	75.19
446.908	93.19
447.129	80.19
447.35	80.19
447.571	82.19
447.792	92.19
448.013	99.19
448.234	94.19
448.455	96.19
448.675	98.19
448.896	99.19
449.117	91.19
449.338	79.19
449.559	110.19
449.779	102.19
450	93.19
450.221	94.19
450.442	98.19
450.662	92.19
450.883	91.19
451.104	102.19
451.324	86.19
451.545	96.19
451.766	86.19
451.986	80.19
452.207	74.19
452.428	94.19
452.648	94.19
452.869	92.19
453.089	111.19
453.31	111.19
453.53	85.19
453.751	102.19
453.971	90.19
454.192	100.19
454.412	86.19
454.633	92.19
454.853	70.19
455.073	81.19
455.294	70.19
455.514	98.19
455.734	90.19
455.955	80.19
456.175	68.19
456.395	89.19
456.616	73.19
456.836	86.19
457.056	83.19
457.276	90.19
457.497	90.19
457.717	94.19
457.937	96.19
458.157	91.19
458.377	90.19
458.598	103.19
458.818	122.19
459.038	134.19
459.258	101.19
459.478	85.19
459.698	86.19
459.918	77.19
460.138	68.19
460.358	92.19
460.578	84.19
460.798	85.19
461.018	93.19
461.238	84.19
461.458	91.19
461.678	85.19
461.898	101.19
462.118	81.19
462.338	69.19
462.558	85.19
462.777	79.19
462.997	85.19
463.217	90.19
463.437	82.19
463.657	91.19
463.876	80.19
464.096	82.19
464.316	92.19
464.536	85.19
464.755	81.19
464.975	99.19
465.195	149.19
465.414	159.19
465.634	94.19
465.854	78.19
466.073	96.19
466.293	108.19
466.512	85.19
466.732	78.19
466.951	84.19
467.171	103.19
467.391	76.19
467.61	114.19
467.829	124.19
468.049	180.19
468.268	239.19
468.488	98.19
468.707	86.19
468.927	80.19
469.146	95.19
469.365	94.19
469.585	89.19
469.804	86.19
470.023	101.19
470.243	89.19
470.462	80.19
470.681	103.19
470.901	94.19
471.12	91.19
471.339	105.19
471.558	97.19
471.777	93.19
471.997	138.19
472.216	319.19
472.435	634.19
472.654	199.19
472.873	106.19
473.092	99.19
473.311	92.19
473.53	89.19
473.749	99.19
473.968	91.19
474.187	101.19
474.406	94.19
474.625	89.19
474.844	91.19
475.063	90.19
475.282	76.19
475.501	96.19
475.72	100.19
475.939	92.19
476.158	87.19
476.377	82.19
476.596	91.19
476.814	89.19
477.033	103.19
477.252	91.19
477.471	76.19
477.69	92.19
477.908	76.19
478.127	81.19
478.346	70.19
478.564	81.19
478.783	94.19
479.002	88.19
479.22	90.19
479.439	102.19
479.658	99.19
479.876	109.19
480.095	90.19
480.313	99.19
480.532	108.19
480.751	136.19
480.969	317.19
481.188	1073.19
481.406	629.19
481.624	143.19
481.843	92.19
482.061	98.19
482.28	89.19
482.498	82.19
482.717	91.19
482.935	95.19
483.153	92.19
483.372	80.19
483.59	85.19
483.808	74.19
484.027	79.19
484.245	93.19
484.463	83.19
484.681	96.19
484.9	93.19
485.118	101.19
485.336	110.19
485.554	103.19
485.772	109.19
485.99	109.19
486.209	111.19
486.427	114.19
486.645	116.19
486.863	115.19
487.081	93.19
487.299	98.19
487.517	101.19
487.735	93.19
487.953	89.19
488.171	92.19
488.389	87.19
488.607	93.19
488.825	90.19
489.043	97.19
489.261	77.19
489.479	78.19
489.696	83.19
489.914	86.19
490.132	85.19
490.35	80.19
490.568	86.19
490.786	81.19
491.003	98.19
491.221	86.19
491.439	82.19
491.657	78.19
491.874	88.19
492.092	82.19
492.31	99.19
492.527	85.19
492.745	96.19
492.963	105.19
493.18	88.19
493.398	92.19
493.615	108.19
493.833	78.19
494.05	82.19
494.268	95.19
494.485	86.19
494.703	86.19
494.92	104.19
495.138	103.19
495.355	84.19
495.573	97.19
495.79	90.19
496.008	98.19
496.225	82.19
496.442	74.19
496.66	91.19
496.877	91.19
497.094	99.19
497.312	87.19
497.529	89.19
497.746	84.19
497.963	87.19
498.181	94.19
498.398	87.19
498.615	98.19
498.832	96.19
499.049	91.19
499.267	84.19
499.484	81.19
499.701	95.19
499.918	86.19
500.135	82.19
500.352	101.19
500.569	101.19
500.786	92.19
501.003	94.19
501.22	92.19
501.437	98.19
501.654	88.19
501.871	104.19
502.088	91.19
502.305	79.19
502.522	95.19
502.739	93.19
502.956	100.19
503.172	84.19
503.389	79.19
503.606	98.19
503.823	105.19
504.04	103.19
504.256	95.19
504.473	77.19
504.69	82.19
504.907	90.19
505.123	62.19
505.34	93.19
505.557	103.19
505.773	98.19
505.99	88.19
506.207	93.19
506.423	100.19
506.64	90.19
506.856	91.19
507.073	83.19
507.289	88.19
507.506	90.19
507.722	110.19
507.939	99.19
508.155	95.19
508.372	88.19
508.588	94.19
508.805	93.19
509.021	100.19
509.238	112.19
509.454	89.19
509.67	88.19
509.887	96.19
510.103	111.19
510.319	186.19
510.536	598.19
510.752	1914.19
510.968	540.19
511.184	143.19
511.401	108.19
511.617	108.19
511.833	80.19
512.049	91.19
512.265	86.19
512.481	101.19
512.698	100.19
512.914	81.19
513.13	97.19
513.346	91.19
513.562	94.19
513.778	93.19
513.994	91.19
514.21	96.19
514.426	107.19
514.642	118.19
514.858	117.19
515.074	146.19
515.29	384.19
515.506	1171.19
515.721	439.19
