Data from Circ_1989_H10_HRD10591_00099.txt Node
Date: Wed Jan 03 12:01:41 EST 2024
User: Yrep
Spectrometer: HR+D1059
Trigger mode: 1
Integration Time (sec): 1.000000E-1
Scans to average: 1
Electric dark correction enabled: true
Nonlinearity correction enabled: false
Boxcar width: 0
XAxis mode: Wavelengths
Number of Pixels in Spectrum: 2048
>>>>>Begin Spectral Data<<<<<
223.165	-13.38
223.4	-13.38
223.635	-13.38
223.869	-20.38
224.104	-19.38
224.338	-2.38
224.573	-21.38
224.808	-20.38
225.042	-7.38
225.277	11.62
225.511	-12.38
225.746	3.62
225.98	-5.38
226.215	12.62
226.449	23.62
226.683	12.62
226.918	29.62
227.152	28.62
227.387	40.62
227.621	40.62
227.856	31.62
228.09	47.62
228.324	58.62
228.559	47.62
228.793	62.62
229.027	60.62
229.262	62.62
229.496	55.62
229.73	89.62
229.964	78.62
230.199	77.62
230.433	79.62
230.667	72.62
230.901	83.62
231.136	77.62
231.37	89.62
231.604	61.62
231.838	86.62
232.072	93.62
232.306	68.62
232.541	79.62
232.775	88.62
233.009	87.62
233.243	85.62
233.477	99.62
233.711	72.62
233.945	89.62
234.179	80.62
234.413	75.62
234.647	80.62
234.881	79.62
235.115	90.62
235.349	87.62
235.583	78.62
235.817	71.62
236.051	75.62
236.285	80.62
236.519	79.62
236.753	86.62
236.987	85.62
237.221	93.62
237.455	88.62
237.689	84.62
237.922	83.62
238.156	67.62
238.39	72.62
238.624	88.62
238.858	71.62
239.091	80.62
239.325	71.62
239.559	81.62
239.793	73.62
240.027	78.62
240.26	78.62
240.494	68.62
240.728	80.62
240.961	77.62
241.195	77.62
241.429	70.62
241.662	70.62
241.896	65.62
242.13	63.62
242.363	80.62
242.597	72.62
242.83	76.62
243.064	93.62
243.298	78.62
243.531	86.62
243.765	71.62
243.998	69.62
244.232	83.62
244.465	88.62
244.699	82.62
244.932	79.62
245.166	92.62
245.399	79.62
245.633	65.62
245.866	75.62
246.099	91.62
246.333	86.62
246.566	69.62
246.8	80.62
247.033	79.62
247.266	65.62
247.5	65.62
247.733	81.62
247.966	78.62
248.2	93.62
248.433	76.62
248.666	73.62
248.899	91.62
249.133	87.62
249.366	91.62
249.599	97.62
249.832	89.62
250.066	75.62
250.299	77.62
250.532	77.62
250.765	80.62
250.998	90.62
251.231	84.62
251.465	73.62
251.698	91.62
251.931	81.62
252.164	80.62
252.397	83.62
252.63	68.62
252.863	71.62
253.096	87.62
253.329	80.62
253.562	75.62
253.795	98.62
254.028	75.62
254.261	81.62
254.494	81.62
254.727	80.62
254.96	71.62
255.193	80.62
255.426	95.62
255.659	72.62
255.892	86.62
256.124	80.62
256.357	68.62
256.59	100.62
256.823	89.62
257.056	79.62
257.289	67.62
257.521	93.62
257.754	93.62
257.987	84.62
258.22	84.62
258.452	71.62
258.685	77.62
258.918	86.62
259.151	80.62
259.383	83.62
259.616	77.62
259.849	76.62
260.081	77.62
260.314	87.62
260.547	74.62
260.779	77.62
261.012	99.62
261.244	91.62
261.477	112.62
261.71	92.62
261.942	115.62
262.175	107.62
262.407	90.62
262.64	89.62
262.872	77.62
263.105	83.62
263.337	89.62
263.57	80.62
263.802	84.62
264.035	84.62
264.267	65.62
264.499	89.62
264.732	88.62
264.964	79.62
265.197	87.62
265.429	94.62
265.661	66.62
265.894	86.62
266.126	85.62
266.358	94.62
266.591	86.62
266.823	70.62
267.055	80.62
267.287	81.62
267.52	70.62
267.752	65.62
267.984	86.62
268.216	96.62
268.448	102.62
268.681	89.62
268.913	92.62
269.145	87.62
269.377	95.62
269.609	82.62
269.841	79.62
270.073	98.62
270.306	82.62
270.538	74.62
270.77	63.62
271.002	85.62
271.234	83.62
271.466	88.62
271.698	83.62
271.93	91.62
272.162	88.62
272.394	71.62
272.626	80.62
272.858	85.62
273.09	64.62
273.322	97.62
273.553	75.62
273.785	86.62
274.017	69.62
274.249	75.62
274.481	90.62
274.713	81.62
274.945	87.62
275.176	80.62
275.408	75.62
275.64	104.62
275.872	89.62
276.104	93.62
276.335	76.62
276.567	99.62
276.799	110.62
277.031	128.62
277.262	136.62
277.494	109.62
277.726	90.62
277.957	87.62
278.189	93.62
278.421	82.62
278.652	89.62
278.884	69.62
279.115	95.62
279.347	93.62
279.579	88.62
279.81	101.62
280.042	136.62
280.273	173.62
280.505	116.62
280.736	89.62
280.968	87.62
281.199	89.62
281.431	82.62
281.662	86.62
281.894	80.62
282.125	96.62
282.356	139.62
282.588	151.62
282.819	118.62
283.051	85.62
283.282	77.62
283.513	86.62
283.745	83.62
283.976	87.62
284.207	89.62
284.439	86.62
284.67	83.62
284.901	91.62
285.132	87.62
285.364	72.62
285.595	76.62
285.826	75.62
286.057	82.62
286.288	87.62
286.52	84.62
286.751	84.62
286.982	90.62
287.213	79.62
287.444	76.62
287.675	99.62
287.906	93.62
288.138	83.62
288.369	86.62
288.6	95.62
288.831	95.62
289.062	93.62
289.293	86.62
289.524	79.62
289.755	87.62
289.986	100.62
290.217	83.62
290.448	84.62
290.679	87.62
290.91	84.62
291.141	81.62
291.371	77.62
291.602	92.62
291.833	84.62
292.064	92.62
292.295	81.62
292.526	88.62
292.757	86.62
292.987	89.62
293.218	88.62
293.449	99.62
293.68	81.62
293.91	95.62
294.141	84.62
294.372	89.62
294.603	83.62
294.833	88.62
295.064	81.62
295.295	72.62
295.525	82.62
295.756	94.62
295.987	114.62
296.217	136.62
296.448	127.62
296.679	89.62
296.909	94.62
297.14	90.62
297.37	83.62
297.601	88.62
297.831	95.62
298.062	90.62
298.292	91.62
298.523	77.62
298.753	94.62
298.984	97.62
299.214	80.62
299.445	89.62
299.675	95.62
299.905	80.62
300.136	90.62
300.366	97.62
300.597	99.62
300.827	95.62
301.057	92.62
301.288	96.62
301.518	90.62
301.748	97.62
301.979	103.62
302.209	94.62
302.439	94.62
302.669	95.62
302.9	84.62
303.13	99.62
303.36	91.62
303.59	110.62
303.82	108.62
304.051	99.62
304.281	103.62
304.511	88.62
304.741	96.62
304.971	72.62
305.201	89.62
305.431	84.62
305.661	84.62
305.891	102.62
306.121	84.62
306.352	109.62
306.582	89.62
306.812	95.62
307.042	97.62
307.272	129.62
307.502	148.62
307.731	133.62
307.961	123.62
308.191	99.62
308.421	111.62
308.651	101.62
308.881	80.62
309.111	103.62
309.341	100.62
309.571	92.62
309.8	92.62
310.03	101.62
310.26	92.62
310.49	92.62
310.72	84.62
310.949	103.62
311.179	93.62
311.409	89.62
311.639	100.62
311.868	95.62
312.098	92.62
312.328	93.62
312.557	109.62
312.787	94.62
313.017	105.62
313.246	80.62
313.476	90.62
313.706	81.62
313.935	111.62
314.165	104.62
314.394	102.62
314.624	83.62
314.853	102.62
315.083	97.62
315.312	116.62
315.542	101.62
315.771	88.62
316.001	95.62
316.23	96.62
316.46	93.62
316.689	98.62
316.919	86.62
317.148	91.62
317.377	96.62
317.607	96.62
317.836	84.62
318.065	86.62
318.295	78.62
318.524	94.62
318.753	97.62
318.983	95.62
319.212	104.62
319.441	100.62
319.67	118.62
319.9	85.62
320.129	100.62
320.358	83.62
320.587	85.62
320.816	98.62
321.046	114.62
321.275	93.62
321.504	99.62
321.733	95.62
321.962	93.62
322.191	96.62
322.42	108.62
322.649	107.62
322.878	106.62
323.108	103.62
323.337	128.62
323.566	129.62
323.795	155.62
324.024	204.62
324.253	382.62
324.482	803.62
324.71	1628.62
324.939	2235.62
325.168	805.62
325.397	229.62
325.626	154.62
325.855	135.62
326.084	135.62
326.313	145.62
326.542	145.62
326.77	224.62
326.999	438.62
327.228	946.62
327.457	1707.62
327.686	1394.62
327.914	418.62
328.143	335.62
328.372	384.62
328.6	229.62
328.829	139.62
329.058	156.62
329.287	139.62
329.515	130.62
329.744	191.62
329.972	304.62
330.201	544.62
330.43	781.62
330.658	351.62
330.887	180.62
331.115	146.62
331.344	104.62
331.572	99.62
331.801	108.62
332.03	103.62
332.258	106.62
332.486	114.62
332.715	96.62
332.943	108.62
333.172	112.62
333.4	99.62
333.629	141.62
333.857	171.62
334.085	295.62
334.314	537.62
334.542	1018.62
334.771	915.62
334.999	252.62
335.227	143.62
335.455	106.62
335.684	104.62
335.912	109.62
336.14	91.62
336.369	115.62
336.597	96.62
336.825	101.62
337.053	97.62
337.281	93.62
337.51	95.62
337.738	97.62
337.966	89.62
338.194	83.62
338.422	98.62
338.65	103.62
338.878	85.62
339.106	93.62
339.334	88.62
339.562	89.62
339.79	72.62
340.018	103.62
340.246	101.62
340.474	103.62
340.702	104.62
340.93	87.62
341.158	97.62
341.386	87.62
341.614	93.62
341.842	94.62
342.07	89.62
342.298	95.62
342.526	96.62
342.754	80.62
342.981	92.62
343.209	97.62
343.437	84.62
343.665	84.62
343.893	86.62
344.12	97.62
344.348	91.62
344.576	97.62
344.804	93.62
345.031	114.62
345.259	100.62
345.487	85.62
345.714	87.62
345.942	84.62
346.17	84.62
346.397	83.62
346.625	95.62
346.853	89.62
347.08	87.62
347.308	85.62
347.535	97.62
347.763	111.62
347.99	100.62
348.218	89.62
348.445	112.62
348.673	90.62
348.9	103.62
349.128	101.62
349.355	78.62
349.583	95.62
349.81	82.62
350.037	91.62
350.265	77.62
350.492	91.62
350.72	104.62
350.947	103.62
351.174	100.62
351.402	93.62
351.629	81.62
351.856	103.62
352.083	100.62
352.311	78.62
352.538	101.62
352.765	99.62
352.992	105.62
353.22	106.62
353.447	111.62
353.674	100.62
353.901	91.62
354.128	91.62
354.355	95.62
354.583	103.62
354.81	88.62
355.037	82.62
355.264	103.62
355.491	91.62
355.718	100.62
355.945	96.62
356.172	91.62
356.399	94.62
356.626	105.62
356.853	99.62
357.08	89.62
357.307	85.62
357.534	98.62
357.761	84.62
357.988	104.62
358.215	83.62
358.441	93.62
358.668	99.62
358.895	89.62
359.122	80.62
359.349	79.62
359.576	85.62
359.802	105.62
360.029	106.62
360.256	120.62
360.483	93.62
360.709	90.62
360.936	88.62
361.163	87.62
361.39	94.62
361.616	96.62
361.843	101.62
362.07	105.62
362.296	105.62
362.523	92.62
362.749	94.62
362.976	87.62
363.203	87.62
363.429	78.62
363.656	95.62
363.882	89.62
364.109	81.62
364.335	85.62
364.562	94.62
364.788	92.62
365.015	109.62
365.241	105.62
365.468	107.62
365.694	105.62
365.92	91.62
366.147	84.62
366.373	85.62
366.599	90.62
366.826	81.62
367.052	86.62
367.278	87.62
367.505	91.62
367.731	95.62
367.957	86.62
368.184	84.62
368.41	100.62
368.636	107.62
368.862	99.62
369.089	101.62
369.315	94.62
369.541	90.62
369.767	80.62
369.993	91.62
370.219	101.62
370.445	78.62
370.672	90.62
370.898	94.62
371.124	85.62
371.35	82.62
371.576	91.62
371.802	91.62
372.028	84.62
372.254	95.62
372.48	96.62
372.706	90.62
372.932	88.62
373.158	94.62
373.384	93.62
373.61	85.62
373.835	91.62
374.061	91.62
374.287	99.62
374.513	95.62
374.739	95.62
374.965	97.62
375.191	85.62
375.416	90.62
375.642	101.62
375.868	98.62
376.094	86.62
376.319	83.62
376.545	86.62
376.771	92.62
376.997	82.62
377.222	96.62
377.448	85.62
377.674	86.62
377.899	87.62
378.125	69.62
378.35	94.62
378.576	84.62
378.802	83.62
379.027	73.62
379.253	91.62
379.478	93.62
379.704	100.62
379.929	80.62
380.155	108.62
380.38	75.62
380.606	95.62
380.831	89.62
381.057	89.62
381.282	94.62
381.507	99.62
381.733	100.62
381.958	91.62
382.184	89.62
382.409	99.62
382.634	97.62
382.86	104.62
383.085	100.62
383.31	97.62
383.535	99.62
383.761	95.62
383.986	95.62
384.211	92.62
384.436	89.62
384.662	101.62
384.887	113.62
385.112	86.62
385.337	99.62
385.562	99.62
385.787	92.62
386.013	114.62
386.238	113.62
386.463	106.62
386.688	115.62
386.913	101.62
387.138	95.62
387.363	94.62
387.588	95.62
387.813	99.62
388.038	94.62
388.263	91.62
388.488	88.62
388.713	83.62
388.938	96.62
389.163	82.62
389.387	88.62
389.612	95.62
389.837	91.62
390.062	93.62
390.287	98.62
390.512	87.62
390.736	77.62
390.961	99.62
391.186	95.62
391.411	97.62
391.636	100.62
391.86	97.62
392.085	93.62
392.31	88.62
392.534	79.62
392.759	83.62
392.984	76.62
393.208	95.62
393.433	97.62
393.658	79.62
393.882	85.62
394.107	88.62
394.331	80.62
394.556	81.62
394.78	89.62
395.005	80.62
395.229	97.62
395.454	78.62
395.678	85.62
395.903	78.62
396.127	96.62
396.352	106.62
396.576	99.62
396.801	79.62
397.025	94.62
397.249	90.62
397.474	87.62
397.698	93.62
397.922	90.62
398.147	78.62
398.371	99.62
398.595	95.62
398.82	86.62
399.044	101.62
399.268	103.62
399.492	98.62
399.717	82.62
399.941	100.62
400.165	78.62
400.389	100.62
400.613	100.62
400.837	82.62
401.062	83.62
401.286	85.62
401.51	90.62
401.734	87.62
401.958	95.62
402.182	115.62
402.406	140.62
402.63	109.62
402.854	88.62
403.078	99.62
403.302	85.62
403.526	86.62
403.75	84.62
403.974	91.62
404.198	96.62
404.422	77.62
404.645	81.62
404.869	96.62
405.093	112.62
405.317	123.62
405.541	115.62
405.765	84.62
405.988	120.62
406.212	163.62
406.436	211.62
406.66	140.62
406.883	103.62
407.107	87.62
407.331	93.62
407.555	103.62
407.778	101.62
408.002	88.62
408.226	87.62
408.449	82.62
408.673	89.62
408.896	98.62
409.12	104.62
409.344	82.62
409.567	91.62
409.791	89.62
410.014	98.62
410.238	83.62
410.461	102.62
410.685	86.62
410.908	76.62
411.132	107.62
411.355	104.62
411.578	99.62
411.802	83.62
412.025	85.62
412.249	103.62
412.472	115.62
412.695	109.62
412.919	83.62
413.142	73.62
413.365	95.62
413.589	88.62
413.812	87.62
414.035	92.62
414.258	87.62
414.482	82.62
414.705	84.62
414.928	87.62
415.151	91.62
415.374	93.62
415.597	86.62
415.821	85.62
416.044	85.62
416.267	88.62
416.49	78.62
416.713	84.62
416.936	83.62
417.159	84.62
417.382	108.62
417.605	87.62
417.828	99.62
418.051	102.62
418.274	85.62
418.497	83.62
418.72	87.62
418.943	77.62
419.166	94.62
419.389	94.62
419.611	113.62
419.834	87.62
420.057	81.62
420.28	86.62
420.503	83.62
420.726	105.62
420.948	107.62
421.171	98.62
421.394	92.62
421.617	103.62
421.839	90.62
422.062	77.62
422.285	99.62
422.507	107.62
422.73	111.62
422.953	95.62
423.175	86.62
423.398	95.62
423.621	96.62
423.843	77.62
424.066	83.62
424.288	86.62
424.511	80.62
424.733	88.62
424.956	106.62
425.178	103.62
425.401	97.62
425.623	95.62
425.846	88.62
426.068	103.62
426.291	90.62
426.513	89.62
426.735	86.62
426.958	99.62
427.18	97.62
427.402	150.62
427.625	173.62
427.847	161.62
428.069	179.62
428.292	104.62
428.514	95.62
428.736	98.62
428.958	76.62
429.181	91.62
429.403	95.62
429.625	90.62
429.847	91.62
430.069	97.62
430.292	90.62
430.514	78.62
430.736	75.62
430.958	91.62
431.18	88.62
431.402	85.62
431.624	99.62
431.846	99.62
432.068	100.62
432.29	81.62
432.512	101.62
432.734	91.62
432.956	93.62
433.178	95.62
433.4	96.62
433.622	92.62
433.844	95.62
434.066	91.62
434.287	89.62
434.509	85.62
434.731	79.62
434.953	82.62
435.175	89.62
435.397	83.62
435.618	98.62
435.84	107.62
436.062	130.62
436.284	130.62
436.505	98.62
436.727	100.62
436.949	83.62
437.17	79.62
437.392	99.62
437.614	93.62
437.835	99.62
438.057	127.62
438.278	113.62
438.5	108.62
438.721	134.62
438.943	113.62
439.165	90.62
439.386	93.62
439.608	91.62
439.829	97.62
440.05	119.62
440.272	144.62
440.493	90.62
440.715	80.62
440.936	76.62
441.158	91.62
441.379	87.62
441.6	84.62
441.822	95.62
442.043	93.62
442.264	86.62
442.486	95.62
442.707	91.62
442.928	124.62
443.149	144.62
443.371	139.62
443.592	104.62
443.813	119.62
444.034	101.62
444.255	87.62
444.476	87.62
444.698	79.62
444.919	80.62
445.14	122.62
445.361	124.62
445.582	109.62
445.803	164.62
446.024	147.62
446.245	137.62
446.466	107.62
446.687	86.62
446.908	93.62
447.129	111.62
447.35	86.62
447.571	91.62
447.792	87.62
448.013	104.62
448.234	96.62
448.455	104.62
448.675	96.62
448.896	109.62
449.117	98.62
449.338	88.62
449.559	124.62
449.779	119.62
450	91.62
450.221	95.62
450.442	88.62
450.662	91.62
450.883	103.62
451.104	109.62
451.324	107.62
451.545	85.62
451.766	79.62
451.986	89.62
452.207	92.62
452.428	102.62
452.648	96.62
452.869	102.62
453.089	117.62
453.31	115.62
453.53	77.62
453.751	86.62
453.971	105.62
454.192	117.62
454.412	92.62
454.633	103.62
454.853	94.62
455.073	89.62
455.294	92.62
455.514	93.62
455.734	91.62
455.955	91.62
456.175	91.62
456.395	84.62
456.616	99.62
456.836	76.62
457.056	78.62
457.276	78.62
457.497	78.62
457.717	76.62
457.937	70.62
458.157	75.62
458.377	96.62
458.598	96.62
458.818	134.62
459.038	170.62
459.258	102.62
459.478	79.62
459.698	85.62
459.918	98.62
460.138	96.62
460.358	84.62
460.578	100.62
460.798	93.62
461.018	100.62
461.238	85.62
461.458	88.62
461.678	70.62
461.898	94.62
462.118	88.62
462.338	102.62
462.558	91.62
462.777	89.62
462.997	80.62
463.217	103.62
463.437	87.62
463.657	89.62
463.876	79.62
464.096	98.62
464.316	93.62
464.536	91.62
464.755	87.62
464.975	91.62
465.195	159.62
465.414	164.62
465.634	102.62
465.854	90.62
466.073	83.62
466.293	82.62
466.512	95.62
466.732	75.62
466.951	91.62
467.171	91.62
467.391	105.62
467.61	128.62
467.829	167.62
468.049	360.62
468.268	487.62
468.488	161.62
468.707	93.62
468.927	79.62
469.146	98.62
469.365	95.62
469.585	90.62
469.804	100.62
470.023	101.62
470.243	87.62
470.462	102.62
470.681	125.62
470.901	101.62
471.12	93.62
471.339	92.62
471.558	111.62
471.777	120.62
471.997	198.62
472.216	672.62
472.435	1409.62
472.654	355.62
472.873	122.62
473.092	85.62
473.311	85.62
473.53	91.62
473.749	103.62
473.968	82.62
474.187	94.62
474.406	87.62
474.625	92.62
474.844	89.62
475.063	85.62
475.282	88.62
475.501	88.62
475.72	93.62
475.939	89.62
476.158	89.62
476.377	91.62
476.596	91.62
476.814	83.62
477.033	106.62
477.252	85.62
477.471	89.62
477.69	96.62
477.908	82.62
478.127	91.62
478.346	86.62
478.564	89.62
478.783	105.62
479.002	84.62
479.22	91.62
479.439	95.62
479.658	125.62
479.876	105.62
480.095	106.62
480.313	124.62
480.532	123.62
480.751	212.62
480.969	627.62
481.188	2536.62
481.406	1419.62
481.624	243.62
481.843	101.62
482.061	115.62
482.28	102.62
482.498	94.62
482.717	85.62
482.935	86.62
483.153	100.62
483.372	83.62
483.59	84.62
483.808	104.62
484.027	78.62
484.245	90.62
484.463	91.62
484.681	95.62
484.9	97.62
485.118	97.62
485.336	89.62
485.554	105.62
485.772	88.62
485.99	108.62
486.209	91.62
486.427	86.62
486.645	119.62
486.863	125.62
487.081	105.62
487.299	116.62
487.517	91.62
487.735	102.62
487.953	102.62
488.171	94.62
488.389	100.62
488.607	97.62
488.825	83.62
489.043	76.62
489.261	88.62
489.479	88.62
489.696	95.62
489.914	102.62
490.132	80.62
490.35	84.62
490.568	78.62
490.786	84.62
491.003	104.62
491.221	88.62
491.439	79.62
491.657	96.62
491.874	89.62
492.092	99.62
492.31	109.62
492.527	107.62
492.745	90.62
492.963	89.62
493.18	93.62
493.398	91.62
493.615	89.62
493.833	89.62
494.05	91.62
494.268	89.62
494.485	84.62
494.703	89.62
494.92	90.62
495.138	88.62
495.355	107.62
495.573	88.62
495.79	85.62
496.008	97.62
496.225	85.62
496.442	82.62
496.66	89.62
496.877	97.62
497.094	87.62
497.312	82.62
497.529	99.62
497.746	89.62
497.963	86.62
498.181	95.62
498.398	100.62
498.615	104.62
498.832	92.62
499.049	103.62
499.267	75.62
499.484	83.62
499.701	85.62
499.918	87.62
500.135	79.62
500.352	79.62
500.569	87.62
500.786	96.62
501.003	80.62
501.22	92.62
501.437	83.62
501.654	88.62
501.871	109.62
502.088	92.62
502.305	101.62
502.522	102.62
502.739	95.62
502.956	103.62
503.172	84.62
503.389	70.62
503.606	101.62
503.823	111.62
504.04	110.62
504.256	95.62
504.473	92.62
504.69	82.62
504.907	97.62
505.123	89.62
505.34	79.62
505.557	87.62
505.773	91.62
505.99	90.62
506.207	89.62
506.423	100.62
506.64	92.62
506.856	102.62
507.073	95.62
507.289	78.62
507.506	95.62
507.722	103.62
507.939	108.62
508.155	101.62
508.372	98.62
508.588	83.62
508.805	88.62
509.021	110.62
509.238	94.62
509.454	88.62
509.67	107.62
509.887	121.62
510.103	134.62
510.319	209.62
510.536	626.62
510.752	2011.62
510.968	581.62
511.184	147.62
511.401	107.62
511.617	93.62
511.833	86.62
512.049	87.62
512.265	101.62
512.481	91.62
512.698	92.62
512.914	102.62
513.13	84.62
513.346	113.62
513.562	84.62
513.778	103.62
513.994	103.62
514.21	108.62
514.426	109.62
514.642	125.62
514.858	126.62
515.074	161.62
