Data from Circ_1989_H10_HRD10591_00008.txt Node
Date: Wed Jan 03 12:01:23 EST 2024
User: Yrep
Spectrometer: HR+D1059
Trigger mode: 1
Integration Time (sec): 1.000000E-1
Scans to average: 1
Electric dark correction enabled: true
Nonlinearity correction enabled: false
Boxcar width: 0
XAxis mode: Wavelengths
Number of Pixels in Spectrum: 2048
>>>>>Begin Spectral Data<<<<<
223.165	-13.62
223.4	-13.62
223.635	-13.62
223.869	-19.62
224.104	-21.62
224.338	-15.62
224.573	-12.62
224.808	-21.62
225.042	-10.62
225.277	-11.62
225.511	-4.62
225.746	10.38
225.98	15.38
226.215	2.38
226.449	16.38
226.683	27.38
226.918	37.38
227.152	22.38
227.387	39.38
227.621	39.38
227.856	39.38
228.09	49.38
228.324	55.38
228.559	73.38
228.793	76.38
229.027	48.38
229.262	69.38
229.496	81.38
229.73	76.38
229.964	76.38
230.199	87.38
230.433	68.38
230.667	83.38
230.901	80.38
231.136	80.38
231.37	88.38
231.604	89.38
231.838	80.38
232.072	73.38
232.306	83.38
232.541	81.38
232.775	84.38
233.009	91.38
233.243	93.38
233.477	98.38
233.711	87.38
233.945	76.38
234.179	69.38
234.413	79.38
234.647	88.38
234.881	78.38
235.115	76.38
235.349	85.38
235.583	84.38
235.817	78.38
236.051	80.38
236.285	62.38
236.519	77.38
236.753	83.38
236.987	78.38
237.221	85.38
237.455	84.38
237.689	72.38
237.922	84.38
238.156	61.38
238.39	64.38
238.624	73.38
238.858	73.38
239.091	84.38
239.325	54.38
239.559	92.38
239.793	84.38
240.027	79.38
240.26	79.38
240.494	69.38
240.728	84.38
240.961	77.38
241.195	90.38
241.429	86.38
241.662	87.38
241.896	82.38
242.13	79.38
242.363	70.38
242.597	64.38
242.83	78.38
243.064	71.38
243.298	86.38
243.531	76.38
243.765	67.38
243.998	73.38
244.232	72.38
244.465	72.38
244.699	81.38
244.932	90.38
245.166	91.38
245.399	79.38
245.633	100.38
245.866	95.38
246.099	87.38
246.333	81.38
246.566	80.38
246.8	83.38
247.033	70.38
247.266	88.38
247.5	79.38
247.733	74.38
247.966	92.38
248.2	79.38
248.433	78.38
248.666	77.38
248.899	84.38
249.133	78.38
249.366	105.38
249.599	77.38
249.832	82.38
250.066	82.38
250.299	80.38
250.532	88.38
250.765	88.38
250.998	81.38
251.231	88.38
251.465	80.38
251.698	84.38
251.931	86.38
252.164	85.38
252.397	97.38
252.63	83.38
252.863	88.38
253.096	76.38
253.329	73.38
253.562	92.38
253.795	85.38
254.028	90.38
254.261	80.38
254.494	90.38
254.727	81.38
254.96	83.38
255.193	84.38
255.426	76.38
255.659	71.38
255.892	66.38
256.124	82.38
256.357	83.38
256.59	82.38
256.823	72.38
257.056	86.38
257.289	70.38
257.521	89.38
257.754	81.38
257.987	84.38
258.22	83.38
258.452	85.38
258.685	86.38
258.918	66.38
259.151	84.38
259.383	91.38
259.616	90.38
259.849	80.38
260.081	72.38
260.314	84.38
260.547	73.38
260.779	89.38
261.012	82.38
261.244	85.38
261.477	87.38
261.71	92.38
261.942	107.38
262.175	103.38
262.407	88.38
262.64	71.38
262.872	89.38
263.105	90.38
263.337	89.38
263.57	90.38
263.802	85.38
264.035	91.38
264.267	86.38
264.499	81.38
264.732	67.38
264.964	88.38
265.197	89.38
265.429	77.38
265.661	77.38
265.894	68.38
266.126	86.38
266.358	99.38
266.591	82.38
266.823	89.38
267.055	79.38
267.287	88.38
267.52	85.38
267.752	90.38
267.984	83.38
268.216	91.38
268.448	69.38
268.681	84.38
268.913	86.38
269.145	79.38
269.377	89.38
269.609	92.38
269.841	81.38
270.073	92.38
270.306	99.38
270.538	95.38
270.77	69.38
271.002	84.38
271.234	93.38
271.466	95.38
271.698	78.38
271.93	108.38
272.162	87.38
272.394	100.38
272.626	95.38
272.858	90.38
273.09	76.38
273.322	87.38
273.553	84.38
273.785	95.38
274.017	70.38
274.249	90.38
274.481	76.38
274.713	96.38
274.945	87.38
275.176	91.38
275.408	89.38
275.64	82.38
275.872	84.38
276.104	80.38
276.335	94.38
276.567	86.38
276.799	93.38
277.031	95.38
277.262	86.38
277.494	96.38
277.726	88.38
277.957	106.38
278.189	89.38
278.421	87.38
278.652	81.38
278.884	78.38
279.115	90.38
279.347	72.38
279.579	86.38
279.81	85.38
280.042	88.38
280.273	98.38
280.505	94.38
280.736	93.38
280.968	92.38
281.199	78.38
281.431	89.38
281.662	84.38
281.894	85.38
282.125	94.38
282.356	106.38
282.588	114.38
282.819	104.38
283.051	90.38
283.282	89.38
283.513	81.38
283.745	83.38
283.976	80.38
284.207	87.38
284.439	82.38
284.67	88.38
284.901	84.38
285.132	87.38
285.364	85.38
285.595	76.38
285.826	76.38
286.057	86.38
286.288	96.38
286.52	94.38
286.751	83.38
286.982	82.38
287.213	83.38
287.444	87.38
287.675	103.38
287.906	90.38
288.138	94.38
288.369	84.38
288.6	99.38
288.831	84.38
289.062	89.38
289.293	95.38
289.524	92.38
289.755	102.38
289.986	92.38
290.217	86.38
290.448	90.38
290.679	83.38
290.91	100.38
291.141	80.38
291.371	80.38
291.602	80.38
291.833	70.38
292.064	89.38
292.295	85.38
292.526	84.38
292.757	80.38
292.987	87.38
293.218	91.38
293.449	92.38
293.68	78.38
293.91	91.38
294.141	101.38
294.372	96.38
294.603	81.38
294.833	84.38
295.064	89.38
295.295	94.38
295.525	76.38
295.756	99.38
295.987	101.38
296.217	118.38
296.448	113.38
296.679	101.38
296.909	88.38
297.14	92.38
297.37	91.38
297.601	92.38
297.831	73.38
298.062	90.38
298.292	100.38
298.523	80.38
298.753	90.38
298.984	82.38
299.214	91.38
299.445	87.38
299.675	81.38
299.905	96.38
300.136	80.38
300.366	77.38
300.597	98.38
300.827	92.38
301.057	83.38
301.288	92.38
301.518	107.38
301.748	86.38
301.979	106.38
302.209	87.38
302.439	84.38
302.669	98.38
302.9	84.38
303.13	79.38
303.36	81.38
303.59	85.38
303.82	94.38
304.051	88.38
304.281	87.38
304.511	85.38
304.741	101.38
304.971	97.38
305.201	78.38
305.431	89.38
305.661	78.38
305.891	93.38
306.121	102.38
306.352	94.38
306.582	101.38
306.812	97.38
307.042	103.38
307.272	90.38
307.502	96.38
307.731	112.38
307.961	95.38
308.191	84.38
308.421	94.38
308.651	91.38
308.881	100.38
309.111	91.38
309.341	90.38
309.571	87.38
309.8	84.38
310.03	80.38
310.26	92.38
310.49	86.38
310.72	87.38
310.949	94.38
311.179	89.38
311.409	82.38
311.639	92.38
311.868	112.38
312.098	112.38
312.328	96.38
312.557	103.38
312.787	78.38
313.017	93.38
313.246	81.38
313.476	89.38
313.706	78.38
313.935	91.38
314.165	98.38
314.394	105.38
314.624	97.38
314.853	89.38
315.083	90.38
315.312	100.38
315.542	96.38
315.771	90.38
316.001	93.38
316.23	84.38
316.46	87.38
316.689	84.38
316.919	94.38
317.148	99.38
317.377	88.38
317.607	95.38
317.836	85.38
318.065	93.38
318.295	87.38
318.524	93.38
318.753	87.38
318.983	102.38
319.212	96.38
319.441	93.38
319.67	104.38
319.9	87.38
320.129	90.38
320.358	89.38
320.587	91.38
320.816	87.38
321.046	109.38
321.275	103.38
321.504	90.38
321.733	97.38
321.962	102.38
322.191	89.38
322.42	99.38
322.649	97.38
322.878	98.38
323.108	106.38
323.337	122.38
323.566	104.38
323.795	108.38
324.024	160.38
324.253	295.38
324.482	559.38
324.71	1102.38
324.939	1462.38
325.168	574.38
325.397	191.38
325.626	122.38
325.855	116.38
326.084	119.38
326.313	110.38
326.542	129.38
326.77	181.38
326.999	349.38
327.228	639.38
327.457	1130.38
327.686	905.38
327.914	279.38
328.143	180.38
328.372	189.38
328.6	134.38
328.829	104.38
329.058	115.38
329.287	118.38
329.515	110.38
329.744	123.38
329.972	160.38
330.201	237.38
330.43	280.38
330.658	162.38
330.887	136.38
331.115	112.38
331.344	106.38
331.572	101.38
331.801	92.38
332.03	105.38
332.258	98.38
332.486	101.38
332.715	90.38
332.943	88.38
333.172	82.38
333.4	104.38
333.629	117.38
333.857	141.38
334.085	157.38
334.314	223.38
334.542	358.38
334.771	336.38
334.999	141.38
335.227	100.38
335.455	90.38
335.684	117.38
335.912	111.38
336.14	101.38
336.369	92.38
336.597	107.38
336.825	90.38
337.053	93.38
337.281	96.38
337.51	84.38
337.738	82.38
337.966	78.38
338.194	92.38
338.422	98.38
338.65	78.38
338.878	85.38
339.106	96.38
339.334	88.38
339.562	93.38
339.79	94.38
340.018	88.38
340.246	85.38
340.474	91.38
340.702	90.38
340.93	97.38
341.158	107.38
341.386	98.38
341.614	93.38
341.842	88.38
342.07	88.38
342.298	91.38
342.526	99.38
342.754	95.38
342.981	83.38
343.209	90.38
343.437	95.38
343.665	89.38
343.893	102.38
344.12	110.38
344.348	90.38
344.576	99.38
344.804	86.38
345.031	99.38
345.259	85.38
345.487	92.38
345.714	96.38
345.942	93.38
346.17	80.38
346.397	87.38
346.625	99.38
346.853	90.38
347.08	76.38
347.308	84.38
347.535	101.38
347.763	103.38
347.99	103.38
348.218	100.38
348.445	99.38
348.673	108.38
348.9	92.38
349.128	92.38
349.355	105.38
349.583	91.38
349.81	83.38
350.037	98.38
350.265	95.38
350.492	88.38
350.72	86.38
350.947	104.38
351.174	105.38
351.402	113.38
351.629	87.38
351.856	99.38
352.083	94.38
352.311	98.38
352.538	106.38
352.765	113.38
352.992	113.38
353.22	108.38
353.447	110.38
353.674	101.38
353.901	97.38
354.128	99.38
354.355	82.38
354.583	102.38
354.81	96.38
355.037	93.38
355.264	92.38
355.491	95.38
355.718	100.38
355.945	88.38
356.172	96.38
356.399	101.38
356.626	104.38
356.853	86.38
357.08	90.38
357.307	96.38
357.534	104.38
357.761	95.38
357.988	99.38
358.215	84.38
358.441	105.38
358.668	100.38
358.895	84.38
359.122	90.38
359.349	93.38
359.576	80.38
359.802	90.38
360.029	97.38
360.256	97.38
360.483	102.38
360.709	88.38
360.936	84.38
361.163	109.38
361.39	98.38
361.616	93.38
361.843	81.38
362.07	105.38
362.296	95.38
362.523	101.38
362.749	88.38
362.976	87.38
363.203	95.38
363.429	86.38
363.656	80.38
363.882	91.38
364.109	77.38
364.335	77.38
364.562	87.38
364.788	92.38
365.015	91.38
365.241	82.38
365.468	105.38
365.694	96.38
365.92	90.38
366.147	95.38
366.373	86.38
366.599	78.38
366.826	81.38
367.052	88.38
367.278	91.38
367.505	88.38
367.731	79.38
367.957	92.38
368.184	97.38
368.41	92.38
368.636	97.38
368.862	95.38
369.089	103.38
369.315	100.38
369.541	99.38
369.767	80.38
369.993	90.38
370.219	96.38
370.445	88.38
370.672	82.38
370.898	80.38
371.124	86.38
371.35	103.38
371.576	88.38
371.802	80.38
372.028	93.38
372.254	86.38
372.48	85.38
372.706	81.38
372.932	95.38
373.158	87.38
373.384	90.38
373.61	87.38
373.835	95.38
374.061	90.38
374.287	83.38
374.513	95.38
374.739	89.38
374.965	76.38
375.191	96.38
375.416	93.38
375.642	88.38
375.868	88.38
376.094	85.38
376.319	71.38
376.545	97.38
376.771	101.38
376.997	91.38
377.222	90.38
377.448	96.38
377.674	92.38
377.899	87.38
378.125	100.38
378.35	95.38
378.576	102.38
378.802	89.38
379.027	84.38
379.253	87.38
379.478	110.38
379.704	113.38
379.929	101.38
380.155	102.38
380.38	102.38
380.606	91.38
380.831	106.38
381.057	100.38
381.282	115.38
381.507	97.38
381.733	112.38
381.958	103.38
382.184	101.38
382.409	107.38
382.634	116.38
382.86	106.38
383.085	99.38
383.31	102.38
383.535	99.38
383.761	112.38
383.986	115.38
384.211	106.38
384.436	106.38
384.662	119.38
384.887	111.38
385.112	121.38
385.337	130.38
385.562	112.38
385.787	117.38
386.013	113.38
386.238	119.38
386.463	112.38
386.688	119.38
386.913	111.38
387.138	123.38
387.363	102.38
387.588	102.38
387.813	110.38
388.038	119.38
388.263	138.38
388.488	121.38
388.713	106.38
388.938	103.38
389.163	91.38
389.387	98.38
389.612	83.38
389.837	97.38
390.062	83.38
390.287	81.38
390.512	86.38
390.736	93.38
390.961	94.38
391.186	92.38
391.411	97.38
391.636	98.38
391.86	90.38
392.085	82.38
392.31	94.38
392.534	100.38
392.759	94.38
392.984	96.38
393.208	92.38
393.433	108.38
393.658	105.38
393.882	90.38
394.107	83.38
394.331	73.38
394.556	73.38
394.78	95.38
395.005	88.38
395.229	74.38
395.454	88.38
395.678	63.38
395.903	84.38
396.127	97.38
396.352	90.38
396.576	91.38
396.801	85.38
397.025	86.38
397.249	84.38
397.474	98.38
397.698	92.38
397.922	89.38
398.147	95.38
398.371	84.38
398.595	84.38
398.82	82.38
399.044	77.38
399.268	83.38
399.492	90.38
399.717	96.38
399.941	80.38
400.165	85.38
400.389	87.38
400.613	92.38
400.837	85.38
401.062	82.38
401.286	93.38
401.51	94.38
401.734	78.38
401.958	91.38
402.182	99.38
402.406	124.38
402.63	114.38
402.854	84.38
403.078	81.38
403.302	57.38
403.526	75.38
403.75	85.38
403.974	86.38
404.198	83.38
404.422	85.38
404.645	69.38
404.869	85.38
405.093	82.38
405.317	115.38
405.541	89.38
405.765	102.38
405.988	111.38
406.212	127.38
406.436	168.38
406.66	130.38
406.883	94.38
407.107	90.38
407.331	88.38
407.555	95.38
407.778	80.38
408.002	77.38
408.226	85.38
408.449	100.38
408.673	59.38
408.896	93.38
409.12	88.38
409.344	92.38
409.567	85.38
409.791	96.38
410.014	100.38
410.238	84.38
410.461	98.38
410.685	87.38
410.908	91.38
411.132	105.38
411.355	96.38
411.578	94.38
411.802	94.38
412.025	92.38
412.249	94.38
412.472	106.38
412.695	104.38
412.919	81.38
413.142	90.38
413.365	91.38
413.589	93.38
413.812	75.38
414.035	94.38
414.258	103.38
414.482	95.38
414.705	77.38
414.928	93.38
415.151	101.38
415.374	82.38
415.597	91.38
415.821	78.38
416.044	98.38
416.267	94.38
416.49	107.38
416.713	101.38
416.936	92.38
417.159	74.38
417.382	89.38
417.605	86.38
417.828	78.38
418.051	105.38
418.274	82.38
418.497	84.38
418.72	93.38
418.943	93.38
419.166	93.38
419.389	109.38
419.611	103.38
419.834	109.38
420.057	86.38
420.28	92.38
420.503	92.38
420.726	86.38
420.948	73.38
421.171	102.38
421.394	80.38
421.617	96.38
421.839	96.38
422.062	85.38
422.285	89.38
422.507	89.38
422.73	87.38
422.953	88.38
423.175	87.38
423.398	93.38
423.621	85.38
423.843	85.38
424.066	82.38
424.288	82.38
424.511	98.38
424.733	107.38
424.956	101.38
425.178	86.38
425.401	98.38
425.623	88.38
425.846	91.38
426.068	82.38
426.291	94.38
426.513	90.38
426.735	105.38
426.958	87.38
427.18	110.38
427.402	115.38
427.625	136.38
427.847	118.38
428.069	115.38
428.292	89.38
428.514	87.38
428.736	81.38
428.958	84.38
429.181	80.38
429.403	71.38
429.625	88.38
429.847	88.38
430.069	94.38
430.292	93.38
430.514	84.38
430.736	93.38
430.958	85.38
431.18	84.38
431.402	90.38
431.624	83.38
431.846	80.38
432.068	77.38
432.29	71.38
432.512	97.38
432.734	96.38
432.956	86.38
433.178	90.38
433.4	96.38
433.622	97.38
433.844	87.38
434.066	107.38
434.287	102.38
434.509	79.38
434.731	87.38
434.953	84.38
435.175	81.38
435.397	83.38
435.618	88.38
435.84	85.38
436.062	97.38
436.284	102.38
436.505	94.38
436.727	98.38
436.949	103.38
437.17	91.38
437.392	89.38
437.614	85.38
437.835	95.38
438.057	101.38
438.278	102.38
438.5	80.38
438.721	104.38
438.943	93.38
439.165	101.38
439.386	94.38
439.608	94.38
439.829	87.38
440.05	101.38
440.272	122.38
440.493	84.38
440.715	89.38
440.936	96.38
441.158	87.38
441.379	89.38
441.6	88.38
441.822	94.38
442.043	95.38
442.264	109.38
442.486	82.38
442.707	92.38
442.928	86.38
443.149	116.38
443.371	100.38
443.592	100.38
443.813	100.38
444.034	100.38
444.255	69.38
444.476	93.38
444.698	98.38
444.919	95.38
445.14	132.38
445.361	106.38
445.582	102.38
445.803	112.38
446.024	102.38
446.245	106.38
446.466	97.38
446.687	88.38
446.908	81.38
447.129	86.38
447.35	91.38
447.571	88.38
447.792	97.38
448.013	87.38
448.234	97.38
448.455	95.38
448.675	103.38
448.896	106.38
449.117	99.38
449.338	93.38
449.559	110.38
449.779	119.38
450	96.38
450.221	83.38
450.442	98.38
450.662	94.38
450.883	95.38
451.104	92.38
451.324	96.38
451.545	82.38
451.766	82.38
451.986	97.38
452.207	88.38
452.428	95.38
452.648	91.38
452.869	103.38
453.089	97.38
453.31	91.38
453.53	95.38
453.751	94.38
453.971	89.38
454.192	93.38
454.412	79.38
454.633	94.38
454.853	102.38
455.073	84.38
455.294	82.38
455.514	87.38
455.734	92.38
455.955	84.38
456.175	72.38
456.395	84.38
456.616	80.38
456.836	87.38
457.056	95.38
457.276	90.38
457.497	85.38
457.717	92.38
457.937	87.38
458.157	97.38
458.377	92.38
458.598	87.38
458.818	127.38
459.038	134.38
459.258	100.38
459.478	86.38
459.698	93.38
459.918	71.38
460.138	74.38
460.358	80.38
460.578	87.38
460.798	89.38
461.018	90.38
461.238	95.38
461.458	79.38
461.678	94.38
461.898	90.38
462.118	92.38
462.338	94.38
462.558	81.38
462.777	73.38
462.997	91.38
463.217	84.38
463.437	81.38
463.657	89.38
463.876	77.38
464.096	81.38
464.316	90.38
464.536	79.38
464.755	105.38
464.975	116.38
465.195	138.38
465.414	121.38
465.634	96.38
465.854	84.38
466.073	82.38
466.293	89.38
466.512	88.38
466.732	88.38
466.951	88.38
467.171	88.38
467.391	91.38
467.61	101.38
467.829	101.38
468.049	147.38
468.268	202.38
468.488	89.38
468.707	94.38
468.927	100.38
469.146	90.38
469.365	89.38
469.585	92.38
469.804	100.38
470.023	90.38
470.243	99.38
470.462	96.38
470.681	108.38
470.901	86.38
471.12	95.38
471.339	102.38
471.558	95.38
471.777	106.38
471.997	129.38
472.216	255.38
472.435	488.38
472.654	160.38
472.873	100.38
473.092	102.38
473.311	90.38
473.53	89.38
473.749	90.38
473.968	86.38
474.187	101.38
474.406	95.38
474.625	84.38
474.844	77.38
475.063	99.38
475.282	85.38
475.501	83.38
475.72	86.38
475.939	83.38
476.158	85.38
476.377	95.38
476.596	92.38
476.814	84.38
477.033	90.38
477.252	85.38
477.471	89.38
477.69	88.38
477.908	88.38
478.127	94.38
478.346	83.38
478.564	72.38
478.783	88.38
479.002	96.38
479.22	94.38
479.439	103.38
479.658	111.38
479.876	101.38
480.095	88.38
480.313	88.38
480.532	90.38
480.751	129.38
480.969	263.38
481.188	830.38
481.406	502.38
481.624	138.38
481.843	84.38
482.061	72.38
482.28	104.38
482.498	89.38
482.717	87.38
482.935	100.38
483.153	101.38
483.372	92.38
483.59	102.38
483.808	84.38
484.027	89.38
484.245	109.38
484.463	106.38
484.681	80.38
484.9	100.38
485.118	86.38
485.336	84.38
485.554	88.38
485.772	104.38
485.99	116.38
486.209	104.38
486.427	100.38
486.645	112.38
486.863	98.38
487.081	98.38
487.299	104.38
487.517	98.38
487.735	87.38
487.953	102.38
488.171	93.38
488.389	78.38
488.607	109.38
488.825	98.38
489.043	93.38
489.261	81.38
489.479	96.38
489.696	101.38
489.914	88.38
490.132	97.38
490.35	81.38
490.568	100.38
490.786	89.38
491.003	96.38
491.221	93.38
491.439	85.38
491.657	91.38
491.874	78.38
492.092	97.38
492.31	92.38
492.527	97.38
492.745	96.38
492.963	105.38
493.18	97.38
493.398	91.38
493.615	109.38
493.833	114.38
494.05	94.38
494.268	89.38
494.485	86.38
494.703	93.38
494.92	92.38
495.138	81.38
495.355	88.38
495.573	93.38
495.79	89.38
496.008	94.38
496.225	97.38
496.442	90.38
496.66	97.38
496.877	92.38
497.094	97.38
497.312	82.38
497.529	86.38
497.746	113.38
497.963	86.38
498.181	91.38
498.398	78.38
498.615	93.38
498.832	98.38
499.049	85.38
499.267	84.38
499.484	90.38
499.701	97.38
499.918	92.38
500.135	81.38
500.352	97.38
500.569	85.38
500.786	94.38
501.003	99.38
501.22	91.38
501.437	106.38
501.654	109.38
501.871	115.38
502.088	100.38
502.305	86.38
502.522	90.38
502.739	88.38
502.956	82.38
503.172	86.38
503.389	97.38
503.606	92.38
503.823	83.38
504.04	94.38
504.256	81.38
504.473	84.38
504.69	87.38
504.907	97.38
505.123	82.38
505.34	89.38
505.557	109.38
505.773	86.38
505.99	90.38
506.207	93.38
506.423	90.38
506.64	89.38
506.856	97.38
507.073	84.38
507.289	88.38
507.506	89.38
507.722	105.38
507.939	98.38
508.155	86.38
508.372	87.38
508.588	99.38
508.805	91.38
509.021	79.38
509.238	106.38
509.454	92.38
509.67	109.38
509.887	103.38
510.103	110.38
510.319	173.38
510.536	541.38
510.752	1626.38
510.968	468.38
511.184	112.38
511.401	116.38
511.617	92.38
511.833	83.38
512.049	92.38
512.265	94.38
512.481	80.38
512.698	91.38
512.914	86.38
513.13	94.38
513.346	88.38
513.562	103.38
513.778	97.38
513.994	80.38
514.21	92.38
514.426	116.38
514.642	106.38
514.858	113.38
515.074	144.38
515.29	312.38
515.506	923.38
515.721	366.38
