Data from Circ_1989_H10_HRD10591_00004.txt Node
Date: Wed Jan 03 12:01:22 EST 2024
User: Yrep
Spectrometer: HR+D1059
Trigger mode: 1
Integration Time (sec): 1.000000E-1
Scans to average: 1
Electric dark correction enabled: true
Nonlinearity correction enabled: false
Boxcar width: 0
XAxis mode: Wavelengths
Number of Pixels in Spectrum: 2048
>>>>>Begin Spectral Data<<<<<
223.165	-5.75
223.4	-5.75
223.635	-5.75
223.869	-14.75
224.104	-33.75
224.338	-24.75
224.573	-16.75
224.808	-21.75
225.042	-4.75
225.277	-0.75
225.511	10.25
225.746	7.25
225.98	-1.75
226.215	13.25
226.449	18.25
226.683	8.25
226.918	37.25
227.152	30.25
227.387	16.25
227.621	30.25
227.856	45.25
228.09	57.25
228.324	34.25
228.559	60.25
228.793	153.25
229.027	419.25
229.262	471.25
229.496	599.25
229.73	764.25
229.964	780.25
230.199	509.25
230.433	459.25
230.667	472.25
230.901	463.25
231.136	445.25
231.37	438.25
231.604	444.25
231.838	458.25
232.072	462.25
232.306	462.25
232.541	469.25
232.775	476.25
233.009	477.25
233.243	474.25
233.477	489.25
233.711	500.25
233.945	504.25
234.179	506.25
234.413	490.25
234.647	504.25
234.881	517.25
235.115	537.25
235.349	542.25
235.583	567.25
235.817	585.25
236.051	624.25
236.285	604.25
236.519	618.25
236.753	684.25
236.987	873.25
237.221	1332.25
237.455	1473.25
237.689	872.25
237.922	734.25
238.156	723.25
238.39	676.25
238.624	652.25
238.858	653.25
239.091	647.25
239.325	672.25
239.559	689.25
239.793	725.25
240.027	772.25
240.26	906.25
240.494	952.25
240.728	935.25
240.961	866.25
241.195	800.25
241.429	791.25
241.662	791.25
241.896	782.25
242.13	787.25
242.363	785.25
242.597	842.25
242.83	869.25
243.064	857.25
243.298	881.25
243.531	879.25
243.765	872.25
243.998	881.25
244.232	880.25
244.465	932.25
244.699	927.25
244.932	951.25
245.166	940.25
245.399	940.25
245.633	928.25
245.866	942.25
246.099	964.25
246.333	1007.25
246.566	1016.25
246.8	1000.25
247.033	1059.25
247.266	1087.25
247.5	1159.25
247.733	1180.25
247.966	1160.25
248.2	1216.25
248.433	1208.25
248.666	1241.25
248.899	1371.25
249.133	1509.25
249.366	1462.25
249.599	1393.25
249.832	1363.25
250.066	1553.25
250.299	1865.25
250.532	2358.25
250.765	2377.25
250.998	2114.25
251.231	1845.25
251.465	1626.25
251.698	1556.25
251.931	1485.25
252.164	1492.25
252.397	1479.25
252.63	1516.25
252.863	1603.25
253.096	1709.25
253.329	1745.25
253.562	1682.25
253.795	1579.25
254.028	1627.25
254.261	1668.25
254.494	1871.25
254.727	2177.25
254.96	2277.25
255.193	2068.25
255.426	2024.25
255.659	2296.25
255.892	3188.25
256.124	4040.25
256.357	3431.25
256.59	2569.25
256.823	2151.25
257.056	1931.25
257.289	1852.25
257.521	1799.25
257.754	1756.25
257.987	1691.25
258.22	1687.25
258.452	1644.25
258.685	1674.25
258.918	1660.25
259.151	1681.25
259.383	1737.25
259.616	1749.25
259.849	1835.25
260.081	1983.25
260.314	2091.25
260.547	2000.25
260.779	1855.25
261.012	1813.25
261.244	1774.25
261.477	1737.25
261.71	1757.25
261.942	1795.25
262.175	1820.25
262.407	1739.25
262.64	1717.25
262.872	1673.25
263.105	1656.25
263.337	1731.25
263.57	1686.25
263.802	1737.25
264.035	1715.25
264.267	1760.25
264.499	1693.25
264.732	1736.25
264.964	1732.25
265.197	1791.25
265.429	1780.25
265.661	1767.25
265.894	1783.25
266.126	1839.25
266.358	1828.25
266.591	1847.25
266.823	1947.25
267.055	1935.25
267.287	1913.25
267.52	1888.25
267.752	1892.25
267.984	1915.25
268.216	1927.25
268.448	1982.25
268.681	2020.25
268.913	2185.25
269.145	2313.25
269.377	2357.25
269.609	2263.25
269.841	2254.25
270.073	2383.25
270.306	2616.25
270.538	2737.25
270.77	2519.25
271.002	2441.25
271.234	2407.25
271.466	2536.25
271.698	2703.25
271.93	2685.25
272.162	2699.25
272.394	2597.25
272.626	2482.25
272.858	2369.25
273.09	2362.25
273.322	2303.25
273.553	2290.25
273.785	2299.25
274.017	2340.25
274.249	2351.25
274.481	2287.25
274.713	2355.25
274.945	2392.25
275.176	2377.25
275.408	2346.25
275.64	2407.25
275.872	2412.25
276.104	2431.25
276.335	2436.25
276.567	2570.25
276.799	2759.25
277.031	2995.25
277.262	3097.25
277.494	2985.25
277.726	2785.25
277.957	2681.25
278.189	2581.25
278.421	2532.25
278.652	2515.25
278.884	2489.25
279.115	2521.25
279.347	2515.25
279.579	2578.25
279.81	2636.25
280.042	2649.25
280.273	2779.25
280.505	2765.25
280.736	2685.25
280.968	2636.25
281.199	2616.25
281.431	2584.25
281.662	2595.25
281.894	2587.25
282.125	2653.25
282.356	2817.25
282.588	2855.25
282.819	2789.25
283.051	2617.25
283.282	2613.25
283.513	2685.25
283.745	2736.25
283.976	2716.25
284.207	2756.25
284.439	2711.25
284.67	2678.25
284.901	2737.25
285.132	2680.25
285.364	2699.25
285.595	2721.25
285.826	2752.25
286.057	2761.25
286.288	2783.25
286.52	2770.25
286.751	2763.25
286.982	2816.25
287.213	2790.25
287.444	2859.25
287.675	2894.25
287.906	2993.25
288.138	3008.25
288.369	2925.25
288.6	2916.25
288.831	2957.25
289.062	2909.25
289.293	2926.25
289.524	2923.25
289.755	2896.25
289.986	2885.25
290.217	2903.25
290.448	2889.25
290.679	2914.25
290.91	2919.25
291.141	2909.25
291.371	2881.25
291.602	2892.25
291.833	2881.25
292.064	2890.25
292.295	2934.25
292.526	2905.25
292.757	2848.25
292.987	2860.25
293.218	2862.25
293.449	2957.25
293.68	2868.25
293.91	2951.25
294.141	2883.25
294.372	2884.25
294.603	2908.25
294.833	2976.25
295.064	2981.25
295.295	2947.25
295.525	2933.25
295.756	3042.25
295.987	3037.25
296.217	3213.25
296.448	3157.25
296.679	3042.25
296.909	3069.25
297.14	3076.25
297.37	3099.25
297.601	3096.25
297.831	3047.25
298.062	3074.25
298.292	3098.25
298.523	3203.25
298.753	3167.25
298.984	3110.25
299.214	3132.25
299.445	3149.25
299.675	3135.25
299.905	3193.25
300.136	3206.25
300.366	3157.25
300.597	3283.25
300.827	3335.25
301.057	3407.25
301.288	3433.25
301.518	3396.25
301.748	3428.25
301.979	3534.25
302.209	3478.25
302.439	3482.25
302.669	3399.25
302.9	3353.25
303.13	3397.25
303.36	3437.25
303.59	3459.25
303.82	3533.25
304.051	3509.25
304.281	3405.25
304.511	3387.25
304.741	3363.25
304.971	3371.25
305.201	3325.25
305.431	3331.25
305.661	3354.25
305.891	3329.25
306.121	3319.25
306.352	3463.25
306.582	3395.25
306.812	3382.25
307.042	3425.25
307.272	3455.25
307.502	3567.25
307.731	3451.25
307.961	3487.25
308.191	3424.25
308.421	3360.25
308.651	3444.25
308.881	3426.25
309.111	3425.25
309.341	3448.25
309.571	3522.25
309.8	3597.25
310.03	3674.25
310.26	3679.25
310.49	3684.25
310.72	3747.25
310.949	3844.25
311.179	3833.25
311.409	3677.25
311.639	3661.25
311.868	3738.25
312.098	3791.25
312.328	3823.25
312.557	3954.25
312.787	3995.25
313.017	3851.25
313.246	3852.25
313.476	3747.25
313.706	3751.25
313.935	3944.25
314.165	4033.25
314.394	4009.25
314.624	3929.25
314.853	3837.25
315.083	3761.25
315.312	3762.25
315.542	3812.25
315.771	3739.25
316.001	3706.25
316.23	3764.25
316.46	3722.25
316.689	3770.25
316.919	3831.25
317.148	3923.25
317.377	3833.25
317.607	3823.25
317.836	3842.25
318.065	3753.25
318.295	3755.25
318.524	3762.25
318.753	3761.25
318.983	3761.25
319.212	3760.25
319.441	3817.25
319.67	3842.25
319.9	3800.25
320.129	3787.25
320.358	3875.25
320.587	3804.25
320.816	3958.25
321.046	3956.25
321.275	3947.25
321.504	3980.25
321.733	3981.25
321.962	4047.25
322.191	4143.25
322.42	4224.25
322.649	4341.25
322.878	4380.25
323.108	4499.25
323.337	4652.25
323.566	4825.25
323.795	5075.25
324.024	5596.25
324.253	7360.25
324.482	10988.25
324.71	15274.25
324.939	15621.25
325.168	12956.25
325.397	6559.25
325.626	5340.25
325.855	5028.25
326.084	4960.25
326.313	5012.25
326.542	5071.25
326.77	5819.25
326.999	7260.25
327.228	10555.25
327.457	14588.25
327.686	13983.25
327.914	8177.25
328.143	7511.25
328.372	7546.25
328.6	6701.25
328.829	6159.25
329.058	6227.25
329.287	6297.25
329.515	6169.25
329.744	6589.25
329.972	7819.25
330.201	9657.25
330.43	10602.25
330.658	8330.25
330.887	7186.25
331.115	6359.25
331.344	5749.25
331.572	5577.25
331.801	5615.25
332.03	5567.25
332.258	5515.25
332.486	5639.25
332.715	5753.25
332.943	6010.25
333.172	6251.25
333.4	6640.25
333.629	7081.25
333.857	7819.25
334.085	9091.25
334.314	11192.25
334.542	13335.25
334.771	12380.25
334.999	8306.25
335.227	6959.25
335.455	6358.25
335.684	5921.25
335.912	5613.25
336.14	5560.25
336.369	5484.25
336.597	5400.25
336.825	5320.25
337.053	5161.25
337.281	4986.25
337.51	5053.25
337.738	4943.25
337.966	4907.25
338.194	4953.25
338.422	4823.25
338.65	4715.25
338.878	4666.25
339.106	4665.25
339.334	4661.25
339.562	4649.25
339.79	4534.25
340.018	4515.25
340.246	4515.25
340.474	4581.25
340.702	4467.25
340.93	4450.25
341.158	4515.25
341.386	4485.25
341.614	4554.25
341.842	4426.25
342.07	4414.25
342.298	4445.25
342.526	4423.25
342.754	4303.25
342.981	4448.25
343.209	4444.25
343.437	4683.25
343.665	4991.25
343.893	5155.25
344.12	5251.25
344.348	5019.25
344.576	4815.25
344.804	4718.25
345.031	4697.25
345.259	4668.25
345.487	4541.25
345.714	4421.25
345.942	4287.25
346.17	4322.25
346.397	4248.25
346.625	4260.25
346.853	4241.25
347.08	4227.25
347.308	4247.25
347.535	4362.25
347.763	4348.25
347.99	4306.25
348.218	4356.25
348.445	4376.25
348.673	4315.25
348.9	4188.25
349.128	4175.25
349.355	4178.25
349.583	4118.25
349.81	4118.25
350.037	4118.25
350.265	4083.25
350.492	4151.25
350.72	4070.25
350.947	4138.25
351.174	4309.25
351.402	4283.25
351.629	4189.25
351.856	4245.25
352.083	4282.25
352.311	4341.25
352.538	4263.25
352.765	4325.25
352.992	4210.25
353.22	4176.25
353.447	4208.25
353.674	4126.25
353.901	3985.25
354.128	4012.25
354.355	3987.25
354.583	4062.25
354.81	3991.25
355.037	4056.25
355.264	4017.25
355.491	3982.25
355.718	3975.25
355.945	4025.25
356.172	3988.25
356.399	4015.25
356.626	4013.25
356.853	4013.25
357.08	3967.25
357.307	4014.25
357.534	3970.25
357.761	4033.25
357.988	4047.25
358.215	4049.25
358.441	4042.25
358.668	4054.25
358.895	4094.25
359.122	4172.25
359.349	4235.25
359.576	4340.25
359.802	4580.25
360.029	4606.25
360.256	4648.25
360.483	4437.25
360.709	4227.25
360.936	4252.25
361.163	4255.25
361.39	4317.25
361.616	4290.25
361.843	4128.25
362.07	4209.25
362.296	4298.25
362.523	4178.25
362.749	4261.25
362.976	4252.25
363.203	4137.25
363.429	4079.25
363.656	4201.25
363.882	4143.25
364.109	4128.25
364.335	4100.25
364.562	4099.25
364.788	4098.25
365.015	4110.25
365.241	4091.25
365.468	4141.25
365.694	4165.25
365.92	4164.25
366.147	4073.25
366.373	4116.25
366.599	4085.25
366.826	4043.25
367.052	4074.25
367.278	4133.25
367.505	4146.25
367.731	4146.25
367.957	4089.25
368.184	4183.25
368.41	4225.25
368.636	4362.25
368.862	4250.25
369.089	4212.25
369.315	4242.25
369.541	4215.25
369.767	4271.25
369.993	4253.25
370.219	4215.25
370.445	4284.25
370.672	4257.25
370.898	4278.25
371.124	4365.25
371.35	4368.25
371.576	4319.25
371.802	4364.25
372.028	4255.25
372.254	4339.25
372.48	4388.25
372.706	4496.25
372.932	4448.25
373.158	4490.25
373.384	4425.25
373.61	4430.25
373.835	4406.25
374.061	4439.25
374.287	4428.25
374.513	4495.25
374.739	4636.25
374.965	4755.25
375.191	4739.25
375.416	4762.25
375.642	4582.25
375.868	4505.25
376.094	4527.25
376.319	4455.25
376.545	4379.25
376.771	4355.25
376.997	4347.25
377.222	4414.25
377.448	4325.25
377.674	4301.25
377.899	4311.25
378.125	4335.25
378.35	4272.25
378.576	4270.25
378.802	4278.25
379.027	4276.25
379.253	4333.25
379.478	4223.25
379.704	4307.25
379.929	4331.25
380.155	4345.25
380.38	4397.25
380.606	4356.25
380.831	4375.25
381.057	4426.25
381.282	4367.25
381.507	4437.25
381.733	4449.25
381.958	4472.25
382.184	4554.25
382.409	4564.25
382.634	4623.25
382.86	4643.25
383.085	4703.25
383.31	4719.25
383.535	4780.25
383.761	4893.25
383.986	4911.25
384.211	5050.25
384.436	5063.25
384.662	5136.25
384.887	5228.25
385.112	5248.25
385.337	5314.25
385.562	5288.25
385.787	5293.25
386.013	5424.25
386.238	5465.25
386.463	5307.25
386.688	5377.25
386.913	5287.25
387.138	5227.25
387.363	5246.25
387.588	5116.25
387.813	5143.25
388.038	5261.25
388.263	5232.25
388.488	5292.25
388.713	5203.25
388.938	5185.25
389.163	5153.25
389.387	5148.25
389.612	5070.25
389.837	5077.25
390.062	5115.25
390.287	5081.25
390.512	5092.25
390.736	5234.25
390.961	5332.25
391.186	5289.25
391.411	5546.25
391.636	5632.25
391.86	5760.25
392.085	5880.25
392.31	5709.25
392.534	5579.25
392.759	5490.25
392.984	5438.25
393.208	5369.25
393.433	5452.25
393.658	5335.25
393.882	5425.25
394.107	5401.25
394.331	5534.25
394.556	5450.25
394.78	5511.25
395.005	5596.25
395.229	5574.25
395.454	5715.25
395.678	5817.25
395.903	5835.25
396.127	5891.25
396.352	5636.25
396.576	5633.25
396.801	5424.25
397.025	5645.25
397.249	5692.25
397.474	5764.25
397.698	5816.25
397.922	5961.25
398.147	6110.25
398.371	6205.25
398.595	6389.25
398.82	6614.25
399.044	7075.25
399.268	7856.25
399.492	8914.25
399.717	9482.25
399.941	9339.25
400.165	8775.25
400.389	8083.25
400.613	7259.25
400.837	6810.25
401.062	6683.25
401.286	6563.25
401.51	6501.25
401.734	6528.25
401.958	6592.25
402.182	6743.25
402.406	6775.25
402.63	6929.25
402.854	7067.25
403.078	7184.25
403.302	7231.25
403.526	7355.25
403.75	7363.25
403.974	7462.25
404.198	7548.25
404.422	7730.25
404.645	7724.25
404.869	8027.25
405.093	8555.25
405.317	9072.25
405.541	8863.25
405.765	8077.25
405.988	7655.25
406.212	7668.25
406.436	7708.25
406.66	7859.25
406.883	7730.25
407.107	8350.25
407.331	8824.25
407.555	9377.25
407.778	9025.25
408.002	8235.25
408.226	7987.25
408.449	7796.25
408.673	7687.25
408.896	7853.25
409.12	7973.25
409.344	7555.25
409.567	7202.25
409.791	7272.25
410.014	7054.25
410.238	7063.25
410.461	7023.25
410.685	7143.25
410.908	7202.25
411.132	7372.25
411.355	7424.25
411.578	7035.25
411.802	7003.25
412.025	7191.25
412.249	7677.25
412.472	8165.25
412.695	8743.25
412.919	8035.25
413.142	7531.25
413.365	7223.25
413.589	7038.25
413.812	6789.25
414.035	6656.25
414.258	6681.25
414.482	6683.25
414.705	6551.25
414.928	6632.25
415.151	6650.25
415.374	6575.25
415.597	6424.25
415.821	6413.25
416.044	6437.25
416.267	6432.25
416.49	6320.25
416.713	6300.25
416.936	6473.25
417.159	6438.25
417.382	6552.25
417.605	6608.25
417.828	6791.25
418.051	6698.25
418.274	6651.25
418.497	6464.25
418.72	6624.25
418.943	6622.25
419.166	7001.25
419.389	7421.25
419.611	7405.25
419.834	7359.25
420.057	7514.25
420.28	7705.25
420.503	7477.25
420.726	7215.25
420.948	7262.25
421.171	7378.25
421.394	7294.25
421.617	6725.25
421.839	6656.25
422.062	6591.25
422.285	6871.25
422.507	7510.25
422.73	8046.25
422.953	7442.25
423.175	7065.25
423.398	7044.25
423.621	6970.25
423.843	7253.25
424.066	7208.25
424.288	7066.25
424.511	7298.25
424.733	7800.25
424.956	8122.25
425.178	7626.25
425.401	7898.25
425.623	7719.25
425.846	6851.25
426.068	6667.25
426.291	6571.25
426.513	6485.25
426.735	6602.25
426.958	7077.25
427.18	7913.25
427.402	9223.25
427.625	9431.25
427.847	8643.25
428.069	8363.25
428.292	7057.25
428.514	6311.25
428.736	6134.25
428.958	6095.25
429.181	5796.25
429.403	5829.25
429.625	6084.25
429.847	6400.25
430.069	6830.25
430.292	6412.25
430.514	5932.25
430.736	5868.25
430.958	5744.25
431.18	5762.25
431.402	5695.25
431.624	5625.25
431.846	5752.25
432.068	5713.25
432.29	5847.25
432.512	5764.25
432.734	5847.25
432.956	5819.25
433.178	5834.25
433.4	5840.25
433.622	5751.25
433.844	5842.25
434.066	5816.25
434.287	5902.25
434.509	6151.25
434.731	6327.25
434.953	6561.25
435.175	6573.25
435.397	6734.25
435.618	6517.25
435.84	6930.25
436.062	7761.25
436.284	7686.25
436.505	6489.25
436.727	6208.25
436.949	6015.25
437.17	5841.25
437.392	5805.25
437.614	6043.25
437.835	6290.25
438.057	7289.25
438.278	7931.25
438.5	7769.25
438.721	8615.25
438.943	7457.25
439.165	6308.25
439.386	6179.25
439.608	6210.25
439.829	6360.25
440.05	6713.25
440.272	7055.25
440.493	6403.25
440.715	6185.25
440.936	6087.25
441.158	6165.25
441.379	6178.25
441.6	6607.25
441.822	6824.25
442.043	7239.25
442.264	8093.25
442.486	7677.25
442.707	6854.25
442.928	6689.25
443.149	6904.25
443.371	7087.25
443.592	7633.25
443.813	8657.25
444.034	8541.25
444.255	7399.25
444.476	7250.25
444.698	7511.25
444.919	7541.25
445.14	7343.25
445.361	7219.25
445.582	7431.25
445.803	8046.25
446.024	8749.25
446.245	8277.25
446.466	7380.25
446.687	6471.25
446.908	6055.25
447.129	5817.25
447.35	5616.25
447.571	5535.25
447.792	5565.25
448.013	5658.25
448.234	5768.25
448.455	6485.25
448.675	7736.25
448.896	8153.25
449.117	6594.25
449.338	6916.25
449.559	8342.25
449.779	8432.25
450	6272.25
450.221	5695.25
450.442	5452.25
450.662	5456.25
450.883	5486.25
451.104	5594.25
451.324	5509.25
451.545	5368.25
451.766	5295.25
451.986	5173.25
452.207	5107.25
452.428	5017.25
452.648	5098.25
452.869	5132.25
453.089	5130.25
453.31	5301.25
453.53	5045.25
453.751	4993.25
453.971	4993.25
454.192	5196.25
454.412	4984.25
454.633	4941.25
454.853	4905.25
455.073	4927.25
455.294	5344.25
455.514	5841.25
455.734	5306.25
455.955	4875.25
456.175	4769.25
456.395	4677.25
456.616	4712.25
456.836	4661.25
457.056	4705.25
457.276	4676.25
457.497	4789.25
457.717	4845.25
457.937	4823.25
458.157	4850.25
458.377	4986.25
458.598	5308.25
458.818	5915.25
459.038	6723.25
459.258	6606.25
459.478	5925.25
459.698	5825.25
459.918	5888.25
460.138	6100.25
460.358	6291.25
460.578	6306.25
460.798	6390.25
461.018	6387.25
461.238	6319.25
461.458	6297.25
461.678	6186.25
461.898	6365.25
462.118	6439.25
462.338	6740.25
462.558	6884.25
462.777	7149.25
462.997	7675.25
463.217	8177.25
463.437	7816.25
463.657	7285.25
463.876	7234.25
464.096	7237.25
464.316	7192.25
464.536	7182.25
464.755	7024.25
464.975	6871.25
465.195	6984.25
465.414	7059.25
465.634	6254.25
465.854	5887.25
466.073	5760.25
466.293	5513.25
466.512	5494.25
466.732	5336.25
466.951	5366.25
467.171	5369.25
467.391	5412.25
467.61	5470.25
467.829	5567.25
468.049	5994.25
468.268	6591.25
468.488	5786.25
468.707	5388.25
468.927	5340.25
469.146	5191.25
469.365	5326.25
469.585	5249.25
469.804	5419.25
470.023	5595.25
470.243	5615.25
470.462	5613.25
470.681	5796.25
470.901	5635.25
471.12	5583.25
471.339	5498.25
471.558	5569.25
471.777	5547.25
471.997	5859.25
472.216	7126.25
472.435	9683.25
472.654	7808.25
472.873	6350.25
473.092	5839.25
473.311	5694.25
473.53	5529.25
473.749	5453.25
473.968	6085.25
474.187	7073.25
474.406	6433.25
474.625	5550.25
474.844	5323.25
475.063	5262.25
475.282	5196.25
475.501	5333.25
475.72	5371.25
475.939	5358.25
476.158	5361.25
476.377	5409.25
476.596	5332.25
476.814	5548.25
477.033	5553.25
477.252	5649.25
477.471	5779.25
477.69	5826.25
477.908	6052.25
478.127	6045.25
478.346	6119.25
478.564	6347.25
478.783	6317.25
479.002	6572.25
479.22	6498.25
479.439	6566.25
479.658	6753.25
479.876	6896.25
480.095	7061.25
480.313	7530.25
480.532	7620.25
480.751	7840.25
480.969	9136.25
481.188	13609.25
481.406	13697.25
481.624	9785.25
481.843	8267.25
482.061	7572.25
482.28	7084.25
482.498	6834.25
482.717	6665.25
482.935	6586.25
483.153	6516.25
483.372	6379.25
483.59	6354.25
483.808	6405.25
484.027	6308.25
484.245	6348.25
484.463	6356.25
484.681	6450.25
484.9	6477.25
485.118	6417.25
485.336	6509.25
485.554	6588.25
485.772	6586.25
485.99	6713.25
486.209	6797.25
486.427	6674.25
486.645	6759.25
486.863	6827.25
487.081	6824.25
487.299	6819.25
487.517	6733.25
487.735	6676.25
