Data from Circ_1989_H10_HRD10591_00043.txt Node
Date: Wed Jan 03 12:01:30 EST 2024
User: Yrep
Spectrometer: HR+D1059
Trigger mode: 1
Integration Time (sec): 1.000000E-1
Scans to average: 1
Electric dark correction enabled: true
Nonlinearity correction enabled: false
Boxcar width: 0
XAxis mode: Wavelengths
Number of Pixels in Spectrum: 2048
>>>>>Begin Spectral Data<<<<<
223.165	-17.38
223.4	-17.38
223.635	-17.38
223.869	-25.38
224.104	-26.38
224.338	-10.38
224.573	-13.38
224.808	-15.38
225.042	0.62
225.277	5.62
225.511	-7.38
225.746	-0.38
225.98	7.62
226.215	2.62
226.449	11.62
226.683	23.62
226.918	18.62
227.152	45.62
227.387	27.62
227.621	38.62
227.856	41.62
228.09	44.62
228.324	53.62
228.559	66.62
228.793	59.62
229.027	63.62
229.262	65.62
229.496	80.62
229.73	76.62
229.964	72.62
230.199	69.62
230.433	85.62
230.667	90.62
230.901	74.62
231.136	87.62
231.37	89.62
231.604	84.62
231.838	82.62
232.072	82.62
232.306	71.62
232.541	88.62
232.775	73.62
233.009	75.62
233.243	64.62
233.477	84.62
233.711	82.62
233.945	88.62
234.179	79.62
234.413	77.62
234.647	79.62
234.881	75.62
235.115	90.62
235.349	89.62
235.583	65.62
235.817	82.62
236.051	89.62
236.285	83.62
236.519	90.62
236.753	82.62
236.987	66.62
237.221	84.62
237.455	81.62
237.689	81.62
237.922	84.62
238.156	79.62
238.39	87.62
238.624	68.62
238.858	63.62
239.091	76.62
239.325	80.62
239.559	103.62
239.793	81.62
240.027	81.62
240.26	83.62
240.494	76.62
240.728	70.62
240.961	77.62
241.195	67.62
241.429	84.62
241.662	84.62
241.896	98.62
242.13	84.62
242.363	87.62
242.597	72.62
242.83	84.62
243.064	65.62
243.298	89.62
243.531	75.62
243.765	83.62
243.998	93.62
244.232	80.62
244.465	84.62
244.699	90.62
244.932	76.62
245.166	79.62
245.399	104.62
245.633	76.62
245.866	84.62
246.099	77.62
246.333	75.62
246.566	91.62
246.8	69.62
247.033	76.62
247.266	81.62
247.5	73.62
247.733	97.62
247.966	79.62
248.2	75.62
248.433	85.62
248.666	81.62
248.899	81.62
249.133	68.62
249.366	92.62
249.599	98.62
249.832	91.62
250.066	92.62
250.299	77.62
250.532	93.62
250.765	95.62
250.998	77.62
251.231	74.62
251.465	77.62
251.698	85.62
251.931	83.62
252.164	74.62
252.397	89.62
252.63	73.62
252.863	74.62
253.096	87.62
253.329	81.62
253.562	82.62
253.795	89.62
254.028	76.62
254.261	95.62
254.494	75.62
254.727	80.62
254.96	83.62
255.193	91.62
255.426	79.62
255.659	84.62
255.892	77.62
256.124	100.62
256.357	74.62
256.59	75.62
256.823	81.62
257.056	87.62
257.289	93.62
257.521	76.62
257.754	92.62
257.987	92.62
258.22	85.62
258.452	96.62
258.685	87.62
258.918	86.62
259.151	79.62
259.383	87.62
259.616	94.62
259.849	87.62
260.081	90.62
260.314	91.62
260.547	76.62
260.779	98.62
261.012	101.62
261.244	93.62
261.477	99.62
261.71	99.62
261.942	118.62
262.175	104.62
262.407	97.62
262.64	87.62
262.872	100.62
263.105	93.62
263.337	87.62
263.57	79.62
263.802	88.62
264.035	86.62
264.267	98.62
264.499	98.62
264.732	90.62
264.964	95.62
265.197	70.62
265.429	77.62
265.661	81.62
265.894	82.62
266.126	78.62
266.358	92.62
266.591	87.62
266.823	80.62
267.055	91.62
267.287	70.62
267.52	90.62
267.752	95.62
267.984	93.62
268.216	85.62
268.448	97.62
268.681	101.62
268.913	86.62
269.145	88.62
269.377	84.62
269.609	94.62
269.841	92.62
270.073	91.62
270.306	82.62
270.538	95.62
270.77	87.62
271.002	87.62
271.234	81.62
271.466	81.62
271.698	96.62
271.93	84.62
272.162	80.62
272.394	93.62
272.626	79.62
272.858	97.62
273.09	87.62
273.322	94.62
273.553	83.62
273.785	77.62
274.017	80.62
274.249	89.62
274.481	84.62
274.713	87.62
274.945	97.62
275.176	82.62
275.408	86.62
275.64	86.62
275.872	101.62
276.104	84.62
276.335	100.62
276.567	89.62
276.799	108.62
277.031	103.62
277.262	119.62
277.494	105.62
277.726	90.62
277.957	94.62
278.189	76.62
278.421	93.62
278.652	92.62
278.884	80.62
279.115	92.62
279.347	88.62
279.579	101.62
279.81	85.62
280.042	120.62
280.273	126.62
280.505	114.62
280.736	94.62
280.968	91.62
281.199	86.62
281.431	91.62
281.662	90.62
281.894	97.62
282.125	92.62
282.356	114.62
282.588	123.62
282.819	105.62
283.051	95.62
283.282	90.62
283.513	85.62
283.745	82.62
283.976	84.62
284.207	87.62
284.439	92.62
284.67	88.62
284.901	85.62
285.132	100.62
285.364	88.62
285.595	83.62
285.826	111.62
286.057	100.62
286.288	80.62
286.52	92.62
286.751	97.62
286.982	92.62
287.213	97.62
287.444	99.62
287.675	81.62
287.906	88.62
288.138	79.62
288.369	77.62
288.6	89.62
288.831	88.62
289.062	93.62
289.293	80.62
289.524	87.62
289.755	91.62
289.986	104.62
290.217	89.62
290.448	86.62
290.679	92.62
290.91	101.62
291.141	82.62
291.371	98.62
291.602	90.62
291.833	99.62
292.064	93.62
292.295	79.62
292.526	104.62
292.757	105.62
292.987	98.62
293.218	96.62
293.449	89.62
293.68	95.62
293.91	83.62
294.141	95.62
294.372	101.62
294.603	83.62
294.833	83.62
295.064	97.62
295.295	77.62
295.525	79.62
295.756	107.62
295.987	121.62
296.217	126.62
296.448	119.62
296.679	93.62
296.909	93.62
297.14	90.62
297.37	99.62
297.601	101.62
297.831	82.62
298.062	92.62
298.292	92.62
298.523	91.62
298.753	83.62
298.984	91.62
299.214	83.62
299.445	92.62
299.675	102.62
299.905	104.62
300.136	88.62
300.366	91.62
300.597	101.62
300.827	97.62
301.057	103.62
301.288	105.62
301.518	89.62
301.748	98.62
301.979	107.62
302.209	86.62
302.439	91.62
302.669	96.62
302.9	100.62
303.13	86.62
303.36	92.62
303.59	109.62
303.82	102.62
304.051	92.62
304.281	79.62
304.511	91.62
304.741	92.62
304.971	95.62
305.201	89.62
305.431	87.62
305.661	87.62
305.891	68.62
306.121	96.62
306.352	104.62
306.582	115.62
306.812	101.62
307.042	108.62
307.272	116.62
307.502	129.62
307.731	115.62
307.961	113.62
308.191	84.62
308.421	95.62
308.651	103.62
308.881	90.62
309.111	102.62
309.341	95.62
309.571	104.62
309.8	88.62
310.03	113.62
310.26	103.62
310.49	85.62
310.72	103.62
310.949	101.62
311.179	99.62
311.409	89.62
311.639	108.62
311.868	102.62
312.098	85.62
312.328	95.62
312.557	99.62
312.787	99.62
313.017	95.62
313.246	105.62
313.476	91.62
313.706	87.62
313.935	95.62
314.165	112.62
314.394	82.62
314.624	113.62
314.853	105.62
315.083	91.62
315.312	101.62
315.542	89.62
315.771	89.62
316.001	98.62
316.23	100.62
316.46	94.62
316.689	89.62
316.919	89.62
317.148	92.62
317.377	79.62
317.607	86.62
317.836	87.62
318.065	98.62
318.295	81.62
318.524	87.62
318.753	100.62
318.983	113.62
319.212	115.62
319.441	112.62
319.67	111.62
319.9	95.62
320.129	82.62
320.358	103.62
320.587	87.62
320.816	95.62
321.046	89.62
321.275	98.62
321.504	107.62
321.733	107.62
321.962	100.62
322.191	112.62
322.42	105.62
322.649	111.62
322.878	102.62
323.108	105.62
323.337	119.62
323.566	131.62
323.795	135.62
324.024	173.62
324.253	324.62
324.482	673.62
324.71	1375.62
324.939	1789.62
325.168	689.62
325.397	221.62
325.626	135.62
325.855	136.62
326.084	132.62
326.313	117.62
326.542	127.62
326.77	219.62
326.999	365.62
327.228	779.62
327.457	1425.62
327.686	1138.62
327.914	361.62
328.143	245.62
328.372	263.62
328.6	180.62
328.829	117.62
329.058	131.62
329.287	133.62
329.515	115.62
329.744	159.62
329.972	214.62
330.201	353.62
330.43	472.62
330.658	251.62
330.887	149.62
331.115	124.62
331.344	99.62
331.572	99.62
331.801	101.62
332.03	95.62
332.258	92.62
332.486	85.62
332.715	98.62
332.943	108.62
333.172	103.62
333.4	115.62
333.629	114.62
333.857	143.62
334.085	214.62
334.314	361.62
334.542	620.62
334.771	570.62
334.999	199.62
335.227	120.62
335.455	103.62
335.684	105.62
335.912	99.62
336.14	96.62
336.369	91.62
336.597	100.62
336.825	103.62
337.053	99.62
337.281	115.62
337.51	102.62
337.738	84.62
337.966	87.62
338.194	93.62
338.422	98.62
338.65	83.62
338.878	96.62
339.106	96.62
339.334	97.62
339.562	95.62
339.79	98.62
340.018	87.62
340.246	89.62
340.474	97.62
340.702	92.62
340.93	74.62
341.158	87.62
341.386	99.62
341.614	106.62
341.842	96.62
342.07	93.62
342.298	91.62
342.526	95.62
342.754	88.62
342.981	91.62
343.209	92.62
343.437	101.62
343.665	93.62
343.893	98.62
344.12	100.62
344.348	87.62
344.576	90.62
344.804	97.62
345.031	96.62
345.259	103.62
345.487	100.62
345.714	108.62
345.942	92.62
346.17	84.62
346.397	91.62
346.625	103.62
346.853	99.62
347.08	103.62
347.308	94.62
347.535	96.62
347.763	93.62
347.99	93.62
348.218	120.62
348.445	112.62
348.673	111.62
348.9	89.62
349.128	100.62
349.355	99.62
349.583	107.62
349.81	95.62
350.037	108.62
350.265	88.62
350.492	99.62
350.72	95.62
350.947	104.62
351.174	109.62
351.402	103.62
351.629	107.62
351.856	87.62
352.083	105.62
352.311	107.62
352.538	112.62
352.765	108.62
352.992	108.62
353.22	115.62
353.447	115.62
353.674	101.62
353.901	93.62
354.128	99.62
354.355	95.62
354.583	101.62
354.81	109.62
355.037	101.62
355.264	101.62
355.491	114.62
355.718	87.62
355.945	100.62
356.172	83.62
356.399	89.62
356.626	96.62
356.853	90.62
357.08	105.62
357.307	93.62
357.534	97.62
357.761	97.62
357.988	87.62
358.215	112.62
358.441	106.62
358.668	101.62
358.895	93.62
359.122	100.62
359.349	89.62
359.576	90.62
359.802	91.62
360.029	106.62
360.256	105.62
360.483	103.62
360.709	100.62
360.936	96.62
361.163	90.62
361.39	90.62
361.616	95.62
361.843	92.62
362.07	98.62
362.296	108.62
362.523	74.62
362.749	93.62
362.976	96.62
363.203	87.62
363.429	88.62
363.656	88.62
363.882	101.62
364.109	79.62
364.335	104.62
364.562	104.62
364.788	95.62
365.015	104.62
365.241	109.62
365.468	90.62
365.694	84.62
365.92	97.62
366.147	99.62
366.373	77.62
366.599	92.62
366.826	82.62
367.052	90.62
367.278	93.62
367.505	93.62
367.731	86.62
367.957	111.62
368.184	97.62
368.41	106.62
368.636	99.62
368.862	113.62
369.089	97.62
369.315	105.62
369.541	88.62
369.767	91.62
369.993	90.62
370.219	105.62
370.445	98.62
370.672	109.62
370.898	96.62
371.124	87.62
371.35	94.62
371.576	77.62
371.802	85.62
372.028	99.62
372.254	87.62
372.48	84.62
372.706	101.62
372.932	79.62
373.158	88.62
373.384	100.62
373.61	97.62
373.835	90.62
374.061	95.62
374.287	85.62
374.513	84.62
374.739	102.62
374.965	95.62
375.191	84.62
375.416	93.62
375.642	87.62
375.868	86.62
376.094	92.62
376.319	98.62
376.545	93.62
376.771	99.62
376.997	95.62
377.222	96.62
377.448	85.62
377.674	87.62
377.899	82.62
378.125	85.62
378.35	106.62
378.576	95.62
378.802	84.62
379.027	93.62
379.253	84.62
379.478	93.62
379.704	102.62
379.929	97.62
380.155	96.62
380.38	104.62
380.606	92.62
380.831	107.62
381.057	98.62
381.282	104.62
381.507	98.62
381.733	96.62
381.958	89.62
382.184	107.62
382.409	102.62
382.634	98.62
382.86	114.62
383.085	110.62
383.31	96.62
383.535	110.62
383.761	109.62
383.986	77.62
384.211	95.62
384.436	99.62
384.662	104.62
384.887	115.62
385.112	113.62
385.337	108.62
385.562	101.62
385.787	105.62
386.013	105.62
386.238	116.62
386.463	113.62
386.688	113.62
386.913	100.62
387.138	116.62
387.363	104.62
387.588	102.62
387.813	99.62
388.038	109.62
388.263	99.62
388.488	89.62
388.713	97.62
388.938	104.62
389.163	85.62
389.387	90.62
389.612	102.62
389.837	104.62
390.062	96.62
390.287	96.62
390.512	87.62
390.736	101.62
390.961	90.62
391.186	106.62
391.411	90.62
391.636	102.62
391.86	88.62
392.085	93.62
392.31	88.62
392.534	84.62
392.759	101.62
392.984	91.62
393.208	90.62
393.433	84.62
393.658	98.62
393.882	96.62
394.107	97.62
394.331	89.62
394.556	84.62
394.78	88.62
395.005	92.62
395.229	96.62
395.454	84.62
395.678	80.62
395.903	82.62
396.127	88.62
396.352	88.62
396.576	97.62
396.801	85.62
397.025	77.62
397.249	103.62
397.474	93.62
397.698	87.62
397.922	91.62
398.147	92.62
398.371	86.62
398.595	88.62
398.82	83.62
399.044	89.62
399.268	82.62
399.492	88.62
399.717	75.62
399.941	81.62
400.165	92.62
400.389	91.62
400.613	70.62
400.837	79.62
401.062	86.62
401.286	81.62
401.51	101.62
401.734	90.62
401.958	101.62
402.182	108.62
402.406	129.62
402.63	117.62
402.854	93.62
403.078	73.62
403.302	100.62
403.526	87.62
403.75	81.62
403.974	85.62
404.198	87.62
404.422	99.62
404.645	85.62
404.869	96.62
405.093	97.62
405.317	116.62
405.541	111.62
405.765	97.62
405.988	102.62
406.212	151.62
406.436	185.62
406.66	144.62
406.883	103.62
407.107	95.62
407.331	94.62
407.555	95.62
407.778	96.62
408.002	96.62
408.226	97.62
408.449	98.62
408.673	88.62
408.896	95.62
409.12	88.62
409.344	89.62
409.567	104.62
409.791	98.62
410.014	103.62
410.238	108.62
410.461	91.62
410.685	107.62
410.908	116.62
411.132	103.62
411.355	76.62
411.578	103.62
411.802	90.62
412.025	95.62
412.249	101.62
412.472	95.62
412.695	99.62
412.919	101.62
413.142	91.62
413.365	83.62
413.589	89.62
413.812	88.62
414.035	104.62
414.258	88.62
414.482	93.62
414.705	86.62
414.928	92.62
415.151	100.62
415.374	91.62
415.597	83.62
415.821	88.62
416.044	108.62
416.267	101.62
416.49	96.62
416.713	98.62
416.936	96.62
417.159	90.62
417.382	85.62
417.605	91.62
417.828	93.62
418.051	96.62
418.274	91.62
418.497	92.62
418.72	85.62
418.943	86.62
419.166	89.62
419.389	92.62
419.611	95.62
419.834	97.62
420.057	86.62
420.28	89.62
420.503	87.62
420.726	88.62
420.948	81.62
421.171	97.62
421.394	85.62
421.617	95.62
421.839	88.62
422.062	92.62
422.285	95.62
422.507	89.62
422.73	102.62
422.953	91.62
423.175	92.62
423.398	92.62
423.621	96.62
423.843	90.62
424.066	84.62
424.288	88.62
424.511	87.62
424.733	90.62
424.956	105.62
425.178	104.62
425.401	100.62
425.623	109.62
425.846	90.62
426.068	93.62
426.291	91.62
426.513	101.62
426.735	88.62
426.958	92.62
427.18	97.62
427.402	124.62
427.625	164.62
427.847	145.62
428.069	150.62
428.292	108.62
428.514	93.62
428.736	90.62
428.958	82.62
429.181	87.62
429.403	91.62
429.625	81.62
429.847	105.62
430.069	103.62
430.292	100.62
430.514	84.62
430.736	88.62
430.958	83.62
431.18	73.62
431.402	84.62
431.624	91.62
431.846	75.62
432.068	87.62
432.29	92.62
432.512	84.62
432.734	97.62
432.956	100.62
433.178	100.62
433.4	117.62
433.622	94.62
433.844	82.62
434.066	91.62
434.287	99.62
434.509	100.62
434.731	91.62
434.953	93.62
435.175	75.62
435.397	79.62
435.618	81.62
435.84	89.62
436.062	112.62
436.284	114.62
436.505	105.62
436.727	112.62
436.949	104.62
437.17	85.62
437.392	95.62
437.614	93.62
437.835	92.62
438.057	109.62
438.278	121.62
438.5	109.62
438.721	108.62
438.943	95.62
439.165	87.62
439.386	98.62
439.608	95.62
439.829	103.62
440.05	111.62
440.272	129.62
440.493	84.62
440.715	89.62
440.936	81.62
441.158	91.62
441.379	96.62
441.6	87.62
441.822	92.62
442.043	99.62
442.264	97.62
442.486	84.62
442.707	95.62
442.928	98.62
443.149	123.62
443.371	118.62
443.592	105.62
443.813	102.62
444.034	98.62
444.255	101.62
444.476	82.62
444.698	88.62
444.919	95.62
445.14	125.62
445.361	120.62
445.582	122.62
445.803	127.62
446.024	132.62
446.245	128.62
446.466	106.62
446.687	93.62
446.908	84.62
447.129	87.62
447.35	95.62
447.571	95.62
447.792	91.62
448.013	108.62
448.234	96.62
448.455	86.62
448.675	113.62
448.896	121.62
449.117	107.62
449.338	102.62
449.559	122.62
449.779	118.62
450	96.62
450.221	88.62
450.442	72.62
450.662	85.62
450.883	103.62
451.104	104.62
451.324	108.62
451.545	99.62
451.766	75.62
451.986	89.62
452.207	86.62
452.428	86.62
452.648	88.62
452.869	113.62
453.089	111.62
453.31	101.62
453.53	95.62
453.751	93.62
453.971	99.62
454.192	104.62
454.412	95.62
454.633	81.62
454.853	86.62
455.073	79.62
455.294	88.62
455.514	108.62
455.734	80.62
455.955	85.62
456.175	79.62
456.395	72.62
456.616	85.62
456.836	86.62
457.056	85.62
457.276	86.62
457.497	89.62
457.717	81.62
457.937	85.62
458.157	91.62
458.377	101.62
458.598	113.62
458.818	129.62
459.038	142.62
459.258	128.62
459.478	100.62
459.698	96.62
459.918	84.62
460.138	89.62
460.358	88.62
460.578	85.62
460.798	115.62
461.018	103.62
461.238	105.62
461.458	107.62
461.678	85.62
461.898	86.62
462.118	88.62
462.338	93.62
462.558	84.62
462.777	80.62
462.997	95.62
463.217	93.62
463.437	81.62
463.657	84.62
463.876	86.62
464.096	95.62
464.316	98.62
464.536	87.62
464.755	97.62
464.975	103.62
465.195	155.62
465.414	156.62
465.634	101.62
465.854	77.62
466.073	73.62
466.293	89.62
466.512	79.62
466.732	80.62
466.951	93.62
467.171	103.62
467.391	97.62
467.61	99.62
467.829	125.62
468.049	236.62
468.268	318.62
468.488	122.62
468.707	105.62
468.927	88.62
469.146	99.62
469.365	100.62
469.585	84.62
469.804	84.62
470.023	100.62
470.243	103.62
470.462	87.62
470.681	99.62
470.901	88.62
471.12	100.62
471.339	111.62
471.558	98.62
471.777	103.62
471.997	157.62
472.216	424.62
472.435	850.62
472.654	247.62
472.873	115.62
473.092	104.62
473.311	101.62
473.53	85.62
473.749	86.62
473.968	96.62
474.187	99.62
474.406	81.62
474.625	98.62
474.844	95.62
475.063	92.62
475.282	76.62
475.501	84.62
475.72	100.62
475.939	84.62
476.158	85.62
476.377	89.62
476.596	97.62
476.814	105.62
477.033	79.62
477.252	85.62
477.471	90.62
477.69	87.62
477.908	96.62
478.127	91.62
478.346	93.62
478.564	95.62
478.783	108.62
479.002	89.62
479.22	92.62
479.439	100.62
479.658	95.62
479.876	98.62
480.095	101.62
480.313	102.62
480.532	111.62
480.751	162.62
480.969	407.62
481.188	1505.62
481.406	869.62
481.624	176.62
481.843	115.62
482.061	92.62
482.28	91.62
482.498	103.62
482.717	92.62
482.935	83.62
483.153	86.62
483.372	90.62
483.59	107.62
483.808	100.62
484.027	99.62
484.245	96.62
484.463	97.62
484.681	101.62
484.9	104.62
485.118	87.62
485.336	90.62
485.554	97.62
485.772	95.62
485.99	93.62
486.209	111.62
486.427	99.62
486.645	109.62
486.863	109.62
487.081	104.62
487.299	89.62
487.517	106.62
487.735	92.62
487.953	97.62
488.171	98.62
488.389	81.62
488.607	92.62
488.825	101.62
489.043	84.62
489.261	75.62
489.479	85.62
489.696	89.62
489.914	90.62
490.132	98.62
490.35	87.62
490.568	75.62
490.786	99.62
491.003	79.62
491.221	90.62
491.439	110.62
491.657	83.62
491.874	94.62
492.092	91.62
492.31	100.62
492.527	102.62
492.745	89.62
492.963	89.62
493.18	90.62
493.398	96.62
493.615	87.62
493.833	100.62
494.05	83.62
494.268	95.62
494.485	89.62
494.703	90.62
494.92	86.62
495.138	79.62
495.355	87.62
495.573	99.62
495.79	85.62
496.008	74.62
496.225	88.62
496.442	110.62
496.66	76.62
496.877	84.62
497.094	96.62
497.312	93.62
497.529	92.62
497.746	88.62
497.963	86.62
498.181	90.62
498.398	109.62
498.615	119.62
498.832	106.62
499.049	87.62
499.267	103.62
499.484	93.62
499.701	89.62
499.918	92.62
500.135	99.62
500.352	91.62
500.569	79.62
500.786	67.62
501.003	79.62
501.22	76.62
501.437	87.62
501.654	100.62
501.871	99.62
502.088	99.62
502.305	91.62
502.522	90.62
502.739	86.62
502.956	88.62
503.172	102.62
503.389	99.62
503.606	109.62
503.823	110.62
504.04	113.62
504.256	84.62
504.473	93.62
504.69	84.62
504.907	96.62
505.123	100.62
505.34	84.62
505.557	108.62
505.773	96.62
505.99	90.62
506.207	92.62
506.423	81.62
506.64	92.62
506.856	88.62
507.073	96.62
507.289	99.62
507.506	106.62
507.722	121.62
507.939	106.62
508.155	97.62
508.372	96.62
508.588	100.62
508.805	99.62
509.021	103.62
509.238	98.62
509.454	93.62
509.67	96.62
509.887	110.62
510.103	134.62
510.319	185.62
510.536	552.62
510.752	1720.62
510.968	496.62
511.184	148.62
511.401	124.62
511.617	98.62
511.833	114.62
512.049	99.62
512.265	90.62
512.481	90.62
512.698	107.62
512.914	89.62
513.13	101.62
513.346	98.62
513.562	96.62
513.778	99.62
513.994	85.62
514.21	99.62
514.426	109.62
