Data from Circ_1989_H10_HRD10591_00080.txt Node
Date: Wed Jan 03 12:01:37 EST 2024
User: Yrep
Spectrometer: HR+D1059
Trigger mode: 1
Integration Time (sec): 1.000000E-1
Scans to average: 1
Electric dark correction enabled: true
Nonlinearity correction enabled: false
Boxcar width: 0
XAxis mode: Wavelengths
Number of Pixels in Spectrum: 2048
>>>>>Begin Spectral Data<<<<<
223.165	-26.31
223.4	-26.31
223.635	-26.31
223.869	-29.31
224.104	-24.31
224.338	-28.31
224.573	-2.31
224.808	-11.31
225.042	-11.31
225.277	-0.31
225.511	-8.31
225.746	1.69
225.98	13.69
226.215	0.69
226.449	14.69
226.683	25.69
226.918	39.69
227.152	45.69
227.387	30.69
227.621	46.69
227.856	42.69
228.09	45.69
228.324	48.69
228.559	66.69
228.793	55.69
229.027	54.69
229.262	52.69
229.496	89.69
229.73	88.69
229.964	87.69
230.199	86.69
230.433	74.69
230.667	60.69
230.901	59.69
231.136	69.69
231.37	80.69
231.604	77.69
231.838	90.69
232.072	78.69
232.306	71.69
232.541	84.69
232.775	92.69
233.009	88.69
233.243	80.69
233.477	81.69
233.711	85.69
233.945	82.69
234.179	77.69
234.413	73.69
234.647	96.69
234.881	81.69
235.115	74.69
235.349	68.69
235.583	90.69
235.817	76.69
236.051	80.69
236.285	72.69
236.519	90.69
236.753	100.69
236.987	87.69
237.221	81.69
237.455	103.69
237.689	84.69
237.922	72.69
238.156	86.69
238.39	69.69
238.624	79.69
238.858	78.69
239.091	66.69
239.325	79.69
239.559	92.69
239.793	76.69
240.027	81.69
240.26	88.69
240.494	76.69
240.728	82.69
240.961	69.69
241.195	77.69
241.429	76.69
241.662	73.69
241.896	78.69
242.13	67.69
242.363	66.69
242.597	68.69
242.83	71.69
243.064	64.69
243.298	73.69
243.531	70.69
243.765	78.69
243.998	93.69
244.232	87.69
244.465	76.69
244.699	76.69
244.932	76.69
245.166	79.69
245.399	83.69
245.633	77.69
245.866	79.69
246.099	63.69
246.333	61.69
246.566	68.69
246.8	80.69
247.033	76.69
247.266	82.69
247.5	87.69
247.733	85.69
247.966	68.69
248.2	76.69
248.433	74.69
248.666	81.69
248.899	83.69
249.133	79.69
249.366	97.69
249.599	87.69
249.832	80.69
250.066	92.69
250.299	76.69
250.532	86.69
250.765	85.69
250.998	78.69
251.231	82.69
251.465	88.69
251.698	93.69
251.931	74.69
252.164	84.69
252.397	80.69
252.63	73.69
252.863	73.69
253.096	87.69
253.329	80.69
253.562	91.69
253.795	89.69
254.028	88.69
254.261	78.69
254.494	89.69
254.727	71.69
254.96	74.69
255.193	77.69
255.426	78.69
255.659	72.69
255.892	110.69
256.124	77.69
256.357	90.69
256.59	66.69
256.823	74.69
257.056	80.69
257.289	82.69
257.521	95.69
257.754	85.69
257.987	91.69
258.22	86.69
258.452	70.69
258.685	89.69
258.918	88.69
259.151	71.69
259.383	72.69
259.616	78.69
259.849	80.69
260.081	79.69
260.314	81.69
260.547	76.69
260.779	87.69
261.012	84.69
261.244	81.69
261.477	95.69
261.71	94.69
261.942	86.69
262.175	95.69
262.407	88.69
262.64	85.69
262.872	81.69
263.105	87.69
263.337	85.69
263.57	81.69
263.802	80.69
264.035	77.69
264.267	85.69
264.499	79.69
264.732	86.69
264.964	78.69
265.197	70.69
265.429	94.69
265.661	80.69
265.894	83.69
266.126	77.69
266.358	79.69
266.591	83.69
266.823	87.69
267.055	102.69
267.287	85.69
267.52	80.69
267.752	76.69
267.984	80.69
268.216	87.69
268.448	72.69
268.681	83.69
268.913	88.69
269.145	97.69
269.377	82.69
269.609	98.69
269.841	79.69
270.073	89.69
270.306	88.69
270.538	90.69
270.77	90.69
271.002	77.69
271.234	101.69
271.466	87.69
271.698	78.69
271.93	76.69
272.162	88.69
272.394	89.69
272.626	70.69
272.858	91.69
273.09	92.69
273.322	80.69
273.553	77.69
273.785	83.69
274.017	88.69
274.249	83.69
274.481	93.69
274.713	69.69
274.945	90.69
275.176	88.69
275.408	82.69
275.64	98.69
275.872	101.69
276.104	82.69
276.335	92.69
276.567	96.69
276.799	103.69
277.031	119.69
277.262	112.69
277.494	113.69
277.726	106.69
277.957	80.69
278.189	85.69
278.421	87.69
278.652	68.69
278.884	92.69
279.115	80.69
279.347	98.69
279.579	83.69
279.81	107.69
280.042	125.69
280.273	141.69
280.505	123.69
280.736	86.69
280.968	79.69
281.199	84.69
281.431	80.69
281.662	78.69
281.894	67.69
282.125	101.69
282.356	108.69
282.588	126.69
282.819	115.69
283.051	82.69
283.282	80.69
283.513	90.69
283.745	84.69
283.976	74.69
284.207	76.69
284.439	69.69
284.67	89.69
284.901	82.69
285.132	84.69
285.364	92.69
285.595	96.69
285.826	94.69
286.057	88.69
286.288	80.69
286.52	92.69
286.751	76.69
286.982	80.69
287.213	85.69
287.444	104.69
287.675	88.69
287.906	91.69
288.138	86.69
288.369	86.69
288.6	95.69
288.831	82.69
289.062	87.69
289.293	80.69
289.524	85.69
289.755	86.69
289.986	79.69
290.217	88.69
290.448	89.69
290.679	79.69
290.91	97.69
291.141	98.69
291.371	77.69
291.602	87.69
291.833	87.69
292.064	92.69
292.295	98.69
292.526	89.69
292.757	86.69
292.987	87.69
293.218	92.69
293.449	92.69
293.68	80.69
293.91	82.69
294.141	85.69
294.372	96.69
294.603	94.69
294.833	81.69
295.064	84.69
295.295	93.69
295.525	81.69
295.756	84.69
295.987	113.69
296.217	125.69
296.448	106.69
296.679	100.69
296.909	92.69
297.14	88.69
297.37	99.69
297.601	67.69
297.831	77.69
298.062	94.69
298.292	105.69
298.523	100.69
298.753	91.69
298.984	76.69
299.214	99.69
299.445	105.69
299.675	88.69
299.905	86.69
300.136	89.69
300.366	82.69
300.597	98.69
300.827	92.69
301.057	91.69
301.288	73.69
301.518	83.69
301.748	92.69
301.979	99.69
302.209	110.69
302.439	84.69
302.669	83.69
302.9	79.69
303.13	91.69
303.36	89.69
303.59	99.69
303.82	107.69
304.051	87.69
304.281	78.69
304.511	80.69
304.741	86.69
304.971	93.69
305.201	94.69
305.431	93.69
305.661	79.69
305.891	92.69
306.121	98.69
306.352	101.69
306.582	109.69
306.812	95.69
307.042	109.69
307.272	113.69
307.502	122.69
307.731	128.69
307.961	118.69
308.191	85.69
308.421	93.69
308.651	89.69
308.881	95.69
309.111	100.69
309.341	84.69
309.571	97.69
309.8	91.69
310.03	88.69
310.26	107.69
310.49	103.69
310.72	94.69
310.949	104.69
311.179	98.69
311.409	92.69
311.639	86.69
311.868	89.69
312.098	101.69
312.328	93.69
312.557	90.69
312.787	92.69
313.017	92.69
313.246	85.69
313.476	106.69
313.706	94.69
313.935	97.69
314.165	97.69
314.394	103.69
314.624	107.69
314.853	94.69
315.083	90.69
315.312	91.69
315.542	78.69
315.771	92.69
316.001	97.69
316.23	93.69
316.46	97.69
316.689	84.69
316.919	90.69
317.148	87.69
317.377	99.69
317.607	86.69
317.836	92.69
318.065	90.69
318.295	91.69
318.524	92.69
318.753	84.69
318.983	84.69
319.212	100.69
319.441	97.69
319.67	93.69
319.9	100.69
320.129	82.69
320.358	72.69
320.587	88.69
320.816	83.69
321.046	98.69
321.275	113.69
321.504	106.69
321.733	94.69
321.962	100.69
322.191	98.69
322.42	87.69
322.649	99.69
322.878	115.69
323.108	109.69
323.337	120.69
323.566	125.69
323.795	120.69
324.024	172.69
324.253	310.69
324.482	668.69
324.71	1331.69
324.939	1801.69
325.168	689.69
325.397	212.69
325.626	150.69
325.855	113.69
326.084	116.69
326.313	114.69
326.542	132.69
326.77	194.69
326.999	363.69
327.228	770.69
327.457	1406.69
327.686	1125.69
327.914	357.69
328.143	259.69
328.372	298.69
328.6	199.69
328.829	114.69
329.058	121.69
329.287	129.69
329.515	118.69
329.744	146.69
329.972	224.69
330.201	404.69
330.43	560.69
330.658	286.69
330.887	174.69
331.115	109.69
331.344	98.69
331.572	107.69
331.801	108.69
332.03	98.69
332.258	96.69
332.486	107.69
332.715	103.69
332.943	93.69
333.172	106.69
333.4	106.69
333.629	102.69
333.857	146.69
334.085	223.69
334.314	410.69
334.542	728.69
334.771	676.69
334.999	212.69
335.227	111.69
335.455	96.69
335.684	97.69
335.912	100.69
336.14	112.69
336.369	103.69
336.597	99.69
336.825	95.69
337.053	102.69
337.281	93.69
337.51	78.69
337.738	89.69
337.966	88.69
338.194	102.69
338.422	96.69
338.65	90.69
338.878	87.69
339.106	92.69
339.334	98.69
339.562	72.69
339.79	92.69
340.018	94.69
340.246	86.69
340.474	79.69
340.702	102.69
340.93	82.69
341.158	77.69
341.386	83.69
341.614	100.69
341.842	95.69
342.07	86.69
342.298	85.69
342.526	93.69
342.754	88.69
342.981	79.69
343.209	83.69
343.437	104.69
343.665	96.69
343.893	88.69
344.12	92.69
344.348	91.69
344.576	93.69
344.804	102.69
345.031	101.69
345.259	92.69
345.487	92.69
345.714	93.69
345.942	103.69
346.17	83.69
346.397	98.69
346.625	100.69
346.853	90.69
347.08	84.69
347.308	89.69
347.535	97.69
347.763	100.69
347.99	97.69
348.218	95.69
348.445	94.69
348.673	89.69
348.9	104.69
349.128	99.69
349.355	93.69
349.583	88.69
349.81	95.69
350.037	114.69
350.265	112.69
350.492	97.69
350.72	89.69
350.947	99.69
351.174	106.69
351.402	93.69
351.629	95.69
351.856	95.69
352.083	103.69
352.311	101.69
352.538	105.69
352.765	93.69
352.992	113.69
353.22	92.69
353.447	98.69
353.674	108.69
353.901	104.69
354.128	92.69
354.355	94.69
354.583	90.69
354.81	112.69
355.037	96.69
355.264	89.69
355.491	95.69
355.718	89.69
355.945	97.69
356.172	91.69
356.399	103.69
356.626	95.69
356.853	87.69
357.08	86.69
357.307	88.69
357.534	84.69
357.761	99.69
357.988	101.69
358.215	105.69
358.441	96.69
358.668	89.69
358.895	93.69
359.122	92.69
359.349	101.69
359.576	90.69
359.802	97.69
360.029	102.69
360.256	101.69
360.483	94.69
360.709	90.69
360.936	83.69
361.163	88.69
361.39	94.69
361.616	81.69
361.843	96.69
362.07	89.69
362.296	110.69
362.523	100.69
362.749	91.69
362.976	93.69
363.203	88.69
363.429	86.69
363.656	75.69
363.882	94.69
364.109	90.69
364.335	101.69
364.562	96.69
364.788	87.69
365.015	94.69
365.241	100.69
365.468	111.69
365.694	98.69
365.92	86.69
366.147	93.69
366.373	84.69
366.599	78.69
366.826	95.69
367.052	97.69
367.278	99.69
367.505	108.69
367.731	95.69
367.957	96.69
368.184	77.69
368.41	93.69
368.636	96.69
368.862	112.69
369.089	87.69
369.315	99.69
369.541	103.69
369.767	108.69
369.993	90.69
370.219	99.69
370.445	94.69
370.672	87.69
370.898	88.69
371.124	95.69
371.35	80.69
371.576	92.69
371.802	83.69
372.028	92.69
372.254	96.69
372.48	82.69
372.706	105.69
372.932	91.69
373.158	86.69
373.384	97.69
373.61	103.69
373.835	94.69
374.061	87.69
374.287	96.69
374.513	88.69
374.739	96.69
374.965	92.69
375.191	68.69
375.416	91.69
375.642	88.69
375.868	87.69
376.094	85.69
376.319	84.69
376.545	96.69
376.771	109.69
376.997	94.69
377.222	95.69
377.448	81.69
377.674	90.69
377.899	89.69
378.125	85.69
378.35	95.69
378.576	81.69
378.802	80.69
379.027	82.69
379.253	95.69
379.478	96.69
379.704	95.69
379.929	96.69
380.155	79.69
380.38	91.69
380.606	94.69
380.831	90.69
381.057	98.69
381.282	95.69
381.507	95.69
381.733	96.69
381.958	93.69
382.184	96.69
382.409	86.69
382.634	105.69
382.86	82.69
383.085	114.69
383.31	86.69
383.535	113.69
383.761	81.69
383.986	87.69
384.211	87.69
384.436	103.69
384.662	95.69
384.887	94.69
385.112	96.69
385.337	106.69
385.562	102.69
385.787	92.69
386.013	100.69
386.238	106.69
386.463	100.69
386.688	115.69
386.913	89.69
387.138	112.69
387.363	110.69
387.588	104.69
387.813	97.69
388.038	110.69
388.263	92.69
388.488	99.69
388.713	80.69
388.938	88.69
389.163	85.69
389.387	105.69
389.612	94.69
389.837	93.69
390.062	105.69
390.287	91.69
390.512	80.69
390.736	93.69
390.961	79.69
391.186	102.69
391.411	92.69
391.636	86.69
391.86	100.69
392.085	87.69
392.31	90.69
392.534	83.69
392.759	103.69
392.984	91.69
393.208	63.69
393.433	106.69
393.658	93.69
393.882	80.69
394.107	92.69
394.331	83.69
394.556	80.69
394.78	88.69
395.005	88.69
395.229	89.69
395.454	85.69
395.678	94.69
395.903	85.69
396.127	98.69
396.352	79.69
396.576	77.69
396.801	78.69
397.025	91.69
397.249	78.69
397.474	88.69
397.698	79.69
397.922	89.69
398.147	80.69
398.371	85.69
398.595	93.69
398.82	93.69
399.044	88.69
399.268	84.69
399.492	87.69
399.717	86.69
399.941	85.69
400.165	87.69
400.389	104.69
400.613	88.69
400.837	91.69
401.062	86.69
401.286	93.69
401.51	93.69
401.734	105.69
401.958	102.69
402.182	113.69
402.406	135.69
402.63	102.69
402.854	83.69
403.078	100.69
403.302	82.69
403.526	91.69
403.75	92.69
403.974	74.69
404.198	88.69
404.422	105.69
404.645	90.69
404.869	88.69
405.093	96.69
405.317	122.69
405.541	112.69
405.765	92.69
405.988	103.69
406.212	145.69
406.436	189.69
406.66	125.69
406.883	94.69
407.107	98.69
407.331	88.69
407.555	89.69
407.778	98.69
408.002	97.69
408.226	82.69
408.449	89.69
408.673	98.69
408.896	88.69
409.12	84.69
409.344	89.69
409.567	89.69
409.791	94.69
410.014	92.69
410.238	97.69
410.461	94.69
410.685	92.69
410.908	76.69
411.132	97.69
411.355	92.69
411.578	88.69
411.802	89.69
412.025	103.69
412.249	95.69
412.472	103.69
412.695	112.69
412.919	96.69
413.142	97.69
413.365	89.69
413.589	82.69
413.812	86.69
414.035	102.69
414.258	87.69
414.482	86.69
414.705	85.69
414.928	82.69
415.151	97.69
415.374	100.69
415.597	96.69
415.821	85.69
416.044	90.69
416.267	95.69
416.49	85.69
416.713	95.69
416.936	92.69
417.159	85.69
417.382	85.69
417.605	93.69
417.828	95.69
418.051	89.69
418.274	89.69
418.497	80.69
418.72	86.69
418.943	87.69
419.166	106.69
419.389	97.69
419.611	98.69
419.834	94.69
420.057	97.69
420.28	105.69
420.503	83.69
420.726	88.69
420.948	89.69
421.171	97.69
421.394	82.69
421.617	84.69
421.839	99.69
422.062	86.69
422.285	88.69
422.507	97.69
422.73	98.69
422.953	85.69
423.175	94.69
423.398	90.69
423.621	86.69
423.843	83.69
424.066	93.69
424.288	86.69
424.511	76.69
424.733	88.69
424.956	99.69
425.178	93.69
425.401	102.69
425.623	98.69
425.846	96.69
426.068	92.69
426.291	75.69
426.513	78.69
426.735	82.69
426.958	87.69
427.18	100.69
427.402	120.69
427.625	161.69
427.847	152.69
428.069	156.69
428.292	102.69
428.514	101.69
428.736	95.69
428.958	76.69
429.181	89.69
429.403	88.69
429.625	90.69
429.847	94.69
430.069	93.69
430.292	91.69
430.514	73.69
430.736	100.69
430.958	99.69
431.18	80.69
431.402	85.69
431.624	89.69
431.846	80.69
432.068	92.69
432.29	97.69
432.512	102.69
432.734	85.69
432.956	94.69
433.178	95.69
433.4	96.69
433.622	88.69
433.844	96.69
434.066	96.69
434.287	95.69
434.509	79.69
434.731	94.69
434.953	81.69
435.175	95.69
435.397	93.69
435.618	82.69
435.84	80.69
436.062	105.69
436.284	111.69
436.505	101.69
436.727	102.69
436.949	88.69
437.17	85.69
437.392	110.69
437.614	88.69
437.835	101.69
438.057	102.69
438.278	118.69
438.5	88.69
438.721	110.69
438.943	94.69
439.165	91.69
439.386	96.69
439.608	77.69
439.829	92.69
440.05	108.69
440.272	133.69
440.493	109.69
440.715	95.69
440.936	69.69
441.158	92.69
441.379	98.69
441.6	82.69
441.822	93.69
442.043	86.69
442.264	102.69
442.486	92.69
442.707	101.69
442.928	97.69
443.149	113.69
443.371	109.69
443.592	100.69
443.813	94.69
444.034	101.69
444.255	89.69
444.476	78.69
444.698	87.69
444.919	86.69
445.14	136.69
445.361	122.69
445.582	107.69
445.803	120.69
446.024	113.69
446.245	120.69
446.466	113.69
446.687	95.69
446.908	82.69
447.129	80.69
447.35	99.69
447.571	82.69
447.792	90.69
448.013	97.69
448.234	94.69
448.455	106.69
448.675	101.69
448.896	110.69
449.117	99.69
449.338	114.69
449.559	127.69
449.779	119.69
450	83.69
450.221	80.69
450.442	92.69
450.662	88.69
450.883	102.69
451.104	104.69
451.324	94.69
451.545	84.69
451.766	91.69
451.986	77.69
452.207	85.69
452.428	92.69
452.648	88.69
452.869	106.69
453.089	112.69
453.31	106.69
453.53	96.69
453.751	87.69
453.971	102.69
454.192	109.69
454.412	73.69
454.633	86.69
454.853	87.69
455.073	85.69
455.294	71.69
455.514	94.69
455.734	103.69
455.955	92.69
456.175	81.69
456.395	86.69
456.616	101.69
456.836	84.69
457.056	82.69
457.276	84.69
457.497	86.69
457.717	90.69
457.937	85.69
458.157	88.69
458.377	76.69
458.598	94.69
458.818	131.69
459.038	128.69
459.258	118.69
459.478	105.69
459.698	95.69
459.918	81.69
460.138	88.69
460.358	92.69
460.578	88.69
460.798	88.69
461.018	100.69
461.238	79.69
461.458	84.69
461.678	95.69
461.898	96.69
462.118	101.69
462.338	82.69
462.558	88.69
462.777	83.69
462.997	88.69
463.217	91.69
463.437	92.69
463.657	71.69
463.876	66.69
464.096	80.69
464.316	88.69
464.536	87.69
464.755	105.69
464.975	105.69
465.195	159.69
465.414	141.69
465.634	88.69
465.854	80.69
466.073	94.69
466.293	96.69
466.512	99.69
466.732	94.69
466.951	96.69
467.171	104.69
467.391	97.69
467.61	107.69
467.829	132.69
468.049	272.69
468.268	348.69
468.488	138.69
468.707	98.69
468.927	87.69
469.146	85.69
469.365	81.69
469.585	80.69
469.804	103.69
470.023	88.69
470.243	93.69
470.462	106.69
470.681	99.69
470.901	76.69
471.12	84.69
471.339	104.69
471.558	111.69
471.777	102.69
471.997	167.69
472.216	490.69
472.435	999.69
472.654	276.69
472.873	108.69
473.092	89.69
473.311	101.69
473.53	92.69
473.749	100.69
473.968	90.69
474.187	99.69
474.406	85.69
474.625	85.69
474.844	99.69
475.063	78.69
475.282	90.69
475.501	82.69
475.72	95.69
475.939	88.69
476.158	80.69
476.377	100.69
476.596	97.69
476.814	90.69
477.033	95.69
477.252	84.69
477.471	78.69
477.69	93.69
477.908	91.69
478.127	95.69
478.346	98.69
478.564	111.69
478.783	86.69
479.002	86.69
479.22	100.69
479.439	105.69
479.658	106.69
479.876	95.69
480.095	93.69
480.313	104.69
480.532	111.69
480.751	171.69
480.969	476.69
481.188	1816.69
481.406	1057.69
481.624	208.69
481.843	104.69
482.061	94.69
482.28	90.69
482.498	89.69
482.717	90.69
482.935	82.69
483.153	94.69
483.372	86.69
483.59	87.69
483.808	79.69
484.027	92.69
484.245	80.69
484.463	90.69
484.681	96.69
484.9	92.69
485.118	94.69
485.336	89.69
485.554	104.69
485.772	96.69
485.99	88.69
486.209	81.69
486.427	97.69
486.645	89.69
486.863	97.69
487.081	98.69
487.299	97.69
487.517	96.69
487.735	96.69
487.953	86.69
488.171	98.69
488.389	102.69
488.607	84.69
488.825	85.69
489.043	92.69
489.261	87.69
489.479	88.69
489.696	86.69
489.914	105.69
490.132	94.69
490.35	93.69
490.568	90.69
490.786	90.69
491.003	90.69
491.221	86.69
491.439	90.69
491.657	92.69
491.874	88.69
492.092	85.69
492.31	97.69
492.527	102.69
492.745	97.69
492.963	89.69
493.18	93.69
493.398	103.69
493.615	88.69
493.833	95.69
494.05	97.69
494.268	86.69
494.485	102.69
494.703	99.69
494.92	92.69
495.138	79.69
495.355	89.69
495.573	98.69
495.79	80.69
496.008	81.69
496.225	95.69
496.442	86.69
496.66	99.69
496.877	82.69
497.094	92.69
497.312	96.69
497.529	94.69
497.746	87.69
497.963	93.69
498.181	78.69
498.398	90.69
498.615	111.69
498.832	103.69
499.049	99.69
499.267	92.69
499.484	101.69
499.701	96.69
499.918	87.69
500.135	85.69
500.352	101.69
500.569	96.69
500.786	89.69
501.003	84.69
501.22	98.69
501.437	90.69
501.654	91.69
501.871	106.69
502.088	95.69
502.305	91.69
502.522	82.69
502.739	89.69
502.956	94.69
503.172	86.69
503.389	83.69
503.606	109.69
503.823	85.69
504.04	93.69
504.256	95.69
504.473	77.69
504.69	96.69
504.907	84.69
505.123	76.69
505.34	91.69
505.557	92.69
505.773	90.69
505.99	87.69
506.207	91.69
506.423	82.69
506.64	84.69
506.856	84.69
507.073	88.69
507.289	90.69
507.506	90.69
507.722	92.69
507.939	104.69
508.155	90.69
508.372	92.69
508.588	105.69
508.805	78.69
509.021	92.69
509.238	94.69
509.454	98.69
509.67	84.69
509.887	101.69
510.103	107.69
510.319	161.69
510.536	521.69
510.752	1586.69
510.968	444.69
511.184	143.69
511.401	98.69
511.617	76.69
511.833	95.69
512.049	79.69
512.265	82.69
512.481	80.69
512.698	95.69
512.914	92.69
513.13	79.69
513.346	91.69
513.562	81.69
513.778	98.69
513.994	98.69
514.21	94.69
514.426	117.69
514.642	116.69
514.858	112.69
515.074	138.69
515.29	319.69
515.506	1020.69
515.721	387.69
