Data from Circ_1989_H10_HRD10591_00036.txt Node
Date: Wed Jan 03 12:01:28 EST 2024
User: Yrep
Spectrometer: HR+D1059
Trigger mode: 1
Integration Time (sec): 1.000000E-1
Scans to average: 1
Electric dark correction enabled: true
Nonlinearity correction enabled: false
Boxcar width: 0
XAxis mode: Wavelengths
Number of Pixels in Spectrum: 2048
>>>>>Begin Spectral Data<<<<<
223.165	-7.69
223.4	-7.69
223.635	-7.69
223.869	-19.69
224.104	-13.69
224.338	-14.69
224.573	-16.69
224.808	2.31
225.042	-22.69
225.277	8.31
225.511	-10.69
225.746	5.31
225.98	9.31
226.215	8.31
226.449	1.31
226.683	12.31
226.918	22.31
227.152	36.31
227.387	32.31
227.621	29.31
227.856	37.31
228.09	46.31
228.324	54.31
228.559	62.31
228.793	58.31
229.027	62.31
229.262	81.31
229.496	63.31
229.73	89.31
229.964	89.31
230.199	74.31
230.433	84.31
230.667	82.31
230.901	72.31
231.136	78.31
231.37	82.31
231.604	79.31
231.838	80.31
232.072	68.31
232.306	90.31
232.541	72.31
232.775	86.31
233.009	77.31
233.243	81.31
233.477	90.31
233.711	84.31
233.945	83.31
234.179	77.31
234.413	82.31
234.647	81.31
234.881	62.31
235.115	72.31
235.349	60.31
235.583	71.31
235.817	81.31
236.051	78.31
236.285	71.31
236.519	88.31
236.753	68.31
236.987	71.31
237.221	75.31
237.455	66.31
237.689	80.31
237.922	85.31
238.156	79.31
238.39	65.31
238.624	72.31
238.858	57.31
239.091	70.31
239.325	94.31
239.559	87.31
239.793	78.31
240.027	81.31
240.26	77.31
240.494	82.31
240.728	79.31
240.961	78.31
241.195	62.31
241.429	77.31
241.662	69.31
241.896	81.31
242.13	70.31
242.363	74.31
242.597	80.31
242.83	84.31
243.064	83.31
243.298	78.31
243.531	84.31
243.765	73.31
243.998	85.31
244.232	80.31
244.465	72.31
244.699	77.31
244.932	82.31
245.166	84.31
245.399	82.31
245.633	66.31
245.866	76.31
246.099	86.31
246.333	82.31
246.566	64.31
246.8	65.31
247.033	79.31
247.266	86.31
247.5	73.31
247.733	83.31
247.966	83.31
248.2	91.31
248.433	68.31
248.666	72.31
248.899	83.31
249.133	100.31
249.366	83.31
249.599	93.31
249.832	73.31
250.066	80.31
250.299	69.31
250.532	68.31
250.765	69.31
250.998	67.31
251.231	73.31
251.465	80.31
251.698	65.31
251.931	87.31
252.164	86.31
252.397	80.31
252.63	77.31
252.863	78.31
253.096	61.31
253.329	82.31
253.562	71.31
253.795	82.31
254.028	72.31
254.261	82.31
254.494	74.31
254.727	85.31
254.96	78.31
255.193	94.31
255.426	69.31
255.659	82.31
255.892	86.31
256.124	92.31
256.357	81.31
256.59	90.31
256.823	90.31
257.056	84.31
257.289	80.31
257.521	96.31
257.754	84.31
257.987	87.31
258.22	102.31
258.452	106.31
258.685	64.31
258.918	84.31
259.151	81.31
259.383	83.31
259.616	73.31
259.849	90.31
260.081	72.31
260.314	80.31
260.547	64.31
260.779	69.31
261.012	95.31
261.244	94.31
261.477	86.31
261.71	87.31
261.942	109.31
262.175	112.31
262.407	84.31
262.64	82.31
262.872	80.31
263.105	74.31
263.337	90.31
263.57	85.31
263.802	80.31
264.035	85.31
264.267	102.31
264.499	92.31
264.732	85.31
264.964	86.31
265.197	76.31
265.429	73.31
265.661	86.31
265.894	84.31
266.126	86.31
266.358	90.31
266.591	87.31
266.823	92.31
267.055	80.31
267.287	86.31
267.52	89.31
267.752	81.31
267.984	77.31
268.216	81.31
268.448	82.31
268.681	85.31
268.913	78.31
269.145	74.31
269.377	87.31
269.609	87.31
269.841	91.31
270.073	71.31
270.306	87.31
270.538	85.31
270.77	62.31
271.002	73.31
271.234	79.31
271.466	86.31
271.698	81.31
271.93	84.31
272.162	80.31
272.394	81.31
272.626	85.31
272.858	84.31
273.09	79.31
273.322	80.31
273.553	90.31
273.785	89.31
274.017	88.31
274.249	86.31
274.481	69.31
274.713	93.31
274.945	87.31
275.176	89.31
275.408	101.31
275.64	81.31
275.872	92.31
276.104	105.31
276.335	80.31
276.567	101.31
276.799	102.31
277.031	98.31
277.262	113.31
277.494	106.31
277.726	91.31
277.957	78.31
278.189	95.31
278.421	92.31
278.652	90.31
278.884	89.31
279.115	84.31
279.347	80.31
279.579	67.31
279.81	94.31
280.042	105.31
280.273	124.31
280.505	101.31
280.736	92.31
280.968	102.31
281.199	103.31
281.431	106.31
281.662	99.31
281.894	91.31
282.125	96.31
282.356	110.31
282.588	110.31
282.819	111.31
283.051	92.31
283.282	83.31
283.513	76.31
283.745	80.31
283.976	85.31
284.207	90.31
284.439	68.31
284.67	86.31
284.901	83.31
285.132	86.31
285.364	80.31
285.595	90.31
285.826	72.31
286.057	88.31
286.288	83.31
286.52	96.31
286.751	89.31
286.982	94.31
287.213	70.31
287.444	79.31
287.675	100.31
287.906	90.31
288.138	81.31
288.369	87.31
288.6	86.31
288.831	97.31
289.062	88.31
289.293	90.31
289.524	85.31
289.755	74.31
289.986	92.31
290.217	94.31
290.448	100.31
290.679	104.31
290.91	97.31
291.141	84.31
291.371	94.31
291.602	87.31
291.833	82.31
292.064	77.31
292.295	78.31
292.526	88.31
292.757	77.31
292.987	78.31
293.218	89.31
293.449	84.31
293.68	85.31
293.91	97.31
294.141	87.31
294.372	94.31
294.603	94.31
294.833	90.31
295.064	87.31
295.295	100.31
295.525	89.31
295.756	87.31
295.987	101.31
296.217	123.31
296.448	120.31
296.679	102.31
296.909	89.31
297.14	90.31
297.37	96.31
297.601	85.31
297.831	101.31
298.062	104.31
298.292	90.31
298.523	95.31
298.753	92.31
298.984	80.31
299.214	89.31
299.445	112.31
299.675	94.31
299.905	92.31
300.136	92.31
300.366	86.31
300.597	104.31
300.827	105.31
301.057	95.31
301.288	114.31
301.518	95.31
301.748	78.31
301.979	103.31
302.209	91.31
302.439	79.31
302.669	86.31
302.9	82.31
303.13	86.31
303.36	90.31
303.59	95.31
303.82	96.31
304.051	88.31
304.281	95.31
304.511	94.31
304.741	76.31
304.971	93.31
305.201	103.31
305.431	101.31
305.661	81.31
305.891	90.31
306.121	115.31
306.352	107.31
306.582	98.31
306.812	106.31
307.042	97.31
307.272	111.31
307.502	116.31
307.731	112.31
307.961	104.31
308.191	83.31
308.421	101.31
308.651	97.31
308.881	81.31
309.111	90.31
309.341	86.31
309.571	96.31
309.8	97.31
310.03	96.31
310.26	100.31
310.49	104.31
310.72	93.31
310.949	89.31
311.179	82.31
311.409	96.31
311.639	88.31
311.868	89.31
312.098	100.31
312.328	90.31
312.557	103.31
312.787	103.31
313.017	101.31
313.246	105.31
313.476	85.31
313.706	100.31
313.935	119.31
314.165	96.31
314.394	88.31
314.624	78.31
314.853	85.31
315.083	104.31
315.312	89.31
315.542	98.31
315.771	86.31
316.001	90.31
316.23	86.31
316.46	93.31
316.689	89.31
316.919	100.31
317.148	95.31
317.377	91.31
317.607	89.31
317.836	84.31
318.065	93.31
318.295	92.31
318.524	85.31
318.753	86.31
318.983	99.31
319.212	97.31
319.441	101.31
319.67	115.31
319.9	90.31
320.129	87.31
320.358	79.31
320.587	97.31
320.816	95.31
321.046	104.31
321.275	100.31
321.504	87.31
321.733	93.31
321.962	88.31
322.191	104.31
322.42	92.31
322.649	104.31
322.878	104.31
323.108	118.31
323.337	117.31
323.566	133.31
323.795	123.31
324.024	175.31
324.253	334.31
324.482	707.31
324.71	1417.31
324.939	1857.31
325.168	707.31
325.397	212.31
325.626	137.31
325.855	116.31
326.084	120.31
326.313	117.31
326.542	142.31
326.77	217.31
326.999	396.31
327.228	784.31
327.457	1491.31
327.686	1152.31
327.914	371.31
328.143	255.31
328.372	258.31
328.6	167.31
328.829	128.31
329.058	125.31
329.287	123.31
329.515	124.31
329.744	141.31
329.972	204.31
330.201	374.31
330.43	479.31
330.658	246.31
330.887	152.31
331.115	129.31
331.344	113.31
331.572	100.31
331.801	119.31
332.03	108.31
332.258	89.31
332.486	89.31
332.715	105.31
332.943	92.31
333.172	98.31
333.4	104.31
333.629	116.31
333.857	130.31
334.085	208.31
334.314	354.31
334.542	632.31
334.771	580.31
334.999	188.31
335.227	110.31
335.455	94.31
335.684	110.31
335.912	107.31
336.14	103.31
336.369	105.31
336.597	92.31
336.825	99.31
337.053	96.31
337.281	88.31
337.51	89.31
337.738	97.31
337.966	95.31
338.194	88.31
338.422	85.31
338.65	100.31
338.878	88.31
339.106	95.31
339.334	91.31
339.562	85.31
339.79	102.31
340.018	103.31
340.246	85.31
340.474	81.31
340.702	86.31
340.93	80.31
341.158	90.31
341.386	95.31
341.614	84.31
341.842	97.31
342.07	80.31
342.298	82.31
342.526	82.31
342.754	86.31
342.981	88.31
343.209	82.31
343.437	88.31
343.665	86.31
343.893	93.31
344.12	97.31
344.348	93.31
344.576	104.31
344.804	104.31
345.031	90.31
345.259	90.31
345.487	91.31
345.714	103.31
345.942	99.31
346.17	87.31
346.397	86.31
346.625	86.31
346.853	87.31
347.08	96.31
347.308	97.31
347.535	101.31
347.763	93.31
347.99	102.31
348.218	96.31
348.445	99.31
348.673	96.31
348.9	89.31
349.128	90.31
349.355	88.31
349.583	86.31
349.81	95.31
350.037	92.31
350.265	93.31
350.492	92.31
350.72	90.31
350.947	81.31
351.174	109.31
351.402	110.31
351.629	99.31
351.856	94.31
352.083	108.31
352.311	96.31
352.538	104.31
352.765	108.31
352.992	115.31
353.22	104.31
353.447	103.31
353.674	93.31
353.901	77.31
354.128	105.31
354.355	97.31
354.583	81.31
354.81	96.31
355.037	85.31
355.264	85.31
355.491	99.31
355.718	88.31
355.945	101.31
356.172	82.31
356.399	83.31
356.626	94.31
356.853	80.31
357.08	109.31
357.307	94.31
357.534	85.31
357.761	102.31
357.988	96.31
358.215	88.31
358.441	86.31
358.668	76.31
358.895	89.31
359.122	86.31
359.349	92.31
359.576	85.31
359.802	103.31
360.029	114.31
360.256	93.31
360.483	91.31
360.709	102.31
360.936	104.31
361.163	79.31
361.39	106.31
361.616	94.31
361.843	95.31
362.07	88.31
362.296	106.31
362.523	84.31
362.749	80.31
362.976	80.31
363.203	95.31
363.429	95.31
363.656	93.31
363.882	89.31
364.109	93.31
364.335	101.31
364.562	97.31
364.788	82.31
365.015	101.31
365.241	104.31
365.468	97.31
365.694	92.31
365.92	87.31
366.147	87.31
366.373	94.31
366.599	83.31
366.826	91.31
367.052	91.31
367.278	108.31
367.505	78.31
367.731	92.31
367.957	81.31
368.184	82.31
368.41	90.31
368.636	103.31
368.862	106.31
369.089	100.31
369.315	81.31
369.541	78.31
369.767	88.31
369.993	90.31
370.219	85.31
370.445	89.31
370.672	90.31
370.898	86.31
371.124	96.31
371.35	87.31
371.576	83.31
371.802	98.31
372.028	88.31
372.254	82.31
372.48	73.31
372.706	84.31
372.932	81.31
373.158	91.31
373.384	96.31
373.61	88.31
373.835	73.31
374.061	86.31
374.287	95.31
374.513	103.31
374.739	86.31
374.965	93.31
375.191	80.31
375.416	81.31
375.642	104.31
375.868	93.31
376.094	90.31
376.319	92.31
376.545	97.31
376.771	72.31
376.997	90.31
377.222	92.31
377.448	94.31
377.674	89.31
377.899	90.31
378.125	84.31
378.35	83.31
378.576	82.31
378.802	89.31
379.027	98.31
379.253	96.31
379.478	97.31
379.704	108.31
379.929	96.31
380.155	80.31
380.38	101.31
380.606	106.31
380.831	92.31
381.057	104.31
381.282	101.31
381.507	101.31
381.733	104.31
381.958	96.31
382.184	83.31
382.409	96.31
382.634	82.31
382.86	104.31
383.085	87.31
383.31	108.31
383.535	105.31
383.761	83.31
383.986	87.31
384.211	92.31
384.436	93.31
384.662	97.31
384.887	103.31
385.112	118.31
385.337	114.31
385.562	106.31
385.787	109.31
386.013	103.31
386.238	104.31
386.463	112.31
386.688	98.31
386.913	110.31
387.138	111.31
387.363	103.31
387.588	99.31
387.813	101.31
388.038	97.31
388.263	107.31
388.488	125.31
388.713	99.31
388.938	97.31
389.163	93.31
389.387	96.31
389.612	92.31
389.837	91.31
390.062	98.31
390.287	97.31
390.512	98.31
390.736	84.31
390.961	109.31
391.186	102.31
391.411	93.31
391.636	99.31
391.86	89.31
392.085	89.31
392.31	73.31
392.534	94.31
392.759	94.31
392.984	81.31
393.208	95.31
393.433	100.31
393.658	97.31
393.882	95.31
394.107	94.31
394.331	96.31
394.556	82.31
394.78	88.31
395.005	95.31
395.229	91.31
395.454	81.31
395.678	84.31
395.903	93.31
396.127	94.31
396.352	85.31
396.576	81.31
396.801	99.31
397.025	98.31
397.249	80.31
397.474	99.31
397.698	82.31
397.922	88.31
398.147	71.31
398.371	88.31
398.595	96.31
398.82	88.31
399.044	73.31
399.268	84.31
399.492	84.31
399.717	81.31
399.941	89.31
400.165	84.31
400.389	73.31
400.613	92.31
400.837	92.31
401.062	87.31
401.286	84.31
401.51	109.31
401.734	92.31
401.958	88.31
402.182	113.31
402.406	153.31
402.63	100.31
402.854	96.31
403.078	87.31
403.302	87.31
403.526	85.31
403.75	95.31
403.974	73.31
404.198	92.31
404.422	91.31
404.645	86.31
404.869	84.31
405.093	96.31
405.317	118.31
405.541	103.31
405.765	114.31
405.988	109.31
406.212	150.31
406.436	195.31
406.66	130.31
406.883	92.31
407.107	97.31
407.331	79.31
407.555	102.31
407.778	97.31
408.002	82.31
408.226	93.31
408.449	78.31
408.673	88.31
408.896	94.31
409.12	99.31
409.344	100.31
409.567	97.31
409.791	98.31
410.014	86.31
410.238	72.31
410.461	101.31
410.685	88.31
410.908	82.31
411.132	103.31
411.355	102.31
411.578	89.31
411.802	83.31
412.025	90.31
412.249	90.31
412.472	90.31
412.695	125.31
412.919	105.31
413.142	96.31
413.365	86.31
413.589	90.31
413.812	101.31
414.035	78.31
414.258	98.31
414.482	81.31
414.705	70.31
414.928	76.31
415.151	89.31
415.374	105.31
415.597	95.31
415.821	91.31
416.044	86.31
416.267	84.31
416.49	93.31
416.713	86.31
416.936	98.31
417.159	90.31
417.382	82.31
417.605	86.31
417.828	96.31
418.051	105.31
418.274	86.31
418.497	95.31
418.72	107.31
418.943	84.31
419.166	81.31
419.389	92.31
419.611	90.31
419.834	97.31
420.057	87.31
420.28	78.31
420.503	94.31
420.726	92.31
420.948	104.31
421.171	119.31
421.394	92.31
421.617	79.31
421.839	96.31
422.062	87.31
422.285	86.31
422.507	94.31
422.73	107.31
422.953	80.31
423.175	84.31
423.398	84.31
423.621	90.31
423.843	89.31
424.066	84.31
424.288	84.31
424.511	92.31
424.733	104.31
424.956	97.31
425.178	100.31
425.401	101.31
425.623	87.31
425.846	92.31
426.068	92.31
426.291	97.31
426.513	94.31
426.735	84.31
426.958	82.31
427.18	103.31
427.402	122.31
427.625	142.31
427.847	160.31
428.069	154.31
428.292	90.31
428.514	95.31
428.736	88.31
428.958	94.31
429.181	88.31
429.403	95.31
429.625	72.31
429.847	93.31
430.069	92.31
430.292	97.31
430.514	92.31
430.736	99.31
430.958	94.31
431.18	80.31
431.402	79.31
431.624	88.31
431.846	82.31
432.068	93.31
432.29	92.31
432.512	80.31
432.734	96.31
432.956	90.31
433.178	100.31
433.4	97.31
433.622	98.31
433.844	85.31
434.066	89.31
434.287	102.31
434.509	97.31
434.731	80.31
434.953	92.31
435.175	82.31
435.397	97.31
435.618	100.31
435.84	96.31
436.062	119.31
436.284	105.31
436.505	91.31
436.727	84.31
436.949	86.31
437.17	88.31
437.392	94.31
437.614	90.31
437.835	93.31
438.057	113.31
438.278	101.31
438.5	105.31
438.721	111.31
438.943	104.31
439.165	67.31
439.386	90.31
439.608	88.31
439.829	102.31
440.05	109.31
440.272	112.31
440.493	85.31
440.715	78.31
440.936	88.31
441.158	87.31
441.379	71.31
441.6	96.31
441.822	86.31
442.043	81.31
442.264	95.31
442.486	94.31
442.707	96.31
442.928	100.31
443.149	107.31
443.371	114.31
443.592	98.31
443.813	102.31
444.034	100.31
444.255	99.31
444.476	82.31
444.698	83.31
444.919	76.31
445.14	129.31
445.361	130.31
445.582	96.31
445.803	143.31
446.024	126.31
446.245	125.31
446.466	114.31
446.687	82.31
446.908	92.31
447.129	89.31
447.35	94.31
447.571	72.31
447.792	89.31
448.013	101.31
448.234	103.31
448.455	96.31
448.675	111.31
448.896	106.31
449.117	82.31
449.338	93.31
449.559	120.31
449.779	132.31
450	87.31
450.221	73.31
450.442	95.31
450.662	91.31
450.883	103.31
451.104	102.31
451.324	89.31
451.545	89.31
451.766	86.31
451.986	84.31
452.207	89.31
452.428	84.31
452.648	93.31
452.869	106.31
453.089	104.31
453.31	114.31
453.53	84.31
453.751	97.31
453.971	104.31
454.192	89.31
454.412	75.31
454.633	84.31
454.853	90.31
455.073	87.31
455.294	88.31
455.514	98.31
455.734	81.31
455.955	94.31
456.175	76.31
456.395	82.31
456.616	86.31
456.836	83.31
457.056	84.31
457.276	94.31
457.497	81.31
457.717	78.31
457.937	94.31
458.157	93.31
458.377	86.31
458.598	111.31
458.818	142.31
459.038	144.31
459.258	114.31
459.478	95.31
459.698	85.31
459.918	93.31
460.138	91.31
460.358	86.31
460.578	86.31
460.798	79.31
461.018	95.31
461.238	90.31
461.458	73.31
461.678	70.31
461.898	81.31
462.118	102.31
462.338	88.31
462.558	80.31
462.777	82.31
462.997	96.31
463.217	87.31
463.437	89.31
463.657	83.31
463.876	100.31
464.096	93.31
464.316	82.31
464.536	76.31
464.755	97.31
464.975	96.31
465.195	155.31
465.414	140.31
465.634	96.31
465.854	73.31
466.073	89.31
466.293	84.31
466.512	80.31
466.732	76.31
466.951	103.31
467.171	101.31
467.391	103.31
467.61	107.31
467.829	126.31
468.049	246.31
468.268	325.31
468.488	114.31
468.707	104.31
468.927	87.31
469.146	89.31
469.365	86.31
469.585	91.31
469.804	94.31
470.023	92.31
470.243	80.31
470.462	93.31
470.681	117.31
470.901	112.31
471.12	89.31
471.339	110.31
471.558	88.31
471.777	107.31
471.997	164.31
472.216	417.31
472.435	865.31
472.654	239.31
472.873	130.31
473.092	89.31
473.311	96.31
473.53	85.31
473.749	81.31
473.968	90.31
474.187	84.31
474.406	83.31
474.625	94.31
474.844	97.31
475.063	80.31
475.282	82.31
475.501	83.31
475.72	96.31
475.939	81.31
476.158	79.31
476.377	91.31
476.596	74.31
476.814	94.31
477.033	87.31
477.252	101.31
477.471	89.31
477.69	82.31
477.908	73.31
478.127	77.31
478.346	84.31
478.564	87.31
478.783	96.31
479.002	101.31
479.22	91.31
479.439	93.31
479.658	102.31
479.876	105.31
480.095	102.31
480.313	106.31
480.532	129.31
480.751	166.31
480.969	420.31
481.188	1576.31
481.406	852.31
481.624	168.31
481.843	95.31
482.061	97.31
482.28	81.31
482.498	95.31
482.717	82.31
482.935	91.31
483.153	84.31
483.372	93.31
483.59	87.31
483.808	86.31
484.027	94.31
484.245	93.31
484.463	91.31
484.681	95.31
484.9	92.31
485.118	97.31
485.336	104.31
485.554	98.31
485.772	96.31
485.99	103.31
486.209	104.31
486.427	112.31
486.645	117.31
486.863	121.31
487.081	99.31
487.299	96.31
487.517	99.31
487.735	99.31
487.953	106.31
488.171	90.31
488.389	94.31
488.607	93.31
488.825	77.31
489.043	96.31
489.261	66.31
489.479	88.31
489.696	89.31
489.914	80.31
490.132	80.31
490.35	94.31
490.568	96.31
490.786	93.31
491.003	86.31
491.221	80.31
491.439	99.31
491.657	92.31
491.874	94.31
492.092	93.31
492.31	101.31
492.527	95.31
492.745	96.31
492.963	96.31
493.18	84.31
493.398	86.31
493.615	103.31
493.833	93.31
494.05	105.31
494.268	93.31
494.485	89.31
494.703	97.31
494.92	89.31
495.138	81.31
495.355	95.31
495.573	99.31
495.79	104.31
496.008	82.31
496.225	97.31
496.442	80.31
496.66	86.31
496.877	97.31
497.094	78.31
497.312	90.31
497.529	94.31
497.746	99.31
497.963	91.31
498.181	91.31
498.398	102.31
498.615	100.31
498.832	101.31
499.049	79.31
499.267	96.31
499.484	92.31
499.701	74.31
499.918	103.31
500.135	82.31
500.352	93.31
500.569	94.31
500.786	82.31
501.003	93.31
501.22	83.31
501.437	80.31
501.654	93.31
501.871	100.31
502.088	74.31
502.305	106.31
502.522	82.31
502.739	81.31
502.956	85.31
503.172	96.31
503.389	90.31
503.606	98.31
503.823	98.31
504.04	92.31
504.256	92.31
504.473	81.31
504.69	80.31
504.907	91.31
505.123	82.31
505.34	91.31
505.557	100.31
505.773	92.31
505.99	82.31
506.207	82.31
506.423	96.31
506.64	95.31
506.856	86.31
507.073	94.31
507.289	83.31
507.506	92.31
507.722	104.31
507.939	102.31
508.155	96.31
508.372	84.31
508.588	95.31
508.805	104.31
509.021	86.31
509.238	98.31
509.454	104.31
509.67	92.31
509.887	103.31
510.103	108.31
510.319	182.31
510.536	584.31
510.752	1794.31
510.968	512.31
511.184	133.31
511.401	96.31
511.617	111.31
511.833	102.31
512.049	90.31
512.265	76.31
512.481	81.31
512.698	89.31
512.914	83.31
513.13	79.31
513.346	90.31
513.562	79.31
513.778	98.31
513.994	90.31
514.21	94.31
514.426	102.31
514.642	125.31
514.858	105.31
515.074	137.31
515.29	341.31
515.506	1110.31
