Data from Circ_1989_H10_HRD10591_00041.txt Node
Date: Wed Jan 03 12:01:29 EST 2024
User: Yrep
Spectrometer: HR+D1059
Trigger mode: 1
Integration Time (sec): 1.000000E-1
Scans to average: 1
Electric dark correction enabled: true
Nonlinearity correction enabled: false
Boxcar width: 0
XAxis mode: Wavelengths
Number of Pixels in Spectrum: 2048
>>>>>Begin Spectral Data<<<<<
223.165	-18.62
223.4	-18.62
223.635	-18.62
223.869	-9.62
224.104	-29.62
224.338	-7.62
224.573	-21.62
224.808	-16.62
225.042	-11.62
225.277	-1.62
225.511	-1.62
225.746	2.38
225.98	19.38
226.215	0.38
226.449	12.38
226.683	4.38
226.918	40.38
227.152	39.38
227.387	20.38
227.621	40.38
227.856	42.38
228.09	52.38
228.324	61.38
228.559	60.38
228.793	59.38
229.027	76.38
229.262	72.38
229.496	73.38
229.73	73.38
229.964	82.38
230.199	76.38
230.433	93.38
230.667	87.38
230.901	68.38
231.136	83.38
231.37	77.38
231.604	81.38
231.838	77.38
232.072	74.38
232.306	76.38
232.541	91.38
232.775	61.38
233.009	83.38
233.243	82.38
233.477	71.38
233.711	80.38
233.945	94.38
234.179	85.38
234.413	76.38
234.647	81.38
234.881	76.38
235.115	80.38
235.349	78.38
235.583	89.38
235.817	67.38
236.051	81.38
236.285	87.38
236.519	94.38
236.753	92.38
236.987	78.38
237.221	88.38
237.455	84.38
237.689	93.38
237.922	70.38
238.156	64.38
238.39	76.38
238.624	78.38
238.858	81.38
239.091	72.38
239.325	80.38
239.559	80.38
239.793	72.38
240.027	81.38
240.26	72.38
240.494	86.38
240.728	71.38
240.961	68.38
241.195	88.38
241.429	69.38
241.662	53.38
241.896	62.38
242.13	70.38
242.363	86.38
242.597	92.38
242.83	77.38
243.064	85.38
243.298	77.38
243.531	90.38
243.765	77.38
243.998	70.38
244.232	90.38
244.465	92.38
244.699	72.38
244.932	67.38
245.166	79.38
245.399	76.38
245.633	87.38
245.866	86.38
246.099	73.38
246.333	69.38
246.566	79.38
246.8	73.38
247.033	84.38
247.266	82.38
247.5	74.38
247.733	77.38
247.966	74.38
248.2	93.38
248.433	78.38
248.666	93.38
248.899	92.38
249.133	61.38
249.366	85.38
249.599	106.38
249.832	95.38
250.066	74.38
250.299	81.38
250.532	80.38
250.765	90.38
250.998	85.38
251.231	84.38
251.465	79.38
251.698	98.38
251.931	88.38
252.164	67.38
252.397	97.38
252.63	88.38
252.863	76.38
253.096	73.38
253.329	92.38
253.562	86.38
253.795	81.38
254.028	78.38
254.261	84.38
254.494	85.38
254.727	68.38
254.96	79.38
255.193	82.38
255.426	90.38
255.659	74.38
255.892	93.38
256.124	82.38
256.357	91.38
256.59	77.38
256.823	77.38
257.056	71.38
257.289	79.38
257.521	69.38
257.754	76.38
257.987	80.38
258.22	70.38
258.452	82.38
258.685	80.38
258.918	79.38
259.151	85.38
259.383	92.38
259.616	82.38
259.849	73.38
260.081	89.38
260.314	76.38
260.547	88.38
260.779	78.38
261.012	85.38
261.244	105.38
261.477	85.38
261.71	86.38
261.942	106.38
262.175	99.38
262.407	86.38
262.64	85.38
262.872	96.38
263.105	76.38
263.337	79.38
263.57	74.38
263.802	92.38
264.035	85.38
264.267	71.38
264.499	92.38
264.732	78.38
264.964	83.38
265.197	83.38
265.429	83.38
265.661	81.38
265.894	92.38
266.126	73.38
266.358	75.38
266.591	71.38
266.823	81.38
267.055	78.38
267.287	107.38
267.52	92.38
267.752	90.38
267.984	93.38
268.216	91.38
268.448	92.38
268.681	74.38
268.913	84.38
269.145	92.38
269.377	81.38
269.609	84.38
269.841	80.38
270.073	95.38
270.306	98.38
270.538	83.38
270.77	77.38
271.002	96.38
271.234	93.38
271.466	91.38
271.698	77.38
271.93	88.38
272.162	84.38
272.394	94.38
272.626	77.38
272.858	88.38
273.09	80.38
273.322	93.38
273.553	91.38
273.785	94.38
274.017	95.38
274.249	83.38
274.481	85.38
274.713	74.38
274.945	92.38
275.176	72.38
275.408	87.38
275.64	100.38
275.872	103.38
276.104	99.38
276.335	88.38
276.567	100.38
276.799	106.38
277.031	117.38
277.262	117.38
277.494	113.38
277.726	90.38
277.957	89.38
278.189	102.38
278.421	83.38
278.652	84.38
278.884	90.38
279.115	76.38
279.347	73.38
279.579	91.38
279.81	109.38
280.042	105.38
280.273	135.38
280.505	104.38
280.736	92.38
280.968	75.38
281.199	80.38
281.431	82.38
281.662	92.38
281.894	82.38
282.125	97.38
282.356	113.38
282.588	124.38
282.819	92.38
283.051	103.38
283.282	92.38
283.513	96.38
283.745	74.38
283.976	76.38
284.207	80.38
284.439	93.38
284.67	95.38
284.901	86.38
285.132	84.38
285.364	84.38
285.595	88.38
285.826	86.38
286.057	92.38
286.288	97.38
286.52	82.38
286.751	87.38
286.982	86.38
287.213	75.38
287.444	84.38
287.675	81.38
287.906	98.38
288.138	87.38
288.369	95.38
288.6	82.38
288.831	85.38
289.062	84.38
289.293	82.38
289.524	78.38
289.755	93.38
289.986	87.38
290.217	92.38
290.448	93.38
290.679	78.38
290.91	98.38
291.141	87.38
291.371	84.38
291.602	92.38
291.833	92.38
292.064	78.38
292.295	73.38
292.526	83.38
292.757	97.38
292.987	58.38
293.218	87.38
293.449	95.38
293.68	83.38
293.91	92.38
294.141	90.38
294.372	81.38
294.603	74.38
294.833	78.38
295.064	84.38
295.295	95.38
295.525	88.38
295.756	98.38
295.987	101.38
296.217	119.38
296.448	122.38
296.679	95.38
296.909	81.38
297.14	96.38
297.37	89.38
297.601	78.38
297.831	74.38
298.062	98.38
298.292	86.38
298.523	85.38
298.753	83.38
298.984	85.38
299.214	85.38
299.445	99.38
299.675	92.38
299.905	93.38
300.136	83.38
300.366	90.38
300.597	79.38
300.827	92.38
301.057	102.38
301.288	96.38
301.518	68.38
301.748	90.38
301.979	98.38
302.209	100.38
302.439	84.38
302.669	92.38
302.9	90.38
303.13	94.38
303.36	90.38
303.59	114.38
303.82	108.38
304.051	100.38
304.281	96.38
304.511	98.38
304.741	80.38
304.971	81.38
305.201	84.38
305.431	95.38
305.661	87.38
305.891	94.38
306.121	106.38
306.352	94.38
306.582	109.38
306.812	89.38
307.042	105.38
307.272	105.38
307.502	110.38
307.731	130.38
307.961	114.38
308.191	102.38
308.421	102.38
308.651	93.38
308.881	98.38
309.111	85.38
309.341	87.38
309.571	82.38
309.8	91.38
310.03	97.38
310.26	100.38
310.49	102.38
310.72	115.38
310.949	97.38
311.179	108.38
311.409	91.38
311.639	91.38
311.868	105.38
312.098	97.38
312.328	101.38
312.557	101.38
312.787	100.38
313.017	108.38
313.246	97.38
313.476	87.38
313.706	103.38
313.935	91.38
314.165	95.38
314.394	110.38
314.624	106.38
314.853	98.38
315.083	91.38
315.312	94.38
315.542	95.38
315.771	104.38
316.001	89.38
316.23	84.38
316.46	96.38
316.689	103.38
316.919	98.38
317.148	100.38
317.377	105.38
317.607	100.38
317.836	87.38
318.065	88.38
318.295	88.38
318.524	94.38
318.753	101.38
318.983	83.38
319.212	110.38
319.441	110.38
319.67	109.38
319.9	93.38
320.129	87.38
320.358	96.38
320.587	110.38
320.816	103.38
321.046	102.38
321.275	89.38
321.504	96.38
321.733	105.38
321.962	105.38
322.191	84.38
322.42	99.38
322.649	104.38
322.878	106.38
323.108	115.38
323.337	127.38
323.566	128.38
323.795	119.38
324.024	190.38
324.253	360.38
324.482	701.38
324.71	1440.38
324.939	1923.38
325.168	730.38
325.397	211.38
325.626	145.38
325.855	142.38
326.084	120.38
326.313	135.38
326.542	147.38
326.77	209.38
326.999	391.38
327.228	834.38
327.457	1509.38
327.686	1216.38
327.914	377.38
328.143	286.38
328.372	288.38
328.6	191.38
328.829	135.38
329.058	138.38
329.287	130.38
329.515	120.38
329.744	145.38
329.972	254.38
330.201	419.38
330.43	583.38
330.658	287.38
330.887	177.38
331.115	123.38
331.344	102.38
331.572	107.38
331.801	118.38
332.03	104.38
332.258	93.38
332.486	96.38
332.715	95.38
332.943	101.38
333.172	93.38
333.4	103.38
333.629	108.38
333.857	154.38
334.085	229.38
334.314	436.38
334.542	754.38
334.771	646.38
334.999	230.38
335.227	125.38
335.455	114.38
335.684	99.38
335.912	91.38
336.14	93.38
336.369	101.38
336.597	96.38
336.825	106.38
337.053	90.38
337.281	110.38
337.51	91.38
337.738	92.38
337.966	94.38
338.194	98.38
338.422	88.38
338.65	97.38
338.878	84.38
339.106	90.38
339.334	88.38
339.562	94.38
339.79	89.38
340.018	95.38
340.246	102.38
340.474	90.38
340.702	110.38
340.93	98.38
341.158	69.38
341.386	88.38
341.614	102.38
341.842	88.38
342.07	81.38
342.298	99.38
342.526	103.38
342.754	92.38
342.981	86.38
343.209	85.38
343.437	88.38
343.665	85.38
343.893	94.38
344.12	92.38
344.348	102.38
344.576	101.38
344.804	98.38
345.031	98.38
345.259	100.38
345.487	112.38
345.714	106.38
345.942	99.38
346.17	105.38
346.397	105.38
346.625	88.38
346.853	89.38
347.08	96.38
347.308	96.38
347.535	100.38
347.763	100.38
347.99	80.38
348.218	98.38
348.445	92.38
348.673	85.38
348.9	92.38
349.128	89.38
349.355	82.38
349.583	94.38
349.81	88.38
350.037	86.38
350.265	96.38
350.492	96.38
350.72	99.38
350.947	91.38
351.174	85.38
351.402	95.38
351.629	95.38
351.856	104.38
352.083	93.38
352.311	97.38
352.538	98.38
352.765	97.38
352.992	108.38
353.22	113.38
353.447	98.38
353.674	105.38
353.901	90.38
354.128	95.38
354.355	94.38
354.583	93.38
354.81	98.38
355.037	89.38
355.264	93.38
355.491	86.38
355.718	100.38
355.945	97.38
356.172	108.38
356.399	103.38
356.626	109.38
356.853	83.38
357.08	93.38
357.307	101.38
357.534	94.38
357.761	101.38
357.988	91.38
358.215	95.38
358.441	92.38
358.668	99.38
358.895	102.38
359.122	78.38
359.349	91.38
359.576	92.38
359.802	104.38
360.029	110.38
360.256	110.38
360.483	98.38
360.709	84.38
360.936	84.38
361.163	76.38
361.39	103.38
361.616	94.38
361.843	83.38
362.07	94.38
362.296	94.38
362.523	86.38
362.749	93.38
362.976	89.38
363.203	88.38
363.429	89.38
363.656	90.38
363.882	82.38
364.109	92.38
364.335	72.38
364.562	98.38
364.788	105.38
365.015	97.38
365.241	109.38
365.468	104.38
365.694	88.38
365.92	99.38
366.147	91.38
366.373	101.38
366.599	102.38
366.826	89.38
367.052	95.38
367.278	84.38
367.505	77.38
367.731	94.38
367.957	92.38
368.184	92.38
368.41	101.38
368.636	107.38
368.862	113.38
369.089	93.38
369.315	87.38
369.541	96.38
369.767	89.38
369.993	86.38
370.219	84.38
370.445	76.38
370.672	80.38
370.898	84.38
371.124	76.38
371.35	89.38
371.576	80.38
371.802	84.38
372.028	90.38
372.254	86.38
372.48	88.38
372.706	84.38
372.932	87.38
373.158	93.38
373.384	71.38
373.61	84.38
373.835	97.38
374.061	97.38
374.287	85.38
374.513	99.38
374.739	77.38
374.965	90.38
375.191	96.38
375.416	84.38
375.642	92.38
375.868	101.38
376.094	76.38
376.319	81.38
376.545	93.38
376.771	88.38
376.997	92.38
377.222	97.38
377.448	93.38
377.674	100.38
377.899	87.38
378.125	95.38
378.35	106.38
378.576	89.38
378.802	91.38
379.027	99.38
379.253	102.38
379.478	95.38
379.704	93.38
379.929	98.38
380.155	93.38
380.38	95.38
380.606	81.38
380.831	90.38
381.057	112.38
381.282	85.38
381.507	92.38
381.733	82.38
381.958	88.38
382.184	98.38
382.409	97.38
382.634	95.38
382.86	99.38
383.085	105.38
383.31	105.38
383.535	92.38
383.761	99.38
383.986	107.38
384.211	77.38
384.436	93.38
384.662	96.38
384.887	101.38
385.112	96.38
385.337	95.38
385.562	103.38
385.787	92.38
386.013	124.38
386.238	113.38
386.463	110.38
386.688	117.38
386.913	104.38
387.138	93.38
387.363	107.38
387.588	102.38
387.813	105.38
388.038	103.38
388.263	127.38
388.488	106.38
388.713	85.38
388.938	103.38
389.163	103.38
389.387	106.38
389.612	86.38
389.837	90.38
390.062	105.38
390.287	89.38
390.512	95.38
390.736	81.38
390.961	99.38
391.186	67.38
391.411	104.38
391.636	90.38
391.86	93.38
392.085	96.38
392.31	98.38
392.534	89.38
392.759	82.38
392.984	82.38
393.208	95.38
393.433	95.38
393.658	109.38
393.882	84.38
394.107	89.38
394.331	91.38
394.556	102.38
394.78	83.38
395.005	88.38
395.229	85.38
395.454	83.38
395.678	93.38
395.903	105.38
396.127	95.38
396.352	92.38
396.576	93.38
396.801	93.38
397.025	92.38
397.249	85.38
397.474	91.38
397.698	80.38
397.922	84.38
398.147	81.38
398.371	85.38
398.595	98.38
398.82	90.38
399.044	98.38
399.268	88.38
399.492	84.38
399.717	82.38
399.941	97.38
400.165	106.38
400.389	93.38
400.613	84.38
400.837	84.38
401.062	95.38
401.286	97.38
401.51	90.38
401.734	91.38
401.958	103.38
402.182	112.38
402.406	144.38
402.63	99.38
402.854	74.38
403.078	98.38
403.302	89.38
403.526	84.38
403.75	96.38
403.974	87.38
404.198	86.38
404.422	87.38
404.645	84.38
404.869	94.38
405.093	105.38
405.317	116.38
405.541	104.38
405.765	96.38
405.988	102.38
406.212	142.38
406.436	191.38
406.66	140.38
406.883	103.38
407.107	86.38
407.331	93.38
407.555	108.38
407.778	104.38
408.002	84.38
408.226	89.38
408.449	96.38
408.673	102.38
408.896	75.38
409.12	91.38
409.344	101.38
409.567	92.38
409.791	93.38
410.014	99.38
410.238	99.38
410.461	83.38
410.685	87.38
410.908	89.38
411.132	97.38
411.355	86.38
411.578	98.38
411.802	80.38
412.025	88.38
412.249	113.38
412.472	99.38
412.695	110.38
412.919	94.38
413.142	89.38
413.365	87.38
413.589	89.38
413.812	80.38
414.035	93.38
414.258	94.38
414.482	89.38
414.705	104.38
414.928	89.38
415.151	98.38
415.374	82.38
415.597	87.38
415.821	85.38
416.044	84.38
416.267	88.38
416.49	92.38
416.713	87.38
416.936	87.38
417.159	85.38
417.382	79.38
417.605	97.38
417.828	102.38
418.051	96.38
418.274	85.38
418.497	79.38
418.72	73.38
418.943	86.38
419.166	94.38
419.389	84.38
419.611	95.38
419.834	84.38
420.057	103.38
420.28	90.38
420.503	84.38
420.726	94.38
420.948	101.38
421.171	100.38
421.394	80.38
421.617	89.38
421.839	95.38
422.062	99.38
422.285	78.38
422.507	100.38
422.73	98.38
422.953	82.38
423.175	81.38
423.398	88.38
423.621	103.38
423.843	88.38
424.066	89.38
424.288	82.38
424.511	94.38
424.733	96.38
424.956	112.38
425.178	92.38
425.401	89.38
425.623	105.38
425.846	90.38
426.068	90.38
426.291	94.38
426.513	96.38
426.735	101.38
426.958	92.38
427.18	101.38
427.402	119.38
427.625	160.38
427.847	132.38
428.069	144.38
428.292	106.38
428.514	86.38
428.736	88.38
428.958	82.38
429.181	89.38
429.403	79.38
429.625	95.38
429.847	112.38
430.069	102.38
430.292	97.38
430.514	81.38
430.736	78.38
430.958	88.38
431.18	98.38
431.402	92.38
431.624	90.38
431.846	93.38
432.068	86.38
432.29	80.38
432.512	96.38
432.734	102.38
432.956	93.38
433.178	102.38
433.4	80.38
433.622	82.38
433.844	81.38
434.066	96.38
434.287	92.38
434.509	81.38
434.731	93.38
434.953	85.38
435.175	97.38
435.397	89.38
435.618	92.38
435.84	102.38
436.062	115.38
436.284	117.38
436.505	107.38
436.727	90.38
436.949	86.38
437.17	95.38
437.392	96.38
437.614	85.38
437.835	89.38
438.057	118.38
438.278	105.38
438.5	83.38
438.721	92.38
438.943	93.38
439.165	86.38
439.386	84.38
439.608	89.38
439.829	97.38
440.05	131.38
440.272	119.38
440.493	105.38
440.715	80.38
440.936	81.38
441.158	82.38
441.379	74.38
441.6	92.38
441.822	93.38
442.043	93.38
442.264	95.38
442.486	102.38
442.707	80.38
442.928	105.38
443.149	125.38
443.371	121.38
443.592	104.38
443.813	117.38
444.034	102.38
444.255	94.38
444.476	80.38
444.698	76.38
444.919	96.38
445.14	140.38
445.361	110.38
445.582	110.38
445.803	124.38
446.024	129.38
446.245	121.38
446.466	113.38
446.687	82.38
446.908	88.38
447.129	90.38
447.35	85.38
447.571	89.38
447.792	89.38
448.013	81.38
448.234	103.38
448.455	95.38
448.675	102.38
448.896	106.38
449.117	103.38
449.338	94.38
449.559	116.38
449.779	138.38
450	99.38
450.221	86.38
450.442	98.38
450.662	105.38
450.883	88.38
451.104	103.38
451.324	89.38
451.545	100.38
451.766	86.38
451.986	93.38
452.207	105.38
452.428	105.38
452.648	104.38
452.869	102.38
453.089	115.38
453.31	105.38
453.53	99.38
453.751	102.38
453.971	110.38
454.192	106.38
454.412	87.38
454.633	86.38
454.853	91.38
455.073	83.38
455.294	96.38
455.514	103.38
455.734	96.38
455.955	99.38
456.175	69.38
456.395	79.38
456.616	80.38
456.836	96.38
457.056	89.38
457.276	90.38
457.497	96.38
457.717	86.38
457.937	81.38
458.157	90.38
458.377	88.38
458.598	101.38
458.818	132.38
459.038	144.38
459.258	117.38
459.478	78.38
459.698	80.38
459.918	73.38
460.138	90.38
460.358	100.38
460.578	91.38
460.798	92.38
461.018	100.38
461.238	93.38
461.458	84.38
461.678	90.38
461.898	84.38
462.118	89.38
462.338	90.38
462.558	84.38
462.777	80.38
462.997	101.38
463.217	80.38
463.437	84.38
463.657	92.38
463.876	72.38
464.096	97.38
464.316	90.38
464.536	86.38
464.755	107.38
464.975	109.38
465.195	141.38
465.414	121.38
465.634	91.38
465.854	78.38
466.073	96.38
466.293	85.38
466.512	82.38
466.732	80.38
466.951	75.38
467.171	92.38
467.391	93.38
467.61	112.38
467.829	125.38
468.049	272.38
468.268	373.38
468.488	128.38
468.707	104.38
468.927	89.38
469.146	93.38
469.365	88.38
469.585	89.38
469.804	99.38
470.023	101.38
470.243	81.38
470.462	115.38
470.681	105.38
470.901	100.38
471.12	104.38
471.339	92.38
471.558	111.38
471.777	106.38
471.997	171.38
472.216	516.38
472.435	1031.38
472.654	278.38
472.873	113.38
473.092	101.38
473.311	86.38
473.53	81.38
473.749	90.38
473.968	102.38
474.187	105.38
474.406	91.38
474.625	96.38
474.844	97.38
475.063	86.38
475.282	68.38
475.501	96.38
475.72	92.38
475.939	94.38
476.158	106.38
476.377	88.38
476.596	88.38
476.814	89.38
477.033	87.38
477.252	78.38
477.471	101.38
477.69	92.38
477.908	74.38
478.127	90.38
478.346	86.38
478.564	86.38
478.783	92.38
479.002	103.38
479.22	111.38
479.439	107.38
479.658	100.38
479.876	103.38
480.095	104.38
480.313	92.38
480.532	109.38
480.751	173.38
480.969	486.38
481.188	1866.38
481.406	1026.38
481.624	188.38
481.843	115.38
482.061	91.38
482.28	97.38
482.498	110.38
482.717	75.38
482.935	98.38
483.153	86.38
483.372	84.38
483.59	92.38
483.808	81.38
484.027	84.38
484.245	81.38
484.463	86.38
484.681	80.38
484.9	83.38
485.118	92.38
485.336	105.38
485.554	104.38
485.772	104.38
485.99	103.38
486.209	103.38
486.427	99.38
486.645	113.38
486.863	114.38
487.081	101.38
487.299	92.38
487.517	95.38
487.735	110.38
487.953	94.38
488.171	99.38
488.389	89.38
488.607	92.38
488.825	84.38
489.043	80.38
489.261	104.38
489.479	88.38
489.696	85.38
489.914	84.38
490.132	87.38
490.35	84.38
490.568	85.38
490.786	89.38
491.003	82.38
491.221	93.38
491.439	105.38
491.657	101.38
491.874	86.38
492.092	86.38
492.31	106.38
492.527	98.38
492.745	92.38
492.963	81.38
493.18	94.38
493.398	85.38
493.615	93.38
493.833	99.38
494.05	83.38
494.268	100.38
494.485	89.38
494.703	77.38
494.92	93.38
495.138	91.38
495.355	86.38
495.573	81.38
495.79	81.38
496.008	89.38
496.225	103.38
496.442	89.38
496.66	88.38
496.877	89.38
497.094	101.38
497.312	92.38
497.529	89.38
497.746	80.38
497.963	94.38
498.181	86.38
498.398	93.38
498.615	114.38
498.832	100.38
499.049	84.38
499.267	83.38
499.484	93.38
499.701	105.38
499.918	103.38
500.135	73.38
500.352	84.38
500.569	113.38
500.786	99.38
501.003	85.38
501.22	82.38
501.437	93.38
501.654	98.38
501.871	94.38
502.088	100.38
502.305	108.38
502.522	91.38
502.739	84.38
502.956	97.38
503.172	95.38
503.389	98.38
503.606	119.38
503.823	85.38
504.04	77.38
504.256	78.38
504.473	90.38
504.69	86.38
504.907	91.38
505.123	94.38
505.34	75.38
505.557	77.38
505.773	94.38
505.99	91.38
506.207	71.38
506.423	84.38
506.64	91.38
506.856	91.38
507.073	97.38
507.289	90.38
507.506	83.38
507.722	99.38
507.939	99.38
508.155	69.38
508.372	88.38
508.588	95.38
508.805	99.38
509.021	110.38
509.238	97.38
509.454	100.38
509.67	104.38
509.887	96.38
510.103	110.38
510.319	178.38
510.536	587.38
510.752	1791.38
510.968	520.38
511.184	150.38
511.401	104.38
511.617	99.38
511.833	94.38
512.049	95.38
512.265	84.38
512.481	82.38
512.698	92.38
512.914	79.38
513.13	93.38
513.346	106.38
513.562	88.38
513.778	82.38
513.994	89.38
514.21	114.38
514.426	125.38
514.642	105.38
514.858	101.38
515.074	125.38
