Data from Circ_1989_H10_HRD10591_00049.txt Node
Date: Wed Jan 03 12:01:31 EST 2024
User: Yrep
Spectrometer: HR+D1059
Trigger mode: 1
Integration Time (sec): 1.000000E-1
Scans to average: 1
Electric dark correction enabled: true
Nonlinearity correction enabled: false
Boxcar width: 0
XAxis mode: Wavelengths
Number of Pixels in Spectrum: 2048
>>>>>Begin Spectral Data<<<<<
223.165	-29.81
223.4	-29.81
223.635	-29.81
223.869	-22.81
224.104	-21.81
224.338	-17.81
224.573	-8.81
224.808	-6.81
225.042	3.19
225.277	7.19
225.511	4.19
225.746	17.19
225.98	4.19
226.215	5.19
226.449	15.19
226.683	17.19
226.918	18.19
227.152	16.19
227.387	40.19
227.621	28.19
227.856	35.19
228.09	44.19
228.324	48.19
228.559	50.19
228.793	68.19
229.027	54.19
229.262	61.19
229.496	82.19
229.73	76.19
229.964	84.19
230.199	80.19
230.433	63.19
230.667	78.19
230.901	64.19
231.136	78.19
231.37	84.19
231.604	70.19
231.838	78.19
232.072	88.19
232.306	93.19
232.541	96.19
232.775	73.19
233.009	93.19
233.243	89.19
233.477	76.19
233.711	89.19
233.945	68.19
234.179	83.19
234.413	73.19
234.647	68.19
234.881	86.19
235.115	70.19
235.349	75.19
235.583	88.19
235.817	84.19
236.051	68.19
236.285	78.19
236.519	88.19
236.753	80.19
236.987	65.19
237.221	71.19
237.455	84.19
237.689	78.19
237.922	72.19
238.156	65.19
238.39	80.19
238.624	72.19
238.858	71.19
239.091	78.19
239.325	68.19
239.559	81.19
239.793	70.19
240.027	77.19
240.26	70.19
240.494	89.19
240.728	78.19
240.961	86.19
241.195	73.19
241.429	74.19
241.662	92.19
241.896	71.19
242.13	85.19
242.363	71.19
242.597	77.19
242.83	75.19
243.064	69.19
243.298	78.19
243.531	96.19
243.765	80.19
243.998	71.19
244.232	71.19
244.465	96.19
244.699	85.19
244.932	72.19
245.166	74.19
245.399	83.19
245.633	72.19
245.866	65.19
246.099	72.19
246.333	80.19
246.566	72.19
246.8	79.19
247.033	79.19
247.266	73.19
247.5	87.19
247.733	82.19
247.966	85.19
248.2	92.19
248.433	66.19
248.666	69.19
248.899	55.19
249.133	85.19
249.366	105.19
249.599	91.19
249.832	88.19
250.066	86.19
250.299	82.19
250.532	81.19
250.765	84.19
250.998	77.19
251.231	74.19
251.465	86.19
251.698	71.19
251.931	86.19
252.164	63.19
252.397	76.19
252.63	96.19
252.863	68.19
253.096	68.19
253.329	83.19
253.562	89.19
253.795	83.19
254.028	87.19
254.261	77.19
254.494	100.19
254.727	90.19
254.96	84.19
255.193	56.19
255.426	73.19
255.659	79.19
255.892	71.19
256.124	72.19
256.357	89.19
256.59	81.19
256.823	79.19
257.056	85.19
257.289	86.19
257.521	92.19
257.754	94.19
257.987	90.19
258.22	74.19
258.452	82.19
258.685	72.19
258.918	88.19
259.151	85.19
259.383	82.19
259.616	90.19
259.849	86.19
260.081	88.19
260.314	101.19
260.547	75.19
260.779	92.19
261.012	104.19
261.244	90.19
261.477	89.19
261.71	87.19
261.942	93.19
262.175	104.19
262.407	100.19
262.64	84.19
262.872	71.19
263.105	62.19
263.337	86.19
263.57	86.19
263.802	70.19
264.035	93.19
264.267	94.19
264.499	88.19
264.732	64.19
264.964	73.19
265.197	94.19
265.429	72.19
265.661	83.19
265.894	72.19
266.126	80.19
266.358	89.19
266.591	92.19
266.823	78.19
267.055	92.19
267.287	66.19
267.52	78.19
267.752	80.19
267.984	80.19
268.216	78.19
268.448	92.19
268.681	88.19
268.913	93.19
269.145	88.19
269.377	64.19
269.609	84.19
269.841	79.19
270.073	77.19
270.306	103.19
270.538	73.19
270.77	85.19
271.002	70.19
271.234	90.19
271.466	92.19
271.698	79.19
271.93	82.19
272.162	85.19
272.394	86.19
272.626	80.19
272.858	81.19
273.09	85.19
273.322	79.19
273.553	76.19
273.785	95.19
274.017	82.19
274.249	85.19
274.481	88.19
274.713	90.19
274.945	90.19
275.176	88.19
275.408	99.19
275.64	94.19
275.872	97.19
276.104	96.19
276.335	88.19
276.567	109.19
276.799	110.19
277.031	114.19
277.262	117.19
277.494	98.19
277.726	94.19
277.957	86.19
278.189	85.19
278.421	79.19
278.652	77.19
278.884	84.19
279.115	84.19
279.347	92.19
279.579	88.19
279.81	74.19
280.042	124.19
280.273	122.19
280.505	106.19
280.736	96.19
280.968	97.19
281.199	81.19
281.431	94.19
281.662	86.19
281.894	83.19
282.125	99.19
282.356	113.19
282.588	117.19
282.819	106.19
283.051	87.19
283.282	92.19
283.513	98.19
283.745	86.19
283.976	74.19
284.207	82.19
284.439	80.19
284.67	84.19
284.901	89.19
285.132	91.19
285.364	92.19
285.595	82.19
285.826	81.19
286.057	98.19
286.288	92.19
286.52	96.19
286.751	102.19
286.982	90.19
287.213	78.19
287.444	85.19
287.675	94.19
287.906	86.19
288.138	90.19
288.369	97.19
288.6	87.19
288.831	74.19
289.062	77.19
289.293	92.19
289.524	67.19
289.755	65.19
289.986	71.19
290.217	93.19
290.448	84.19
290.679	87.19
290.91	91.19
291.141	90.19
291.371	87.19
291.602	81.19
291.833	77.19
292.064	79.19
292.295	95.19
292.526	88.19
292.757	100.19
292.987	84.19
293.218	89.19
293.449	84.19
293.68	96.19
293.91	72.19
294.141	85.19
294.372	99.19
294.603	94.19
294.833	95.19
295.064	97.19
295.295	94.19
295.525	97.19
295.756	104.19
295.987	113.19
296.217	112.19
296.448	100.19
296.679	106.19
296.909	95.19
297.14	82.19
297.37	96.19
297.601	95.19
297.831	86.19
298.062	90.19
298.292	91.19
298.523	91.19
298.753	95.19
298.984	100.19
299.214	97.19
299.445	96.19
299.675	85.19
299.905	81.19
300.136	104.19
300.366	74.19
300.597	95.19
300.827	101.19
301.057	95.19
301.288	113.19
301.518	94.19
301.748	77.19
301.979	90.19
302.209	92.19
302.439	95.19
302.669	101.19
302.9	88.19
303.13	96.19
303.36	81.19
303.59	82.19
303.82	100.19
304.051	92.19
304.281	90.19
304.511	96.19
304.741	90.19
304.971	97.19
305.201	77.19
305.431	99.19
305.661	97.19
305.891	93.19
306.121	103.19
306.352	94.19
306.582	117.19
306.812	108.19
307.042	103.19
307.272	119.19
307.502	116.19
307.731	117.19
307.961	94.19
308.191	94.19
308.421	98.19
308.651	94.19
308.881	98.19
309.111	93.19
309.341	98.19
309.571	87.19
309.8	86.19
310.03	87.19
310.26	101.19
310.49	89.19
310.72	92.19
310.949	106.19
311.179	102.19
311.409	90.19
311.639	83.19
311.868	104.19
312.098	83.19
312.328	106.19
312.557	100.19
312.787	92.19
313.017	103.19
313.246	93.19
313.476	88.19
313.706	93.19
313.935	90.19
314.165	101.19
314.394	103.19
314.624	83.19
314.853	96.19
315.083	94.19
315.312	88.19
315.542	90.19
315.771	83.19
316.001	93.19
316.23	93.19
316.46	97.19
316.689	76.19
316.919	93.19
317.148	85.19
317.377	101.19
317.607	94.19
317.836	88.19
318.065	98.19
318.295	93.19
318.524	93.19
318.753	89.19
318.983	91.19
319.212	98.19
319.441	80.19
319.67	103.19
319.9	101.19
320.129	76.19
320.358	97.19
320.587	92.19
320.816	122.19
321.046	108.19
321.275	104.19
321.504	95.19
321.733	96.19
321.962	98.19
322.191	100.19
322.42	97.19
322.649	103.19
322.878	107.19
323.108	114.19
323.337	114.19
323.566	122.19
323.795	124.19
324.024	178.19
324.253	335.19
324.482	668.19
324.71	1369.19
324.939	1830.19
325.168	679.19
325.397	201.19
325.626	149.19
325.855	128.19
326.084	118.19
326.313	117.19
326.542	136.19
326.77	202.19
326.999	409.19
327.228	787.19
327.457	1466.19
327.686	1120.19
327.914	349.19
328.143	251.19
328.372	285.19
328.6	190.19
328.829	129.19
329.058	133.19
329.287	126.19
329.515	125.19
329.744	146.19
329.972	216.19
330.201	365.19
330.43	506.19
330.658	256.19
330.887	161.19
331.115	115.19
331.344	101.19
331.572	102.19
331.801	99.19
332.03	122.19
332.258	99.19
332.486	92.19
332.715	91.19
332.943	88.19
333.172	94.19
333.4	109.19
333.629	109.19
333.857	133.19
334.085	204.19
334.314	360.19
334.542	620.19
334.771	576.19
334.999	211.19
335.227	114.19
335.455	107.19
335.684	100.19
335.912	98.19
336.14	94.19
336.369	116.19
336.597	93.19
336.825	106.19
337.053	94.19
337.281	98.19
337.51	88.19
337.738	88.19
337.966	94.19
338.194	95.19
338.422	86.19
338.65	99.19
338.878	82.19
339.106	98.19
339.334	94.19
339.562	78.19
339.79	86.19
340.018	92.19
340.246	88.19
340.474	85.19
340.702	70.19
340.93	78.19
341.158	98.19
341.386	82.19
341.614	95.19
341.842	99.19
342.07	88.19
342.298	101.19
342.526	90.19
342.754	80.19
342.981	98.19
343.209	85.19
343.437	117.19
343.665	102.19
343.893	104.19
344.12	97.19
344.348	100.19
344.576	85.19
344.804	85.19
345.031	100.19
345.259	80.19
345.487	85.19
345.714	103.19
345.942	88.19
346.17	89.19
346.397	88.19
346.625	87.19
346.853	80.19
347.08	91.19
347.308	86.19
347.535	84.19
347.763	105.19
347.99	89.19
348.218	104.19
348.445	103.19
348.673	101.19
348.9	106.19
349.128	94.19
349.355	79.19
349.583	90.19
349.81	87.19
350.037	106.19
350.265	89.19
350.492	85.19
350.72	78.19
350.947	80.19
351.174	101.19
351.402	109.19
351.629	101.19
351.856	103.19
352.083	106.19
352.311	110.19
352.538	105.19
352.765	112.19
352.992	111.19
353.22	100.19
353.447	102.19
353.674	95.19
353.901	98.19
354.128	102.19
354.355	97.19
354.583	100.19
354.81	98.19
355.037	96.19
355.264	97.19
355.491	101.19
355.718	93.19
355.945	101.19
356.172	93.19
356.399	88.19
356.626	105.19
356.853	98.19
357.08	103.19
357.307	93.19
357.534	93.19
357.761	85.19
357.988	104.19
358.215	98.19
358.441	83.19
358.668	78.19
358.895	98.19
359.122	80.19
359.349	99.19
359.576	93.19
359.802	81.19
360.029	99.19
360.256	102.19
360.483	83.19
360.709	87.19
360.936	102.19
361.163	89.19
361.39	109.19
361.616	99.19
361.843	99.19
362.07	96.19
362.296	84.19
362.523	84.19
362.749	92.19
362.976	79.19
363.203	106.19
363.429	86.19
363.656	85.19
363.882	84.19
364.109	88.19
364.335	86.19
364.562	89.19
364.788	93.19
365.015	88.19
365.241	100.19
365.468	109.19
365.694	102.19
365.92	86.19
366.147	97.19
366.373	87.19
366.599	87.19
366.826	92.19
367.052	78.19
367.278	98.19
367.505	86.19
367.731	84.19
367.957	101.19
368.184	97.19
368.41	98.19
368.636	95.19
368.862	101.19
369.089	109.19
369.315	102.19
369.541	93.19
369.767	93.19
369.993	81.19
370.219	85.19
370.445	99.19
370.672	76.19
370.898	90.19
371.124	78.19
371.35	71.19
371.576	103.19
371.802	92.19
372.028	88.19
372.254	74.19
372.48	97.19
372.706	72.19
372.932	83.19
373.158	92.19
373.384	93.19
373.61	109.19
373.835	81.19
374.061	91.19
374.287	88.19
374.513	93.19
374.739	88.19
374.965	85.19
375.191	103.19
375.416	92.19
375.642	98.19
375.868	91.19
376.094	86.19
376.319	85.19
376.545	93.19
376.771	88.19
376.997	87.19
377.222	83.19
377.448	92.19
377.674	93.19
377.899	86.19
378.125	86.19
378.35	82.19
378.576	95.19
378.802	87.19
379.027	82.19
379.253	86.19
379.478	91.19
379.704	89.19
379.929	93.19
380.155	106.19
380.38	109.19
380.606	94.19
380.831	87.19
381.057	102.19
381.282	77.19
381.507	107.19
381.733	95.19
381.958	91.19
382.184	102.19
382.409	94.19
382.634	109.19
382.86	100.19
383.085	98.19
383.31	83.19
383.535	108.19
383.761	102.19
383.986	112.19
384.211	104.19
384.436	95.19
384.662	120.19
384.887	104.19
385.112	112.19
385.337	112.19
385.562	97.19
385.787	89.19
386.013	98.19
386.238	106.19
386.463	116.19
386.688	114.19
386.913	105.19
387.138	102.19
387.363	89.19
387.588	96.19
387.813	108.19
388.038	93.19
388.263	94.19
388.488	116.19
388.713	108.19
388.938	96.19
389.163	97.19
389.387	92.19
389.612	103.19
389.837	85.19
390.062	84.19
390.287	89.19
390.512	82.19
390.736	97.19
390.961	78.19
391.186	84.19
391.411	87.19
391.636	94.19
391.86	90.19
392.085	90.19
392.31	81.19
392.534	88.19
392.759	81.19
392.984	80.19
393.208	94.19
393.433	87.19
393.658	105.19
393.882	83.19
394.107	81.19
394.331	88.19
394.556	74.19
394.78	96.19
395.005	65.19
395.229	84.19
395.454	83.19
395.678	86.19
395.903	88.19
396.127	87.19
396.352	99.19
396.576	95.19
396.801	92.19
397.025	86.19
397.249	96.19
397.474	98.19
397.698	94.19
397.922	90.19
398.147	87.19
398.371	94.19
398.595	84.19
398.82	86.19
399.044	87.19
399.268	93.19
399.492	92.19
399.717	87.19
399.941	96.19
400.165	89.19
400.389	82.19
400.613	92.19
400.837	85.19
401.062	80.19
401.286	103.19
401.51	92.19
401.734	85.19
401.958	101.19
402.182	110.19
402.406	131.19
402.63	112.19
402.854	88.19
403.078	77.19
403.302	96.19
403.526	88.19
403.75	81.19
403.974	92.19
404.198	99.19
404.422	71.19
404.645	82.19
404.869	101.19
405.093	97.19
405.317	112.19
405.541	116.19
405.765	85.19
405.988	102.19
406.212	150.19
406.436	173.19
406.66	124.19
406.883	101.19
407.107	85.19
407.331	85.19
407.555	93.19
407.778	95.19
408.002	105.19
408.226	87.19
408.449	85.19
408.673	89.19
408.896	92.19
409.12	103.19
409.344	99.19
409.567	85.19
409.791	102.19
410.014	109.19
410.238	86.19
410.461	94.19
410.685	99.19
410.908	105.19
411.132	91.19
411.355	89.19
411.578	95.19
411.802	91.19
412.025	92.19
412.249	84.19
412.472	90.19
412.695	101.19
412.919	108.19
413.142	88.19
413.365	87.19
413.589	82.19
413.812	96.19
414.035	90.19
414.258	77.19
414.482	84.19
414.705	84.19
414.928	93.19
415.151	85.19
415.374	100.19
415.597	76.19
415.821	106.19
416.044	93.19
416.267	102.19
416.49	88.19
416.713	80.19
416.936	96.19
417.159	97.19
417.382	93.19
417.605	100.19
417.828	98.19
418.051	92.19
418.274	86.19
418.497	88.19
418.72	82.19
418.943	92.19
419.166	91.19
419.389	71.19
419.611	104.19
419.834	98.19
420.057	94.19
420.28	96.19
420.503	98.19
420.726	80.19
420.948	94.19
421.171	89.19
421.394	93.19
421.617	89.19
421.839	86.19
422.062	76.19
422.285	87.19
422.507	95.19
422.73	96.19
422.953	101.19
423.175	90.19
423.398	70.19
423.621	82.19
423.843	86.19
424.066	85.19
424.288	81.19
424.511	96.19
424.733	99.19
424.956	108.19
425.178	98.19
425.401	101.19
425.623	104.19
425.846	97.19
426.068	94.19
426.291	94.19
426.513	84.19
426.735	83.19
426.958	85.19
427.18	104.19
427.402	131.19
427.625	164.19
427.847	144.19
428.069	152.19
428.292	104.19
428.514	94.19
428.736	94.19
428.958	88.19
429.181	70.19
429.403	79.19
429.625	87.19
429.847	90.19
430.069	96.19
430.292	96.19
430.514	83.19
430.736	90.19
430.958	81.19
431.18	73.19
431.402	79.19
431.624	83.19
431.846	87.19
432.068	86.19
432.29	79.19
432.512	88.19
432.734	84.19
432.956	89.19
433.178	101.19
433.4	90.19
433.622	95.19
433.844	103.19
434.066	93.19
434.287	80.19
434.509	86.19
434.731	86.19
434.953	77.19
435.175	96.19
435.397	78.19
435.618	97.19
435.84	108.19
436.062	118.19
436.284	100.19
436.505	104.19
436.727	99.19
436.949	89.19
437.17	84.19
437.392	78.19
437.614	77.19
437.835	99.19
438.057	117.19
438.278	97.19
438.5	94.19
438.721	128.19
438.943	101.19
439.165	94.19
439.386	84.19
439.608	92.19
439.829	97.19
440.05	117.19
440.272	146.19
440.493	108.19
440.715	78.19
440.936	81.19
441.158	91.19
441.379	85.19
441.6	84.19
441.822	92.19
442.043	87.19
442.264	94.19
442.486	93.19
442.707	103.19
442.928	92.19
443.149	116.19
443.371	123.19
443.592	95.19
443.813	99.19
444.034	97.19
444.255	77.19
444.476	79.19
444.698	89.19
444.919	93.19
445.14	123.19
445.361	116.19
445.582	106.19
445.803	116.19
446.024	125.19
446.245	122.19
446.466	100.19
446.687	85.19
446.908	92.19
447.129	86.19
447.35	69.19
447.571	84.19
447.792	77.19
448.013	104.19
448.234	106.19
448.455	98.19
448.675	104.19
448.896	112.19
449.117	97.19
449.338	98.19
449.559	108.19
449.779	120.19
450	85.19
450.221	94.19
450.442	88.19
450.662	87.19
450.883	110.19
451.104	124.19
451.324	88.19
451.545	96.19
451.766	96.19
451.986	80.19
452.207	81.19
452.428	89.19
452.648	95.19
452.869	87.19
453.089	88.19
453.31	104.19
453.53	93.19
453.751	107.19
453.971	102.19
454.192	97.19
454.412	82.19
454.633	83.19
454.853	94.19
455.073	88.19
455.294	98.19
455.514	99.19
455.734	80.19
455.955	73.19
456.175	80.19
456.395	82.19
456.616	65.19
456.836	88.19
457.056	96.19
457.276	84.19
457.497	78.19
457.717	86.19
457.937	69.19
458.157	94.19
458.377	90.19
458.598	105.19
458.818	125.19
459.038	140.19
459.258	110.19
459.478	88.19
459.698	90.19
459.918	84.19
460.138	90.19
460.358	93.19
460.578	83.19
460.798	86.19
461.018	79.19
461.238	93.19
461.458	88.19
461.678	87.19
461.898	90.19
462.118	85.19
462.338	80.19
462.558	84.19
462.777	78.19
462.997	86.19
463.217	90.19
463.437	98.19
463.657	92.19
463.876	74.19
464.096	80.19
464.316	101.19
464.536	86.19
464.755	90.19
464.975	89.19
465.195	146.19
465.414	145.19
465.634	102.19
465.854	84.19
466.073	89.19
466.293	83.19
466.512	84.19
466.732	82.19
466.951	88.19
467.171	89.19
467.391	97.19
467.61	108.19
467.829	117.19
468.049	241.19
468.268	329.19
468.488	126.19
468.707	101.19
468.927	85.19
469.146	77.19
469.365	90.19
469.585	102.19
469.804	89.19
470.023	89.19
470.243	89.19
470.462	101.19
470.681	100.19
470.901	94.19
471.12	100.19
471.339	99.19
471.558	85.19
471.777	110.19
471.997	162.19
472.216	453.19
472.435	917.19
472.654	245.19
472.873	103.19
473.092	104.19
473.311	94.19
473.53	111.19
473.749	91.19
473.968	96.19
474.187	90.19
474.406	95.19
474.625	98.19
474.844	84.19
475.063	78.19
475.282	97.19
475.501	86.19
475.72	85.19
475.939	95.19
476.158	96.19
476.377	84.19
476.596	76.19
476.814	90.19
477.033	101.19
477.252	90.19
477.471	94.19
477.69	92.19
477.908	104.19
478.127	94.19
478.346	79.19
478.564	89.19
478.783	100.19
479.002	94.19
479.22	86.19
479.439	109.19
479.658	86.19
479.876	96.19
480.095	92.19
480.313	100.19
480.532	121.19
480.751	152.19
480.969	441.19
481.188	1616.19
481.406	932.19
481.624	177.19
481.843	126.19
482.061	100.19
482.28	101.19
482.498	85.19
482.717	93.19
482.935	93.19
483.153	87.19
483.372	93.19
483.59	89.19
483.808	82.19
484.027	99.19
484.245	83.19
484.463	91.19
484.681	112.19
484.9	85.19
485.118	88.19
485.336	96.19
485.554	96.19
485.772	87.19
485.99	102.19
486.209	113.19
486.427	93.19
486.645	103.19
486.863	107.19
487.081	94.19
487.299	90.19
487.517	99.19
487.735	86.19
487.953	92.19
488.171	100.19
488.389	89.19
488.607	98.19
488.825	106.19
489.043	94.19
489.261	95.19
489.479	85.19
489.696	72.19
489.914	94.19
490.132	92.19
490.35	76.19
490.568	85.19
490.786	84.19
491.003	83.19
491.221	83.19
491.439	86.19
491.657	92.19
491.874	96.19
492.092	83.19
492.31	84.19
492.527	93.19
492.745	101.19
492.963	103.19
493.18	103.19
493.398	98.19
493.615	90.19
493.833	88.19
494.05	90.19
494.268	90.19
494.485	90.19
494.703	88.19
494.92	102.19
495.138	89.19
495.355	87.19
495.573	91.19
495.79	94.19
496.008	90.19
496.225	93.19
496.442	93.19
496.66	91.19
496.877	87.19
497.094	95.19
497.312	89.19
497.529	105.19
497.746	108.19
497.963	84.19
498.181	93.19
498.398	99.19
498.615	90.19
498.832	90.19
499.049	95.19
499.267	78.19
499.484	88.19
499.701	87.19
499.918	89.19
500.135	87.19
500.352	80.19
500.569	95.19
500.786	85.19
501.003	68.19
501.22	92.19
501.437	92.19
501.654	97.19
501.871	89.19
502.088	88.19
502.305	76.19
502.522	91.19
502.739	85.19
502.956	81.19
503.172	101.19
503.389	94.19
503.606	95.19
503.823	102.19
504.04	88.19
504.256	73.19
504.473	92.19
504.69	87.19
504.907	91.19
505.123	101.19
505.34	78.19
505.557	106.19
505.773	102.19
505.99	94.19
506.207	100.19
506.423	89.19
506.64	95.19
506.856	88.19
507.073	77.19
507.289	89.19
507.506	90.19
507.722	101.19
507.939	103.19
508.155	98.19
508.372	93.19
508.588	91.19
508.805	97.19
509.021	111.19
509.238	104.19
509.454	104.19
509.67	97.19
509.887	101.19
510.103	118.19
510.319	178.19
510.536	589.19
510.752	1789.19
510.968	510.19
511.184	136.19
511.401	87.19
511.617	94.19
511.833	91.19
512.049	93.19
512.265	81.19
512.481	76.19
512.698	79.19
512.914	89.19
513.13	103.19
513.346	92.19
513.562	91.19
513.778	109.19
513.994	72.19
514.21	89.19
514.426	99.19
514.642	125.19
514.858	117.19
515.074	138.19
515.29	346.19
515.506	1128.19
