Data from Circ_1989_H10_HRD10591_00048.txt Node
Date: Wed Jan 03 12:01:31 EST 2024
User: Yrep
Spectrometer: HR+D1059
Trigger mode: 1
Integration Time (sec): 1.000000E-1
Scans to average: 1
Electric dark correction enabled: true
Nonlinearity correction enabled: false
Boxcar width: 0
XAxis mode: Wavelengths
Number of Pixels in Spectrum: 2048
>>>>>Begin Spectral Data<<<<<
223.165	-16.94
223.4	-16.94
223.635	-16.94
223.869	-4.94
224.104	-9.94
224.338	-21.94
224.573	-15.94
224.808	-12.94
225.042	-21.94
225.277	-9.94
225.511	-0.94
225.746	5.06
225.98	8.06
226.215	8.06
226.449	12.06
226.683	32.06
226.918	27.06
227.152	23.06
227.387	37.06
227.621	32.06
227.856	68.06
228.09	52.06
228.324	54.06
228.559	59.06
228.793	73.06
229.027	66.06
229.262	76.06
229.496	84.06
229.73	94.06
229.964	86.06
230.199	71.06
230.433	65.06
230.667	75.06
230.901	74.06
231.136	82.06
231.37	85.06
231.604	88.06
231.838	84.06
232.072	71.06
232.306	71.06
232.541	80.06
232.775	85.06
233.009	76.06
233.243	82.06
233.477	74.06
233.711	106.06
233.945	85.06
234.179	78.06
234.413	66.06
234.647	71.06
234.881	73.06
235.115	90.06
235.349	83.06
235.583	58.06
235.817	76.06
236.051	75.06
236.285	79.06
236.519	76.06
236.753	80.06
236.987	85.06
237.221	77.06
237.455	94.06
237.689	94.06
237.922	57.06
238.156	75.06
238.39	67.06
238.624	69.06
238.858	75.06
239.091	66.06
239.325	71.06
239.559	74.06
239.793	80.06
240.027	82.06
240.26	76.06
240.494	82.06
240.728	72.06
240.961	80.06
241.195	81.06
241.429	79.06
241.662	83.06
241.896	78.06
242.13	81.06
242.363	83.06
242.597	82.06
242.83	69.06
243.064	79.06
243.298	78.06
243.531	78.06
243.765	76.06
243.998	86.06
244.232	86.06
244.465	72.06
244.699	93.06
244.932	80.06
245.166	98.06
245.399	73.06
245.633	78.06
245.866	73.06
246.099	73.06
246.333	84.06
246.566	86.06
246.8	91.06
247.033	78.06
247.266	87.06
247.5	81.06
247.733	72.06
247.966	82.06
248.2	80.06
248.433	76.06
248.666	90.06
248.899	77.06
249.133	76.06
249.366	89.06
249.599	100.06
249.832	83.06
250.066	74.06
250.299	83.06
250.532	74.06
250.765	78.06
250.998	86.06
251.231	71.06
251.465	75.06
251.698	80.06
251.931	92.06
252.164	101.06
252.397	84.06
252.63	85.06
252.863	70.06
253.096	84.06
253.329	95.06
253.562	86.06
253.795	86.06
254.028	82.06
254.261	87.06
254.494	84.06
254.727	92.06
254.96	96.06
255.193	90.06
255.426	78.06
255.659	95.06
255.892	95.06
256.124	92.06
256.357	92.06
256.59	99.06
256.823	84.06
257.056	68.06
257.289	68.06
257.521	83.06
257.754	88.06
257.987	89.06
258.22	84.06
258.452	91.06
258.685	87.06
258.918	90.06
259.151	88.06
259.383	83.06
259.616	95.06
259.849	70.06
260.081	94.06
260.314	75.06
260.547	83.06
260.779	73.06
261.012	80.06
261.244	85.06
261.477	103.06
261.71	85.06
261.942	107.06
262.175	112.06
262.407	86.06
262.64	82.06
262.872	72.06
263.105	84.06
263.337	89.06
263.57	87.06
263.802	91.06
264.035	90.06
264.267	80.06
264.499	91.06
264.732	80.06
264.964	83.06
265.197	99.06
265.429	82.06
265.661	96.06
265.894	89.06
266.126	86.06
266.358	83.06
266.591	71.06
266.823	73.06
267.055	90.06
267.287	74.06
267.52	82.06
267.752	86.06
267.984	89.06
268.216	77.06
268.448	90.06
268.681	111.06
268.913	83.06
269.145	97.06
269.377	89.06
269.609	87.06
269.841	74.06
270.073	92.06
270.306	83.06
270.538	74.06
270.77	84.06
271.002	81.06
271.234	81.06
271.466	94.06
271.698	86.06
271.93	96.06
272.162	86.06
272.394	87.06
272.626	86.06
272.858	85.06
273.09	87.06
273.322	82.06
273.553	94.06
273.785	76.06
274.017	85.06
274.249	91.06
274.481	80.06
274.713	90.06
274.945	86.06
275.176	82.06
275.408	90.06
275.64	105.06
275.872	83.06
276.104	82.06
276.335	99.06
276.567	101.06
276.799	108.06
277.031	125.06
277.262	116.06
277.494	100.06
277.726	100.06
277.957	94.06
278.189	85.06
278.421	96.06
278.652	76.06
278.884	87.06
279.115	83.06
279.347	75.06
279.579	75.06
279.81	99.06
280.042	124.06
280.273	114.06
280.505	111.06
280.736	86.06
280.968	84.06
281.199	90.06
281.431	80.06
281.662	84.06
281.894	82.06
282.125	96.06
282.356	116.06
282.588	121.06
282.819	113.06
283.051	91.06
283.282	87.06
283.513	105.06
283.745	84.06
283.976	86.06
284.207	96.06
284.439	79.06
284.67	85.06
284.901	86.06
285.132	104.06
285.364	85.06
285.595	99.06
285.826	91.06
286.057	81.06
286.288	80.06
286.52	84.06
286.751	81.06
286.982	105.06
287.213	92.06
287.444	83.06
287.675	79.06
287.906	74.06
288.138	90.06
288.369	90.06
288.6	96.06
288.831	84.06
289.062	80.06
289.293	90.06
289.524	93.06
289.755	83.06
289.986	94.06
290.217	102.06
290.448	74.06
290.679	96.06
290.91	90.06
291.141	82.06
291.371	88.06
291.602	102.06
291.833	90.06
292.064	89.06
292.295	85.06
292.526	75.06
292.757	80.06
292.987	88.06
293.218	88.06
293.449	83.06
293.68	97.06
293.91	101.06
294.141	99.06
294.372	91.06
294.603	85.06
294.833	87.06
295.064	76.06
295.295	79.06
295.525	103.06
295.756	115.06
295.987	112.06
296.217	127.06
296.448	114.06
296.679	96.06
296.909	96.06
297.14	88.06
297.37	106.06
297.601	94.06
297.831	73.06
298.062	102.06
298.292	99.06
298.523	99.06
298.753	87.06
298.984	77.06
299.214	95.06
299.445	96.06
299.675	97.06
299.905	94.06
300.136	99.06
300.366	102.06
300.597	86.06
300.827	92.06
301.057	102.06
301.288	107.06
301.518	100.06
301.748	89.06
301.979	88.06
302.209	89.06
302.439	105.06
302.669	98.06
302.9	89.06
303.13	84.06
303.36	91.06
303.59	107.06
303.82	106.06
304.051	86.06
304.281	91.06
304.511	109.06
304.741	95.06
304.971	78.06
305.201	86.06
305.431	87.06
305.661	83.06
305.891	97.06
306.121	86.06
306.352	93.06
306.582	99.06
306.812	103.06
307.042	107.06
307.272	117.06
307.502	101.06
307.731	111.06
307.961	104.06
308.191	99.06
308.421	91.06
308.651	94.06
308.881	92.06
309.111	96.06
309.341	87.06
309.571	90.06
309.8	92.06
310.03	109.06
310.26	98.06
310.49	104.06
310.72	100.06
310.949	105.06
311.179	104.06
311.409	101.06
311.639	91.06
311.868	96.06
312.098	94.06
312.328	100.06
312.557	97.06
312.787	101.06
313.017	94.06
313.246	89.06
313.476	80.06
313.706	90.06
313.935	81.06
314.165	107.06
314.394	102.06
314.624	87.06
314.853	92.06
315.083	96.06
315.312	88.06
315.542	85.06
315.771	92.06
316.001	74.06
316.23	83.06
316.46	104.06
316.689	91.06
316.919	102.06
317.148	96.06
317.377	102.06
317.607	106.06
317.836	108.06
318.065	112.06
318.295	98.06
318.524	92.06
318.753	90.06
318.983	90.06
319.212	95.06
319.441	110.06
319.67	107.06
319.9	74.06
320.129	91.06
320.358	80.06
320.587	90.06
320.816	105.06
321.046	100.06
321.275	98.06
321.504	106.06
321.733	88.06
321.962	98.06
322.191	101.06
322.42	101.06
322.649	113.06
322.878	112.06
323.108	106.06
323.337	104.06
323.566	134.06
323.795	136.06
324.024	187.06
324.253	286.06
324.482	634.06
324.71	1353.06
324.939	1787.06
325.168	652.06
325.397	210.06
325.626	128.06
325.855	116.06
326.084	114.06
326.313	119.06
326.542	145.06
326.77	186.06
326.999	371.06
327.228	767.06
327.457	1394.06
327.686	1120.06
327.914	349.06
328.143	266.06
328.372	264.06
328.6	176.06
328.829	108.06
329.058	118.06
329.287	122.06
329.515	124.06
329.744	144.06
329.972	223.06
330.201	350.06
330.43	479.06
330.658	250.06
330.887	163.06
331.115	127.06
331.344	95.06
331.572	121.06
331.801	87.06
332.03	105.06
332.258	101.06
332.486	96.06
332.715	88.06
332.943	89.06
333.172	116.06
333.4	110.06
333.629	122.06
333.857	142.06
334.085	201.06
334.314	365.06
334.542	633.06
334.771	579.06
334.999	193.06
335.227	111.06
335.455	115.06
335.684	110.06
335.912	95.06
336.14	88.06
336.369	103.06
336.597	103.06
336.825	114.06
337.053	108.06
337.281	102.06
337.51	91.06
337.738	90.06
337.966	87.06
338.194	76.06
338.422	79.06
338.65	95.06
338.878	94.06
339.106	95.06
339.334	96.06
339.562	94.06
339.79	94.06
340.018	80.06
340.246	105.06
340.474	102.06
340.702	85.06
340.93	82.06
341.158	106.06
341.386	97.06
341.614	96.06
341.842	104.06
342.07	80.06
342.298	87.06
342.526	90.06
342.754	99.06
342.981	91.06
343.209	86.06
343.437	107.06
343.665	81.06
343.893	96.06
344.12	78.06
344.348	92.06
344.576	91.06
344.804	94.06
345.031	89.06
345.259	89.06
345.487	102.06
345.714	94.06
345.942	81.06
346.17	106.06
346.397	98.06
346.625	99.06
346.853	92.06
347.08	90.06
347.308	94.06
347.535	96.06
347.763	95.06
347.99	89.06
348.218	112.06
348.445	100.06
348.673	99.06
348.9	107.06
349.128	99.06
349.355	99.06
349.583	92.06
349.81	88.06
350.037	93.06
350.265	82.06
350.492	89.06
350.72	92.06
350.947	107.06
351.174	95.06
351.402	104.06
351.629	96.06
351.856	84.06
352.083	98.06
352.311	100.06
352.538	102.06
352.765	107.06
352.992	111.06
353.22	107.06
353.447	95.06
353.674	96.06
353.901	102.06
354.128	106.06
354.355	93.06
354.583	94.06
354.81	103.06
355.037	104.06
355.264	98.06
355.491	97.06
355.718	91.06
355.945	86.06
356.172	110.06
356.399	82.06
356.626	101.06
356.853	74.06
357.08	95.06
357.307	102.06
357.534	92.06
357.761	101.06
357.988	108.06
358.215	115.06
358.441	106.06
358.668	81.06
358.895	90.06
359.122	87.06
359.349	86.06
359.576	98.06
359.802	90.06
360.029	109.06
360.256	96.06
360.483	90.06
360.709	86.06
360.936	95.06
361.163	97.06
361.39	88.06
361.616	89.06
361.843	82.06
362.07	107.06
362.296	82.06
362.523	80.06
362.749	83.06
362.976	84.06
363.203	82.06
363.429	90.06
363.656	84.06
363.882	90.06
364.109	92.06
364.335	87.06
364.562	92.06
364.788	92.06
365.015	91.06
365.241	91.06
365.468	111.06
365.694	99.06
365.92	94.06
366.147	101.06
366.373	84.06
366.599	91.06
366.826	91.06
367.052	96.06
367.278	96.06
367.505	84.06
367.731	83.06
367.957	82.06
368.184	92.06
368.41	99.06
368.636	111.06
368.862	127.06
369.089	93.06
369.315	96.06
369.541	86.06
369.767	80.06
369.993	94.06
370.219	84.06
370.445	89.06
370.672	82.06
370.898	91.06
371.124	91.06
371.35	94.06
371.576	91.06
371.802	93.06
372.028	84.06
372.254	91.06
372.48	86.06
372.706	94.06
372.932	97.06
373.158	87.06
373.384	87.06
373.61	91.06
373.835	112.06
374.061	87.06
374.287	101.06
374.513	75.06
374.739	98.06
374.965	74.06
375.191	88.06
375.416	87.06
375.642	102.06
375.868	100.06
376.094	102.06
376.319	92.06
376.545	88.06
376.771	106.06
376.997	88.06
377.222	87.06
377.448	101.06
377.674	84.06
377.899	78.06
378.125	82.06
378.35	94.06
378.576	83.06
378.802	98.06
379.027	94.06
379.253	101.06
379.478	72.06
379.704	96.06
379.929	89.06
380.155	90.06
380.38	97.06
380.606	105.06
380.831	95.06
381.057	89.06
381.282	91.06
381.507	87.06
381.733	98.06
381.958	102.06
382.184	92.06
382.409	89.06
382.634	92.06
382.86	105.06
383.085	94.06
383.31	91.06
383.535	97.06
383.761	106.06
383.986	92.06
384.211	98.06
384.436	99.06
384.662	89.06
384.887	99.06
385.112	119.06
385.337	104.06
385.562	100.06
385.787	107.06
386.013	114.06
386.238	122.06
386.463	93.06
386.688	106.06
386.913	102.06
387.138	110.06
387.363	119.06
387.588	103.06
387.813	122.06
388.038	110.06
388.263	109.06
388.488	121.06
388.713	112.06
388.938	96.06
389.163	95.06
389.387	96.06
389.612	92.06
389.837	100.06
390.062	94.06
390.287	91.06
390.512	101.06
390.736	80.06
390.961	91.06
391.186	95.06
391.411	89.06
391.636	100.06
391.86	79.06
392.085	94.06
392.31	87.06
392.534	90.06
392.759	89.06
392.984	94.06
393.208	90.06
393.433	98.06
393.658	90.06
393.882	95.06
394.107	89.06
394.331	104.06
394.556	102.06
394.78	96.06
395.005	80.06
395.229	91.06
395.454	95.06
395.678	90.06
395.903	74.06
396.127	88.06
396.352	80.06
396.576	89.06
396.801	98.06
397.025	106.06
397.249	98.06
397.474	87.06
397.698	90.06
397.922	89.06
398.147	87.06
398.371	94.06
398.595	90.06
398.82	87.06
399.044	94.06
399.268	99.06
399.492	87.06
399.717	83.06
399.941	75.06
400.165	108.06
400.389	102.06
400.613	84.06
400.837	99.06
401.062	96.06
401.286	92.06
401.51	86.06
401.734	88.06
401.958	80.06
402.182	122.06
402.406	143.06
402.63	108.06
402.854	78.06
403.078	87.06
403.302	84.06
403.526	101.06
403.75	84.06
403.974	81.06
404.198	80.06
404.422	82.06
404.645	91.06
404.869	86.06
405.093	111.06
405.317	103.06
405.541	100.06
405.765	91.06
405.988	103.06
406.212	154.06
406.436	184.06
406.66	125.06
406.883	99.06
407.107	99.06
407.331	88.06
407.555	103.06
407.778	88.06
408.002	79.06
408.226	80.06
408.449	87.06
408.673	93.06
408.896	85.06
409.12	106.06
409.344	96.06
409.567	84.06
409.791	94.06
410.014	83.06
410.238	92.06
410.461	81.06
410.685	84.06
410.908	94.06
411.132	108.06
411.355	90.06
411.578	87.06
411.802	104.06
412.025	86.06
412.249	82.06
412.472	97.06
412.695	104.06
412.919	95.06
413.142	82.06
413.365	82.06
413.589	73.06
413.812	98.06
414.035	76.06
414.258	95.06
414.482	89.06
414.705	95.06
414.928	83.06
415.151	87.06
415.374	101.06
415.597	88.06
415.821	93.06
416.044	95.06
416.267	84.06
416.49	86.06
416.713	97.06
416.936	82.06
417.159	93.06
417.382	103.06
417.605	86.06
417.828	98.06
418.051	106.06
418.274	96.06
418.497	85.06
418.72	91.06
418.943	88.06
419.166	82.06
419.389	82.06
419.611	82.06
419.834	80.06
420.057	91.06
420.28	74.06
420.503	86.06
420.726	106.06
420.948	99.06
421.171	102.06
421.394	82.06
421.617	78.06
421.839	90.06
422.062	91.06
422.285	85.06
422.507	89.06
422.73	101.06
422.953	80.06
423.175	91.06
423.398	79.06
423.621	91.06
423.843	105.06
424.066	80.06
424.288	93.06
424.511	96.06
424.733	93.06
424.956	111.06
425.178	96.06
425.401	100.06
425.623	106.06
425.846	87.06
426.068	96.06
426.291	99.06
426.513	87.06
426.735	90.06
426.958	88.06
427.18	104.06
427.402	126.06
427.625	160.06
427.847	151.06
428.069	155.06
428.292	101.06
428.514	80.06
428.736	87.06
428.958	96.06
429.181	92.06
429.403	90.06
429.625	74.06
429.847	98.06
430.069	107.06
430.292	97.06
430.514	94.06
430.736	91.06
430.958	102.06
431.18	80.06
431.402	94.06
431.624	89.06
431.846	82.06
432.068	78.06
432.29	100.06
432.512	72.06
432.734	73.06
432.956	87.06
433.178	86.06
433.4	84.06
433.622	93.06
433.844	105.06
434.066	83.06
434.287	92.06
434.509	96.06
434.731	96.06
434.953	98.06
435.175	91.06
435.397	96.06
435.618	87.06
435.84	105.06
436.062	120.06
436.284	109.06
436.505	95.06
436.727	95.06
436.949	89.06
437.17	91.06
437.392	78.06
437.614	97.06
437.835	99.06
438.057	105.06
438.278	102.06
438.5	106.06
438.721	110.06
438.943	84.06
439.165	96.06
439.386	91.06
439.608	78.06
439.829	106.06
440.05	112.06
440.272	150.06
440.493	105.06
440.715	94.06
440.936	90.06
441.158	86.06
441.379	90.06
441.6	97.06
441.822	93.06
442.043	98.06
442.264	97.06
442.486	100.06
442.707	84.06
442.928	108.06
443.149	115.06
443.371	124.06
443.592	95.06
443.813	118.06
444.034	114.06
444.255	100.06
444.476	85.06
444.698	93.06
444.919	73.06
445.14	131.06
445.361	130.06
445.582	105.06
445.803	125.06
446.024	124.06
446.245	121.06
446.466	123.06
446.687	91.06
446.908	103.06
447.129	91.06
447.35	92.06
447.571	98.06
447.792	86.06
448.013	95.06
448.234	106.06
448.455	85.06
448.675	101.06
448.896	105.06
449.117	95.06
449.338	87.06
449.559	111.06
449.779	130.06
450	87.06
450.221	71.06
450.442	81.06
450.662	93.06
450.883	101.06
451.104	114.06
451.324	88.06
451.545	89.06
451.766	77.06
451.986	96.06
452.207	94.06
452.428	108.06
452.648	86.06
452.869	106.06
453.089	90.06
453.31	107.06
453.53	90.06
453.751	86.06
453.971	84.06
454.192	97.06
454.412	87.06
454.633	80.06
454.853	79.06
455.073	87.06
455.294	74.06
455.514	96.06
455.734	94.06
455.955	70.06
456.175	91.06
456.395	74.06
456.616	95.06
456.836	88.06
457.056	91.06
457.276	86.06
457.497	79.06
457.717	92.06
457.937	86.06
458.157	79.06
458.377	84.06
458.598	107.06
458.818	135.06
459.038	147.06
459.258	108.06
459.478	88.06
459.698	99.06
459.918	87.06
460.138	91.06
460.358	92.06
460.578	84.06
460.798	95.06
461.018	78.06
461.238	91.06
461.458	90.06
461.678	88.06
461.898	74.06
462.118	78.06
462.338	84.06
462.558	79.06
462.777	87.06
462.997	82.06
463.217	91.06
463.437	82.06
463.657	79.06
463.876	94.06
464.096	104.06
464.316	103.06
464.536	83.06
464.755	87.06
464.975	114.06
465.195	147.06
465.414	129.06
465.634	95.06
465.854	102.06
466.073	98.06
466.293	88.06
466.512	80.06
466.732	92.06
466.951	93.06
467.171	75.06
467.391	117.06
467.61	119.06
467.829	121.06
468.049	242.06
468.268	327.06
468.488	142.06
468.707	98.06
468.927	106.06
469.146	88.06
469.365	107.06
469.585	105.06
469.804	102.06
470.023	78.06
470.243	97.06
470.462	106.06
470.681	102.06
470.901	102.06
471.12	89.06
471.339	102.06
471.558	91.06
471.777	116.06
471.997	177.06
472.216	465.06
472.435	926.06
472.654	241.06
472.873	111.06
473.092	103.06
473.311	107.06
473.53	106.06
473.749	81.06
473.968	87.06
474.187	107.06
474.406	90.06
474.625	96.06
474.844	82.06
475.063	98.06
475.282	81.06
475.501	91.06
475.72	85.06
475.939	85.06
476.158	96.06
476.377	89.06
476.596	90.06
476.814	81.06
477.033	91.06
477.252	83.06
477.471	104.06
477.69	78.06
477.908	68.06
478.127	81.06
478.346	84.06
478.564	94.06
478.783	94.06
479.002	100.06
479.22	104.06
479.439	99.06
479.658	113.06
479.876	108.06
480.095	94.06
480.313	113.06
480.532	122.06
480.751	177.06
480.969	451.06
481.188	1607.06
481.406	914.06
481.624	176.06
481.843	106.06
482.061	96.06
482.28	98.06
482.498	94.06
482.717	94.06
482.935	92.06
483.153	96.06
483.372	85.06
483.59	89.06
483.808	94.06
484.027	91.06
484.245	97.06
484.463	83.06
484.681	94.06
484.9	89.06
485.118	96.06
485.336	101.06
485.554	98.06
485.772	109.06
485.99	107.06
486.209	108.06
486.427	99.06
486.645	102.06
486.863	110.06
487.081	97.06
487.299	90.06
487.517	89.06
487.735	89.06
487.953	91.06
488.171	86.06
488.389	89.06
488.607	96.06
488.825	93.06
489.043	89.06
489.261	96.06
489.479	78.06
489.696	95.06
489.914	90.06
490.132	84.06
490.35	86.06
490.568	82.06
490.786	80.06
491.003	84.06
491.221	81.06
491.439	86.06
491.657	89.06
491.874	87.06
492.092	97.06
492.31	102.06
492.527	99.06
492.745	100.06
492.963	82.06
493.18	91.06
493.398	98.06
493.615	101.06
493.833	80.06
494.05	90.06
494.268	88.06
494.485	87.06
494.703	88.06
494.92	85.06
495.138	84.06
495.355	89.06
495.573	102.06
495.79	106.06
496.008	85.06
496.225	91.06
496.442	94.06
496.66	99.06
496.877	85.06
497.094	103.06
497.312	90.06
497.529	90.06
497.746	94.06
497.963	87.06
498.181	80.06
498.398	90.06
498.615	103.06
498.832	93.06
499.049	102.06
499.267	97.06
499.484	100.06
499.701	94.06
499.918	88.06
500.135	81.06
500.352	89.06
500.569	89.06
500.786	90.06
501.003	98.06
501.22	83.06
501.437	98.06
501.654	98.06
501.871	103.06
502.088	112.06
502.305	92.06
502.522	93.06
502.739	84.06
502.956	92.06
503.172	79.06
503.389	93.06
503.606	99.06
503.823	112.06
504.04	112.06
504.256	84.06
504.473	86.06
504.69	101.06
504.907	99.06
505.123	86.06
505.34	93.06
505.557	87.06
505.773	94.06
505.99	98.06
506.207	95.06
506.423	91.06
506.64	94.06
506.856	96.06
507.073	91.06
507.289	88.06
507.506	101.06
507.722	110.06
507.939	107.06
508.155	100.06
508.372	103.06
508.588	89.06
508.805	93.06
509.021	91.06
509.238	96.06
509.454	103.06
509.67	99.06
509.887	110.06
510.103	131.06
510.319	178.06
510.536	583.06
510.752	1763.06
510.968	506.06
511.184	134.06
511.401	97.06
511.617	100.06
511.833	92.06
512.049	103.06
512.265	98.06
512.481	97.06
512.698	89.06
512.914	101.06
513.13	95.06
513.346	83.06
513.562	100.06
513.778	102.06
513.994	108.06
514.21	100.06
514.426	117.06
514.642	130.06
514.858	118.06
