Data from Circ_1989_H10_HRD10591_00014.txt Node
Date: Wed Jan 03 12:01:24 EST 2024
User: Yrep
Spectrometer: HR+D1059
Trigger mode: 1
Integration Time (sec): 1.000000E-1
Scans to average: 1
Electric dark correction enabled: true
Nonlinearity correction enabled: false
Boxcar width: 0
XAxis mode: Wavelengths
Number of Pixels in Spectrum: 2048
>>>>>Begin Spectral Data<<<<<
223.165	-12.75
223.4	-12.75
223.635	-12.75
223.869	-9.75
224.104	-5.75
224.338	-18.75
224.573	-21.75
224.808	-5.75
225.042	-10.75
225.277	-2.75
225.511	3.25
225.746	4.25
225.98	-1.75
226.215	14.25
226.449	-2.75
226.683	17.25
226.918	18.25
227.152	35.25
227.387	29.25
227.621	22.25
227.856	45.25
228.09	41.25
228.324	39.25
228.559	45.25
228.793	65.25
229.027	57.25
229.262	65.25
229.496	73.25
229.73	78.25
229.964	86.25
230.199	75.25
230.433	68.25
230.667	75.25
230.901	77.25
231.136	68.25
231.37	80.25
231.604	79.25
231.838	69.25
232.072	77.25
232.306	75.25
232.541	73.25
232.775	75.25
233.009	82.25
233.243	66.25
233.477	77.25
233.711	85.25
233.945	75.25
234.179	81.25
234.413	95.25
234.647	62.25
234.881	73.25
235.115	78.25
235.349	86.25
235.583	80.25
235.817	91.25
236.051	71.25
236.285	68.25
236.519	75.25
236.753	68.25
236.987	78.25
237.221	93.25
237.455	81.25
237.689	64.25
237.922	67.25
238.156	79.25
238.39	70.25
238.624	73.25
238.858	61.25
239.091	59.25
239.325	65.25
239.559	90.25
239.793	80.25
240.027	81.25
240.26	73.25
240.494	82.25
240.728	95.25
240.961	81.25
241.195	73.25
241.429	84.25
241.662	66.25
241.896	63.25
242.13	75.25
242.363	70.25
242.597	79.25
242.83	79.25
243.064	76.25
243.298	89.25
243.531	75.25
243.765	60.25
243.998	82.25
244.232	62.25
244.465	83.25
244.699	64.25
244.932	77.25
245.166	71.25
245.399	67.25
245.633	73.25
245.866	69.25
246.099	77.25
246.333	81.25
246.566	72.25
246.8	79.25
247.033	69.25
247.266	79.25
247.5	78.25
247.733	84.25
247.966	82.25
248.2	85.25
248.433	74.25
248.666	85.25
248.899	64.25
249.133	73.25
249.366	87.25
249.599	86.25
249.832	82.25
250.066	81.25
250.299	70.25
250.532	68.25
250.765	90.25
250.998	76.25
251.231	74.25
251.465	80.25
251.698	75.25
251.931	71.25
252.164	84.25
252.397	89.25
252.63	70.25
252.863	71.25
253.096	66.25
253.329	78.25
253.562	79.25
253.795	76.25
254.028	75.25
254.261	83.25
254.494	83.25
254.727	88.25
254.96	80.25
255.193	76.25
255.426	76.25
255.659	70.25
255.892	84.25
256.124	70.25
256.357	81.25
256.59	83.25
256.823	85.25
257.056	63.25
257.289	81.25
257.521	70.25
257.754	75.25
257.987	75.25
258.22	82.25
258.452	73.25
258.685	79.25
258.918	69.25
259.151	68.25
259.383	73.25
259.616	89.25
259.849	70.25
260.081	63.25
260.314	77.25
260.547	84.25
260.779	85.25
261.012	74.25
261.244	92.25
261.477	87.25
261.71	94.25
261.942	77.25
262.175	92.25
262.407	92.25
262.64	74.25
262.872	62.25
263.105	68.25
263.337	76.25
263.57	74.25
263.802	80.25
264.035	79.25
264.267	83.25
264.499	73.25
264.732	79.25
264.964	84.25
265.197	74.25
265.429	62.25
265.661	79.25
265.894	82.25
266.126	75.25
266.358	78.25
266.591	80.25
266.823	80.25
267.055	80.25
267.287	90.25
267.52	93.25
267.752	67.25
267.984	70.25
268.216	74.25
268.448	78.25
268.681	69.25
268.913	85.25
269.145	75.25
269.377	78.25
269.609	74.25
269.841	90.25
270.073	82.25
270.306	82.25
270.538	91.25
270.77	78.25
271.002	77.25
271.234	97.25
271.466	77.25
271.698	83.25
271.93	70.25
272.162	81.25
272.394	83.25
272.626	80.25
272.858	83.25
273.09	90.25
273.322	88.25
273.553	95.25
273.785	94.25
274.017	91.25
274.249	75.25
274.481	75.25
274.713	81.25
274.945	90.25
275.176	81.25
275.408	75.25
275.64	81.25
275.872	98.25
276.104	77.25
276.335	82.25
276.567	82.25
276.799	94.25
277.031	101.25
277.262	105.25
277.494	96.25
277.726	78.25
277.957	87.25
278.189	93.25
278.421	86.25
278.652	78.25
278.884	86.25
279.115	91.25
279.347	86.25
279.579	85.25
279.81	92.25
280.042	95.25
280.273	106.25
280.505	94.25
280.736	79.25
280.968	86.25
281.199	83.25
281.431	86.25
281.662	76.25
281.894	83.25
282.125	86.25
282.356	107.25
282.588	106.25
282.819	90.25
283.051	86.25
283.282	84.25
283.513	90.25
283.745	75.25
283.976	71.25
284.207	77.25
284.439	79.25
284.67	84.25
284.901	66.25
285.132	100.25
285.364	81.25
285.595	82.25
285.826	70.25
286.057	86.25
286.288	75.25
286.52	94.25
286.751	84.25
286.982	76.25
287.213	84.25
287.444	91.25
287.675	95.25
287.906	84.25
288.138	85.25
288.369	85.25
288.6	84.25
288.831	81.25
289.062	79.25
289.293	87.25
289.524	77.25
289.755	69.25
289.986	82.25
290.217	77.25
290.448	99.25
290.679	85.25
290.91	96.25
291.141	67.25
291.371	103.25
291.602	85.25
291.833	79.25
292.064	83.25
292.295	83.25
292.526	82.25
292.757	86.25
292.987	90.25
293.218	88.25
293.449	84.25
293.68	78.25
293.91	71.25
294.141	102.25
294.372	91.25
294.603	90.25
294.833	71.25
295.064	84.25
295.295	89.25
295.525	84.25
295.756	89.25
295.987	106.25
296.217	121.25
296.448	107.25
296.679	90.25
296.909	78.25
297.14	92.25
297.37	76.25
297.601	78.25
297.831	84.25
298.062	80.25
298.292	88.25
298.523	87.25
298.753	89.25
298.984	102.25
299.214	89.25
299.445	84.25
299.675	82.25
299.905	96.25
300.136	82.25
300.366	88.25
300.597	85.25
300.827	101.25
301.057	76.25
301.288	98.25
301.518	96.25
301.748	99.25
301.979	82.25
302.209	69.25
302.439	70.25
302.669	81.25
302.9	98.25
303.13	91.25
303.36	84.25
303.59	83.25
303.82	105.25
304.051	99.25
304.281	90.25
304.511	90.25
304.741	93.25
304.971	75.25
305.201	101.25
305.431	97.25
305.661	101.25
305.891	75.25
306.121	97.25
306.352	106.25
306.582	95.25
306.812	91.25
307.042	83.25
307.272	102.25
307.502	102.25
307.731	113.25
307.961	80.25
308.191	94.25
308.421	90.25
308.651	92.25
308.881	87.25
309.111	97.25
309.341	93.25
309.571	83.25
309.8	90.25
310.03	92.25
310.26	73.25
310.49	97.25
310.72	99.25
310.949	96.25
311.179	93.25
311.409	99.25
311.639	89.25
311.868	83.25
312.098	86.25
312.328	95.25
312.557	97.25
312.787	87.25
313.017	99.25
313.246	98.25
313.476	97.25
313.706	87.25
313.935	98.25
314.165	94.25
314.394	90.25
314.624	86.25
314.853	91.25
315.083	84.25
315.312	96.25
315.542	97.25
315.771	98.25
316.001	87.25
316.23	95.25
316.46	85.25
316.689	86.25
316.919	83.25
317.148	84.25
317.377	88.25
317.607	81.25
317.836	83.25
318.065	74.25
318.295	76.25
318.524	73.25
318.753	83.25
318.983	98.25
319.212	91.25
319.441	97.25
319.67	94.25
319.9	108.25
320.129	110.25
320.358	86.25
320.587	89.25
320.816	103.25
321.046	96.25
321.275	89.25
321.504	97.25
321.733	98.25
321.962	95.25
322.191	103.25
322.42	103.25
322.649	106.25
322.878	107.25
323.108	112.25
323.337	114.25
323.566	126.25
323.795	120.25
324.024	151.25
324.253	287.25
324.482	599.25
324.71	1194.25
324.939	1579.25
325.168	609.25
325.397	194.25
325.626	131.25
325.855	118.25
326.084	133.25
326.313	120.25
326.542	149.25
326.77	187.25
326.999	339.25
327.228	708.25
327.457	1310.25
327.686	997.25
327.914	325.25
328.143	217.25
328.372	221.25
328.6	151.25
328.829	108.25
329.058	113.25
329.287	105.25
329.515	121.25
329.744	126.25
329.972	155.25
330.201	231.25
330.43	335.25
330.658	183.25
330.887	133.25
331.115	115.25
331.344	100.25
331.572	104.25
331.801	97.25
332.03	114.25
332.258	96.25
332.486	85.25
332.715	85.25
332.943	96.25
333.172	92.25
333.4	108.25
333.629	113.25
333.857	114.25
334.085	161.25
334.314	253.25
334.542	424.25
334.771	382.25
334.999	154.25
335.227	97.25
335.455	103.25
335.684	93.25
335.912	91.25
336.14	98.25
336.369	91.25
336.597	99.25
336.825	94.25
337.053	84.25
337.281	87.25
337.51	86.25
337.738	92.25
337.966	105.25
338.194	96.25
338.422	87.25
338.65	89.25
338.878	92.25
339.106	87.25
339.334	83.25
339.562	84.25
339.79	92.25
340.018	75.25
340.246	77.25
340.474	84.25
340.702	87.25
340.93	105.25
341.158	82.25
341.386	87.25
341.614	98.25
341.842	89.25
342.07	103.25
342.298	92.25
342.526	90.25
342.754	82.25
342.981	87.25
343.209	89.25
343.437	97.25
343.665	95.25
343.893	81.25
344.12	96.25
344.348	84.25
344.576	90.25
344.804	84.25
345.031	85.25
345.259	98.25
345.487	80.25
345.714	91.25
345.942	101.25
346.17	93.25
346.397	85.25
346.625	90.25
346.853	90.25
347.08	94.25
347.308	95.25
347.535	93.25
347.763	87.25
347.99	98.25
348.218	83.25
348.445	106.25
348.673	83.25
348.9	92.25
349.128	86.25
349.355	84.25
349.583	97.25
349.81	96.25
350.037	88.25
350.265	93.25
350.492	90.25
350.72	80.25
350.947	101.25
351.174	109.25
351.402	110.25
351.629	71.25
351.856	100.25
352.083	112.25
352.311	89.25
352.538	104.25
352.765	99.25
352.992	100.25
353.22	106.25
353.447	106.25
353.674	85.25
353.901	93.25
354.128	96.25
354.355	74.25
354.583	97.25
354.81	111.25
355.037	97.25
355.264	99.25
355.491	95.25
355.718	92.25
355.945	94.25
356.172	102.25
356.399	97.25
356.626	90.25
356.853	104.25
357.08	94.25
357.307	79.25
357.534	71.25
357.761	89.25
357.988	86.25
358.215	99.25
358.441	95.25
358.668	91.25
358.895	101.25
359.122	119.25
359.349	84.25
359.576	84.25
359.802	88.25
360.029	102.25
360.256	92.25
360.483	104.25
360.709	87.25
360.936	100.25
361.163	83.25
361.39	92.25
361.616	106.25
361.843	79.25
362.07	94.25
362.296	84.25
362.523	89.25
362.749	92.25
362.976	95.25
363.203	93.25
363.429	82.25
363.656	88.25
363.882	90.25
364.109	95.25
364.335	113.25
364.562	83.25
364.788	101.25
365.015	93.25
365.241	80.25
365.468	96.25
365.694	85.25
365.92	89.25
366.147	81.25
366.373	79.25
366.599	77.25
366.826	98.25
367.052	93.25
367.278	86.25
367.505	89.25
367.731	94.25
367.957	89.25
368.184	85.25
368.41	102.25
368.636	98.25
368.862	96.25
369.089	102.25
369.315	91.25
369.541	91.25
369.767	83.25
369.993	92.25
370.219	87.25
370.445	85.25
370.672	97.25
370.898	89.25
371.124	93.25
371.35	82.25
371.576	99.25
371.802	95.25
372.028	90.25
372.254	95.25
372.48	81.25
372.706	80.25
372.932	89.25
373.158	86.25
373.384	87.25
373.61	88.25
373.835	81.25
374.061	95.25
374.287	96.25
374.513	94.25
374.739	77.25
374.965	92.25
375.191	93.25
375.416	94.25
375.642	85.25
375.868	105.25
376.094	90.25
376.319	95.25
376.545	98.25
376.771	99.25
376.997	106.25
377.222	81.25
377.448	88.25
377.674	95.25
377.899	95.25
378.125	98.25
378.35	94.25
378.576	88.25
378.802	103.25
379.027	100.25
379.253	96.25
379.478	89.25
379.704	87.25
379.929	91.25
380.155	89.25
380.38	103.25
380.606	93.25
380.831	97.25
381.057	103.25
381.282	88.25
381.507	92.25
381.733	95.25
381.958	107.25
382.184	98.25
382.409	108.25
382.634	103.25
382.86	114.25
383.085	101.25
383.31	101.25
383.535	113.25
383.761	109.25
383.986	109.25
384.211	111.25
384.436	92.25
384.662	91.25
384.887	110.25
385.112	107.25
385.337	115.25
385.562	115.25
385.787	114.25
386.013	130.25
386.238	132.25
386.463	121.25
386.688	115.25
386.913	111.25
387.138	116.25
387.363	123.25
387.588	103.25
387.813	106.25
388.038	110.25
388.263	129.25
388.488	126.25
388.713	107.25
388.938	90.25
389.163	95.25
389.387	89.25
389.612	88.25
389.837	81.25
390.062	90.25
390.287	67.25
390.512	91.25
390.736	90.25
390.961	81.25
391.186	100.25
391.411	90.25
391.636	89.25
391.86	86.25
392.085	93.25
392.31	95.25
392.534	98.25
392.759	90.25
392.984	94.25
393.208	92.25
393.433	94.25
393.658	85.25
393.882	95.25
394.107	87.25
394.331	84.25
394.556	89.25
394.78	76.25
395.005	102.25
395.229	78.25
395.454	89.25
395.678	92.25
395.903	95.25
396.127	76.25
396.352	94.25
396.576	86.25
396.801	96.25
397.025	88.25
397.249	105.25
397.474	74.25
397.698	76.25
397.922	84.25
398.147	88.25
398.371	78.25
398.595	87.25
398.82	87.25
399.044	87.25
399.268	100.25
399.492	85.25
399.717	83.25
399.941	95.25
400.165	90.25
400.389	86.25
400.613	91.25
400.837	91.25
401.062	85.25
401.286	81.25
401.51	81.25
401.734	85.25
401.958	96.25
402.182	106.25
402.406	110.25
402.63	101.25
402.854	93.25
403.078	79.25
403.302	98.25
403.526	84.25
403.75	83.25
403.974	92.25
404.198	88.25
404.422	103.25
404.645	100.25
404.869	84.25
405.093	85.25
405.317	97.25
405.541	94.25
405.765	87.25
405.988	98.25
406.212	150.25
406.436	167.25
406.66	119.25
406.883	93.25
407.107	85.25
407.331	82.25
407.555	97.25
407.778	101.25
408.002	91.25
408.226	78.25
408.449	81.25
408.673	88.25
408.896	89.25
409.12	100.25
409.344	87.25
409.567	85.25
409.791	67.25
410.014	79.25
410.238	89.25
410.461	100.25
410.685	86.25
410.908	85.25
411.132	92.25
411.355	94.25
411.578	79.25
411.802	100.25
412.025	80.25
412.249	87.25
412.472	93.25
412.695	112.25
412.919	92.25
413.142	89.25
413.365	87.25
413.589	78.25
413.812	83.25
414.035	76.25
414.258	92.25
414.482	90.25
414.705	86.25
414.928	90.25
415.151	88.25
415.374	94.25
415.597	92.25
415.821	87.25
416.044	94.25
416.267	86.25
416.49	78.25
416.713	90.25
416.936	89.25
417.159	77.25
417.382	86.25
417.605	99.25
417.828	89.25
418.051	92.25
418.274	102.25
418.497	88.25
418.72	85.25
418.943	85.25
419.166	87.25
419.389	104.25
419.611	89.25
419.834	96.25
420.057	92.25
420.28	78.25
420.503	97.25
420.726	81.25
420.948	85.25
421.171	95.25
421.394	94.25
421.617	96.25
421.839	74.25
422.062	81.25
422.285	86.25
422.507	95.25
422.73	95.25
422.953	83.25
423.175	78.25
423.398	92.25
423.621	87.25
423.843	92.25
424.066	99.25
424.288	87.25
424.511	84.25
424.733	97.25
424.956	107.25
425.178	89.25
425.401	89.25
425.623	90.25
425.846	101.25
426.068	93.25
426.291	90.25
426.513	83.25
426.735	84.25
426.958	100.25
427.18	99.25
427.402	112.25
427.625	137.25
427.847	133.25
428.069	114.25
428.292	86.25
428.514	93.25
428.736	92.25
428.958	76.25
429.181	96.25
429.403	85.25
429.625	73.25
429.847	99.25
430.069	101.25
430.292	105.25
430.514	87.25
430.736	64.25
430.958	75.25
431.18	95.25
431.402	79.25
431.624	83.25
431.846	83.25
432.068	94.25
432.29	84.25
432.512	99.25
432.734	93.25
432.956	91.25
433.178	98.25
433.4	94.25
433.622	99.25
433.844	91.25
434.066	87.25
434.287	87.25
434.509	85.25
434.731	85.25
434.953	80.25
435.175	100.25
435.397	78.25
435.618	73.25
435.84	88.25
436.062	103.25
436.284	109.25
436.505	81.25
436.727	81.25
436.949	91.25
437.17	87.25
437.392	83.25
437.614	80.25
437.835	102.25
438.057	104.25
438.278	103.25
438.5	91.25
438.721	94.25
438.943	86.25
439.165	73.25
439.386	82.25
439.608	83.25
439.829	91.25
440.05	99.25
440.272	117.25
440.493	83.25
440.715	89.25
440.936	65.25
441.158	91.25
441.379	82.25
441.6	91.25
441.822	89.25
442.043	98.25
442.264	88.25
442.486	87.25
442.707	97.25
442.928	93.25
443.149	112.25
443.371	94.25
443.592	90.25
443.813	95.25
444.034	100.25
444.255	83.25
444.476	90.25
444.698	91.25
444.919	89.25
445.14	129.25
445.361	113.25
445.582	94.25
445.803	122.25
446.024	124.25
446.245	109.25
446.466	94.25
446.687	92.25
446.908	80.25
447.129	90.25
447.35	95.25
447.571	84.25
447.792	85.25
448.013	90.25
448.234	89.25
448.455	94.25
448.675	115.25
448.896	101.25
449.117	87.25
449.338	90.25
449.559	113.25
449.779	112.25
450	98.25
450.221	84.25
450.442	83.25
450.662	98.25
450.883	87.25
451.104	97.25
451.324	82.25
451.545	86.25
451.766	85.25
451.986	85.25
452.207	82.25
452.428	89.25
452.648	93.25
452.869	94.25
453.089	103.25
453.31	118.25
453.53	90.25
453.751	65.25
453.971	92.25
454.192	109.25
454.412	83.25
454.633	88.25
454.853	83.25
455.073	79.25
455.294	104.25
455.514	79.25
455.734	86.25
455.955	70.25
456.175	73.25
456.395	81.25
456.616	86.25
456.836	93.25
457.056	86.25
457.276	85.25
457.497	80.25
457.717	91.25
457.937	80.25
458.157	86.25
458.377	85.25
458.598	75.25
458.818	123.25
459.038	127.25
459.258	105.25
459.478	87.25
459.698	79.25
459.918	87.25
460.138	79.25
460.358	80.25
460.578	89.25
460.798	92.25
461.018	86.25
461.238	68.25
461.458	85.25
461.678	83.25
461.898	74.25
462.118	94.25
462.338	80.25
462.558	84.25
462.777	86.25
462.997	81.25
463.217	89.25
463.437	84.25
463.657	80.25
463.876	78.25
464.096	96.25
464.316	80.25
464.536	87.25
464.755	89.25
464.975	92.25
465.195	127.25
465.414	111.25
465.634	86.25
465.854	93.25
466.073	73.25
466.293	77.25
466.512	77.25
466.732	79.25
466.951	85.25
467.171	92.25
467.391	98.25
467.61	94.25
467.829	103.25
468.049	174.25
468.268	218.25
468.488	112.25
468.707	85.25
468.927	86.25
469.146	89.25
469.365	90.25
469.585	83.25
469.804	101.25
470.023	81.25
470.243	90.25
470.462	105.25
470.681	91.25
470.901	90.25
471.12	79.25
471.339	83.25
471.558	86.25
471.777	100.25
471.997	125.25
472.216	286.25
472.435	566.25
472.654	184.25
472.873	102.25
473.092	79.25
473.311	99.25
473.53	79.25
473.749	89.25
473.968	89.25
474.187	103.25
474.406	95.25
474.625	85.25
474.844	73.25
475.063	77.25
475.282	91.25
475.501	84.25
475.72	75.25
475.939	74.25
476.158	74.25
476.377	88.25
476.596	88.25
476.814	96.25
477.033	75.25
477.252	83.25
477.471	87.25
477.69	84.25
477.908	74.25
478.127	70.25
478.346	83.25
478.564	101.25
478.783	87.25
479.002	96.25
479.22	93.25
479.439	92.25
479.658	87.25
479.876	101.25
480.095	77.25
480.313	100.25
480.532	98.25
480.751	120.25
480.969	289.25
481.188	987.25
481.406	591.25
481.624	142.25
481.843	85.25
482.061	89.25
482.28	86.25
482.498	85.25
482.717	91.25
482.935	97.25
483.153	93.25
483.372	84.25
483.59	83.25
483.808	85.25
484.027	86.25
484.245	95.25
484.463	79.25
484.681	87.25
484.9	89.25
485.118	93.25
485.336	82.25
485.554	101.25
485.772	92.25
485.99	100.25
486.209	90.25
486.427	107.25
486.645	106.25
486.863	107.25
487.081	95.25
487.299	91.25
487.517	98.25
487.735	96.25
487.953	96.25
488.171	90.25
488.389	100.25
488.607	97.25
488.825	85.25
489.043	88.25
489.261	86.25
489.479	81.25
489.696	88.25
489.914	90.25
490.132	72.25
490.35	96.25
490.568	95.25
490.786	75.25
491.003	73.25
491.221	76.25
491.439	92.25
491.657	91.25
491.874	77.25
492.092	98.25
492.31	94.25
492.527	81.25
492.745	94.25
492.963	86.25
493.18	89.25
493.398	77.25
493.615	106.25
493.833	109.25
494.05	74.25
494.268	98.25
494.485	80.25
494.703	80.25
494.92	84.25
495.138	79.25
495.355	89.25
495.573	103.25
495.79	79.25
496.008	96.25
496.225	79.25
496.442	93.25
496.66	81.25
496.877	86.25
497.094	89.25
497.312	93.25
497.529	82.25
497.746	98.25
497.963	77.25
498.181	77.25
498.398	84.25
498.615	100.25
498.832	81.25
499.049	91.25
499.267	98.25
499.484	81.25
499.701	81.25
499.918	83.25
500.135	101.25
500.352	106.25
500.569	85.25
500.786	85.25
501.003	93.25
501.22	91.25
501.437	82.25
501.654	108.25
501.871	87.25
502.088	95.25
502.305	70.25
502.522	86.25
502.739	87.25
502.956	85.25
503.172	81.25
503.389	88.25
503.606	83.25
503.823	97.25
504.04	81.25
504.256	85.25
504.473	92.25
504.69	82.25
504.907	87.25
505.123	90.25
505.34	82.25
505.557	84.25
505.773	97.25
505.99	87.25
506.207	79.25
506.423	82.25
506.64	84.25
506.856	71.25
507.073	86.25
507.289	83.25
507.506	89.25
507.722	96.25
507.939	86.25
508.155	93.25
508.372	85.25
508.588	99.25
508.805	92.25
509.021	91.25
509.238	93.25
509.454	98.25
509.67	111.25
509.887	102.25
510.103	102.25
510.319	165.25
510.536	545.25
510.752	1625.25
510.968	476.25
511.184	124.25
511.401	95.25
511.617	84.25
511.833	87.25
512.049	92.25
512.265	92.25
512.481	97.25
512.698	91.25
512.914	87.25
513.13	77.25
513.346	82.25
513.562	81.25
513.778	84.25
513.994	87.25
514.21	94.25
514.426	102.25
514.642	116.25
514.858	100.25
515.074	128.25
515.29	308.25
515.506	899.25
515.721	358.25
515.937	113.25
516.153	109.25
516.369	91.25
516.585	77.25
516.801	96.25
