Data from Circ_1989_H10_HRD10591_00081.txt Node
Date: Wed Jan 03 12:01:37 EST 2024
User: Yrep
Spectrometer: HR+D1059
Trigger mode: 1
Integration Time (sec): 1.000000E-1
Scans to average: 1
Electric dark correction enabled: true
Nonlinearity correction enabled: false
Boxcar width: 0
XAxis mode: Wavelengths
Number of Pixels in Spectrum: 2048
>>>>>Begin Spectral Data<<<<<
223.165	-18.25
223.4	-18.25
223.635	-18.25
223.869	-13.25
224.104	-25.25
224.338	-16.25
224.573	-17.25
224.808	-5.25
225.042	-12.25
225.277	-13.25
225.511	1.75
225.746	0.75
225.98	10.75
226.215	15.75
226.449	22.75
226.683	22.75
226.918	11.75
227.152	34.75
227.387	50.75
227.621	54.75
227.856	37.75
228.09	42.75
228.324	46.75
228.559	56.75
228.793	66.75
229.027	73.75
229.262	75.75
229.496	69.75
229.73	85.75
229.964	80.75
230.199	62.75
230.433	82.75
230.667	89.75
230.901	68.75
231.136	67.75
231.37	81.75
231.604	85.75
231.838	94.75
232.072	80.75
232.306	88.75
232.541	65.75
232.775	84.75
233.009	79.75
233.243	73.75
233.477	82.75
233.711	94.75
233.945	83.75
234.179	80.75
234.413	89.75
234.647	84.75
234.881	79.75
235.115	90.75
235.349	72.75
235.583	88.75
235.817	81.75
236.051	86.75
236.285	75.75
236.519	94.75
236.753	75.75
236.987	88.75
237.221	82.75
237.455	88.75
237.689	83.75
237.922	81.75
238.156	62.75
238.39	73.75
238.624	67.75
238.858	82.75
239.091	90.75
239.325	72.75
239.559	75.75
239.793	92.75
240.027	80.75
240.26	86.75
240.494	79.75
240.728	70.75
240.961	77.75
241.195	86.75
241.429	88.75
241.662	91.75
241.896	66.75
242.13	66.75
242.363	74.75
242.597	82.75
242.83	82.75
243.064	64.75
243.298	83.75
243.531	74.75
243.765	81.75
243.998	85.75
244.232	75.75
244.465	71.75
244.699	73.75
244.932	88.75
245.166	86.75
245.399	89.75
245.633	90.75
245.866	86.75
246.099	78.75
246.333	73.75
246.566	80.75
246.8	80.75
247.033	89.75
247.266	79.75
247.5	75.75
247.733	86.75
247.966	86.75
248.2	71.75
248.433	77.75
248.666	87.75
248.899	97.75
249.133	86.75
249.366	108.75
249.599	105.75
249.832	80.75
250.066	104.75
250.299	74.75
250.532	87.75
250.765	94.75
250.998	81.75
251.231	88.75
251.465	87.75
251.698	67.75
251.931	90.75
252.164	84.75
252.397	69.75
252.63	86.75
252.863	91.75
253.096	75.75
253.329	82.75
253.562	85.75
253.795	84.75
254.028	91.75
254.261	98.75
254.494	79.75
254.727	81.75
254.96	80.75
255.193	86.75
255.426	92.75
255.659	95.75
255.892	76.75
256.124	82.75
256.357	94.75
256.59	70.75
256.823	100.75
257.056	75.75
257.289	98.75
257.521	81.75
257.754	86.75
257.987	87.75
258.22	80.75
258.452	87.75
258.685	90.75
258.918	82.75
259.151	84.75
259.383	80.75
259.616	92.75
259.849	101.75
260.081	82.75
260.314	83.75
260.547	90.75
260.779	82.75
261.012	87.75
261.244	90.75
261.477	104.75
261.71	95.75
261.942	120.75
262.175	107.75
262.407	99.75
262.64	82.75
262.872	74.75
263.105	75.75
263.337	92.75
263.57	78.75
263.802	84.75
264.035	87.75
264.267	92.75
264.499	79.75
264.732	79.75
264.964	84.75
265.197	80.75
265.429	89.75
265.661	82.75
265.894	103.75
266.126	97.75
266.358	87.75
266.591	92.75
266.823	95.75
267.055	82.75
267.287	82.75
267.52	78.75
267.752	80.75
267.984	86.75
268.216	78.75
268.448	83.75
268.681	90.75
268.913	98.75
269.145	94.75
269.377	92.75
269.609	86.75
269.841	94.75
270.073	85.75
270.306	86.75
270.538	92.75
270.77	90.75
271.002	81.75
271.234	74.75
271.466	91.75
271.698	91.75
271.93	89.75
272.162	94.75
272.394	90.75
272.626	85.75
272.858	85.75
273.09	84.75
273.322	92.75
273.553	88.75
273.785	81.75
274.017	89.75
274.249	88.75
274.481	88.75
274.713	93.75
274.945	68.75
275.176	84.75
275.408	98.75
275.64	88.75
275.872	93.75
276.104	98.75
276.335	94.75
276.567	107.75
276.799	121.75
277.031	117.75
277.262	142.75
277.494	111.75
277.726	103.75
277.957	85.75
278.189	82.75
278.421	90.75
278.652	84.75
278.884	89.75
279.115	99.75
279.347	80.75
279.579	83.75
279.81	113.75
280.042	132.75
280.273	163.75
280.505	107.75
280.736	98.75
280.968	92.75
281.199	85.75
281.431	91.75
281.662	91.75
281.894	101.75
282.125	97.75
282.356	111.75
282.588	133.75
282.819	104.75
283.051	88.75
283.282	91.75
283.513	83.75
283.745	97.75
283.976	90.75
284.207	89.75
284.439	93.75
284.67	82.75
284.901	95.75
285.132	78.75
285.364	83.75
285.595	82.75
285.826	89.75
286.057	88.75
286.288	90.75
286.52	95.75
286.751	94.75
286.982	101.75
287.213	87.75
287.444	88.75
287.675	86.75
287.906	89.75
288.138	87.75
288.369	105.75
288.6	86.75
288.831	90.75
289.062	86.75
289.293	89.75
289.524	83.75
289.755	90.75
289.986	101.75
290.217	86.75
290.448	95.75
290.679	92.75
290.91	95.75
291.141	73.75
291.371	90.75
291.602	97.75
291.833	95.75
292.064	116.75
292.295	103.75
292.526	85.75
292.757	96.75
292.987	98.75
293.218	86.75
293.449	80.75
293.68	84.75
293.91	75.75
294.141	97.75
294.372	99.75
294.603	99.75
294.833	91.75
295.064	96.75
295.295	87.75
295.525	91.75
295.756	103.75
295.987	102.75
296.217	120.75
296.448	115.75
296.679	92.75
296.909	92.75
297.14	96.75
297.37	88.75
297.601	83.75
297.831	87.75
298.062	99.75
298.292	75.75
298.523	99.75
298.753	88.75
298.984	92.75
299.214	107.75
299.445	101.75
299.675	98.75
299.905	87.75
300.136	87.75
300.366	83.75
300.597	90.75
300.827	82.75
301.057	105.75
301.288	102.75
301.518	96.75
301.748	96.75
301.979	111.75
302.209	96.75
302.439	86.75
302.669	98.75
302.9	91.75
303.13	73.75
303.36	84.75
303.59	99.75
303.82	123.75
304.051	87.75
304.281	88.75
304.511	77.75
304.741	87.75
304.971	98.75
305.201	102.75
305.431	102.75
305.661	81.75
305.891	96.75
306.121	96.75
306.352	102.75
306.582	98.75
306.812	96.75
307.042	91.75
307.272	120.75
307.502	144.75
307.731	123.75
307.961	130.75
308.191	103.75
308.421	98.75
308.651	105.75
308.881	106.75
309.111	88.75
309.341	98.75
309.571	98.75
309.8	106.75
310.03	105.75
310.26	107.75
310.49	109.75
310.72	111.75
310.949	103.75
311.179	97.75
311.409	84.75
311.639	110.75
311.868	109.75
312.098	100.75
312.328	96.75
312.557	108.75
312.787	111.75
313.017	104.75
313.246	109.75
313.476	88.75
313.706	99.75
313.935	107.75
314.165	104.75
314.394	101.75
314.624	88.75
314.853	89.75
315.083	104.75
315.312	102.75
315.542	84.75
315.771	87.75
316.001	93.75
316.23	103.75
316.46	94.75
316.689	106.75
316.919	86.75
317.148	89.75
317.377	97.75
317.607	107.75
317.836	100.75
318.065	97.75
318.295	91.75
318.524	90.75
318.753	105.75
318.983	91.75
319.212	95.75
319.441	102.75
319.67	95.75
319.9	109.75
320.129	101.75
320.358	97.75
320.587	90.75
320.816	102.75
321.046	96.75
321.275	96.75
321.504	96.75
321.733	83.75
321.962	97.75
322.191	98.75
322.42	111.75
322.649	112.75
322.878	117.75
323.108	126.75
323.337	128.75
323.566	131.75
323.795	158.75
324.024	212.75
324.253	357.75
324.482	798.75
324.71	1608.75
324.939	2216.75
325.168	788.75
325.397	242.75
325.626	132.75
325.855	118.75
326.084	121.75
326.313	139.75
326.542	138.75
326.77	221.75
326.999	428.75
327.228	911.75
327.457	1727.75
327.686	1401.75
327.914	426.75
328.143	322.75
328.372	376.75
328.6	240.75
328.829	139.75
329.058	139.75
329.287	141.75
329.515	129.75
329.744	188.75
329.972	282.75
330.201	499.75
330.43	745.75
330.658	361.75
330.887	195.75
331.115	148.75
331.344	107.75
331.572	106.75
331.801	113.75
332.03	116.75
332.258	104.75
332.486	102.75
332.715	101.75
332.943	106.75
333.172	111.75
333.4	106.75
333.629	126.75
333.857	168.75
334.085	254.75
334.314	504.75
334.542	902.75
334.771	895.75
334.999	276.75
335.227	150.75
335.455	104.75
335.684	103.75
335.912	111.75
336.14	95.75
336.369	93.75
336.597	92.75
336.825	110.75
337.053	100.75
337.281	97.75
337.51	87.75
337.738	83.75
337.966	83.75
338.194	94.75
338.422	99.75
338.65	92.75
338.878	89.75
339.106	76.75
339.334	99.75
339.562	88.75
339.79	94.75
340.018	96.75
340.246	103.75
340.474	100.75
340.702	98.75
340.93	92.75
341.158	92.75
341.386	102.75
341.614	96.75
341.842	81.75
342.07	96.75
342.298	88.75
342.526	108.75
342.754	103.75
342.981	92.75
343.209	88.75
343.437	99.75
343.665	81.75
343.893	84.75
344.12	95.75
344.348	86.75
344.576	89.75
344.804	96.75
345.031	105.75
345.259	109.75
345.487	105.75
345.714	102.75
345.942	96.75
346.17	95.75
346.397	100.75
346.625	91.75
346.853	93.75
347.08	101.75
347.308	82.75
347.535	94.75
347.763	107.75
347.99	106.75
348.218	102.75
348.445	102.75
348.673	98.75
348.9	90.75
349.128	108.75
349.355	103.75
349.583	100.75
349.81	103.75
350.037	90.75
350.265	86.75
350.492	108.75
350.72	104.75
350.947	99.75
351.174	103.75
351.402	124.75
351.629	101.75
351.856	95.75
352.083	103.75
352.311	123.75
352.538	108.75
352.765	109.75
352.992	106.75
353.22	104.75
353.447	101.75
353.674	92.75
353.901	95.75
354.128	94.75
354.355	97.75
354.583	107.75
354.81	104.75
355.037	102.75
355.264	109.75
355.491	92.75
355.718	78.75
355.945	87.75
356.172	97.75
356.399	94.75
356.626	112.75
356.853	107.75
357.08	92.75
357.307	91.75
357.534	94.75
357.761	107.75
357.988	100.75
358.215	99.75
358.441	100.75
358.668	95.75
358.895	93.75
359.122	98.75
359.349	106.75
359.576	99.75
359.802	100.75
360.029	126.75
360.256	115.75
360.483	90.75
360.709	100.75
360.936	95.75
361.163	98.75
361.39	97.75
361.616	95.75
361.843	93.75
362.07	94.75
362.296	102.75
362.523	88.75
362.749	99.75
362.976	87.75
363.203	89.75
363.429	87.75
363.656	98.75
363.882	76.75
364.109	82.75
364.335	90.75
364.562	106.75
364.788	99.75
365.015	97.75
365.241	91.75
365.468	108.75
365.694	104.75
365.92	95.75
366.147	84.75
366.373	95.75
366.599	89.75
366.826	87.75
367.052	94.75
367.278	98.75
367.505	91.75
367.731	87.75
367.957	96.75
368.184	100.75
368.41	90.75
368.636	104.75
368.862	121.75
369.089	115.75
369.315	87.75
369.541	91.75
369.767	82.75
369.993	98.75
370.219	82.75
370.445	97.75
370.672	103.75
370.898	106.75
371.124	100.75
371.35	101.75
371.576	83.75
371.802	88.75
372.028	93.75
372.254	91.75
372.48	93.75
372.706	103.75
372.932	99.75
373.158	100.75
373.384	95.75
373.61	89.75
373.835	104.75
374.061	82.75
374.287	90.75
374.513	90.75
374.739	106.75
374.965	74.75
375.191	85.75
375.416	109.75
375.642	85.75
375.868	105.75
376.094	115.75
376.319	97.75
376.545	99.75
376.771	89.75
376.997	112.75
377.222	98.75
377.448	89.75
377.674	84.75
377.899	87.75
378.125	92.75
378.35	87.75
378.576	102.75
378.802	82.75
379.027	88.75
379.253	95.75
379.478	110.75
379.704	98.75
379.929	94.75
380.155	100.75
380.38	105.75
380.606	87.75
380.831	100.75
381.057	80.75
381.282	94.75
381.507	104.75
381.733	89.75
381.958	82.75
382.184	93.75
382.409	113.75
382.634	95.75
382.86	98.75
383.085	107.75
383.31	107.75
383.535	97.75
383.761	112.75
383.986	98.75
384.211	86.75
384.436	93.75
384.662	80.75
384.887	100.75
385.112	112.75
385.337	96.75
385.562	111.75
385.787	97.75
386.013	103.75
386.238	107.75
386.463	112.75
386.688	105.75
386.913	106.75
387.138	119.75
387.363	99.75
387.588	94.75
387.813	97.75
388.038	94.75
388.263	104.75
388.488	99.75
388.713	91.75
388.938	105.75
389.163	98.75
389.387	101.75
389.612	87.75
389.837	94.75
390.062	79.75
390.287	91.75
390.512	88.75
390.736	95.75
390.961	86.75
391.186	93.75
391.411	101.75
391.636	93.75
391.86	101.75
392.085	94.75
392.31	92.75
392.534	90.75
392.759	103.75
392.984	93.75
393.208	84.75
393.433	76.75
393.658	82.75
393.882	90.75
394.107	83.75
394.331	77.75
394.556	92.75
394.78	84.75
395.005	91.75
395.229	73.75
395.454	83.75
395.678	79.75
395.903	87.75
396.127	88.75
396.352	84.75
396.576	90.75
396.801	86.75
397.025	92.75
397.249	81.75
397.474	79.75
397.698	97.75
397.922	92.75
398.147	82.75
398.371	92.75
398.595	84.75
398.82	82.75
399.044	97.75
399.268	77.75
399.492	92.75
399.717	96.75
399.941	79.75
400.165	98.75
400.389	86.75
400.613	83.75
400.837	81.75
401.062	95.75
401.286	99.75
401.51	99.75
401.734	91.75
401.958	97.75
402.182	132.75
402.406	144.75
402.63	112.75
402.854	92.75
403.078	90.75
403.302	81.75
403.526	94.75
403.75	97.75
403.974	90.75
404.198	98.75
404.422	99.75
404.645	90.75
404.869	100.75
405.093	110.75
405.317	112.75
405.541	128.75
405.765	99.75
405.988	116.75
406.212	163.75
406.436	224.75
406.66	159.75
406.883	104.75
407.107	98.75
407.331	99.75
407.555	117.75
407.778	110.75
408.002	104.75
408.226	89.75
408.449	92.75
408.673	83.75
408.896	87.75
409.12	91.75
409.344	98.75
409.567	84.75
409.791	100.75
410.014	103.75
410.238	100.75
410.461	87.75
410.685	105.75
410.908	104.75
411.132	98.75
411.355	99.75
411.578	88.75
411.802	91.75
412.025	90.75
412.249	100.75
412.472	111.75
412.695	115.75
412.919	112.75
413.142	90.75
413.365	72.75
413.589	94.75
413.812	84.75
414.035	81.75
414.258	86.75
414.482	92.75
414.705	101.75
414.928	89.75
415.151	98.75
415.374	99.75
415.597	91.75
415.821	91.75
416.044	97.75
416.267	96.75
416.49	82.75
416.713	92.75
416.936	86.75
417.159	94.75
417.382	100.75
417.605	99.75
417.828	99.75
418.051	84.75
418.274	94.75
418.497	86.75
418.72	92.75
418.943	94.75
419.166	100.75
419.389	83.75
419.611	90.75
419.834	96.75
420.057	87.75
420.28	92.75
420.503	100.75
420.726	83.75
420.948	88.75
421.171	103.75
421.394	87.75
421.617	78.75
421.839	88.75
422.062	91.75
422.285	86.75
422.507	91.75
422.73	98.75
422.953	91.75
423.175	90.75
423.398	84.75
423.621	89.75
423.843	80.75
424.066	73.75
424.288	99.75
424.511	81.75
424.733	103.75
424.956	115.75
425.178	82.75
425.401	107.75
425.623	98.75
425.846	110.75
426.068	89.75
426.291	106.75
426.513	96.75
426.735	89.75
426.958	110.75
427.18	97.75
427.402	136.75
427.625	172.75
427.847	188.75
428.069	175.75
428.292	121.75
428.514	96.75
428.736	83.75
428.958	87.75
429.181	107.75
429.403	91.75
429.625	103.75
429.847	83.75
430.069	112.75
430.292	113.75
430.514	87.75
430.736	82.75
430.958	83.75
431.18	73.75
431.402	84.75
431.624	90.75
431.846	91.75
432.068	89.75
432.29	92.75
432.512	87.75
432.734	87.75
432.956	88.75
433.178	100.75
433.4	102.75
433.622	103.75
433.844	94.75
434.066	99.75
434.287	88.75
434.509	81.75
434.731	79.75
434.953	94.75
435.175	94.75
435.397	106.75
435.618	92.75
435.84	99.75
436.062	128.75
436.284	121.75
436.505	106.75
436.727	103.75
436.949	103.75
437.17	97.75
437.392	90.75
437.614	96.75
437.835	105.75
438.057	124.75
438.278	111.75
438.5	95.75
438.721	114.75
438.943	125.75
439.165	106.75
439.386	91.75
439.608	101.75
439.829	107.75
440.05	128.75
440.272	149.75
440.493	112.75
440.715	90.75
440.936	92.75
441.158	82.75
441.379	85.75
441.6	96.75
441.822	98.75
442.043	94.75
442.264	104.75
442.486	92.75
442.707	103.75
442.928	117.75
443.149	142.75
443.371	134.75
443.592	121.75
443.813	128.75
444.034	117.75
444.255	91.75
444.476	97.75
444.698	88.75
444.919	92.75
445.14	130.75
445.361	116.75
445.582	108.75
445.803	131.75
446.024	124.75
446.245	143.75
446.466	120.75
446.687	104.75
446.908	75.75
447.129	97.75
447.35	83.75
447.571	86.75
447.792	104.75
448.013	105.75
448.234	87.75
448.455	105.75
448.675	107.75
448.896	124.75
449.117	104.75
449.338	116.75
449.559	116.75
449.779	135.75
450	87.75
450.221	99.75
450.442	86.75
450.662	98.75
450.883	100.75
451.104	113.75
451.324	87.75
451.545	98.75
451.766	105.75
451.986	91.75
452.207	83.75
452.428	105.75
452.648	95.75
452.869	111.75
453.089	116.75
453.31	110.75
453.53	99.75
453.751	95.75
453.971	99.75
454.192	105.75
454.412	85.75
454.633	101.75
454.853	89.75
455.073	94.75
455.294	94.75
455.514	110.75
455.734	94.75
455.955	94.75
456.175	85.75
456.395	79.75
456.616	79.75
456.836	96.75
457.056	92.75
457.276	92.75
457.497	79.75
457.717	91.75
457.937	94.75
458.157	96.75
458.377	99.75
458.598	113.75
458.818	138.75
459.038	158.75
459.258	119.75
459.478	86.75
459.698	83.75
459.918	75.75
460.138	93.75
460.358	86.75
460.578	88.75
460.798	105.75
461.018	96.75
461.238	95.75
461.458	81.75
461.678	82.75
461.898	79.75
462.118	69.75
462.338	85.75
462.558	75.75
462.777	75.75
462.997	91.75
463.217	110.75
463.437	90.75
463.657	103.75
463.876	93.75
464.096	89.75
464.316	79.75
464.536	96.75
464.755	98.75
464.975	98.75
465.195	172.75
465.414	164.75
465.634	94.75
465.854	93.75
466.073	93.75
466.293	91.75
466.512	90.75
466.732	91.75
466.951	87.75
467.171	107.75
467.391	92.75
467.61	105.75
467.829	146.75
468.049	323.75
468.268	454.75
468.488	144.75
468.707	97.75
468.927	87.75
469.146	98.75
469.365	90.75
469.585	78.75
469.804	113.75
470.023	96.75
470.243	91.75
470.462	103.75
470.681	131.75
470.901	90.75
471.12	106.75
471.339	106.75
471.558	100.75
471.777	116.75
471.997	212.75
472.216	628.75
472.435	1318.75
472.654	364.75
472.873	134.75
473.092	104.75
473.311	98.75
473.53	89.75
473.749	78.75
473.968	95.75
474.187	102.75
474.406	105.75
474.625	84.75
474.844	86.75
475.063	86.75
475.282	85.75
475.501	99.75
475.72	96.75
475.939	89.75
476.158	82.75
476.377	88.75
476.596	93.75
476.814	111.75
477.033	105.75
477.252	84.75
477.471	78.75
477.69	92.75
477.908	84.75
478.127	100.75
478.346	100.75
478.564	105.75
478.783	102.75
479.002	110.75
479.22	109.75
479.439	113.75
479.658	125.75
479.876	99.75
480.095	112.75
480.313	129.75
480.532	127.75
480.751	201.75
480.969	575.75
481.188	2348.75
481.406	1338.75
481.624	230.75
481.843	114.75
482.061	101.75
482.28	98.75
482.498	107.75
482.717	95.75
482.935	81.75
483.153	97.75
483.372	112.75
483.59	83.75
483.808	91.75
484.027	90.75
484.245	91.75
484.463	82.75
484.681	110.75
484.9	100.75
485.118	91.75
485.336	100.75
485.554	95.75
485.772	99.75
485.99	111.75
486.209	112.75
486.427	108.75
486.645	112.75
486.863	100.75
487.081	131.75
487.299	106.75
487.517	98.75
487.735	96.75
487.953	100.75
488.171	102.75
488.389	97.75
488.607	108.75
488.825	94.75
489.043	93.75
489.261	85.75
489.479	91.75
489.696	85.75
489.914	91.75
490.132	101.75
490.35	103.75
490.568	101.75
490.786	76.75
491.003	107.75
491.221	91.75
491.439	83.75
491.657	91.75
491.874	116.75
492.092	89.75
492.31	89.75
492.527	91.75
492.745	91.75
492.963	90.75
493.18	102.75
493.398	96.75
493.615	88.75
493.833	90.75
494.05	97.75
494.268	93.75
494.485	90.75
494.703	105.75
494.92	91.75
495.138	94.75
495.355	102.75
495.573	101.75
495.79	102.75
496.008	82.75
496.225	96.75
496.442	94.75
496.66	99.75
496.877	106.75
497.094	92.75
497.312	88.75
497.529	82.75
497.746	100.75
497.963	78.75
498.181	103.75
498.398	96.75
498.615	114.75
498.832	100.75
499.049	95.75
499.267	90.75
499.484	84.75
499.701	92.75
499.918	91.75
500.135	87.75
500.352	95.75
500.569	96.75
500.786	100.75
501.003	100.75
501.22	97.75
501.437	88.75
501.654	99.75
501.871	103.75
502.088	87.75
502.305	89.75
502.522	89.75
502.739	93.75
502.956	98.75
503.172	103.75
503.389	90.75
503.606	99.75
503.823	104.75
504.04	96.75
504.256	103.75
504.473	87.75
504.69	95.75
504.907	101.75
505.123	83.75
505.34	75.75
505.557	85.75
505.773	84.75
505.99	74.75
506.207	94.75
506.423	100.75
506.64	90.75
506.856	87.75
507.073	92.75
507.289	99.75
507.506	86.75
507.722	111.75
507.939	100.75
508.155	90.75
508.372	100.75
508.588	101.75
508.805	90.75
509.021	84.75
509.238	82.75
509.454	82.75
509.67	92.75
509.887	93.75
510.103	120.75
510.319	188.75
510.536	627.75
510.752	1979.75
510.968	568.75
511.184	144.75
511.401	123.75
511.617	98.75
511.833	98.75
512.049	90.75
512.265	82.75
512.481	87.75
512.698	100.75
512.914	100.75
513.13	97.75
513.346	98.75
513.562	96.75
513.778	96.75
513.994	107.75
