Data from Circ_1989_H10_HRD10591_00044.txt Node
Date: Wed Jan 03 12:01:30 EST 2024
User: Yrep
Spectrometer: HR+D1059
Trigger mode: 1
Integration Time (sec): 1.000000E-1
Scans to average: 1
Electric dark correction enabled: true
Nonlinearity correction enabled: false
Boxcar width: 0
XAxis mode: Wavelengths
Number of Pixels in Spectrum: 2048
>>>>>Begin Spectral Data<<<<<
223.165	-14.5
223.4	-14.5
223.635	-14.5
223.869	-17.5
224.104	-33.5
224.338	-27.5
224.573	-14.5
224.808	-6.5
225.042	-10.5
225.277	-6.5
225.511	3.5
225.746	5.5
225.98	9.5
226.215	16.5
226.449	19.5
226.683	25.5
226.918	26.5
227.152	24.5
227.387	39.5
227.621	49.5
227.856	52.5
228.09	51.5
228.324	50.5
228.559	62.5
228.793	61.5
229.027	69.5
229.262	70.5
229.496	77.5
229.73	91.5
229.964	69.5
230.199	76.5
230.433	80.5
230.667	81.5
230.901	87.5
231.136	79.5
231.37	82.5
231.604	86.5
231.838	85.5
232.072	75.5
232.306	92.5
232.541	91.5
232.775	90.5
233.009	88.5
233.243	79.5
233.477	80.5
233.711	81.5
233.945	95.5
234.179	97.5
234.413	93.5
234.647	71.5
234.881	80.5
235.115	77.5
235.349	84.5
235.583	77.5
235.817	71.5
236.051	77.5
236.285	75.5
236.519	91.5
236.753	86.5
236.987	67.5
237.221	79.5
237.455	72.5
237.689	86.5
237.922	73.5
238.156	64.5
238.39	73.5
238.624	69.5
238.858	82.5
239.091	74.5
239.325	86.5
239.559	63.5
239.793	87.5
240.027	86.5
240.26	96.5
240.494	79.5
240.728	80.5
240.961	77.5
241.195	79.5
241.429	79.5
241.662	81.5
241.896	69.5
242.13	77.5
242.363	75.5
242.597	80.5
242.83	85.5
243.064	85.5
243.298	86.5
243.531	73.5
243.765	83.5
243.998	81.5
244.232	78.5
244.465	79.5
244.699	77.5
244.932	79.5
245.166	91.5
245.399	81.5
245.633	80.5
245.866	74.5
246.099	88.5
246.333	84.5
246.566	92.5
246.8	93.5
247.033	89.5
247.266	91.5
247.5	78.5
247.733	71.5
247.966	81.5
248.2	65.5
248.433	87.5
248.666	93.5
248.899	87.5
249.133	79.5
249.366	98.5
249.599	99.5
249.832	87.5
250.066	78.5
250.299	84.5
250.532	91.5
250.765	91.5
250.998	79.5
251.231	89.5
251.465	88.5
251.698	83.5
251.931	83.5
252.164	75.5
252.397	75.5
252.63	83.5
252.863	73.5
253.096	60.5
253.329	73.5
253.562	79.5
253.795	82.5
254.028	92.5
254.261	90.5
254.494	78.5
254.727	86.5
254.96	80.5
255.193	83.5
255.426	84.5
255.659	78.5
255.892	98.5
256.124	87.5
256.357	77.5
256.59	93.5
256.823	86.5
257.056	90.5
257.289	85.5
257.521	98.5
257.754	89.5
257.987	77.5
258.22	90.5
258.452	80.5
258.685	93.5
258.918	92.5
259.151	77.5
259.383	83.5
259.616	72.5
259.849	99.5
260.081	85.5
260.314	84.5
260.547	105.5
260.779	88.5
261.012	82.5
261.244	88.5
261.477	97.5
261.71	93.5
261.942	109.5
262.175	95.5
262.407	86.5
262.64	75.5
262.872	74.5
263.105	83.5
263.337	85.5
263.57	85.5
263.802	86.5
264.035	93.5
264.267	79.5
264.499	88.5
264.732	87.5
264.964	76.5
265.197	85.5
265.429	91.5
265.661	94.5
265.894	85.5
266.126	102.5
266.358	84.5
266.591	89.5
266.823	92.5
267.055	85.5
267.287	81.5
267.52	86.5
267.752	79.5
267.984	85.5
268.216	67.5
268.448	96.5
268.681	81.5
268.913	86.5
269.145	89.5
269.377	88.5
269.609	105.5
269.841	102.5
270.073	93.5
270.306	98.5
270.538	87.5
270.77	83.5
271.002	79.5
271.234	81.5
271.466	104.5
271.698	79.5
271.93	79.5
272.162	96.5
272.394	91.5
272.626	85.5
272.858	89.5
273.09	89.5
273.322	88.5
273.553	68.5
273.785	91.5
274.017	92.5
274.249	75.5
274.481	83.5
274.713	83.5
274.945	87.5
275.176	91.5
275.408	83.5
275.64	91.5
275.872	106.5
276.104	95.5
276.335	91.5
276.567	88.5
276.799	95.5
277.031	103.5
277.262	106.5
277.494	102.5
277.726	98.5
277.957	94.5
278.189	105.5
278.421	103.5
278.652	75.5
278.884	87.5
279.115	82.5
279.347	83.5
279.579	93.5
279.81	93.5
280.042	100.5
280.273	116.5
280.505	109.5
280.736	85.5
280.968	82.5
281.199	96.5
281.431	87.5
281.662	83.5
281.894	97.5
282.125	92.5
282.356	113.5
282.588	131.5
282.819	103.5
283.051	94.5
283.282	84.5
283.513	96.5
283.745	87.5
283.976	89.5
284.207	98.5
284.439	84.5
284.67	106.5
284.901	90.5
285.132	94.5
285.364	91.5
285.595	85.5
285.826	94.5
286.057	95.5
286.288	76.5
286.52	91.5
286.751	89.5
286.982	100.5
287.213	88.5
287.444	75.5
287.675	83.5
287.906	89.5
288.138	81.5
288.369	83.5
288.6	86.5
288.831	93.5
289.062	84.5
289.293	87.5
289.524	87.5
289.755	91.5
289.986	85.5
290.217	99.5
290.448	87.5
290.679	88.5
290.91	90.5
291.141	89.5
291.371	93.5
291.602	87.5
291.833	96.5
292.064	85.5
292.295	78.5
292.526	87.5
292.757	95.5
292.987	91.5
293.218	98.5
293.449	85.5
293.68	83.5
293.91	92.5
294.141	91.5
294.372	101.5
294.603	98.5
294.833	89.5
295.064	88.5
295.295	73.5
295.525	93.5
295.756	90.5
295.987	115.5
296.217	127.5
296.448	89.5
296.679	97.5
296.909	95.5
297.14	89.5
297.37	75.5
297.601	84.5
297.831	87.5
298.062	102.5
298.292	89.5
298.523	90.5
298.753	89.5
298.984	69.5
299.214	89.5
299.445	85.5
299.675	89.5
299.905	91.5
300.136	87.5
300.366	79.5
300.597	99.5
300.827	92.5
301.057	100.5
301.288	95.5
301.518	89.5
301.748	94.5
301.979	106.5
302.209	84.5
302.439	91.5
302.669	82.5
302.9	88.5
303.13	96.5
303.36	90.5
303.59	102.5
303.82	108.5
304.051	104.5
304.281	97.5
304.511	94.5
304.741	85.5
304.971	91.5
305.201	82.5
305.431	97.5
305.661	84.5
305.891	103.5
306.121	95.5
306.352	97.5
306.582	109.5
306.812	96.5
307.042	80.5
307.272	113.5
307.502	128.5
307.731	121.5
307.961	94.5
308.191	89.5
308.421	97.5
308.651	86.5
308.881	79.5
309.111	106.5
309.341	95.5
309.571	74.5
309.8	91.5
310.03	92.5
310.26	95.5
310.49	102.5
310.72	113.5
310.949	106.5
311.179	85.5
311.409	83.5
311.639	104.5
311.868	99.5
312.098	92.5
312.328	104.5
312.557	102.5
312.787	98.5
313.017	103.5
313.246	95.5
313.476	81.5
313.706	100.5
313.935	93.5
314.165	89.5
314.394	112.5
314.624	95.5
314.853	94.5
315.083	97.5
315.312	90.5
315.542	89.5
315.771	90.5
316.001	100.5
316.23	97.5
316.46	94.5
316.689	106.5
316.919	96.5
317.148	94.5
317.377	89.5
317.607	87.5
317.836	90.5
318.065	90.5
318.295	101.5
318.524	68.5
318.753	92.5
318.983	97.5
319.212	103.5
319.441	98.5
319.67	97.5
319.9	90.5
320.129	86.5
320.358	91.5
320.587	91.5
320.816	91.5
321.046	82.5
321.275	97.5
321.504	89.5
321.733	94.5
321.962	92.5
322.191	107.5
322.42	108.5
322.649	107.5
322.878	114.5
323.108	103.5
323.337	112.5
323.566	111.5
323.795	118.5
324.024	170.5
324.253	287.5
324.482	575.5
324.71	1182.5
324.939	1571.5
325.168	599.5
325.397	189.5
325.626	141.5
325.855	125.5
326.084	114.5
326.313	125.5
326.542	133.5
326.77	190.5
326.999	331.5
327.228	685.5
327.457	1246.5
327.686	1004.5
327.914	333.5
328.143	255.5
328.372	273.5
328.6	167.5
328.829	113.5
329.058	135.5
329.287	112.5
329.515	101.5
329.744	134.5
329.972	204.5
330.201	336.5
330.43	453.5
330.658	232.5
330.887	138.5
331.115	120.5
331.344	99.5
331.572	103.5
331.801	94.5
332.03	111.5
332.258	105.5
332.486	104.5
332.715	96.5
332.943	104.5
333.172	114.5
333.4	104.5
333.629	99.5
333.857	131.5
334.085	197.5
334.314	338.5
334.542	587.5
334.771	534.5
334.999	185.5
335.227	112.5
335.455	103.5
335.684	101.5
335.912	103.5
336.14	100.5
336.369	97.5
336.597	105.5
336.825	90.5
337.053	107.5
337.281	99.5
337.51	96.5
337.738	90.5
337.966	101.5
338.194	91.5
338.422	102.5
338.65	97.5
338.878	91.5
339.106	92.5
339.334	107.5
339.562	103.5
339.79	90.5
340.018	89.5
340.246	94.5
340.474	104.5
340.702	93.5
340.93	98.5
341.158	90.5
341.386	98.5
341.614	79.5
341.842	69.5
342.07	89.5
342.298	93.5
342.526	75.5
342.754	90.5
342.981	88.5
343.209	98.5
343.437	89.5
343.665	91.5
343.893	85.5
344.12	94.5
344.348	89.5
344.576	87.5
344.804	106.5
345.031	91.5
345.259	92.5
345.487	97.5
345.714	91.5
345.942	81.5
346.17	91.5
346.397	97.5
346.625	101.5
346.853	86.5
347.08	99.5
347.308	93.5
347.535	98.5
347.763	94.5
347.99	75.5
348.218	85.5
348.445	108.5
348.673	102.5
348.9	93.5
349.128	85.5
349.355	83.5
349.583	95.5
349.81	70.5
350.037	99.5
350.265	80.5
350.492	97.5
350.72	94.5
350.947	99.5
351.174	103.5
351.402	92.5
351.629	89.5
351.856	95.5
352.083	86.5
352.311	103.5
352.538	93.5
352.765	115.5
352.992	106.5
353.22	104.5
353.447	106.5
353.674	99.5
353.901	80.5
354.128	91.5
354.355	108.5
354.583	91.5
354.81	81.5
355.037	96.5
355.264	97.5
355.491	81.5
355.718	97.5
355.945	108.5
356.172	86.5
356.399	93.5
356.626	73.5
356.853	80.5
357.08	91.5
357.307	100.5
357.534	96.5
357.761	82.5
357.988	99.5
358.215	94.5
358.441	85.5
358.668	88.5
358.895	107.5
359.122	114.5
359.349	97.5
359.576	93.5
359.802	101.5
360.029	105.5
360.256	103.5
360.483	85.5
360.709	93.5
360.936	102.5
361.163	97.5
361.39	95.5
361.616	81.5
361.843	84.5
362.07	83.5
362.296	100.5
362.523	90.5
362.749	77.5
362.976	98.5
363.203	96.5
363.429	99.5
363.656	85.5
363.882	95.5
364.109	101.5
364.335	98.5
364.562	91.5
364.788	92.5
365.015	98.5
365.241	85.5
365.468	90.5
365.694	100.5
365.92	93.5
366.147	88.5
366.373	83.5
366.599	102.5
366.826	84.5
367.052	91.5
367.278	90.5
367.505	87.5
367.731	101.5
367.957	94.5
368.184	80.5
368.41	90.5
368.636	106.5
368.862	100.5
369.089	94.5
369.315	89.5
369.541	78.5
369.767	87.5
369.993	97.5
370.219	88.5
370.445	85.5
370.672	89.5
370.898	80.5
371.124	89.5
371.35	91.5
371.576	89.5
371.802	100.5
372.028	91.5
372.254	81.5
372.48	101.5
372.706	93.5
372.932	88.5
373.158	103.5
373.384	96.5
373.61	83.5
373.835	83.5
374.061	89.5
374.287	93.5
374.513	83.5
374.739	93.5
374.965	86.5
375.191	86.5
375.416	107.5
375.642	89.5
375.868	105.5
376.094	100.5
376.319	86.5
376.545	60.5
376.771	90.5
376.997	90.5
377.222	88.5
377.448	80.5
377.674	91.5
377.899	93.5
378.125	94.5
378.35	91.5
378.576	88.5
378.802	95.5
379.027	101.5
379.253	89.5
379.478	100.5
379.704	87.5
379.929	90.5
380.155	94.5
380.38	91.5
380.606	82.5
380.831	101.5
381.057	94.5
381.282	86.5
381.507	94.5
381.733	101.5
381.958	90.5
382.184	97.5
382.409	107.5
382.634	107.5
382.86	109.5
383.085	105.5
383.31	81.5
383.535	107.5
383.761	107.5
383.986	111.5
384.211	85.5
384.436	96.5
384.662	99.5
384.887	104.5
385.112	86.5
385.337	109.5
385.562	101.5
385.787	102.5
386.013	117.5
386.238	103.5
386.463	97.5
386.688	97.5
386.913	112.5
387.138	110.5
387.363	101.5
387.588	101.5
387.813	90.5
388.038	92.5
388.263	107.5
388.488	122.5
388.713	108.5
388.938	97.5
389.163	101.5
389.387	84.5
389.612	99.5
389.837	79.5
390.062	95.5
390.287	90.5
390.512	82.5
390.736	102.5
390.961	93.5
391.186	93.5
391.411	91.5
391.636	87.5
391.86	91.5
392.085	102.5
392.31	95.5
392.534	99.5
392.759	85.5
392.984	96.5
393.208	86.5
393.433	103.5
393.658	116.5
393.882	80.5
394.107	87.5
394.331	82.5
394.556	97.5
394.78	90.5
395.005	83.5
395.229	93.5
395.454	82.5
395.678	75.5
395.903	85.5
396.127	96.5
396.352	87.5
396.576	81.5
396.801	87.5
397.025	88.5
397.249	104.5
397.474	97.5
397.698	81.5
397.922	75.5
398.147	89.5
398.371	75.5
398.595	85.5
398.82	107.5
399.044	87.5
399.268	92.5
399.492	77.5
399.717	74.5
399.941	101.5
400.165	86.5
400.389	94.5
400.613	92.5
400.837	90.5
401.062	91.5
401.286	90.5
401.51	88.5
401.734	91.5
401.958	110.5
402.182	99.5
402.406	125.5
402.63	108.5
402.854	93.5
403.078	93.5
403.302	103.5
403.526	94.5
403.75	77.5
403.974	93.5
404.198	89.5
404.422	81.5
404.645	85.5
404.869	84.5
405.093	86.5
405.317	107.5
405.541	102.5
405.765	97.5
405.988	104.5
406.212	138.5
406.436	176.5
406.66	125.5
406.883	104.5
407.107	88.5
407.331	106.5
407.555	83.5
407.778	86.5
408.002	97.5
408.226	98.5
408.449	88.5
408.673	91.5
408.896	97.5
409.12	92.5
409.344	84.5
409.567	102.5
409.791	86.5
410.014	112.5
410.238	95.5
410.461	77.5
410.685	94.5
410.908	101.5
411.132	101.5
411.355	94.5
411.578	101.5
411.802	91.5
412.025	81.5
412.249	91.5
412.472	107.5
412.695	99.5
412.919	94.5
413.142	96.5
413.365	87.5
413.589	88.5
413.812	102.5
414.035	74.5
414.258	85.5
414.482	85.5
414.705	95.5
414.928	95.5
415.151	98.5
415.374	90.5
415.597	94.5
415.821	104.5
416.044	83.5
416.267	86.5
416.49	77.5
416.713	91.5
416.936	96.5
417.159	93.5
417.382	82.5
417.605	86.5
417.828	105.5
418.051	90.5
418.274	89.5
418.497	73.5
418.72	93.5
418.943	83.5
419.166	72.5
419.389	93.5
419.611	81.5
419.834	93.5
420.057	84.5
420.28	87.5
420.503	83.5
420.726	99.5
420.948	93.5
421.171	96.5
421.394	83.5
421.617	101.5
421.839	96.5
422.062	106.5
422.285	106.5
422.507	96.5
422.73	92.5
422.953	86.5
423.175	90.5
423.398	95.5
423.621	92.5
423.843	85.5
424.066	75.5
424.288	92.5
424.511	94.5
424.733	102.5
424.956	94.5
425.178	94.5
425.401	115.5
425.623	110.5
425.846	94.5
426.068	94.5
426.291	101.5
426.513	84.5
426.735	92.5
426.958	99.5
427.18	94.5
427.402	118.5
427.625	171.5
427.847	138.5
428.069	144.5
428.292	95.5
428.514	93.5
428.736	94.5
428.958	89.5
429.181	86.5
429.403	82.5
429.625	87.5
429.847	87.5
430.069	85.5
430.292	80.5
430.514	89.5
430.736	80.5
430.958	93.5
431.18	82.5
431.402	89.5
431.624	95.5
431.846	99.5
432.068	90.5
432.29	85.5
432.512	93.5
432.734	91.5
432.956	83.5
433.178	100.5
433.4	89.5
433.622	79.5
433.844	90.5
434.066	116.5
434.287	99.5
434.509	95.5
434.731	84.5
434.953	106.5
435.175	91.5
435.397	91.5
435.618	88.5
435.84	94.5
436.062	118.5
436.284	97.5
436.505	98.5
436.727	106.5
436.949	69.5
437.17	85.5
437.392	93.5
437.614	88.5
437.835	101.5
438.057	113.5
438.278	107.5
438.5	91.5
438.721	97.5
438.943	111.5
439.165	93.5
439.386	83.5
439.608	86.5
439.829	100.5
440.05	109.5
440.272	135.5
440.493	112.5
440.715	82.5
440.936	85.5
441.158	92.5
441.379	86.5
441.6	94.5
441.822	86.5
442.043	90.5
442.264	113.5
442.486	98.5
442.707	93.5
442.928	101.5
443.149	121.5
443.371	113.5
443.592	106.5
443.813	97.5
444.034	97.5
444.255	82.5
444.476	96.5
444.698	77.5
444.919	84.5
445.14	142.5
445.361	123.5
445.582	106.5
445.803	125.5
446.024	122.5
446.245	107.5
446.466	110.5
446.687	93.5
446.908	90.5
447.129	85.5
447.35	98.5
447.571	100.5
447.792	102.5
448.013	89.5
448.234	97.5
448.455	90.5
448.675	113.5
448.896	122.5
449.117	104.5
449.338	96.5
449.559	115.5
449.779	122.5
450	93.5
450.221	91.5
450.442	79.5
450.662	89.5
450.883	98.5
451.104	102.5
451.324	92.5
451.545	82.5
451.766	87.5
451.986	79.5
452.207	90.5
452.428	94.5
452.648	93.5
452.869	106.5
453.089	107.5
453.31	104.5
453.53	87.5
453.751	95.5
453.971	103.5
454.192	105.5
454.412	97.5
454.633	96.5
454.853	86.5
455.073	87.5
455.294	91.5
455.514	109.5
455.734	101.5
455.955	95.5
456.175	101.5
456.395	88.5
456.616	73.5
456.836	74.5
457.056	101.5
457.276	89.5
457.497	71.5
457.717	71.5
457.937	110.5
458.157	92.5
458.377	71.5
458.598	105.5
458.818	131.5
459.038	145.5
459.258	111.5
459.478	90.5
459.698	79.5
459.918	96.5
460.138	83.5
460.358	95.5
460.578	79.5
460.798	92.5
461.018	98.5
461.238	91.5
461.458	101.5
461.678	86.5
461.898	89.5
462.118	79.5
462.338	106.5
462.558	80.5
462.777	78.5
462.997	86.5
463.217	91.5
463.437	77.5
463.657	81.5
463.876	85.5
464.096	92.5
464.316	100.5
464.536	97.5
464.755	103.5
464.975	105.5
465.195	142.5
465.414	129.5
465.634	83.5
465.854	79.5
466.073	81.5
466.293	78.5
466.512	94.5
466.732	91.5
466.951	99.5
467.171	104.5
467.391	107.5
467.61	103.5
467.829	116.5
468.049	234.5
468.268	328.5
468.488	126.5
468.707	87.5
468.927	90.5
469.146	86.5
469.365	89.5
469.585	87.5
469.804	100.5
470.023	95.5
470.243	104.5
470.462	93.5
470.681	105.5
470.901	108.5
471.12	98.5
471.339	102.5
471.558	98.5
471.777	102.5
471.997	179.5
472.216	415.5
472.435	815.5
472.654	245.5
472.873	115.5
473.092	92.5
473.311	92.5
473.53	105.5
473.749	92.5
473.968	91.5
474.187	122.5
474.406	102.5
474.625	89.5
474.844	89.5
475.063	86.5
475.282	87.5
475.501	81.5
475.72	81.5
475.939	77.5
476.158	93.5
476.377	86.5
476.596	87.5
476.814	108.5
477.033	99.5
477.252	78.5
477.471	97.5
477.69	83.5
477.908	97.5
478.127	86.5
478.346	87.5
478.564	102.5
478.783	89.5
479.002	90.5
479.22	89.5
479.439	99.5
479.658	120.5
479.876	102.5
480.095	90.5
480.313	87.5
480.532	130.5
480.751	154.5
480.969	394.5
481.188	1429.5
481.406	827.5
481.624	174.5
481.843	100.5
482.061	89.5
482.28	90.5
482.498	107.5
482.717	104.5
482.935	78.5
483.153	73.5
483.372	92.5
483.59	107.5
483.808	102.5
484.027	84.5
484.245	89.5
484.463	93.5
484.681	102.5
484.9	85.5
485.118	105.5
485.336	104.5
485.554	98.5
485.772	98.5
485.99	111.5
486.209	111.5
486.427	106.5
486.645	119.5
486.863	108.5
487.081	89.5
487.299	111.5
487.517	99.5
487.735	97.5
487.953	87.5
488.171	90.5
488.389	85.5
488.607	98.5
488.825	97.5
489.043	83.5
489.261	95.5
489.479	91.5
489.696	97.5
489.914	93.5
490.132	90.5
490.35	84.5
490.568	93.5
490.786	102.5
491.003	95.5
491.221	90.5
491.439	105.5
491.657	95.5
491.874	93.5
492.092	85.5
492.31	83.5
492.527	101.5
492.745	90.5
492.963	88.5
493.18	98.5
493.398	94.5
493.615	112.5
493.833	93.5
494.05	82.5
494.268	83.5
494.485	114.5
494.703	103.5
494.92	85.5
495.138	95.5
495.355	100.5
495.573	89.5
495.79	71.5
496.008	97.5
496.225	107.5
496.442	87.5
496.66	96.5
496.877	101.5
497.094	90.5
497.312	98.5
497.529	96.5
497.746	80.5
497.963	99.5
498.181	95.5
498.398	90.5
498.615	89.5
498.832	98.5
499.049	97.5
499.267	101.5
499.484	86.5
499.701	103.5
499.918	85.5
500.135	90.5
500.352	88.5
500.569	85.5
500.786	104.5
501.003	95.5
501.22	86.5
501.437	97.5
501.654	96.5
501.871	102.5
502.088	98.5
502.305	85.5
502.522	86.5
502.739	96.5
502.956	80.5
503.172	89.5
503.389	92.5
503.606	108.5
503.823	97.5
504.04	94.5
504.256	95.5
504.473	74.5
504.69	86.5
504.907	101.5
505.123	100.5
505.34	103.5
505.557	94.5
505.773	100.5
505.99	81.5
506.207	86.5
506.423	93.5
506.64	87.5
506.856	93.5
507.073	99.5
507.289	97.5
507.506	92.5
507.722	96.5
507.939	110.5
508.155	92.5
508.372	77.5
508.588	90.5
508.805	96.5
509.021	108.5
509.238	107.5
509.454	93.5
509.67	100.5
509.887	102.5
510.103	118.5
510.319	179.5
510.536	538.5
510.752	1619.5
510.968	481.5
511.184	131.5
511.401	108.5
511.617	90.5
511.833	84.5
512.049	87.5
512.265	93.5
512.481	85.5
512.698	98.5
512.914	100.5
513.13	101.5
513.346	105.5
513.562	94.5
513.778	99.5
513.994	101.5
514.21	102.5
514.426	129.5
514.642	117.5
514.858	117.5
515.074	136.5
515.29	300.5
515.506	993.5
515.721	390.5
515.937	137.5
516.153	99.5
516.369	104.5
516.585	79.5
516.801	95.5
517.016	84.5
517.232	87.5
517.448	90.5
517.664	95.5
517.879	97.5
518.095	88.5
518.311	89.5
518.527	85.5
518.742	88.5
518.958	84.5
519.173	91.5
519.389	99.5
519.605	104.5
519.82	96.5
520.036	111.5
520.251	113.5
520.467	109.5
520.682	95.5
520.898	106.5
521.113	117.5
521.329	119.5
521.544	164.5
521.76	386.5
521.975	1610.5
522.19	984.5
522.406	233.5
522.621	126.5
522.836	94.5
523.052	103.5
523.267	92.5
523.482	96.5
523.698	109.5
523.913	111.5
524.128	92.5
524.343	88.5
524.559	79.5
524.774	91.5
524.989	91.5
525.204	95.5
525.419	82.5
525.634	85.5
525.849	86.5
526.064	98.5
526.28	89.5
526.495	94.5
526.71	99.5
526.925	85.5
527.14	111.5
527.355	88.5
527.57	104.5
527.785	75.5
527.999	89.5
528.214	85.5
528.429	87.5
528.644	88.5
528.859	87.5
529.074	89.5
529.289	120.5
529.503	157.5
529.718	113.5
529.933	106.5
530.148	90.5
530.363	83.5
530.577	87.5
530.792	82.5
531.007	98.5
531.221	105.5
531.436	107.5
531.651	86.5
531.865	104.5
532.08	96.5
532.295	86.5
532.509	85.5
532.724	95.5
532.938	89.5
533.153	83.5
533.367	91.5
533.582	107.5
533.796	89.5
534.011	95.5
534.225	94.5
534.44	99.5
534.654	106.5
