Data from Circ_1989_H10_HRD10591_00024.txt Node
Date: Wed Jan 03 12:01:26 EST 2024
User: Yrep
Spectrometer: HR+D1059
Trigger mode: 1
Integration Time (sec): 1.000000E-1
Scans to average: 1
Electric dark correction enabled: true
Nonlinearity correction enabled: false
Boxcar width: 0
XAxis mode: Wavelengths
Number of Pixels in Spectrum: 2048
>>>>>Begin Spectral Data<<<<<
223.165	-24.69
223.4	-24.69
223.635	-24.69
223.869	-20.69
224.104	-21.69
224.338	-9.69
224.573	-17.69
224.808	-18.69
225.042	-4.69
225.277	3.31
225.511	-0.69
225.746	20.31
225.98	8.31
226.215	-5.69
226.449	14.31
226.683	14.31
226.918	35.31
227.152	28.31
227.387	32.31
227.621	31.31
227.856	41.31
228.09	46.31
228.324	48.31
228.559	61.31
228.793	51.31
229.027	40.31
229.262	80.31
229.496	75.31
229.73	92.31
229.964	92.31
230.199	66.31
230.433	70.31
230.667	83.31
230.901	76.31
231.136	79.31
231.37	84.31
231.604	80.31
231.838	78.31
232.072	78.31
232.306	87.31
232.541	67.31
232.775	74.31
233.009	71.31
233.243	67.31
233.477	74.31
233.711	67.31
233.945	80.31
234.179	87.31
234.413	87.31
234.647	77.31
234.881	56.31
235.115	76.31
235.349	79.31
235.583	80.31
235.817	93.31
236.051	81.31
236.285	76.31
236.519	68.31
236.753	77.31
236.987	72.31
237.221	78.31
237.455	83.31
237.689	75.31
237.922	74.31
238.156	75.31
238.39	87.31
238.624	74.31
238.858	75.31
239.091	70.31
239.325	72.31
239.559	78.31
239.793	75.31
240.027	99.31
240.26	87.31
240.494	98.31
240.728	76.31
240.961	70.31
241.195	82.31
241.429	60.31
241.662	63.31
241.896	79.31
242.13	61.31
242.363	69.31
242.597	60.31
242.83	75.31
243.064	70.31
243.298	85.31
243.531	71.31
243.765	86.31
243.998	75.31
244.232	75.31
244.465	78.31
244.699	69.31
244.932	75.31
245.166	78.31
245.399	85.31
245.633	82.31
245.866	83.31
246.099	85.31
246.333	72.31
246.566	91.31
246.8	82.31
247.033	69.31
247.266	76.31
247.5	78.31
247.733	72.31
247.966	78.31
248.2	92.31
248.433	102.31
248.666	74.31
248.899	78.31
249.133	82.31
249.366	88.31
249.599	93.31
249.832	80.31
250.066	72.31
250.299	77.31
250.532	78.31
250.765	95.31
250.998	84.31
251.231	78.31
251.465	71.31
251.698	76.31
251.931	78.31
252.164	78.31
252.397	78.31
252.63	78.31
252.863	76.31
253.096	85.31
253.329	84.31
253.562	84.31
253.795	83.31
254.028	87.31
254.261	81.31
254.494	73.31
254.727	81.31
254.96	79.31
255.193	83.31
255.426	79.31
255.659	78.31
255.892	93.31
256.124	78.31
256.357	88.31
256.59	69.31
256.823	86.31
257.056	83.31
257.289	88.31
257.521	65.31
257.754	61.31
257.987	79.31
258.22	88.31
258.452	83.31
258.685	81.31
258.918	86.31
259.151	67.31
259.383	78.31
259.616	80.31
259.849	82.31
260.081	75.31
260.314	90.31
260.547	83.31
260.779	71.31
261.012	90.31
261.244	74.31
261.477	88.31
261.71	100.31
261.942	134.31
262.175	131.31
262.407	90.31
262.64	84.31
262.872	87.31
263.105	74.31
263.337	82.31
263.57	67.31
263.802	86.31
264.035	80.31
264.267	89.31
264.499	90.31
264.732	97.31
264.964	92.31
265.197	92.31
265.429	92.31
265.661	84.31
265.894	79.31
266.126	91.31
266.358	74.31
266.591	79.31
266.823	80.31
267.055	84.31
267.287	86.31
267.52	79.31
267.752	78.31
267.984	69.31
268.216	86.31
268.448	90.31
268.681	77.31
268.913	85.31
269.145	83.31
269.377	91.31
269.609	78.31
269.841	77.31
270.073	92.31
270.306	84.31
270.538	73.31
270.77	82.31
271.002	98.31
271.234	73.31
271.466	91.31
271.698	93.31
271.93	78.31
272.162	90.31
272.394	90.31
272.626	82.31
272.858	91.31
273.09	75.31
273.322	79.31
273.553	55.31
273.785	87.31
274.017	74.31
274.249	72.31
274.481	81.31
274.713	82.31
274.945	90.31
275.176	87.31
275.408	96.31
275.64	94.31
275.872	96.31
276.104	94.31
276.335	97.31
276.567	99.31
276.799	96.31
277.031	121.31
277.262	128.31
277.494	100.31
277.726	82.31
277.957	80.31
278.189	94.31
278.421	97.31
278.652	82.31
278.884	87.31
279.115	88.31
279.347	84.31
279.579	86.31
279.81	85.31
280.042	126.31
280.273	149.31
280.505	125.31
280.736	99.31
280.968	92.31
281.199	84.31
281.431	91.31
281.662	83.31
281.894	94.31
282.125	108.31
282.356	118.31
282.588	136.31
282.819	124.31
283.051	79.31
283.282	82.31
283.513	87.31
283.745	82.31
283.976	90.31
284.207	102.31
284.439	73.31
284.67	78.31
284.901	95.31
285.132	83.31
285.364	75.31
285.595	90.31
285.826	79.31
286.057	56.31
286.288	89.31
286.52	81.31
286.751	83.31
286.982	91.31
287.213	74.31
287.444	95.31
287.675	79.31
287.906	82.31
288.138	86.31
288.369	95.31
288.6	95.31
288.831	77.31
289.062	93.31
289.293	87.31
289.524	76.31
289.755	82.31
289.986	78.31
290.217	79.31
290.448	75.31
290.679	106.31
290.91	87.31
291.141	88.31
291.371	93.31
291.602	91.31
291.833	90.31
292.064	84.31
292.295	93.31
292.526	92.31
292.757	82.31
292.987	97.31
293.218	86.31
293.449	102.31
293.68	85.31
293.91	83.31
294.141	90.31
294.372	70.31
294.603	93.31
294.833	76.31
295.064	84.31
295.295	83.31
295.525	91.31
295.756	100.31
295.987	96.31
296.217	138.31
296.448	125.31
296.679	78.31
296.909	93.31
297.14	99.31
297.37	81.31
297.601	100.31
297.831	75.31
298.062	90.31
298.292	80.31
298.523	81.31
298.753	80.31
298.984	92.31
299.214	93.31
299.445	78.31
299.675	94.31
299.905	87.31
300.136	92.31
300.366	99.31
300.597	72.31
300.827	85.31
301.057	95.31
301.288	104.31
301.518	78.31
301.748	77.31
301.979	98.31
302.209	97.31
302.439	80.31
302.669	94.31
302.9	87.31
303.13	109.31
303.36	98.31
303.59	104.31
303.82	108.31
304.051	92.31
304.281	86.31
304.511	82.31
304.741	106.31
304.971	78.31
305.201	85.31
305.431	92.31
305.661	98.31
305.891	100.31
306.121	79.31
306.352	102.31
306.582	102.31
306.812	100.31
307.042	105.31
307.272	95.31
307.502	133.31
307.731	113.31
307.961	99.31
308.191	83.31
308.421	82.31
308.651	82.31
308.881	80.31
309.111	91.31
309.341	84.31
309.571	103.31
309.8	111.31
310.03	107.31
310.26	86.31
310.49	89.31
310.72	108.31
310.949	95.31
311.179	97.31
311.409	91.31
311.639	97.31
311.868	96.31
312.098	86.31
312.328	95.31
312.557	92.31
312.787	108.31
313.017	99.31
313.246	98.31
313.476	93.31
313.706	93.31
313.935	83.31
314.165	85.31
314.394	110.31
314.624	98.31
314.853	88.31
315.083	98.31
315.312	89.31
315.542	93.31
315.771	100.31
316.001	86.31
316.23	95.31
316.46	96.31
316.689	91.31
316.919	94.31
317.148	102.31
317.377	88.31
317.607	104.31
317.836	107.31
318.065	88.31
318.295	89.31
318.524	86.31
318.753	91.31
318.983	103.31
319.212	93.31
319.441	110.31
319.67	99.31
319.9	92.31
320.129	92.31
320.358	92.31
320.587	100.31
320.816	93.31
321.046	100.31
321.275	115.31
321.504	100.31
321.733	90.31
321.962	98.31
322.191	104.31
322.42	84.31
322.649	114.31
322.878	108.31
323.108	116.31
323.337	128.31
323.566	119.31
323.795	150.31
324.024	196.31
324.253	393.31
324.482	832.31
324.71	1685.31
324.939	2340.31
325.168	814.31
325.397	253.31
325.626	160.31
325.855	113.31
326.084	111.31
326.313	134.31
326.542	146.31
326.77	236.31
326.999	428.31
327.228	932.31
327.457	1742.31
327.686	1422.31
327.914	429.31
328.143	321.31
328.372	327.31
328.6	210.31
328.829	140.31
329.058	149.31
329.287	145.31
329.515	125.31
329.744	141.31
329.972	229.31
330.201	424.31
330.43	594.31
330.658	322.31
330.887	198.31
331.115	135.31
331.344	121.31
331.572	103.31
331.801	119.31
332.03	102.31
332.258	100.31
332.486	87.31
332.715	104.31
332.943	108.31
333.172	107.31
333.4	97.31
333.629	105.31
333.857	148.31
334.085	218.31
334.314	430.31
334.542	774.31
334.771	728.31
334.999	238.31
335.227	126.31
335.455	115.31
335.684	103.31
335.912	104.31
336.14	104.31
336.369	101.31
336.597	98.31
336.825	116.31
337.053	86.31
337.281	101.31
337.51	83.31
337.738	86.31
337.966	85.31
338.194	98.31
338.422	99.31
338.65	97.31
338.878	100.31
339.106	85.31
339.334	93.31
339.562	99.31
339.79	91.31
340.018	92.31
340.246	88.31
340.474	86.31
340.702	97.31
340.93	90.31
341.158	96.31
341.386	109.31
341.614	100.31
341.842	89.31
342.07	105.31
342.298	101.31
342.526	82.31
342.754	89.31
342.981	91.31
343.209	87.31
343.437	90.31
343.665	88.31
343.893	93.31
344.12	88.31
344.348	89.31
344.576	69.31
344.804	82.31
345.031	78.31
345.259	96.31
345.487	88.31
345.714	97.31
345.942	101.31
346.17	108.31
346.397	86.31
346.625	82.31
346.853	86.31
347.08	99.31
347.308	90.31
347.535	89.31
347.763	103.31
347.99	102.31
348.218	87.31
348.445	109.31
348.673	107.31
348.9	101.31
349.128	106.31
349.355	89.31
349.583	101.31
349.81	80.31
350.037	89.31
350.265	83.31
350.492	93.31
350.72	87.31
350.947	96.31
351.174	97.31
351.402	110.31
351.629	111.31
351.856	103.31
352.083	103.31
352.311	107.31
352.538	103.31
352.765	90.31
352.992	99.31
353.22	108.31
353.447	116.31
353.674	108.31
353.901	101.31
354.128	85.31
354.355	97.31
354.583	95.31
354.81	90.31
355.037	109.31
355.264	86.31
355.491	85.31
355.718	104.31
355.945	87.31
356.172	85.31
356.399	87.31
356.626	107.31
356.853	81.31
357.08	91.31
357.307	89.31
357.534	90.31
357.761	85.31
357.988	86.31
358.215	92.31
358.441	78.31
358.668	101.31
358.895	104.31
359.122	100.31
359.349	95.31
359.576	92.31
359.802	108.31
360.029	108.31
360.256	115.31
360.483	90.31
360.709	87.31
360.936	96.31
361.163	102.31
361.39	98.31
361.616	82.31
361.843	86.31
362.07	96.31
362.296	104.31
362.523	80.31
362.749	78.31
362.976	88.31
363.203	86.31
363.429	78.31
363.656	84.31
363.882	75.31
364.109	87.31
364.335	93.31
364.562	83.31
364.788	99.31
365.015	87.31
365.241	80.31
365.468	95.31
365.694	95.31
365.92	95.31
366.147	87.31
366.373	90.31
366.599	78.31
366.826	86.31
367.052	79.31
367.278	85.31
367.505	100.31
367.731	94.31
367.957	82.31
368.184	79.31
368.41	110.31
368.636	97.31
368.862	115.31
369.089	111.31
369.315	110.31
369.541	85.31
369.767	91.31
369.993	96.31
370.219	87.31
370.445	86.31
370.672	91.31
370.898	88.31
371.124	88.31
371.35	78.31
371.576	96.31
371.802	92.31
372.028	68.31
372.254	75.31
372.48	92.31
372.706	95.31
372.932	66.31
373.158	87.31
373.384	94.31
373.61	96.31
373.835	88.31
374.061	81.31
374.287	77.31
374.513	83.31
374.739	79.31
374.965	80.31
375.191	95.31
375.416	105.31
375.642	83.31
375.868	97.31
376.094	102.31
376.319	83.31
376.545	94.31
376.771	94.31
376.997	81.31
377.222	98.31
377.448	74.31
377.674	79.31
377.899	84.31
378.125	95.31
378.35	96.31
378.576	89.31
378.802	93.31
379.027	90.31
379.253	94.31
379.478	103.31
379.704	83.31
379.929	102.31
380.155	90.31
380.38	81.31
380.606	100.31
380.831	96.31
381.057	103.31
381.282	107.31
381.507	111.31
381.733	95.31
381.958	91.31
382.184	102.31
382.409	104.31
382.634	119.31
382.86	106.31
383.085	99.31
383.31	80.31
383.535	98.31
383.761	82.31
383.986	101.31
384.211	92.31
384.436	105.31
384.662	96.31
384.887	117.31
385.112	99.31
385.337	110.31
385.562	114.31
385.787	96.31
386.013	104.31
386.238	106.31
386.463	97.31
386.688	108.31
386.913	109.31
387.138	111.31
387.363	112.31
387.588	100.31
387.813	106.31
388.038	118.31
388.263	112.31
388.488	99.31
388.713	105.31
388.938	96.31
389.163	93.31
389.387	103.31
389.612	99.31
389.837	97.31
390.062	100.31
390.287	99.31
390.512	76.31
390.736	99.31
390.961	90.31
391.186	82.31
391.411	88.31
391.636	73.31
391.86	82.31
392.085	92.31
392.31	88.31
392.534	74.31
392.759	85.31
392.984	94.31
393.208	90.31
393.433	101.31
393.658	100.31
393.882	95.31
394.107	80.31
394.331	95.31
394.556	106.31
394.78	104.31
395.005	81.31
395.229	94.31
395.454	77.31
395.678	91.31
395.903	87.31
396.127	87.31
396.352	76.31
396.576	99.31
396.801	92.31
397.025	106.31
397.249	86.31
397.474	95.31
397.698	88.31
397.922	85.31
398.147	76.31
398.371	88.31
398.595	85.31
398.82	78.31
399.044	96.31
399.268	82.31
399.492	76.31
399.717	96.31
399.941	96.31
400.165	97.31
400.389	93.31
400.613	85.31
400.837	92.31
401.062	98.31
401.286	99.31
401.51	95.31
401.734	86.31
401.958	98.31
402.182	119.31
402.406	154.31
402.63	128.31
402.854	103.31
403.078	93.31
403.302	94.31
403.526	80.31
403.75	69.31
403.974	84.31
404.198	90.31
404.422	86.31
404.645	82.31
404.869	91.31
405.093	114.31
405.317	115.31
405.541	105.31
405.765	109.31
405.988	108.31
406.212	160.31
406.436	231.31
406.66	145.31
406.883	101.31
407.107	97.31
407.331	94.31
407.555	98.31
407.778	107.31
408.002	86.31
408.226	88.31
408.449	77.31
408.673	71.31
408.896	99.31
409.12	88.31
409.344	94.31
409.567	90.31
409.791	92.31
410.014	108.31
410.238	82.31
410.461	80.31
410.685	102.31
410.908	99.31
411.132	111.31
411.355	91.31
411.578	82.31
411.802	83.31
412.025	88.31
412.249	97.31
412.472	95.31
412.695	102.31
412.919	101.31
413.142	80.31
413.365	87.31
413.589	88.31
413.812	74.31
414.035	88.31
414.258	98.31
414.482	88.31
414.705	81.31
414.928	97.31
415.151	96.31
415.374	103.31
415.597	91.31
415.821	76.31
416.044	76.31
416.267	91.31
416.49	92.31
416.713	68.31
416.936	82.31
417.159	99.31
417.382	84.31
417.605	91.31
417.828	94.31
418.051	81.31
418.274	94.31
418.497	83.31
418.72	84.31
418.943	98.31
419.166	83.31
419.389	97.31
419.611	72.31
419.834	86.31
420.057	81.31
420.28	88.31
420.503	87.31
420.726	91.31
420.948	78.31
421.171	93.31
421.394	86.31
421.617	89.31
421.839	86.31
422.062	85.31
422.285	80.31
422.507	103.31
422.73	102.31
422.953	92.31
423.175	104.31
423.398	95.31
423.621	91.31
423.843	91.31
424.066	76.31
424.288	90.31
424.511	79.31
424.733	101.31
424.956	106.31
425.178	92.31
425.401	80.31
425.623	104.31
425.846	92.31
426.068	83.31
426.291	94.31
426.513	83.31
426.735	100.31
426.958	98.31
427.18	109.31
427.402	142.31
427.625	194.31
427.847	174.31
428.069	172.31
428.292	106.31
428.514	94.31
428.736	84.31
428.958	78.31
429.181	98.31
429.403	99.31
429.625	81.31
429.847	103.31
430.069	111.31
430.292	102.31
430.514	92.31
430.736	90.31
430.958	95.31
431.18	77.31
431.402	89.31
431.624	77.31
431.846	96.31
432.068	98.31
432.29	78.31
432.512	87.31
432.734	91.31
432.956	91.31
433.178	106.31
433.4	99.31
433.622	91.31
433.844	98.31
434.066	80.31
434.287	94.31
434.509	110.31
434.731	84.31
434.953	77.31
435.175	86.31
435.397	102.31
435.618	96.31
435.84	100.31
436.062	124.31
436.284	124.31
436.505	107.31
436.727	108.31
436.949	98.31
437.17	87.31
437.392	84.31
437.614	107.31
437.835	111.31
438.057	117.31
438.278	110.31
438.5	104.31
438.721	128.31
438.943	89.31
439.165	80.31
439.386	86.31
439.608	94.31
439.829	101.31
440.05	137.31
440.272	154.31
440.493	93.31
440.715	98.31
440.936	92.31
441.158	81.31
441.379	66.31
441.6	100.31
441.822	100.31
442.043	98.31
442.264	100.31
442.486	105.31
442.707	98.31
442.928	99.31
443.149	141.31
443.371	124.31
443.592	111.31
443.813	126.31
444.034	101.31
444.255	94.31
444.476	87.31
444.698	85.31
444.919	85.31
445.14	142.31
445.361	133.31
445.582	117.31
445.803	153.31
446.024	128.31
446.245	152.31
446.466	123.31
446.687	94.31
446.908	96.31
447.129	89.31
447.35	82.31
447.571	89.31
447.792	91.31
448.013	101.31
448.234	108.31
448.455	91.31
448.675	121.31
448.896	107.31
449.117	91.31
449.338	106.31
449.559	152.31
449.779	135.31
450	94.31
450.221	101.31
450.442	82.31
450.662	101.31
450.883	95.31
451.104	110.31
451.324	93.31
451.545	76.31
451.766	98.31
451.986	86.31
452.207	83.31
452.428	96.31
452.648	80.31
452.869	102.31
453.089	112.31
453.31	116.31
453.53	99.31
453.751	87.31
453.971	118.31
454.192	94.31
454.412	93.31
454.633	94.31
454.853	85.31
455.073	74.31
455.294	105.31
455.514	105.31
455.734	95.31
455.955	87.31
456.175	88.31
456.395	103.31
456.616	68.31
456.836	80.31
457.056	72.31
457.276	92.31
457.497	85.31
457.717	92.31
457.937	80.31
458.157	67.31
458.377	85.31
458.598	110.31
458.818	166.31
459.038	178.31
459.258	129.31
459.478	99.31
459.698	86.31
459.918	88.31
460.138	76.31
460.358	76.31
460.578	90.31
460.798	91.31
461.018	80.31
461.238	88.31
461.458	91.31
461.678	86.31
461.898	77.31
462.118	104.31
462.338	107.31
462.558	86.31
462.777	87.31
462.997	100.31
463.217	99.31
463.437	99.31
463.657	71.31
463.876	86.31
464.096	90.31
464.316	92.31
464.536	88.31
464.755	92.31
464.975	103.31
465.195	167.31
465.414	191.31
465.634	95.31
465.854	95.31
466.073	84.31
466.293	89.31
466.512	84.31
466.732	106.31
466.951	86.31
467.171	88.31
467.391	90.31
467.61	111.31
467.829	135.31
468.049	262.31
468.268	358.31
468.488	141.31
468.707	86.31
468.927	86.31
469.146	77.31
469.365	84.31
469.585	98.31
469.804	110.31
470.023	107.31
470.243	67.31
470.462	114.31
470.681	122.31
470.901	94.31
471.12	83.31
471.339	101.31
471.558	105.31
471.777	99.31
471.997	178.31
472.216	463.31
472.435	1023.31
472.654	264.31
472.873	102.31
473.092	76.31
473.311	91.31
473.53	87.31
473.749	87.31
473.968	106.31
474.187	107.31
474.406	109.31
474.625	89.31
474.844	95.31
475.063	89.31
475.282	77.31
475.501	93.31
475.72	78.31
475.939	80.31
476.158	87.31
476.377	99.31
476.596	75.31
476.814	93.31
477.033	102.31
477.252	96.31
477.471	98.31
477.69	86.31
477.908	85.31
478.127	80.31
478.346	97.31
478.564	91.31
478.783	109.31
479.002	88.31
479.22	103.31
479.439	103.31
479.658	115.31
479.876	103.31
480.095	103.31
480.313	111.31
480.532	124.31
480.751	164.31
480.969	481.31
481.188	1774.31
481.406	1039.31
481.624	193.31
481.843	103.31
482.061	84.31
482.28	96.31
482.498	103.31
482.717	103.31
482.935	86.31
483.153	101.31
483.372	101.31
483.59	79.31
483.808	84.31
484.027	102.31
484.245	94.31
484.463	95.31
484.681	117.31
484.9	93.31
485.118	91.31
485.336	110.31
485.554	90.31
485.772	93.31
485.99	108.31
486.209	94.31
486.427	102.31
486.645	104.31
486.863	123.31
487.081	116.31
487.299	102.31
487.517	95.31
487.735	98.31
487.953	86.31
488.171	93.31
488.389	80.31
488.607	105.31
488.825	93.31
489.043	89.31
489.261	95.31
489.479	81.31
489.696	90.31
489.914	85.31
490.132	80.31
490.35	93.31
490.568	84.31
490.786	82.31
491.003	97.31
491.221	91.31
491.439	88.31
491.657	91.31
491.874	93.31
492.092	90.31
492.31	89.31
492.527	78.31
492.745	94.31
492.963	71.31
493.18	83.31
493.398	92.31
493.615	88.31
493.833	101.31
494.05	82.31
494.268	90.31
494.485	85.31
494.703	101.31
494.92	100.31
495.138	82.31
495.355	77.31
495.573	94.31
495.79	87.31
496.008	96.31
496.225	78.31
496.442	93.31
496.66	114.31
496.877	81.31
497.094	93.31
497.312	86.31
497.529	90.31
497.746	101.31
497.963	103.31
498.181	84.31
498.398	85.31
498.615	124.31
498.832	103.31
499.049	95.31
499.267	91.31
499.484	84.31
499.701	92.31
499.918	97.31
500.135	93.31
500.352	84.31
500.569	92.31
500.786	98.31
501.003	66.31
501.22	106.31
501.437	107.31
501.654	101.31
501.871	99.31
502.088	102.31
502.305	95.31
502.522	93.31
502.739	106.31
502.956	87.31
503.172	90.31
503.389	94.31
503.606	96.31
503.823	98.31
504.04	93.31
504.256	80.31
504.473	83.31
504.69	95.31
504.907	100.31
505.123	79.31
505.34	83.31
505.557	78.31
505.773	88.31
505.99	100.31
506.207	96.31
506.423	101.31
506.64	90.31
506.856	83.31
507.073	79.31
507.289	88.31
507.506	92.31
507.722	110.31
507.939	129.31
508.155	88.31
508.372	83.31
508.588	92.31
508.805	93.31
509.021	86.31
509.238	106.31
509.454	94.31
509.67	100.31
509.887	102.31
510.103	111.31
510.319	197.31
510.536	638.31
510.752	2154.31
510.968	620.31
511.184	148.31
511.401	114.31
511.617	100.31
511.833	104.31
512.049	91.31
512.265	95.31
512.481	90.31
512.698	90.31
512.914	90.31
513.13	104.31
513.346	87.31
513.562	103.31
513.778	98.31
513.994	106.31
514.21	99.31
514.426	115.31
514.642	133.31
514.858	142.31
