Data from Circ_1989_H10_HRD10591_00003.txt Node
Date: Wed Jan 03 12:01:22 EST 2024
User: Yrep
Spectrometer: HR+D1059
Trigger mode: 1
Integration Time (sec): 1.000000E-1
Scans to average: 1
Electric dark correction enabled: true
Nonlinearity correction enabled: false
Boxcar width: 0
XAxis mode: Wavelengths
Number of Pixels in Spectrum: 2048
>>>>>Begin Spectral Data<<<<<
223.165	-3.56
223.4	-3.56
223.635	-3.56
223.869	-3.56
224.104	-30.56
224.338	-6.56
224.573	-14.56
224.808	-6.56
225.042	-22.56
225.277	-0.56
225.511	-1.56
225.746	-7.56
225.98	-5.56
226.215	4.44
226.449	2.44
226.683	23.44
226.918	27.44
227.152	45.44
227.387	33.44
227.621	30.44
227.856	40.44
228.09	64.44
228.324	53.44
228.559	55.44
228.793	56.44
229.027	69.44
229.262	65.44
229.496	79.44
229.73	65.44
229.964	76.44
230.199	74.44
230.433	76.44
230.667	59.44
230.901	69.44
231.136	72.44
231.37	79.44
231.604	62.44
231.838	61.44
232.072	82.44
232.306	72.44
232.541	68.44
232.775	69.44
233.009	79.44
233.243	85.44
233.477	86.44
233.711	78.44
233.945	84.44
234.179	90.44
234.413	76.44
234.647	71.44
234.881	75.44
235.115	55.44
235.349	68.44
235.583	90.44
235.817	78.44
236.051	70.44
236.285	66.44
236.519	80.44
236.753	68.44
236.987	75.44
237.221	71.44
237.455	80.44
237.689	76.44
237.922	76.44
238.156	83.44
238.39	68.44
238.624	65.44
238.858	66.44
239.091	79.44
239.325	113.44
239.559	82.44
239.793	84.44
240.027	91.44
240.26	71.44
240.494	79.44
240.728	80.44
240.961	68.44
241.195	71.44
241.429	69.44
241.662	77.44
241.896	76.44
242.13	79.44
242.363	82.44
242.597	71.44
242.83	69.44
243.064	81.44
243.298	89.44
243.531	80.44
243.765	71.44
243.998	72.44
244.232	86.44
244.465	87.44
244.699	79.44
244.932	68.44
245.166	75.44
245.399	64.44
245.633	68.44
245.866	83.44
246.099	80.44
246.333	72.44
246.566	65.44
246.8	67.44
247.033	73.44
247.266	81.44
247.5	90.44
247.733	79.44
247.966	92.44
248.2	62.44
248.433	85.44
248.666	83.44
248.899	81.44
249.133	86.44
249.366	96.44
249.599	89.44
249.832	75.44
250.066	75.44
250.299	88.44
250.532	78.44
250.765	79.44
250.998	88.44
251.231	90.44
251.465	85.44
251.698	86.44
251.931	81.44
252.164	91.44
252.397	78.44
252.63	75.44
252.863	79.44
253.096	53.44
253.329	68.44
253.562	71.44
253.795	68.44
254.028	79.44
254.261	91.44
254.494	68.44
254.727	85.44
254.96	86.44
255.193	84.44
255.426	76.44
255.659	86.44
255.892	82.44
256.124	81.44
256.357	73.44
256.59	69.44
256.823	67.44
257.056	89.44
257.289	75.44
257.521	75.44
257.754	86.44
257.987	83.44
258.22	76.44
258.452	83.44
258.685	83.44
258.918	85.44
259.151	84.44
259.383	80.44
259.616	87.44
259.849	80.44
260.081	79.44
260.314	82.44
260.547	87.44
260.779	80.44
261.012	85.44
261.244	77.44
261.477	97.44
261.71	89.44
261.942	102.44
262.175	103.44
262.407	82.44
262.64	72.44
262.872	88.44
263.105	71.44
263.337	82.44
263.57	91.44
263.802	76.44
264.035	85.44
264.267	86.44
264.499	95.44
264.732	88.44
264.964	88.44
265.197	84.44
265.429	76.44
265.661	70.44
265.894	66.44
266.126	91.44
266.358	96.44
266.591	77.44
266.823	89.44
267.055	81.44
267.287	82.44
267.52	92.44
267.752	80.44
267.984	80.44
268.216	73.44
268.448	79.44
268.681	85.44
268.913	92.44
269.145	72.44
269.377	70.44
269.609	85.44
269.841	87.44
270.073	84.44
270.306	89.44
270.538	85.44
270.77	72.44
271.002	83.44
271.234	89.44
271.466	67.44
271.698	84.44
271.93	86.44
272.162	77.44
272.394	84.44
272.626	77.44
272.858	84.44
273.09	89.44
273.322	81.44
273.553	84.44
273.785	68.44
274.017	85.44
274.249	73.44
274.481	82.44
274.713	79.44
274.945	89.44
275.176	91.44
275.408	82.44
275.64	84.44
275.872	92.44
276.104	101.44
276.335	88.44
276.567	93.44
276.799	93.44
277.031	95.44
277.262	114.44
277.494	85.44
277.726	92.44
277.957	87.44
278.189	79.44
278.421	78.44
278.652	79.44
278.884	92.44
279.115	88.44
279.347	91.44
279.579	88.44
279.81	89.44
280.042	96.44
280.273	92.44
280.505	95.44
280.736	91.44
280.968	84.44
281.199	87.44
281.431	77.44
281.662	88.44
281.894	83.44
282.125	91.44
282.356	112.44
282.588	129.44
282.819	111.44
283.051	77.44
283.282	82.44
283.513	89.44
283.745	93.44
283.976	84.44
284.207	94.44
284.439	87.44
284.67	87.44
284.901	82.44
285.132	96.44
285.364	85.44
285.595	76.44
285.826	83.44
286.057	95.44
286.288	80.44
286.52	88.44
286.751	88.44
286.982	94.44
287.213	92.44
287.444	93.44
287.675	82.44
287.906	81.44
288.138	73.44
288.369	79.44
288.6	86.44
288.831	91.44
289.062	87.44
289.293	73.44
289.524	89.44
289.755	76.44
289.986	91.44
290.217	82.44
290.448	75.44
290.679	87.44
290.91	77.44
291.141	87.44
291.371	78.44
291.602	81.44
291.833	70.44
292.064	82.44
292.295	81.44
292.526	82.44
292.757	86.44
292.987	88.44
293.218	86.44
293.449	95.44
293.68	99.44
293.91	76.44
294.141	84.44
294.372	75.44
294.603	100.44
294.833	92.44
295.064	84.44
295.295	81.44
295.525	83.44
295.756	103.44
295.987	109.44
296.217	123.44
296.448	111.44
296.679	81.44
296.909	87.44
297.14	89.44
297.37	100.44
297.601	87.44
297.831	83.44
298.062	97.44
298.292	83.44
298.523	87.44
298.753	83.44
298.984	75.44
299.214	91.44
299.445	92.44
299.675	91.44
299.905	105.44
300.136	88.44
300.366	77.44
300.597	92.44
300.827	97.44
301.057	81.44
301.288	85.44
301.518	78.44
301.748	85.44
301.979	111.44
302.209	97.44
302.439	87.44
302.669	78.44
302.9	78.44
303.13	92.44
303.36	79.44
303.59	96.44
303.82	92.44
304.051	83.44
304.281	92.44
304.511	88.44
304.741	86.44
304.971	110.44
305.201	89.44
305.431	98.44
305.661	77.44
305.891	96.44
306.121	90.44
306.352	93.44
306.582	99.44
306.812	99.44
307.042	100.44
307.272	95.44
307.502	108.44
307.731	95.44
307.961	110.44
308.191	92.44
308.421	99.44
308.651	95.44
308.881	92.44
309.111	83.44
309.341	97.44
309.571	97.44
309.8	90.44
310.03	97.44
310.26	98.44
310.49	92.44
310.72	103.44
310.949	91.44
311.179	87.44
311.409	83.44
311.639	95.44
311.868	92.44
312.098	85.44
312.328	94.44
312.557	96.44
312.787	99.44
313.017	86.44
313.246	87.44
313.476	84.44
313.706	96.44
313.935	106.44
314.165	91.44
314.394	91.44
314.624	89.44
314.853	89.44
315.083	95.44
315.312	87.44
315.542	89.44
315.771	97.44
316.001	91.44
316.23	72.44
316.46	77.44
316.689	102.44
316.919	79.44
317.148	92.44
317.377	96.44
317.607	89.44
317.836	91.44
318.065	87.44
318.295	93.44
318.524	87.44
318.753	84.44
318.983	95.44
319.212	88.44
319.441	116.44
319.67	100.44
319.9	99.44
320.129	81.44
320.358	83.44
320.587	90.44
320.816	92.44
321.046	91.44
321.275	96.44
321.504	84.44
321.733	88.44
321.962	90.44
322.191	97.44
322.42	111.44
322.649	108.44
322.878	99.44
323.108	107.44
323.337	93.44
323.566	117.44
323.795	120.44
324.024	159.44
324.253	291.44
324.482	595.44
324.71	1143.44
324.939	1513.44
325.168	577.44
325.397	201.44
325.626	138.44
325.855	132.44
326.084	128.44
326.313	143.44
326.542	120.44
326.77	195.44
326.999	335.44
327.228	671.44
327.457	1198.44
327.686	968.44
327.914	308.44
328.143	203.44
328.372	179.44
328.6	143.44
328.829	114.44
329.058	111.44
329.287	119.44
329.515	97.44
329.744	128.44
329.972	160.44
330.201	229.44
330.43	283.44
330.658	177.44
330.887	139.44
331.115	122.44
331.344	110.44
331.572	99.44
331.801	97.44
332.03	96.44
332.258	93.44
332.486	86.44
332.715	85.44
332.943	92.44
333.172	85.44
333.4	102.44
333.629	117.44
333.857	137.44
334.085	128.44
334.314	249.44
334.542	348.44
334.771	330.44
334.999	139.44
335.227	116.44
335.455	101.44
335.684	110.44
335.912	103.44
336.14	99.44
336.369	86.44
336.597	103.44
336.825	115.44
337.053	94.44
337.281	104.44
337.51	79.44
337.738	114.44
337.966	99.44
338.194	101.44
338.422	94.44
338.65	86.44
338.878	103.44
339.106	83.44
339.334	102.44
339.562	86.44
339.79	88.44
340.018	95.44
340.246	99.44
340.474	100.44
340.702	83.44
340.93	93.44
341.158	88.44
341.386	89.44
341.614	94.44
341.842	87.44
342.07	90.44
342.298	85.44
342.526	79.44
342.754	77.44
342.981	82.44
343.209	87.44
343.437	86.44
343.665	99.44
343.893	90.44
344.12	100.44
344.348	101.44
344.576	94.44
344.804	94.44
345.031	112.44
345.259	96.44
345.487	107.44
345.714	100.44
345.942	85.44
346.17	86.44
346.397	89.44
346.625	107.44
346.853	97.44
347.08	90.44
347.308	87.44
347.535	97.44
347.763	87.44
347.99	89.44
348.218	89.44
348.445	90.44
348.673	100.44
348.9	87.44
349.128	89.44
349.355	95.44
349.583	86.44
349.81	93.44
350.037	89.44
350.265	94.44
350.492	97.44
350.72	109.44
350.947	105.44
351.174	103.44
351.402	111.44
351.629	91.44
351.856	96.44
352.083	94.44
352.311	97.44
352.538	95.44
352.765	103.44
352.992	112.44
353.22	100.44
353.447	87.44
353.674	93.44
353.901	88.44
354.128	107.44
354.355	91.44
354.583	79.44
354.81	99.44
355.037	105.44
355.264	86.44
355.491	92.44
355.718	98.44
355.945	89.44
356.172	104.44
356.399	97.44
356.626	110.44
356.853	93.44
357.08	89.44
357.307	81.44
357.534	89.44
357.761	99.44
357.988	95.44
358.215	102.44
358.441	100.44
358.668	98.44
358.895	100.44
359.122	99.44
359.349	93.44
359.576	98.44
359.802	92.44
360.029	101.44
360.256	103.44
360.483	92.44
360.709	99.44
360.936	85.44
361.163	95.44
361.39	83.44
361.616	93.44
361.843	94.44
362.07	87.44
362.296	101.44
362.523	101.44
362.749	84.44
362.976	84.44
363.203	95.44
363.429	84.44
363.656	88.44
363.882	85.44
364.109	86.44
364.335	93.44
364.562	90.44
364.788	93.44
365.015	86.44
365.241	107.44
365.468	95.44
365.694	93.44
365.92	86.44
366.147	99.44
366.373	88.44
366.599	73.44
366.826	69.44
367.052	92.44
367.278	99.44
367.505	90.44
367.731	97.44
367.957	102.44
368.184	88.44
368.41	91.44
368.636	115.44
368.862	114.44
369.089	115.44
369.315	101.44
369.541	85.44
369.767	87.44
369.993	75.44
370.219	77.44
370.445	89.44
370.672	89.44
370.898	81.44
371.124	87.44
371.35	85.44
371.576	90.44
371.802	84.44
372.028	80.44
372.254	71.44
372.48	67.44
372.706	90.44
372.932	86.44
373.158	99.44
373.384	107.44
373.61	95.44
373.835	100.44
374.061	81.44
374.287	86.44
374.513	87.44
374.739	83.44
374.965	83.44
375.191	91.44
375.416	98.44
375.642	98.44
375.868	77.44
376.094	96.44
376.319	88.44
376.545	92.44
376.771	104.44
376.997	93.44
377.222	90.44
377.448	88.44
377.674	91.44
377.899	81.44
378.125	96.44
378.35	104.44
378.576	86.44
378.802	92.44
379.027	102.44
379.253	95.44
379.478	102.44
379.704	107.44
379.929	101.44
380.155	105.44
380.38	112.44
380.606	100.44
380.831	106.44
381.057	107.44
381.282	97.44
381.507	104.44
381.733	93.44
381.958	112.44
382.184	116.44
382.409	111.44
382.634	110.44
382.86	99.44
383.085	99.44
383.31	101.44
383.535	122.44
383.761	107.44
383.986	96.44
384.211	124.44
384.436	120.44
384.662	114.44
384.887	115.44
385.112	141.44
385.337	113.44
385.562	140.44
385.787	132.44
386.013	152.44
386.238	129.44
386.463	124.44
386.688	125.44
386.913	133.44
387.138	139.44
387.363	118.44
387.588	113.44
387.813	116.44
388.038	129.44
388.263	145.44
388.488	153.44
388.713	99.44
388.938	91.44
389.163	102.44
389.387	96.44
389.612	97.44
389.837	88.44
390.062	87.44
390.287	95.44
390.512	92.44
390.736	101.44
390.961	96.44
391.186	104.44
391.411	89.44
391.636	95.44
391.86	92.44
392.085	95.44
392.31	86.44
392.534	86.44
392.759	99.44
392.984	101.44
393.208	103.44
393.433	117.44
393.658	109.44
393.882	96.44
394.107	77.44
394.331	96.44
394.556	98.44
394.78	78.44
395.005	84.44
395.229	88.44
395.454	90.44
395.678	83.44
395.903	94.44
396.127	89.44
396.352	90.44
396.576	97.44
396.801	89.44
397.025	93.44
397.249	103.44
397.474	92.44
397.698	99.44
397.922	71.44
398.147	83.44
398.371	86.44
398.595	88.44
398.82	88.44
399.044	83.44
399.268	80.44
399.492	79.44
399.717	86.44
399.941	82.44
400.165	91.44
400.389	112.44
400.613	86.44
400.837	87.44
401.062	76.44
401.286	92.44
401.51	93.44
401.734	107.44
401.958	96.44
402.182	119.44
402.406	126.44
402.63	110.44
402.854	88.44
403.078	87.44
403.302	100.44
403.526	94.44
403.75	84.44
403.974	87.44
404.198	84.44
404.422	90.44
404.645	89.44
404.869	77.44
405.093	83.44
405.317	87.44
405.541	96.44
405.765	93.44
405.988	101.44
406.212	148.44
406.436	164.44
406.66	123.44
406.883	105.44
407.107	83.44
407.331	94.44
407.555	100.44
407.778	99.44
408.002	83.44
408.226	103.44
408.449	81.44
408.673	96.44
408.896	88.44
409.12	93.44
409.344	87.44
409.567	97.44
409.791	72.44
410.014	90.44
410.238	103.44
410.461	105.44
410.685	94.44
410.908	94.44
411.132	97.44
411.355	101.44
411.578	82.44
411.802	90.44
412.025	88.44
412.249	79.44
412.472	100.44
412.695	100.44
412.919	95.44
413.142	85.44
413.365	79.44
413.589	106.44
413.812	89.44
414.035	100.44
414.258	94.44
414.482	89.44
414.705	95.44
414.928	97.44
415.151	101.44
415.374	100.44
415.597	92.44
415.821	91.44
416.044	93.44
416.267	97.44
416.49	90.44
416.713	96.44
416.936	89.44
417.159	101.44
417.382	97.44
417.605	88.44
417.828	113.44
418.051	92.44
418.274	93.44
418.497	94.44
418.72	76.44
418.943	86.44
419.166	91.44
419.389	105.44
419.611	87.44
419.834	94.44
420.057	87.44
420.28	104.44
420.503	98.44
420.726	89.44
420.948	85.44
421.171	96.44
421.394	79.44
421.617	80.44
421.839	89.44
422.062	83.44
422.285	85.44
422.507	107.44
422.73	105.44
422.953	111.44
423.175	83.44
423.398	82.44
423.621	80.44
423.843	67.44
424.066	93.44
424.288	77.44
424.511	75.44
424.733	100.44
424.956	101.44
425.178	98.44
425.401	98.44
425.623	99.44
425.846	84.44
426.068	100.44
426.291	94.44
426.513	87.44
426.735	95.44
426.958	94.44
427.18	104.44
427.402	112.44
427.625	145.44
427.847	131.44
428.069	116.44
428.292	86.44
428.514	90.44
428.736	81.44
428.958	80.44
429.181	84.44
429.403	97.44
429.625	85.44
429.847	86.44
430.069	97.44
430.292	84.44
430.514	96.44
430.736	89.44
430.958	95.44
431.18	88.44
431.402	81.44
431.624	88.44
431.846	86.44
432.068	88.44
432.29	85.44
432.512	100.44
432.734	80.44
432.956	86.44
433.178	94.44
433.4	100.44
433.622	91.44
433.844	85.44
434.066	89.44
434.287	95.44
434.509	96.44
434.731	86.44
434.953	83.44
435.175	76.44
435.397	85.44
435.618	101.44
435.84	84.44
436.062	111.44
436.284	87.44
436.505	98.44
436.727	104.44
436.949	92.44
437.17	96.44
437.392	88.44
437.614	83.44
437.835	84.44
438.057	98.44
438.278	111.44
438.5	101.44
438.721	111.44
438.943	100.44
439.165	101.44
439.386	91.44
439.608	90.44
439.829	84.44
440.05	103.44
440.272	122.44
440.493	92.44
440.715	76.44
440.936	90.44
441.158	91.44
441.379	87.44
441.6	88.44
441.822	96.44
442.043	90.44
442.264	111.44
442.486	90.44
442.707	85.44
442.928	95.44
443.149	111.44
443.371	114.44
443.592	105.44
443.813	102.44
444.034	87.44
444.255	86.44
444.476	85.44
444.698	81.44
444.919	80.44
445.14	136.44
445.361	126.44
445.582	87.44
445.803	108.44
446.024	100.44
446.245	112.44
446.466	93.44
446.687	100.44
446.908	86.44
447.129	80.44
447.35	87.44
447.571	89.44
447.792	99.44
448.013	77.44
448.234	105.44
448.455	94.44
448.675	100.44
448.896	97.44
449.117	95.44
449.338	89.44
449.559	123.44
449.779	105.44
450	87.44
450.221	89.44
450.442	107.44
450.662	103.44
450.883	90.44
451.104	106.44
451.324	90.44
451.545	76.44
451.766	91.44
451.986	62.44
452.207	102.44
452.428	89.44
452.648	81.44
452.869	108.44
453.089	101.44
453.31	97.44
453.53	91.44
453.751	83.44
453.971	87.44
454.192	104.44
454.412	97.44
454.633	86.44
454.853	89.44
455.073	83.44
455.294	91.44
455.514	95.44
455.734	93.44
455.955	90.44
456.175	88.44
456.395	86.44
456.616	93.44
456.836	75.44
457.056	78.44
457.276	79.44
457.497	77.44
457.717	89.44
457.937	85.44
458.157	82.44
458.377	84.44
458.598	110.44
458.818	125.44
459.038	125.44
459.258	102.44
459.478	95.44
459.698	77.44
459.918	85.44
460.138	89.44
460.358	89.44
460.578	77.44
460.798	87.44
461.018	85.44
461.238	96.44
461.458	84.44
461.678	75.44
461.898	85.44
462.118	79.44
462.338	83.44
462.558	76.44
462.777	90.44
462.997	81.44
463.217	83.44
463.437	100.44
463.657	73.44
463.876	79.44
464.096	74.44
464.316	86.44
464.536	81.44
464.755	87.44
464.975	95.44
465.195	133.44
465.414	136.44
465.634	84.44
465.854	78.44
466.073	80.44
466.293	97.44
466.512	85.44
466.732	93.44
466.951	98.44
467.171	81.44
467.391	90.44
467.61	91.44
467.829	94.44
468.049	154.44
468.268	183.44
468.488	107.44
468.707	83.44
468.927	81.44
469.146	67.44
469.365	78.44
469.585	80.44
469.804	83.44
470.023	93.44
470.243	101.44
470.462	94.44
470.681	99.44
470.901	93.44
471.12	76.44
471.339	99.44
471.558	87.44
471.777	99.44
471.997	119.44
472.216	245.44
472.435	450.44
472.654	157.44
472.873	104.44
473.092	81.44
473.311	100.44
473.53	93.44
473.749	79.44
473.968	95.44
474.187	96.44
474.406	71.44
474.625	74.44
474.844	81.44
475.063	86.44
475.282	91.44
475.501	83.44
475.72	96.44
475.939	105.44
476.158	81.44
476.377	91.44
476.596	79.44
476.814	84.44
477.033	91.44
477.252	91.44
477.471	95.44
477.69	92.44
477.908	82.44
478.127	74.44
478.346	94.44
478.564	80.44
478.783	88.44
479.002	95.44
479.22	94.44
479.439	116.44
479.658	103.44
479.876	103.44
480.095	84.44
480.313	113.44
480.532	103.44
480.751	119.44
480.969	238.44
481.188	804.44
481.406	487.44
481.624	123.44
481.843	91.44
482.061	73.44
482.28	92.44
482.498	81.44
482.717	85.44
482.935	98.44
483.153	98.44
483.372	88.44
483.59	111.44
483.808	66.44
484.027	93.44
484.245	87.44
484.463	81.44
484.681	89.44
484.9	93.44
485.118	95.44
485.336	87.44
485.554	94.44
485.772	100.44
485.99	111.44
486.209	97.44
486.427	110.44
486.645	113.44
486.863	96.44
487.081	81.44
487.299	105.44
487.517	102.44
487.735	97.44
487.953	110.44
488.171	96.44
488.389	91.44
488.607	98.44
488.825	89.44
489.043	93.44
489.261	89.44
489.479	89.44
489.696	90.44
489.914	92.44
490.132	87.44
490.35	92.44
490.568	92.44
490.786	85.44
491.003	91.44
491.221	85.44
491.439	93.44
491.657	84.44
491.874	86.44
492.092	88.44
492.31	72.44
492.527	81.44
492.745	82.44
492.963	93.44
493.18	93.44
493.398	109.44
493.615	103.44
493.833	87.44
494.05	93.44
494.268	78.44
494.485	87.44
494.703	83.44
494.92	93.44
495.138	87.44
495.355	90.44
495.573	103.44
495.79	82.44
496.008	103.44
496.225	81.44
496.442	84.44
496.66	81.44
496.877	81.44
497.094	101.44
497.312	96.44
497.529	85.44
497.746	82.44
497.963	78.44
498.181	71.44
498.398	99.44
498.615	116.44
498.832	96.44
499.049	88.44
499.267	109.44
499.484	81.44
499.701	91.44
499.918	81.44
500.135	93.44
500.352	100.44
500.569	85.44
500.786	85.44
501.003	76.44
501.22	92.44
501.437	88.44
501.654	91.44
501.871	90.44
502.088	80.44
502.305	100.44
502.522	80.44
502.739	93.44
502.956	88.44
503.172	81.44
503.389	97.44
503.606	83.44
503.823	96.44
504.04	91.44
504.256	96.44
504.473	91.44
504.69	88.44
504.907	80.44
505.123	85.44
505.34	105.44
505.557	81.44
505.773	79.44
505.99	81.44
506.207	104.44
506.423	88.44
506.64	86.44
506.856	82.44
507.073	96.44
507.289	87.44
507.506	96.44
507.722	105.44
507.939	95.44
508.155	87.44
508.372	93.44
508.588	92.44
508.805	100.44
509.021	82.44
509.238	81.44
509.454	77.44
509.67	82.44
509.887	98.44
510.103	114.44
510.319	208.44
510.536	560.44
510.752	1767.44
510.968	496.44
511.184	147.44
511.401	111.44
511.617	85.44
511.833	78.44
512.049	98.44
512.265	86.44
512.481	104.44
512.698	77.44
512.914	93.44
513.13	81.44
513.346	100.44
513.562	99.44
513.778	88.44
513.994	102.44
514.21	104.44
514.426	118.44
514.642	113.44
514.858	101.44
515.074	159.44
515.29	323.44
515.506	1086.44
515.721	404.44
515.937	127.44
