Data from Circ_1989_H10_HRD10591_00096.txt Node
Date: Wed Jan 03 12:01:40 EST 2024
User: Yrep
Spectrometer: HR+D1059
Trigger mode: 1
Integration Time (sec): 1.000000E-1
Scans to average: 1
Electric dark correction enabled: true
Nonlinearity correction enabled: false
Boxcar width: 0
XAxis mode: Wavelengths
Number of Pixels in Spectrum: 2048
>>>>>Begin Spectral Data<<<<<
223.165	-6.88
223.4	-6.88
223.635	-6.88
223.869	-23.88
224.104	-21.88
224.338	-4.88
224.573	-17.88
224.808	-11.88
225.042	-8.88
225.277	-2.88
225.511	-5.88
225.746	7.12
225.98	14.12
226.215	20.12
226.449	4.12
226.683	8.12
226.918	19.12
227.152	32.12
227.387	33.12
227.621	29.12
227.856	35.12
228.09	52.12
228.324	57.12
228.559	45.12
228.793	47.12
229.027	51.12
229.262	65.12
229.496	60.12
229.73	86.12
229.964	83.12
230.199	68.12
230.433	83.12
230.667	94.12
230.901	70.12
231.136	68.12
231.37	68.12
231.604	73.12
231.838	77.12
232.072	83.12
232.306	90.12
232.541	95.12
232.775	78.12
233.009	79.12
233.243	87.12
233.477	90.12
233.711	82.12
233.945	84.12
234.179	90.12
234.413	72.12
234.647	83.12
234.881	81.12
235.115	68.12
235.349	65.12
235.583	80.12
235.817	78.12
236.051	94.12
236.285	85.12
236.519	72.12
236.753	79.12
236.987	68.12
237.221	82.12
237.455	62.12
237.689	69.12
237.922	82.12
238.156	86.12
238.39	89.12
238.624	76.12
238.858	84.12
239.091	90.12
239.325	85.12
239.559	85.12
239.793	84.12
240.027	86.12
240.26	86.12
240.494	66.12
240.728	98.12
240.961	65.12
241.195	78.12
241.429	80.12
241.662	81.12
241.896	86.12
242.13	63.12
242.363	72.12
242.597	73.12
242.83	67.12
243.064	58.12
243.298	60.12
243.531	83.12
243.765	60.12
243.998	74.12
244.232	89.12
244.465	85.12
244.699	78.12
244.932	91.12
245.166	79.12
245.399	82.12
245.633	71.12
245.866	80.12
246.099	79.12
246.333	71.12
246.566	64.12
246.8	81.12
247.033	94.12
247.266	78.12
247.5	84.12
247.733	76.12
247.966	92.12
248.2	86.12
248.433	75.12
248.666	71.12
248.899	77.12
249.133	78.12
249.366	86.12
249.599	82.12
249.832	74.12
250.066	93.12
250.299	82.12
250.532	86.12
250.765	84.12
250.998	65.12
251.231	90.12
251.465	85.12
251.698	72.12
251.931	86.12
252.164	77.12
252.397	85.12
252.63	92.12
252.863	65.12
253.096	86.12
253.329	80.12
253.562	84.12
253.795	88.12
254.028	83.12
254.261	74.12
254.494	91.12
254.727	82.12
254.96	84.12
255.193	81.12
255.426	77.12
255.659	70.12
255.892	79.12
256.124	80.12
256.357	75.12
256.59	73.12
256.823	82.12
257.056	65.12
257.289	79.12
257.521	83.12
257.754	96.12
257.987	74.12
258.22	84.12
258.452	87.12
258.685	86.12
258.918	80.12
259.151	80.12
259.383	77.12
259.616	80.12
259.849	82.12
260.081	71.12
260.314	80.12
260.547	87.12
260.779	91.12
261.012	89.12
261.244	79.12
261.477	79.12
261.71	81.12
261.942	100.12
262.175	106.12
262.407	94.12
262.64	67.12
262.872	74.12
263.105	82.12
263.337	75.12
263.57	87.12
263.802	71.12
264.035	84.12
264.267	75.12
264.499	82.12
264.732	95.12
264.964	78.12
265.197	90.12
265.429	90.12
265.661	81.12
265.894	83.12
266.126	82.12
266.358	75.12
266.591	75.12
266.823	67.12
267.055	91.12
267.287	75.12
267.52	90.12
267.752	83.12
267.984	80.12
268.216	71.12
268.448	83.12
268.681	83.12
268.913	76.12
269.145	85.12
269.377	81.12
269.609	78.12
269.841	87.12
270.073	87.12
270.306	77.12
270.538	83.12
270.77	73.12
271.002	71.12
271.234	90.12
271.466	82.12
271.698	84.12
271.93	81.12
272.162	78.12
272.394	92.12
272.626	77.12
272.858	82.12
273.09	84.12
273.322	77.12
273.553	78.12
273.785	72.12
274.017	92.12
274.249	74.12
274.481	80.12
274.713	92.12
274.945	78.12
275.176	92.12
275.408	84.12
275.64	91.12
275.872	84.12
276.104	116.12
276.335	107.12
276.567	95.12
276.799	100.12
277.031	110.12
277.262	130.12
277.494	99.12
277.726	82.12
277.957	66.12
278.189	68.12
278.421	84.12
278.652	76.12
278.884	83.12
279.115	87.12
279.347	106.12
279.579	83.12
279.81	91.12
280.042	112.12
280.273	134.12
280.505	109.12
280.736	86.12
280.968	88.12
281.199	96.12
281.431	88.12
281.662	89.12
281.894	92.12
282.125	88.12
282.356	114.12
282.588	116.12
282.819	93.12
283.051	95.12
283.282	82.12
283.513	90.12
283.745	94.12
283.976	85.12
284.207	80.12
284.439	90.12
284.67	84.12
284.901	90.12
285.132	88.12
285.364	88.12
285.595	92.12
285.826	93.12
286.057	96.12
286.288	83.12
286.52	82.12
286.751	86.12
286.982	81.12
287.213	83.12
287.444	79.12
287.675	91.12
287.906	79.12
288.138	62.12
288.369	75.12
288.6	94.12
288.831	90.12
289.062	92.12
289.293	97.12
289.524	80.12
289.755	69.12
289.986	96.12
290.217	82.12
290.448	89.12
290.679	87.12
290.91	93.12
291.141	79.12
291.371	87.12
291.602	87.12
291.833	65.12
292.064	92.12
292.295	75.12
292.526	78.12
292.757	82.12
292.987	79.12
293.218	91.12
293.449	91.12
293.68	94.12
293.91	87.12
294.141	87.12
294.372	86.12
294.603	84.12
294.833	86.12
295.064	84.12
295.295	80.12
295.525	63.12
295.756	89.12
295.987	79.12
296.217	112.12
296.448	114.12
296.679	85.12
296.909	95.12
297.14	89.12
297.37	92.12
297.601	77.12
297.831	88.12
298.062	84.12
298.292	104.12
298.523	92.12
298.753	103.12
298.984	93.12
299.214	95.12
299.445	84.12
299.675	87.12
299.905	85.12
300.136	74.12
300.366	91.12
300.597	88.12
300.827	95.12
301.057	100.12
301.288	95.12
301.518	101.12
301.748	88.12
301.979	108.12
302.209	92.12
302.439	95.12
302.669	97.12
302.9	84.12
303.13	91.12
303.36	103.12
303.59	100.12
303.82	109.12
304.051	95.12
304.281	101.12
304.511	91.12
304.741	89.12
304.971	93.12
305.201	92.12
305.431	88.12
305.661	83.12
305.891	97.12
306.121	84.12
306.352	93.12
306.582	98.12
306.812	100.12
307.042	113.12
307.272	86.12
307.502	133.12
307.731	123.12
307.961	93.12
308.191	103.12
308.421	107.12
308.651	82.12
308.881	101.12
309.111	81.12
309.341	93.12
309.571	89.12
309.8	92.12
310.03	79.12
310.26	97.12
310.49	83.12
310.72	108.12
310.949	99.12
311.179	103.12
311.409	79.12
311.639	94.12
311.868	96.12
312.098	97.12
312.328	92.12
312.557	101.12
312.787	108.12
313.017	104.12
313.246	86.12
313.476	77.12
313.706	92.12
313.935	110.12
314.165	85.12
314.394	87.12
314.624	95.12
314.853	101.12
315.083	92.12
315.312	90.12
315.542	88.12
315.771	94.12
316.001	94.12
316.23	80.12
316.46	84.12
316.689	98.12
316.919	102.12
317.148	91.12
317.377	104.12
317.607	85.12
317.836	94.12
318.065	94.12
318.295	83.12
318.524	92.12
318.753	91.12
318.983	87.12
319.212	90.12
319.441	102.12
319.67	103.12
319.9	85.12
320.129	82.12
320.358	80.12
320.587	93.12
320.816	86.12
321.046	94.12
321.275	83.12
321.504	84.12
321.733	98.12
321.962	96.12
322.191	104.12
322.42	108.12
322.649	95.12
322.878	98.12
323.108	116.12
323.337	104.12
323.566	110.12
323.795	125.12
324.024	183.12
324.253	330.12
324.482	670.12
324.71	1363.12
324.939	1783.12
325.168	669.12
325.397	207.12
325.626	140.12
325.855	117.12
326.084	116.12
326.313	128.12
326.542	143.12
326.77	196.12
326.999	388.12
327.228	798.12
327.457	1418.12
327.686	1164.12
327.914	359.12
328.143	282.12
328.372	289.12
328.6	201.12
328.829	122.12
329.058	124.12
329.287	131.12
329.515	119.12
329.744	154.12
329.972	244.12
330.201	408.12
330.43	572.12
330.658	285.12
330.887	159.12
331.115	129.12
331.344	101.12
331.572	95.12
331.801	112.12
332.03	97.12
332.258	81.12
332.486	101.12
332.715	95.12
332.943	113.12
333.172	104.12
333.4	116.12
333.629	111.12
333.857	151.12
334.085	248.12
334.314	430.12
334.542	718.12
334.771	670.12
334.999	199.12
335.227	104.12
335.455	98.12
335.684	95.12
335.912	103.12
336.14	99.12
336.369	93.12
336.597	79.12
336.825	84.12
337.053	88.12
337.281	95.12
337.51	101.12
337.738	85.12
337.966	97.12
338.194	88.12
338.422	85.12
338.65	90.12
338.878	95.12
339.106	92.12
339.334	94.12
339.562	91.12
339.79	99.12
340.018	86.12
340.246	94.12
340.474	84.12
340.702	92.12
340.93	69.12
341.158	71.12
341.386	98.12
341.614	90.12
341.842	92.12
342.07	78.12
342.298	92.12
342.526	83.12
342.754	72.12
342.981	92.12
343.209	86.12
343.437	94.12
343.665	99.12
343.893	99.12
344.12	101.12
344.348	84.12
344.576	88.12
344.804	78.12
345.031	84.12
345.259	91.12
345.487	102.12
345.714	92.12
345.942	92.12
346.17	94.12
346.397	75.12
346.625	67.12
346.853	98.12
347.08	89.12
347.308	84.12
347.535	102.12
347.763	86.12
347.99	94.12
348.218	101.12
348.445	85.12
348.673	100.12
348.9	86.12
349.128	97.12
349.355	100.12
349.583	76.12
349.81	82.12
350.037	87.12
350.265	78.12
350.492	82.12
350.72	92.12
350.947	68.12
351.174	98.12
351.402	108.12
351.629	108.12
351.856	97.12
352.083	114.12
352.311	103.12
352.538	95.12
352.765	87.12
352.992	114.12
353.22	103.12
353.447	98.12
353.674	92.12
353.901	104.12
354.128	100.12
354.355	71.12
354.583	106.12
354.81	99.12
355.037	84.12
355.264	88.12
355.491	99.12
355.718	78.12
355.945	98.12
356.172	89.12
356.399	97.12
356.626	89.12
356.853	90.12
357.08	97.12
357.307	94.12
357.534	100.12
357.761	88.12
357.988	88.12
358.215	114.12
358.441	94.12
358.668	84.12
358.895	100.12
359.122	86.12
359.349	78.12
359.576	83.12
359.802	101.12
360.029	90.12
360.256	104.12
360.483	91.12
360.709	101.12
360.936	82.12
361.163	92.12
361.39	98.12
361.616	88.12
361.843	82.12
362.07	81.12
362.296	101.12
362.523	89.12
362.749	76.12
362.976	87.12
363.203	93.12
363.429	86.12
363.656	82.12
363.882	88.12
364.109	88.12
364.335	88.12
364.562	95.12
364.788	94.12
365.015	83.12
365.241	97.12
365.468	103.12
365.694	112.12
365.92	84.12
366.147	76.12
366.373	85.12
366.599	83.12
366.826	78.12
367.052	82.12
367.278	99.12
367.505	88.12
367.731	95.12
367.957	99.12
368.184	82.12
368.41	78.12
368.636	100.12
368.862	108.12
369.089	93.12
369.315	92.12
369.541	91.12
369.767	87.12
369.993	92.12
370.219	88.12
370.445	84.12
370.672	95.12
370.898	85.12
371.124	87.12
371.35	85.12
371.576	84.12
371.802	92.12
372.028	89.12
372.254	77.12
372.48	79.12
372.706	77.12
372.932	78.12
373.158	103.12
373.384	95.12
373.61	84.12
373.835	98.12
374.061	90.12
374.287	93.12
374.513	81.12
374.739	79.12
374.965	94.12
375.191	98.12
375.416	76.12
375.642	84.12
375.868	100.12
376.094	83.12
376.319	102.12
376.545	95.12
376.771	88.12
376.997	100.12
377.222	83.12
377.448	98.12
377.674	84.12
377.899	93.12
378.125	92.12
378.35	91.12
378.576	98.12
378.802	92.12
379.027	95.12
379.253	82.12
379.478	86.12
379.704	87.12
379.929	80.12
380.155	106.12
380.38	102.12
380.606	85.12
380.831	99.12
381.057	94.12
381.282	81.12
381.507	100.12
381.733	106.12
381.958	107.12
382.184	89.12
382.409	88.12
382.634	99.12
382.86	103.12
383.085	84.12
383.31	93.12
383.535	103.12
383.761	89.12
383.986	82.12
384.211	82.12
384.436	90.12
384.662	92.12
384.887	89.12
385.112	103.12
385.337	93.12
385.562	104.12
385.787	115.12
386.013	104.12
386.238	97.12
386.463	101.12
386.688	108.12
386.913	85.12
387.138	92.12
387.363	97.12
387.588	101.12
387.813	105.12
388.038	106.12
388.263	93.12
388.488	98.12
388.713	82.12
388.938	83.12
389.163	84.12
389.387	82.12
389.612	81.12
389.837	87.12
390.062	77.12
390.287	87.12
390.512	90.12
390.736	84.12
390.961	88.12
391.186	89.12
391.411	79.12
391.636	85.12
391.86	86.12
392.085	80.12
392.31	92.12
392.534	98.12
392.759	93.12
392.984	94.12
393.208	88.12
393.433	87.12
393.658	90.12
393.882	96.12
394.107	80.12
394.331	84.12
394.556	85.12
394.78	87.12
395.005	73.12
395.229	96.12
395.454	84.12
395.678	84.12
395.903	100.12
396.127	97.12
396.352	82.12
396.576	78.12
396.801	98.12
397.025	70.12
397.249	84.12
397.474	85.12
397.698	82.12
397.922	79.12
398.147	88.12
398.371	80.12
398.595	88.12
398.82	81.12
399.044	84.12
399.268	95.12
399.492	91.12
399.717	80.12
399.941	79.12
400.165	82.12
400.389	80.12
400.613	87.12
400.837	77.12
401.062	78.12
401.286	84.12
401.51	89.12
401.734	92.12
401.958	89.12
402.182	119.12
402.406	124.12
402.63	109.12
402.854	94.12
403.078	81.12
403.302	85.12
403.526	80.12
403.75	87.12
403.974	96.12
404.198	81.12
404.422	87.12
404.645	89.12
404.869	96.12
405.093	83.12
405.317	112.12
405.541	117.12
405.765	94.12
405.988	102.12
406.212	144.12
406.436	185.12
406.66	120.12
406.883	94.12
407.107	98.12
407.331	87.12
407.555	82.12
407.778	80.12
408.002	66.12
408.226	78.12
408.449	83.12
408.673	90.12
408.896	97.12
409.12	90.12
409.344	95.12
409.567	82.12
409.791	82.12
410.014	84.12
410.238	92.12
410.461	95.12
410.685	93.12
410.908	99.12
411.132	106.12
411.355	83.12
411.578	75.12
411.802	80.12
412.025	86.12
412.249	90.12
412.472	104.12
412.695	113.12
412.919	84.12
413.142	88.12
413.365	70.12
413.589	83.12
413.812	85.12
414.035	109.12
414.258	85.12
414.482	90.12
414.705	88.12
414.928	97.12
415.151	89.12
415.374	102.12
415.597	91.12
415.821	78.12
416.044	89.12
416.267	90.12
416.49	92.12
416.713	87.12
416.936	92.12
417.159	98.12
417.382	101.12
417.605	72.12
417.828	99.12
418.051	89.12
418.274	93.12
418.497	76.12
418.72	90.12
418.943	79.12
419.166	82.12
419.389	82.12
419.611	89.12
419.834	88.12
420.057	82.12
420.28	94.12
420.503	87.12
420.726	101.12
420.948	96.12
421.171	93.12
421.394	78.12
421.617	96.12
421.839	80.12
422.062	100.12
422.285	83.12
422.507	86.12
422.73	99.12
422.953	88.12
423.175	94.12
423.398	86.12
423.621	80.12
423.843	98.12
424.066	92.12
424.288	98.12
424.511	101.12
424.733	91.12
424.956	104.12
425.178	90.12
425.401	85.12
425.623	98.12
425.846	103.12
426.068	96.12
426.291	93.12
426.513	100.12
426.735	83.12
426.958	89.12
427.18	86.12
427.402	125.12
427.625	162.12
427.847	153.12
428.069	142.12
428.292	99.12
428.514	94.12
428.736	87.12
428.958	93.12
429.181	79.12
429.403	95.12
429.625	90.12
429.847	86.12
430.069	93.12
430.292	94.12
430.514	97.12
430.736	78.12
430.958	75.12
431.18	90.12
431.402	72.12
431.624	88.12
431.846	83.12
432.068	93.12
432.29	75.12
432.512	85.12
432.734	91.12
432.956	87.12
433.178	90.12
433.4	99.12
433.622	98.12
433.844	86.12
434.066	76.12
434.287	82.12
434.509	84.12
434.731	87.12
434.953	97.12
435.175	106.12
435.397	92.12
435.618	94.12
435.84	99.12
436.062	104.12
436.284	95.12
436.505	101.12
436.727	102.12
436.949	86.12
437.17	80.12
437.392	86.12
437.614	84.12
437.835	87.12
438.057	107.12
438.278	94.12
438.5	95.12
438.721	99.12
438.943	96.12
439.165	102.12
439.386	87.12
439.608	100.12
439.829	102.12
440.05	114.12
440.272	116.12
440.493	90.12
440.715	89.12
440.936	90.12
441.158	87.12
441.379	97.12
441.6	82.12
441.822	92.12
442.043	104.12
442.264	102.12
442.486	99.12
442.707	98.12
442.928	94.12
443.149	123.12
443.371	123.12
443.592	102.12
443.813	107.12
444.034	101.12
444.255	84.12
444.476	81.12
444.698	70.12
444.919	84.12
445.14	129.12
445.361	112.12
445.582	105.12
445.803	122.12
446.024	121.12
446.245	119.12
446.466	108.12
446.687	79.12
446.908	77.12
447.129	88.12
447.35	87.12
447.571	90.12
447.792	96.12
448.013	83.12
448.234	98.12
448.455	102.12
448.675	108.12
448.896	107.12
449.117	102.12
449.338	96.12
449.559	102.12
449.779	109.12
450	88.12
450.221	78.12
450.442	74.12
450.662	92.12
450.883	95.12
451.104	98.12
451.324	90.12
451.545	98.12
451.766	65.12
451.986	95.12
452.207	83.12
452.428	89.12
452.648	98.12
452.869	105.12
453.089	106.12
453.31	104.12
453.53	102.12
453.751	94.12
453.971	94.12
454.192	95.12
454.412	93.12
454.633	88.12
454.853	62.12
455.073	75.12
455.294	79.12
455.514	99.12
455.734	88.12
455.955	79.12
456.175	81.12
456.395	75.12
456.616	86.12
456.836	68.12
457.056	88.12
457.276	84.12
457.497	83.12
457.717	85.12
457.937	75.12
458.157	86.12
458.377	82.12
458.598	99.12
458.818	128.12
459.038	126.12
459.258	94.12
459.478	93.12
459.698	86.12
459.918	86.12
460.138	73.12
460.358	78.12
460.578	83.12
460.798	100.12
461.018	76.12
461.238	74.12
461.458	84.12
461.678	84.12
461.898	76.12
462.118	82.12
462.338	78.12
462.558	85.12
462.777	85.12
462.997	93.12
463.217	90.12
463.437	103.12
463.657	80.12
463.876	76.12
464.096	92.12
464.316	70.12
464.536	78.12
464.755	103.12
464.975	95.12
465.195	138.12
465.414	146.12
465.634	83.12
465.854	82.12
466.073	87.12
466.293	80.12
466.512	84.12
466.732	95.12
466.951	80.12
467.171	102.12
467.391	106.12
467.61	107.12
467.829	136.12
468.049	284.12
468.268	376.12
468.488	138.12
468.707	98.12
468.927	94.12
469.146	101.12
469.365	88.12
469.585	82.12
469.804	92.12
470.023	89.12
470.243	101.12
470.462	87.12
470.681	105.12
470.901	91.12
471.12	92.12
471.339	86.12
471.558	92.12
471.777	106.12
471.997	182.12
472.216	495.12
472.435	1043.12
472.654	286.12
472.873	114.12
473.092	119.12
473.311	96.12
473.53	83.12
473.749	78.12
473.968	106.12
474.187	89.12
474.406	93.12
474.625	79.12
474.844	81.12
475.063	80.12
475.282	98.12
475.501	94.12
475.72	71.12
475.939	90.12
476.158	82.12
476.377	97.12
476.596	86.12
476.814	95.12
477.033	82.12
477.252	95.12
477.471	69.12
477.69	91.12
477.908	94.12
478.127	66.12
478.346	84.12
478.564	95.12
478.783	92.12
479.002	91.12
479.22	94.12
479.439	113.12
479.658	103.12
479.876	82.12
480.095	95.12
480.313	112.12
480.532	122.12
480.751	178.12
480.969	522.12
481.188	1869.12
481.406	1052.12
481.624	199.12
481.843	104.12
482.061	100.12
482.28	90.12
482.498	89.12
482.717	91.12
482.935	87.12
483.153	86.12
483.372	102.12
483.59	82.12
483.808	83.12
484.027	85.12
484.245	75.12
484.463	91.12
484.681	112.12
484.9	83.12
485.118	90.12
485.336	101.12
485.554	98.12
485.772	110.12
485.99	106.12
486.209	101.12
486.427	100.12
486.645	96.12
486.863	104.12
487.081	100.12
487.299	103.12
487.517	102.12
487.735	86.12
487.953	98.12
488.171	101.12
488.389	86.12
488.607	98.12
488.825	84.12
489.043	86.12
489.261	90.12
489.479	90.12
489.696	92.12
489.914	92.12
490.132	82.12
490.35	87.12
490.568	84.12
490.786	79.12
491.003	86.12
491.221	93.12
491.439	98.12
491.657	89.12
491.874	91.12
492.092	94.12
492.31	91.12
492.527	78.12
492.745	96.12
492.963	83.12
493.18	88.12
493.398	92.12
493.615	108.12
493.833	94.12
494.05	93.12
494.268	77.12
494.485	106.12
494.703	80.12
494.92	84.12
495.138	84.12
495.355	92.12
495.573	94.12
495.79	94.12
496.008	94.12
496.225	83.12
496.442	100.12
496.66	96.12
496.877	85.12
497.094	86.12
497.312	92.12
497.529	87.12
497.746	83.12
497.963	87.12
498.181	83.12
498.398	96.12
498.615	113.12
498.832	101.12
499.049	92.12
499.267	94.12
499.484	89.12
499.701	87.12
499.918	99.12
500.135	85.12
500.352	87.12
500.569	92.12
500.786	90.12
501.003	97.12
501.22	92.12
501.437	88.12
501.654	81.12
501.871	92.12
502.088	90.12
502.305	90.12
502.522	91.12
502.739	79.12
502.956	72.12
503.172	86.12
503.389	89.12
503.606	103.12
503.823	95.12
504.04	62.12
504.256	86.12
504.473	89.12
504.69	81.12
504.907	101.12
505.123	72.12
505.34	78.12
505.557	92.12
505.773	90.12
505.99	107.12
506.207	77.12
506.423	79.12
506.64	87.12
506.856	108.12
507.073	74.12
507.289	80.12
507.506	100.12
507.722	110.12
507.939	102.12
508.155	87.12
508.372	102.12
508.588	98.12
508.805	95.12
509.021	98.12
509.238	99.12
509.454	92.12
509.67	101.12
509.887	105.12
510.103	122.12
510.319	175.12
510.536	540.12
510.752	1659.12
510.968	484.12
511.184	118.12
511.401	106.12
511.617	99.12
511.833	96.12
512.049	87.12
512.265	94.12
512.481	79.12
512.698	87.12
512.914	93.12
513.13	96.12
513.346	82.12
513.562	101.12
513.778	98.12
513.994	92.12
514.21	97.12
514.426	121.12
514.642	105.12
514.858	118.12
515.074	156.12
515.29	355.12
515.506	1036.12
515.721	399.12
515.937	135.12
516.153	100.12
