Data from Circ_1989_H10_HRD10591_00037.txt Node
Date: Wed Jan 03 12:01:29 EST 2024
User: Yrep
Spectrometer: HR+D1059
Trigger mode: 1
Integration Time (sec): 1.000000E-1
Scans to average: 1
Electric dark correction enabled: true
Nonlinearity correction enabled: false
Boxcar width: 0
XAxis mode: Wavelengths
Number of Pixels in Spectrum: 2048
>>>>>Begin Spectral Data<<<<<
223.165	-3
223.4	-3
223.635	-3
223.869	-28
224.104	-22
224.338	-20
224.573	-13
224.808	-17
225.042	-12
225.277	-6
225.511	2
225.746	11
225.98	18
226.215	13
226.449	7
226.683	18
226.918	16
227.152	36
227.387	44
227.621	32
227.856	53
228.09	30
228.324	51
228.559	55
228.793	57
229.027	61
229.262	65
229.496	75
229.73	82
229.964	101
230.199	68
230.433	67
230.667	72
230.901	66
231.136	82
231.37	76
231.604	95
231.838	74
232.072	65
232.306	78
232.541	76
232.775	88
233.009	66
233.243	83
233.477	78
233.711	88
233.945	65
234.179	80
234.413	82
234.647	72
234.881	90
235.115	76
235.349	83
235.583	74
235.817	82
236.051	87
236.285	86
236.519	79
236.753	78
236.987	72
237.221	87
237.455	63
237.689	78
237.922	65
238.156	71
238.39	63
238.624	67
238.858	85
239.091	78
239.325	82
239.559	72
239.793	70
240.027	78
240.26	65
240.494	83
240.728	54
240.961	83
241.195	78
241.429	76
241.662	86
241.896	83
242.13	70
242.363	86
242.597	72
242.83	84
243.064	62
243.298	81
243.531	82
243.765	67
243.998	62
244.232	74
244.465	97
244.699	76
244.932	89
245.166	77
245.399	80
245.633	65
245.866	72
246.099	74
246.333	82
246.566	69
246.8	88
247.033	84
247.266	78
247.5	75
247.733	65
247.966	83
248.2	74
248.433	81
248.666	77
248.899	70
249.133	90
249.366	85
249.599	78
249.832	76
250.066	74
250.299	78
250.532	91
250.765	77
250.998	85
251.231	79
251.465	63
251.698	86
251.931	91
252.164	78
252.397	83
252.63	74
252.863	81
253.096	74
253.329	78
253.562	65
253.795	61
254.028	90
254.261	79
254.494	84
254.727	85
254.96	87
255.193	91
255.426	74
255.659	66
255.892	85
256.124	97
256.357	83
256.59	89
256.823	83
257.056	93
257.289	92
257.521	86
257.754	78
257.987	68
258.22	85
258.452	70
258.685	94
258.918	91
259.151	92
259.383	74
259.616	87
259.849	84
260.081	87
260.314	84
260.547	83
260.779	76
261.012	99
261.244	78
261.477	91
261.71	82
261.942	94
262.175	99
262.407	87
262.64	87
262.872	87
263.105	77
263.337	74
263.57	84
263.802	75
264.035	62
264.267	78
264.499	88
264.732	95
264.964	78
265.197	94
265.429	101
265.661	78
265.894	88
266.126	82
266.358	82
266.591	79
266.823	86
267.055	101
267.287	77
267.52	79
267.752	74
267.984	88
268.216	76
268.448	87
268.681	90
268.913	87
269.145	84
269.377	84
269.609	86
269.841	86
270.073	96
270.306	84
270.538	102
270.77	90
271.002	68
271.234	82
271.466	90
271.698	83
271.93	74
272.162	95
272.394	96
272.626	88
272.858	94
273.09	90
273.322	89
273.553	83
273.785	84
274.017	80
274.249	75
274.481	91
274.713	68
274.945	85
275.176	90
275.408	71
275.64	98
275.872	86
276.104	79
276.335	85
276.567	80
276.799	97
277.031	111
277.262	110
277.494	105
277.726	88
277.957	80
278.189	72
278.421	81
278.652	86
278.884	89
279.115	88
279.347	99
279.579	84
279.81	100
280.042	100
280.273	116
280.505	107
280.736	92
280.968	102
281.199	84
281.431	88
281.662	82
281.894	96
282.125	90
282.356	99
282.588	126
282.819	107
283.051	92
283.282	90
283.513	105
283.745	93
283.976	69
284.207	94
284.439	89
284.67	87
284.901	90
285.132	89
285.364	74
285.595	83
285.826	90
286.057	97
286.288	95
286.52	86
286.751	92
286.982	95
287.213	79
287.444	92
287.675	90
287.906	90
288.138	87
288.369	96
288.6	90
288.831	77
289.062	93
289.293	93
289.524	91
289.755	72
289.986	85
290.217	76
290.448	82
290.679	90
290.91	88
291.141	91
291.371	91
291.602	71
291.833	95
292.064	88
292.295	85
292.526	89
292.757	92
292.987	94
293.218	87
293.449	81
293.68	80
293.91	84
294.141	96
294.372	94
294.603	88
294.833	84
295.064	80
295.295	78
295.525	97
295.756	101
295.987	110
296.217	120
296.448	108
296.679	84
296.909	96
297.14	83
297.37	84
297.601	79
297.831	85
298.062	80
298.292	81
298.523	87
298.753	88
298.984	96
299.214	91
299.445	86
299.675	80
299.905	93
300.136	95
300.366	83
300.597	88
300.827	104
301.057	86
301.288	94
301.518	93
301.748	104
301.979	110
302.209	97
302.439	100
302.669	91
302.9	99
303.13	94
303.36	107
303.59	106
303.82	114
304.051	95
304.281	90
304.511	97
304.741	81
304.971	96
305.201	86
305.431	95
305.661	88
305.891	81
306.121	86
306.352	94
306.582	108
306.812	98
307.042	90
307.272	110
307.502	120
307.731	124
307.961	104
308.191	90
308.421	74
308.651	79
308.881	99
309.111	106
309.341	86
309.571	104
309.8	103
310.03	99
310.26	92
310.49	78
310.72	76
310.949	87
311.179	82
311.409	73
311.639	85
311.868	94
312.098	82
312.328	114
312.557	87
312.787	104
313.017	103
313.246	93
313.476	88
313.706	92
313.935	98
314.165	90
314.394	100
314.624	102
314.853	94
315.083	100
315.312	94
315.542	93
315.771	80
316.001	86
316.23	82
316.46	98
316.689	88
316.919	84
317.148	87
317.377	93
317.607	83
317.836	80
318.065	91
318.295	83
318.524	81
318.753	79
318.983	92
319.212	110
319.441	104
319.67	87
319.9	92
320.129	90
320.358	101
320.587	74
320.816	88
321.046	96
321.275	92
321.504	97
321.733	93
321.962	88
322.191	78
322.42	98
322.649	94
322.878	101
323.108	107
323.337	106
323.566	114
323.795	132
324.024	179
324.253	320
324.482	611
324.71	1304
324.939	1749
325.168	660
325.397	213
325.626	135
325.855	106
326.084	108
326.313	128
326.542	145
326.77	192
326.999	371
327.228	720
327.457	1298
327.686	1055
327.914	319
328.143	246
328.372	259
328.6	159
328.829	115
329.058	121
329.287	122
329.515	118
329.744	134
329.972	207
330.201	352
330.43	448
330.658	230
330.887	140
331.115	121
331.344	116
331.572	109
331.801	97
332.03	101
332.258	93
332.486	103
332.715	100
332.943	96
333.172	92
333.4	105
333.629	114
333.857	139
334.085	202
334.314	340
334.542	590
334.771	548
334.999	183
335.227	122
335.455	85
335.684	91
335.912	87
336.14	103
336.369	104
336.597	99
336.825	98
337.053	96
337.281	104
337.51	94
337.738	85
337.966	90
338.194	89
338.422	95
338.65	98
338.878	85
339.106	92
339.334	84
339.562	93
339.79	110
340.018	98
340.246	97
340.474	88
340.702	78
340.93	92
341.158	90
341.386	90
341.614	99
341.842	86
342.07	90
342.298	108
342.526	92
342.754	86
342.981	78
343.209	80
343.437	101
343.665	91
343.893	84
344.12	90
344.348	91
344.576	87
344.804	112
345.031	91
345.259	98
345.487	94
345.714	81
345.942	83
346.17	106
346.397	81
346.625	88
346.853	98
347.08	94
347.308	95
347.535	84
347.763	91
347.99	107
348.218	103
348.445	97
348.673	92
348.9	110
349.128	94
349.355	85
349.583	96
349.81	93
350.037	80
350.265	103
350.492	90
350.72	104
350.947	105
351.174	103
351.402	116
351.629	92
351.856	90
352.083	110
352.311	101
352.538	98
352.765	96
352.992	101
353.22	101
353.447	95
353.674	100
353.901	100
354.128	101
354.355	106
354.583	92
354.81	97
355.037	101
355.264	90
355.491	88
355.718	91
355.945	111
356.172	88
356.399	92
356.626	86
356.853	89
357.08	99
357.307	100
357.534	87
357.761	87
357.988	96
358.215	87
358.441	94
358.668	90
358.895	97
359.122	87
359.349	82
359.576	92
359.802	87
360.029	96
360.256	107
360.483	105
360.709	85
360.936	103
361.163	102
361.39	99
361.616	102
361.843	111
362.07	99
362.296	80
362.523	91
362.749	78
362.976	87
363.203	87
363.429	94
363.656	80
363.882	91
364.109	84
364.335	100
364.562	93
364.788	87
365.015	103
365.241	88
365.468	94
365.694	97
365.92	93
366.147	94
366.373	83
366.599	74
366.826	79
367.052	94
367.278	87
367.505	83
367.731	103
367.957	82
368.184	92
368.41	101
368.636	107
368.862	112
369.089	111
369.315	99
369.541	80
369.767	108
369.993	88
370.219	86
370.445	78
370.672	77
370.898	83
371.124	94
371.35	98
371.576	88
371.802	90
372.028	100
372.254	99
372.48	86
372.706	90
372.932	88
373.158	91
373.384	94
373.61	102
373.835	107
374.061	95
374.287	103
374.513	102
374.739	90
374.965	75
375.191	87
375.416	88
375.642	91
375.868	110
376.094	82
376.319	83
376.545	99
376.771	82
376.997	87
377.222	88
377.448	100
377.674	91
377.899	81
378.125	94
378.35	86
378.576	98
378.802	90
379.027	96
379.253	95
379.478	82
379.704	94
379.929	97
380.155	82
380.38	88
380.606	93
380.831	108
381.057	103
381.282	93
381.507	104
381.733	90
381.958	95
382.184	97
382.409	96
382.634	96
382.86	102
383.085	101
383.31	107
383.535	113
383.761	101
383.986	93
384.211	93
384.436	78
384.662	99
384.887	85
385.112	107
385.337	104
385.562	108
385.787	100
386.013	94
386.238	96
386.463	99
386.688	102
386.913	98
387.138	106
387.363	101
387.588	104
387.813	104
388.038	106
388.263	115
388.488	100
388.713	90
388.938	98
389.163	74
389.387	96
389.612	94
389.837	82
390.062	91
390.287	87
390.512	83
390.736	93
390.961	86
391.186	84
391.411	95
391.636	104
391.86	100
392.085	95
392.31	93
392.534	81
392.759	83
392.984	91
393.208	92
393.433	98
393.658	100
393.882	79
394.107	87
394.331	81
394.556	85
394.78	92
395.005	79
395.229	84
395.454	91
395.678	97
395.903	80
396.127	103
396.352	85
396.576	91
396.801	89
397.025	93
397.249	81
397.474	82
397.698	81
397.922	86
398.147	84
398.371	90
398.595	77
398.82	91
399.044	88
399.268	102
399.492	90
399.717	97
399.941	93
400.165	93
400.389	90
400.613	102
400.837	79
401.062	92
401.286	85
401.51	90
401.734	91
401.958	90
402.182	103
402.406	132
402.63	104
402.854	100
403.078	93
403.302	91
403.526	91
403.75	86
403.974	80
404.198	88
404.422	100
404.645	91
404.869	97
405.093	98
405.317	119
405.541	104
405.765	86
405.988	93
406.212	135
406.436	180
406.66	131
406.883	95
407.107	88
407.331	90
407.555	95
407.778	96
408.002	93
408.226	81
408.449	92
408.673	96
408.896	81
409.12	86
409.344	94
409.567	82
409.791	82
410.014	82
410.238	93
410.461	87
410.685	92
410.908	75
411.132	100
411.355	99
411.578	90
411.802	89
412.025	86
412.249	92
412.472	88
412.695	96
412.919	88
413.142	92
413.365	79
413.589	91
413.812	87
414.035	87
414.258	82
414.482	81
414.705	87
414.928	88
415.151	90
415.374	96
415.597	97
415.821	88
416.044	83
416.267	89
416.49	105
416.713	85
416.936	86
417.159	94
417.382	80
417.605	87
417.828	99
418.051	95
418.274	76
418.497	96
418.72	80
418.943	96
419.166	92
419.389	86
419.611	89
419.834	79
420.057	84
420.28	97
420.503	76
420.726	98
420.948	92
421.171	97
421.394	82
421.617	81
421.839	67
422.062	72
422.285	95
422.507	89
422.73	87
422.953	86
423.175	97
423.398	96
423.621	82
423.843	74
424.066	85
424.288	89
424.511	90
424.733	95
424.956	102
425.178	86
425.401	87
425.623	92
425.846	83
426.068	84
426.291	78
426.513	94
426.735	84
426.958	103
427.18	101
427.402	114
427.625	155
427.847	135
428.069	134
428.292	87
428.514	94
428.736	90
428.958	74
429.181	84
429.403	74
429.625	75
429.847	81
430.069	90
430.292	106
430.514	83
430.736	77
430.958	83
431.18	86
431.402	81
431.624	81
431.846	85
432.068	91
432.29	91
432.512	93
432.734	87
432.956	73
433.178	85
433.4	92
433.622	85
433.844	66
434.066	84
434.287	104
434.509	91
434.731	80
434.953	94
435.175	87
435.397	69
435.618	78
435.84	90
436.062	120
436.284	110
436.505	90
436.727	95
436.949	86
437.17	88
437.392	78
437.614	70
437.835	92
438.057	100
438.278	106
438.5	83
438.721	104
438.943	112
439.165	93
439.386	86
439.608	90
439.829	93
440.05	107
440.272	122
440.493	94
440.715	85
440.936	96
441.158	88
441.379	67
441.6	81
441.822	96
442.043	92
442.264	86
442.486	83
442.707	90
442.928	92
443.149	103
443.371	120
443.592	104
443.813	93
444.034	94
444.255	77
444.476	80
444.698	79
444.919	96
445.14	126
445.361	102
445.582	109
445.803	127
446.024	123
446.245	114
446.466	104
446.687	83
446.908	97
447.129	82
447.35	75
447.571	91
447.792	96
448.013	90
448.234	98
448.455	89
448.675	104
448.896	101
449.117	101
449.338	88
449.559	110
449.779	123
450	93
450.221	85
450.442	83
450.662	86
450.883	108
451.104	102
451.324	90
451.545	83
451.766	82
451.986	81
452.207	84
452.428	82
452.648	94
452.869	110
453.089	104
453.31	101
453.53	98
453.751	82
453.971	95
454.192	102
454.412	77
454.633	68
454.853	87
455.073	85
455.294	94
455.514	96
455.734	77
455.955	75
456.175	84
456.395	86
456.616	84
456.836	78
457.056	82
457.276	82
457.497	82
457.717	84
457.937	83
458.157	77
458.377	97
458.598	101
458.818	129
459.038	135
459.258	90
459.478	83
459.698	90
459.918	88
460.138	78
460.358	82
460.578	91
460.798	76
461.018	71
461.238	76
461.458	82
461.678	87
461.898	86
462.118	77
462.338	98
462.558	82
462.777	78
462.997	72
463.217	90
463.437	86
463.657	84
463.876	86
464.096	71
464.316	82
464.536	70
464.755	93
464.975	97
465.195	141
465.414	133
465.634	85
465.854	87
466.073	83
466.293	87
466.512	90
466.732	98
466.951	87
467.171	84
467.391	77
467.61	110
467.829	114
468.049	224
468.268	285
468.488	113
468.707	100
468.927	78
469.146	87
469.365	88
469.585	82
469.804	98
470.023	107
470.243	84
470.462	107
470.681	96
470.901	94
471.12	98
471.339	83
471.558	102
471.777	112
471.997	142
472.216	398
472.435	791
472.654	228
472.873	119
473.092	91
473.311	97
473.53	84
473.749	94
473.968	87
474.187	89
474.406	88
474.625	86
474.844	86
475.063	86
475.282	92
475.501	87
475.72	93
475.939	72
476.158	80
476.377	84
476.596	95
476.814	78
477.033	101
477.252	77
477.471	83
477.69	90
477.908	79
478.127	91
478.346	82
478.564	84
478.783	81
479.002	88
479.22	88
479.439	96
479.658	93
479.876	102
480.095	83
480.313	89
480.532	105
480.751	142
480.969	367
481.188	1386
481.406	806
481.624	174
481.843	80
482.061	90
482.28	97
482.498	90
482.717	95
482.935	96
483.153	93
483.372	92
483.59	84
483.808	93
484.027	69
484.245	87
484.463	88
484.681	86
484.9	80
485.118	84
485.336	97
485.554	94
485.772	101
485.99	99
486.209	108
486.427	101
486.645	108
486.863	100
487.081	100
487.299	104
487.517	85
487.735	98
487.953	86
488.171	91
488.389	98
488.607	104
488.825	84
489.043	89
489.261	94
489.479	90
489.696	81
489.914	97
490.132	84
490.35	98
490.568	86
490.786	99
491.003	74
491.221	90
491.439	80
491.657	80
491.874	94
492.092	88
492.31	81
492.527	86
492.745	80
492.963	91
493.18	86
493.398	98
493.615	97
493.833	87
494.05	87
494.268	84
494.485	84
494.703	77
494.92	79
495.138	80
495.355	85
495.573	85
495.79	93
496.008	81
496.225	89
496.442	88
496.66	82
496.877	84
497.094	95
497.312	78
497.529	82
497.746	94
497.963	84
498.181	85
498.398	106
498.615	106
498.832	99
499.049	92
499.267	90
499.484	82
499.701	92
499.918	92
500.135	82
500.352	95
500.569	84
500.786	90
501.003	86
501.22	85
501.437	89
501.654	91
501.871	100
502.088	94
502.305	72
502.522	85
502.739	95
502.956	96
503.172	71
503.389	91
503.606	92
503.823	97
504.04	101
504.256	90
504.473	99
504.69	84
504.907	101
505.123	90
505.34	87
505.557	86
505.773	95
505.99	101
506.207	83
506.423	95
506.64	91
506.856	99
507.073	96
507.289	81
507.506	86
507.722	98
507.939	99
508.155	96
508.372	85
508.588	82
508.805	97
509.021	104
509.238	86
509.454	98
509.67	105
509.887	98
510.103	110
510.319	165
510.536	532
510.752	1679
510.968	506
511.184	140
511.401	102
511.617	84
511.833	80
512.049	86
512.265	90
512.481	94
512.698	79
512.914	76
513.13	93
513.346	87
513.562	82
513.778	88
513.994	93
514.21	104
514.426	90
514.642	122
514.858	112
515.074	136
515.29	336
515.506	1080
515.721	411
515.937	138
516.153	101
516.369	90
516.585	92
516.801	98
517.016	80
517.232	84
517.448	96
517.664	80
517.879	72
518.095	79
518.311	86
518.527	84
518.742	105
518.958	95
519.173	93
519.389	109
519.605	84
519.82	102
520.036	90
520.251	117
520.467	110
520.682	94
520.898	93
521.113	101
521.329	118
521.544	157
521.76	412
521.975	1742
522.19	1042
522.406	246
522.621	118
522.836	98
523.052	97
523.267	97
523.482	103
523.698	85
523.913	116
524.128	90
524.343	102
524.559	80
524.774	86
524.989	96
525.204	90
525.419	85
525.634	90
525.849	85
526.064	74
526.28	79
526.495	94
526.71	87
526.925	101
527.14	90
527.355	83
527.57	98
527.785	96
527.999	74
528.214	72
528.429	77
528.644	94
528.859	86
529.074	85
529.289	96
529.503	144
529.718	101
529.933	84
530.148	82
530.363	93
530.577	81
530.792	94
531.007	95
531.221	85
531.436	84
531.651	97
531.865	95
532.08	83
532.295	100
532.509	80
532.724	93
532.938	78
533.153	102
533.367	90
533.582	89
533.796	96
534.011	93
534.225	80
534.44	87
534.654	96
534.868	82
535.083	90
535.297	88
535.511	103
535.726	92
535.94	86
536.154	83
536.369	97
536.583	91
536.797	85
537.011	95
537.225	90
537.44	83
537.654	92
537.868	76
538.082	93
538.296	93
538.51	83
538.724	84
538.938	84
539.153	88
539.367	87
539.581	94
539.795	95
540.009	83
540.222	91
540.436	74
540.65	81
540.864	86
541.078	92
541.292	93
541.506	80
541.72	92
541.934	86
542.147	97
542.361	97
542.575	76
542.789	79
543.002	85
543.216	84
543.43	93
543.644	90
543.857	89
544.071	79
544.285	88
544.498	96
544.712	83
544.925	69
545.139	76
545.352	93
545.566	82
545.779	85
545.993	79
546.206	99
546.42	91
546.633	82
546.847	87
547.06	98
547.274	92
547.487	89
547.7	76
547.914	99
548.127	90
548.34	76
548.554	100
548.767	93
548.98	90
549.193	75
549.407	83
549.62	81
549.833	80
550.046	82
550.259	89
550.473	90
550.686	87
550.899	86
551.112	92
551.325	72
551.538	89
551.751	86
551.964	83
552.177	85
552.39	86
552.603	87
552.816	104
553.029	94
553.242	96
553.455	93
553.667	95
553.88	86
554.093	84
554.306	86
554.519	87
554.732	86
554.944	94
555.157	75
555.37	105
555.583	91
555.795	90
556.008	87
556.221	93
556.433	90
556.646	97
556.859	86
557.071	99
557.284	96
557.496	82
557.709	98
557.921	69
558.134	81
558.346	97
558.559	82
558.771	89
558.984	90
559.196	98
559.409	75
559.621	86
559.833	86
560.046	89
560.258	94
560.47	84
560.683	83
560.895	86
561.107	88
561.32	87
561.532	80
561.744	76
561.956	75
562.168	90
562.381	87
562.593	90
562.805	97
563.017	92
563.229	82
563.441	86
563.653	78
563.865	79
564.077	100
564.289	78
564.501	72
564.713	84
564.925	94
565.137	87
565.349	94
565.561	81
565.773	85
565.985	84
566.197	90
566.408	91
566.62	104
566.832	82
567.044	81
567.255	91
567.467	90
567.679	88
567.891	92
568.102	84
568.314	93
568.526	97
568.737	101
568.949	90
569.161	90
569.372	91
569.584	100
569.795	100
570.007	112
570.218	188
570.43	126
570.641	98
570.853	79
571.064	90
571.276	86
571.487	91
571.698	80
571.91	78
572.121	76
572.333	80
572.544	82
572.755	86
572.966	78
573.178	78
573.389	86
573.6	103
573.811	71
574.023	83
574.234	90
574.445	96
574.656	85
574.867	97
575.078	79
575.289	79
575.501	94
575.712	101
575.923	97
576.134	84
576.345	81
576.556	95
576.767	94
576.978	77
577.188	87
577.399	79
577.61	89
577.821	103
578.032	110
578.243	205
578.454	499
578.665	168
578.875	116
579.086	82
579.297	93
579.508	93
579.718	81
579.929	79
580.14	83
580.35	87
580.561	94
580.772	85
580.982	101
581.193	79
581.403	76
581.614	93
581.825	67
582.035	93
582.246	96
582.456	81
582.667	85
582.877	83
583.087	80
583.298	85
583.508	84
583.719	72
583.929	83
584.139	77
584.35	88
584.56	71
584.77	84
584.981	91
585.191	80
