Data from Circ_1989_H10_HRD10591_00074.txt Node
Date: Wed Jan 03 12:01:36 EST 2024
User: Yrep
Spectrometer: HR+D1059
Trigger mode: 1
Integration Time (sec): 1.000000E-1
Scans to average: 1
Electric dark correction enabled: true
Nonlinearity correction enabled: false
Boxcar width: 0
XAxis mode: Wavelengths
Number of Pixels in Spectrum: 2048
>>>>>Begin Spectral Data<<<<<
223.165	-13.62
223.4	-13.62
223.635	-13.62
223.869	-13.62
224.104	-27.62
224.338	-18.62
224.573	-19.62
224.808	-1.62
225.042	-11.62
225.277	-11.62
225.511	-2.62
225.746	-2.62
225.98	17.38
226.215	1.38
226.449	21.38
226.683	14.38
226.918	34.38
227.152	34.38
227.387	40.38
227.621	38.38
227.856	47.38
228.09	57.38
228.324	59.38
228.559	57.38
228.793	63.38
229.027	64.38
229.262	65.38
229.496	63.38
229.73	88.38
229.964	88.38
230.199	78.38
230.433	73.38
230.667	81.38
230.901	84.38
231.136	78.38
231.37	67.38
231.604	80.38
231.838	74.38
232.072	70.38
232.306	77.38
232.541	86.38
232.775	70.38
233.009	88.38
233.243	82.38
233.477	95.38
233.711	85.38
233.945	82.38
234.179	80.38
234.413	82.38
234.647	101.38
234.881	97.38
235.115	73.38
235.349	73.38
235.583	95.38
235.817	85.38
236.051	80.38
236.285	86.38
236.519	85.38
236.753	84.38
236.987	83.38
237.221	83.38
237.455	86.38
237.689	70.38
237.922	74.38
238.156	89.38
238.39	70.38
238.624	80.38
238.858	89.38
239.091	85.38
239.325	87.38
239.559	72.38
239.793	71.38
240.027	81.38
240.26	94.38
240.494	88.38
240.728	81.38
240.961	80.38
241.195	70.38
241.429	83.38
241.662	80.38
241.896	66.38
242.13	81.38
242.363	86.38
242.597	57.38
242.83	90.38
243.064	84.38
243.298	96.38
243.531	80.38
243.765	69.38
243.998	91.38
244.232	84.38
244.465	85.38
244.699	85.38
244.932	72.38
245.166	79.38
245.399	91.38
245.633	62.38
245.866	93.38
246.099	85.38
246.333	81.38
246.566	82.38
246.8	79.38
247.033	63.38
247.266	70.38
247.5	68.38
247.733	79.38
247.966	80.38
248.2	88.38
248.433	88.38
248.666	78.38
248.899	91.38
249.133	114.38
249.366	87.38
249.599	99.38
249.832	79.38
250.066	78.38
250.299	85.38
250.532	92.38
250.765	99.38
250.998	87.38
251.231	64.38
251.465	83.38
251.698	80.38
251.931	79.38
252.164	88.38
252.397	88.38
252.63	66.38
252.863	73.38
253.096	93.38
253.329	88.38
253.562	81.38
253.795	95.38
254.028	67.38
254.261	87.38
254.494	80.38
254.727	77.38
254.96	86.38
255.193	92.38
255.426	82.38
255.659	79.38
255.892	106.38
256.124	92.38
256.357	82.38
256.59	88.38
256.823	93.38
257.056	89.38
257.289	72.38
257.521	102.38
257.754	91.38
257.987	80.38
258.22	74.38
258.452	92.38
258.685	86.38
258.918	88.38
259.151	88.38
259.383	84.38
259.616	74.38
259.849	90.38
260.081	64.38
260.314	87.38
260.547	96.38
260.779	81.38
261.012	97.38
261.244	104.38
261.477	103.38
261.71	89.38
261.942	104.38
262.175	121.38
262.407	91.38
262.64	95.38
262.872	102.38
263.105	100.38
263.337	87.38
263.57	89.38
263.802	88.38
264.035	66.38
264.267	93.38
264.499	77.38
264.732	88.38
264.964	85.38
265.197	75.38
265.429	85.38
265.661	80.38
265.894	85.38
266.126	91.38
266.358	88.38
266.591	90.38
266.823	89.38
267.055	85.38
267.287	83.38
267.52	87.38
267.752	91.38
267.984	84.38
268.216	66.38
268.448	92.38
268.681	86.38
268.913	94.38
269.145	77.38
269.377	95.38
269.609	91.38
269.841	73.38
270.073	90.38
270.306	77.38
270.538	88.38
270.77	85.38
271.002	85.38
271.234	108.38
271.466	98.38
271.698	68.38
271.93	94.38
272.162	93.38
272.394	81.38
272.626	87.38
272.858	85.38
273.09	94.38
273.322	87.38
273.553	79.38
273.785	79.38
274.017	82.38
274.249	85.38
274.481	66.38
274.713	81.38
274.945	86.38
275.176	102.38
275.408	88.38
275.64	104.38
275.872	120.38
276.104	101.38
276.335	81.38
276.567	106.38
276.799	101.38
277.031	116.38
277.262	128.38
277.494	121.38
277.726	106.38
277.957	89.38
278.189	92.38
278.421	89.38
278.652	85.38
278.884	73.38
279.115	86.38
279.347	91.38
279.579	89.38
279.81	115.38
280.042	130.38
280.273	181.38
280.505	132.38
280.736	100.38
280.968	84.38
281.199	112.38
281.431	86.38
281.662	82.38
281.894	91.38
282.125	106.38
282.356	113.38
282.588	135.38
282.819	118.38
283.051	89.38
283.282	99.38
283.513	93.38
283.745	73.38
283.976	84.38
284.207	84.38
284.439	86.38
284.67	80.38
284.901	101.38
285.132	79.38
285.364	80.38
285.595	88.38
285.826	89.38
286.057	97.38
286.288	89.38
286.52	83.38
286.751	84.38
286.982	96.38
287.213	75.38
287.444	91.38
287.675	99.38
287.906	99.38
288.138	94.38
288.369	84.38
288.6	95.38
288.831	81.38
289.062	81.38
289.293	93.38
289.524	94.38
289.755	97.38
289.986	90.38
290.217	83.38
290.448	94.38
290.679	79.38
290.91	82.38
291.141	104.38
291.371	88.38
291.602	83.38
291.833	96.38
292.064	87.38
292.295	102.38
292.526	78.38
292.757	79.38
292.987	94.38
293.218	98.38
293.449	88.38
293.68	92.38
293.91	95.38
294.141	96.38
294.372	86.38
294.603	81.38
294.833	85.38
295.064	80.38
295.295	100.38
295.525	91.38
295.756	100.38
295.987	126.38
296.217	130.38
296.448	120.38
296.679	87.38
296.909	97.38
297.14	88.38
297.37	95.38
297.601	98.38
297.831	91.38
298.062	99.38
298.292	85.38
298.523	82.38
298.753	81.38
298.984	81.38
299.214	79.38
299.445	78.38
299.675	100.38
299.905	90.38
300.136	111.38
300.366	81.38
300.597	95.38
300.827	83.38
301.057	83.38
301.288	104.38
301.518	88.38
301.748	107.38
301.979	115.38
302.209	107.38
302.439	83.38
302.669	66.38
302.9	81.38
303.13	102.38
303.36	103.38
303.59	123.38
303.82	137.38
304.051	87.38
304.281	109.38
304.511	86.38
304.741	61.38
304.971	78.38
305.201	85.38
305.431	86.38
305.661	85.38
305.891	81.38
306.121	93.38
306.352	104.38
306.582	96.38
306.812	95.38
307.042	106.38
307.272	128.38
307.502	138.38
307.731	134.38
307.961	117.38
308.191	81.38
308.421	104.38
308.651	94.38
308.881	101.38
309.111	99.38
309.341	90.38
309.571	110.38
309.8	105.38
310.03	89.38
310.26	96.38
310.49	84.38
310.72	99.38
310.949	107.38
311.179	120.38
311.409	93.38
311.639	87.38
311.868	111.38
312.098	104.38
312.328	97.38
312.557	112.38
312.787	114.38
313.017	93.38
313.246	96.38
313.476	93.38
313.706	104.38
313.935	106.38
314.165	107.38
314.394	101.38
314.624	106.38
314.853	105.38
315.083	93.38
315.312	95.38
315.542	89.38
315.771	101.38
316.001	87.38
316.23	100.38
316.46	112.38
316.689	102.38
316.919	89.38
317.148	103.38
317.377	106.38
317.607	104.38
317.836	107.38
318.065	89.38
318.295	96.38
318.524	82.38
318.753	83.38
318.983	87.38
319.212	104.38
319.441	104.38
319.67	110.38
319.9	91.38
320.129	98.38
320.358	87.38
320.587	96.38
320.816	98.38
321.046	88.38
321.275	94.38
321.504	92.38
321.733	103.38
321.962	115.38
322.191	112.38
322.42	108.38
322.649	105.38
322.878	105.38
323.108	117.38
323.337	134.38
323.566	127.38
323.795	163.38
324.024	208.38
324.253	367.38
324.482	849.38
324.71	1797.38
324.939	2492.38
325.168	888.38
325.397	275.38
325.626	156.38
325.855	141.38
326.084	117.38
326.313	139.38
326.542	160.38
326.77	228.38
326.999	466.38
327.228	991.38
327.457	1877.38
327.686	1507.38
327.914	482.38
328.143	350.38
328.372	431.38
328.6	254.38
328.829	154.38
329.058	163.38
329.287	154.38
329.515	160.38
329.744	189.38
329.972	305.38
330.201	598.38
330.43	857.38
330.658	396.38
330.887	207.38
331.115	157.38
331.344	123.38
331.572	125.38
331.801	113.38
332.03	109.38
332.258	100.38
332.486	95.38
332.715	82.38
332.943	100.38
333.172	108.38
333.4	119.38
333.629	133.38
333.857	185.38
334.085	304.38
334.314	585.38
334.542	1099.38
334.771	1018.38
334.999	303.38
335.227	135.38
335.455	101.38
335.684	112.38
335.912	102.38
336.14	112.38
336.369	116.38
336.597	111.38
336.825	103.38
337.053	89.38
337.281	90.38
337.51	102.38
337.738	98.38
337.966	99.38
338.194	85.38
338.422	106.38
338.65	90.38
338.878	99.38
339.106	94.38
339.334	88.38
339.562	93.38
339.79	97.38
340.018	106.38
340.246	95.38
340.474	93.38
340.702	85.38
340.93	92.38
341.158	91.38
341.386	98.38
341.614	105.38
341.842	96.38
342.07	87.38
342.298	86.38
342.526	88.38
342.754	91.38
342.981	89.38
343.209	79.38
343.437	104.38
343.665	87.38
343.893	79.38
344.12	97.38
344.348	91.38
344.576	107.38
344.804	89.38
345.031	98.38
345.259	91.38
345.487	115.38
345.714	97.38
345.942	88.38
346.17	81.38
346.397	103.38
346.625	92.38
346.853	96.38
347.08	100.38
347.308	94.38
347.535	98.38
347.763	94.38
347.99	102.38
348.218	110.38
348.445	108.38
348.673	97.38
348.9	106.38
349.128	103.38
349.355	86.38
349.583	85.38
349.81	103.38
350.037	101.38
350.265	99.38
350.492	88.38
350.72	102.38
350.947	87.38
351.174	94.38
351.402	110.38
351.629	99.38
351.856	105.38
352.083	98.38
352.311	124.38
352.538	114.38
352.765	114.38
352.992	122.38
353.22	105.38
353.447	97.38
353.674	82.38
353.901	89.38
354.128	97.38
354.355	98.38
354.583	107.38
354.81	101.38
355.037	103.38
355.264	96.38
355.491	86.38
355.718	87.38
355.945	90.38
356.172	94.38
356.399	99.38
356.626	91.38
356.853	83.38
357.08	91.38
357.307	91.38
357.534	88.38
357.761	90.38
357.988	94.38
358.215	109.38
358.441	97.38
358.668	96.38
358.895	91.38
359.122	100.38
359.349	78.38
359.576	103.38
359.802	107.38
360.029	131.38
360.256	126.38
360.483	106.38
360.709	96.38
360.936	88.38
361.163	99.38
361.39	104.38
361.616	91.38
361.843	94.38
362.07	93.38
362.296	96.38
362.523	87.38
362.749	89.38
362.976	99.38
363.203	107.38
363.429	96.38
363.656	84.38
363.882	83.38
364.109	89.38
364.335	85.38
364.562	101.38
364.788	91.38
365.015	92.38
365.241	95.38
365.468	111.38
365.694	105.38
365.92	106.38
366.147	99.38
366.373	88.38
366.599	95.38
366.826	88.38
367.052	92.38
367.278	95.38
367.505	86.38
367.731	93.38
367.957	101.38
368.184	88.38
368.41	107.38
368.636	97.38
368.862	110.38
369.089	105.38
369.315	101.38
369.541	93.38
369.767	92.38
369.993	93.38
370.219	106.38
370.445	87.38
370.672	82.38
370.898	79.38
371.124	97.38
371.35	82.38
371.576	87.38
371.802	84.38
372.028	93.38
372.254	92.38
372.48	80.38
372.706	83.38
372.932	78.38
373.158	93.38
373.384	89.38
373.61	98.38
373.835	85.38
374.061	92.38
374.287	95.38
374.513	87.38
374.739	89.38
374.965	86.38
375.191	106.38
375.416	88.38
375.642	97.38
375.868	96.38
376.094	104.38
376.319	82.38
376.545	90.38
376.771	90.38
376.997	102.38
377.222	95.38
377.448	80.38
377.674	79.38
377.899	100.38
378.125	83.38
378.35	91.38
378.576	91.38
378.802	85.38
379.027	88.38
379.253	85.38
379.478	100.38
379.704	77.38
379.929	91.38
380.155	89.38
380.38	93.38
380.606	100.38
380.831	91.38
381.057	81.38
381.282	84.38
381.507	90.38
381.733	103.38
381.958	104.38
382.184	96.38
382.409	102.38
382.634	93.38
382.86	110.38
383.085	98.38
383.31	92.38
383.535	105.38
383.761	98.38
383.986	93.38
384.211	86.38
384.436	87.38
384.662	79.38
384.887	86.38
385.112	81.38
385.337	90.38
385.562	101.38
385.787	109.38
386.013	105.38
386.238	111.38
386.463	118.38
386.688	98.38
386.913	101.38
387.138	95.38
387.363	82.38
387.588	105.38
387.813	104.38
388.038	99.38
388.263	110.38
388.488	121.38
388.713	104.38
388.938	83.38
389.163	87.38
389.387	84.38
389.612	89.38
389.837	96.38
390.062	99.38
390.287	100.38
390.512	97.38
390.736	90.38
390.961	90.38
391.186	91.38
391.411	97.38
391.636	99.38
391.86	81.38
392.085	95.38
392.31	91.38
392.534	101.38
392.759	86.38
392.984	93.38
393.208	100.38
393.433	100.38
393.658	75.38
393.882	87.38
394.107	88.38
394.331	97.38
394.556	98.38
394.78	91.38
395.005	93.38
395.229	75.38
395.454	95.38
395.678	92.38
395.903	91.38
396.127	95.38
396.352	82.38
396.576	85.38
396.801	81.38
397.025	69.38
397.249	81.38
397.474	93.38
397.698	98.38
397.922	84.38
398.147	101.38
398.371	79.38
398.595	88.38
398.82	64.38
399.044	82.38
399.268	86.38
399.492	89.38
399.717	86.38
399.941	105.38
400.165	95.38
400.389	91.38
400.613	93.38
400.837	88.38
401.062	93.38
401.286	112.38
401.51	95.38
401.734	98.38
401.958	107.38
402.182	117.38
402.406	165.38
402.63	124.38
402.854	106.38
403.078	96.38
403.302	100.38
403.526	81.38
403.75	93.38
403.974	81.38
404.198	90.38
404.422	97.38
404.645	87.38
404.869	100.38
405.093	109.38
405.317	118.38
405.541	127.38
405.765	95.38
405.988	125.38
406.212	174.38
406.436	213.38
406.66	166.38
406.883	97.38
407.107	104.38
407.331	92.38
407.555	110.38
407.778	108.38
408.002	85.38
408.226	85.38
408.449	100.38
408.673	99.38
408.896	96.38
409.12	100.38
409.344	95.38
409.567	92.38
409.791	107.38
410.014	95.38
410.238	90.38
410.461	96.38
410.685	81.38
410.908	96.38
411.132	97.38
411.355	106.38
411.578	104.38
411.802	92.38
412.025	85.38
412.249	103.38
412.472	95.38
412.695	125.38
412.919	105.38
413.142	89.38
413.365	82.38
413.589	90.38
413.812	88.38
414.035	104.38
414.258	86.38
414.482	95.38
414.705	86.38
414.928	98.38
415.151	110.38
415.374	98.38
415.597	91.38
415.821	94.38
416.044	91.38
416.267	87.38
416.49	85.38
416.713	109.38
416.936	88.38
417.159	87.38
417.382	98.38
417.605	99.38
417.828	101.38
418.051	105.38
418.274	94.38
418.497	94.38
418.72	81.38
418.943	85.38
419.166	78.38
419.389	98.38
419.611	91.38
419.834	98.38
420.057	99.38
420.28	90.38
420.503	84.38
420.726	93.38
420.948	88.38
421.171	92.38
421.394	94.38
421.617	85.38
421.839	77.38
422.062	90.38
422.285	83.38
422.507	114.38
422.73	109.38
422.953	93.38
423.175	93.38
423.398	89.38
423.621	102.38
423.843	102.38
424.066	92.38
424.288	95.38
424.511	90.38
424.733	110.38
424.956	103.38
425.178	101.38
425.401	96.38
425.623	100.38
425.846	92.38
426.068	102.38
426.291	74.38
426.513	102.38
426.735	116.38
426.958	90.38
427.18	105.38
427.402	158.38
427.625	218.38
427.847	179.38
428.069	185.38
428.292	103.38
428.514	89.38
428.736	87.38
428.958	84.38
429.181	81.38
429.403	98.38
429.625	103.38
429.847	104.38
430.069	106.38
430.292	97.38
430.514	84.38
430.736	83.38
430.958	90.38
431.18	91.38
431.402	86.38
431.624	79.38
431.846	78.38
432.068	81.38
432.29	91.38
432.512	101.38
432.734	93.38
432.956	90.38
433.178	99.38
433.4	90.38
433.622	98.38
433.844	91.38
434.066	80.38
434.287	93.38
434.509	87.38
434.731	96.38
434.953	90.38
435.175	87.38
435.397	93.38
435.618	89.38
435.84	109.38
436.062	118.38
436.284	123.38
436.505	113.38
436.727	119.38
436.949	97.38
437.17	111.38
437.392	94.38
437.614	98.38
437.835	90.38
438.057	143.38
438.278	122.38
438.5	107.38
438.721	133.38
438.943	119.38
439.165	89.38
439.386	101.38
439.608	91.38
439.829	83.38
440.05	142.38
440.272	163.38
440.493	110.38
440.715	94.38
440.936	93.38
441.158	103.38
441.379	97.38
441.6	91.38
441.822	100.38
442.043	99.38
442.264	130.38
442.486	109.38
442.707	107.38
442.928	113.38
443.149	135.38
443.371	146.38
443.592	109.38
443.813	131.38
444.034	123.38
444.255	94.38
444.476	80.38
444.698	88.38
444.919	86.38
445.14	129.38
445.361	121.38
445.582	136.38
445.803	166.38
446.024	145.38
446.245	148.38
446.466	117.38
446.687	111.38
446.908	87.38
447.129	93.38
447.35	98.38
447.571	97.38
447.792	104.38
448.013	90.38
448.234	109.38
448.455	107.38
448.675	127.38
448.896	128.38
449.117	112.38
449.338	123.38
449.559	138.38
449.779	151.38
450	89.38
450.221	83.38
450.442	96.38
450.662	87.38
450.883	105.38
451.104	129.38
451.324	95.38
451.545	85.38
451.766	96.38
451.986	103.38
452.207	87.38
452.428	88.38
452.648	89.38
452.869	125.38
453.089	114.38
453.31	125.38
453.53	99.38
453.751	98.38
453.971	98.38
454.192	117.38
454.412	103.38
454.633	99.38
454.853	83.38
455.073	89.38
455.294	82.38
455.514	101.38
455.734	94.38
455.955	103.38
456.175	91.38
456.395	80.38
456.616	72.38
456.836	78.38
457.056	79.38
457.276	106.38
457.497	90.38
457.717	88.38
457.937	84.38
458.157	79.38
458.377	90.38
458.598	110.38
458.818	169.38
459.038	195.38
459.258	137.38
459.478	102.38
459.698	84.38
459.918	88.38
460.138	90.38
460.358	77.38
460.578	113.38
460.798	98.38
461.018	95.38
461.238	80.38
461.458	87.38
461.678	89.38
461.898	86.38
462.118	82.38
462.338	103.38
462.558	96.38
462.777	85.38
462.997	90.38
463.217	108.38
463.437	87.38
463.657	90.38
463.876	86.38
464.096	82.38
464.316	103.38
464.536	105.38
464.755	91.38
464.975	114.38
465.195	164.38
465.414	172.38
465.634	94.38
465.854	95.38
466.073	85.38
466.293	93.38
466.512	83.38
466.732	99.38
466.951	93.38
467.171	89.38
467.391	94.38
467.61	129.38
467.829	158.38
468.049	340.38
468.268	515.38
468.488	181.38
468.707	91.38
468.927	90.38
469.146	93.38
469.365	102.38
469.585	105.38
469.804	109.38
470.023	89.38
470.243	97.38
470.462	112.38
470.681	116.38
470.901	92.38
471.12	109.38
471.339	99.38
471.558	107.38
471.777	124.38
471.997	217.38
472.216	674.38
472.435	1453.38
472.654	377.38
472.873	128.38
473.092	97.38
473.311	103.38
473.53	86.38
473.749	94.38
473.968	98.38
474.187	106.38
474.406	111.38
474.625	91.38
474.844	86.38
475.063	90.38
475.282	103.38
475.501	102.38
475.72	88.38
475.939	92.38
476.158	88.38
476.377	97.38
476.596	87.38
476.814	91.38
477.033	100.38
477.252	110.38
477.471	93.38
477.69	96.38
477.908	110.38
478.127	94.38
478.346	79.38
478.564	106.38
478.783	107.38
479.002	109.38
479.22	101.38
479.439	109.38
479.658	127.38
479.876	113.38
480.095	111.38
480.313	117.38
480.532	123.38
480.751	190.38
480.969	619.38
481.188	2609.38
481.406	1507.38
481.624	258.38
481.843	123.38
482.061	105.38
482.28	115.38
482.498	94.38
482.717	81.38
482.935	87.38
483.153	101.38
483.372	76.38
483.59	81.38
483.808	103.38
484.027	96.38
484.245	95.38
484.463	95.38
484.681	82.38
484.9	95.38
485.118	105.38
485.336	96.38
485.554	106.38
485.772	95.38
485.99	114.38
486.209	118.38
486.427	85.38
486.645	113.38
486.863	119.38
487.081	103.38
487.299	96.38
487.517	92.38
487.735	89.38
487.953	93.38
488.171	101.38
488.389	90.38
488.607	103.38
488.825	96.38
489.043	99.38
489.261	84.38
489.479	79.38
489.696	96.38
489.914	81.38
490.132	86.38
490.35	81.38
490.568	96.38
490.786	89.38
491.003	111.38
491.221	94.38
491.439	80.38
491.657	88.38
491.874	102.38
492.092	97.38
492.31	85.38
492.527	89.38
492.745	95.38
492.963	82.38
493.18	96.38
493.398	98.38
493.615	98.38
493.833	87.38
494.05	96.38
494.268	99.38
494.485	90.38
494.703	93.38
494.92	91.38
495.138	92.38
495.355	83.38
495.573	71.38
495.79	89.38
496.008	91.38
496.225	84.38
496.442	82.38
496.66	88.38
496.877	90.38
497.094	79.38
497.312	87.38
497.529	89.38
497.746	88.38
497.963	93.38
498.181	90.38
498.398	102.38
498.615	112.38
498.832	107.38
499.049	101.38
499.267	92.38
499.484	97.38
499.701	102.38
499.918	89.38
500.135	97.38
500.352	95.38
500.569	95.38
500.786	95.38
501.003	89.38
501.22	91.38
501.437	91.38
501.654	95.38
501.871	102.38
502.088	97.38
502.305	80.38
502.522	81.38
502.739	88.38
502.956	84.38
503.172	98.38
503.389	90.38
503.606	110.38
503.823	99.38
504.04	102.38
504.256	86.38
504.473	97.38
504.69	96.38
504.907	89.38
505.123	81.38
505.34	84.38
505.557	90.38
505.773	103.38
505.99	85.38
506.207	84.38
506.423	90.38
506.64	95.38
506.856	89.38
507.073	86.38
507.289	102.38
507.506	104.38
507.722	131.38
507.939	134.38
508.155	106.38
508.372	102.38
508.588	94.38
508.805	94.38
509.021	101.38
509.238	100.38
509.454	101.38
509.67	100.38
509.887	105.38
510.103	129.38
510.319	190.38
510.536	656.38
510.752	2142.38
510.968	609.38
511.184	137.38
511.401	127.38
511.617	101.38
511.833	107.38
512.049	93.38
512.265	106.38
512.481	120.38
512.698	90.38
512.914	97.38
513.13	92.38
513.346	89.38
513.562	98.38
513.778	97.38
