Data from Circ_1989_H10_HRD10591_00084.txt Node
Date: Wed Jan 03 12:01:38 EST 2024
User: Yrep
Spectrometer: HR+D1059
Trigger mode: 1
Integration Time (sec): 1.000000E-1
Scans to average: 1
Electric dark correction enabled: true
Nonlinearity correction enabled: false
Boxcar width: 0
XAxis mode: Wavelengths
Number of Pixels in Spectrum: 2048
>>>>>Begin Spectral Data<<<<<
223.165	-7.88
223.4	-7.88
223.635	-7.88
223.869	-7.88
224.104	-17.88
224.338	-23.88
224.573	-15.88
224.808	-12.88
225.042	-16.88
225.277	-15.88
225.511	-0.88
225.746	11.12
225.98	9.12
226.215	0.12
226.449	15.12
226.683	27.12
226.918	33.12
227.152	24.12
227.387	35.12
227.621	37.12
227.856	42.12
228.09	51.12
228.324	49.12
228.559	64.12
228.793	61.12
229.027	61.12
229.262	62.12
229.496	83.12
229.73	77.12
229.964	79.12
230.199	68.12
230.433	77.12
230.667	78.12
230.901	75.12
231.136	65.12
231.37	65.12
231.604	77.12
231.838	70.12
232.072	87.12
232.306	69.12
232.541	86.12
232.775	68.12
233.009	89.12
233.243	79.12
233.477	71.12
233.711	71.12
233.945	70.12
234.179	81.12
234.413	66.12
234.647	83.12
234.881	93.12
235.115	83.12
235.349	71.12
235.583	84.12
235.817	68.12
236.051	84.12
236.285	68.12
236.519	69.12
236.753	81.12
236.987	72.12
237.221	71.12
237.455	81.12
237.689	80.12
237.922	78.12
238.156	91.12
238.39	83.12
238.624	73.12
238.858	68.12
239.091	81.12
239.325	83.12
239.559	80.12
239.793	69.12
240.027	82.12
240.26	78.12
240.494	81.12
240.728	69.12
240.961	85.12
241.195	79.12
241.429	63.12
241.662	75.12
241.896	82.12
242.13	67.12
242.363	72.12
242.597	86.12
242.83	74.12
243.064	85.12
243.298	82.12
243.531	73.12
243.765	87.12
243.998	88.12
244.232	87.12
244.465	84.12
244.699	79.12
244.932	72.12
245.166	99.12
245.399	77.12
245.633	74.12
245.866	85.12
246.099	76.12
246.333	78.12
246.566	78.12
246.8	85.12
247.033	68.12
247.266	73.12
247.5	83.12
247.733	77.12
247.966	85.12
248.2	87.12
248.433	70.12
248.666	72.12
248.899	99.12
249.133	92.12
249.366	98.12
249.599	98.12
249.832	84.12
250.066	75.12
250.299	85.12
250.532	65.12
250.765	79.12
250.998	70.12
251.231	65.12
251.465	77.12
251.698	96.12
251.931	73.12
252.164	81.12
252.397	86.12
252.63	73.12
252.863	73.12
253.096	67.12
253.329	86.12
253.562	74.12
253.795	82.12
254.028	85.12
254.261	77.12
254.494	85.12
254.727	84.12
254.96	80.12
255.193	85.12
255.426	69.12
255.659	77.12
255.892	83.12
256.124	88.12
256.357	83.12
256.59	103.12
256.823	90.12
257.056	93.12
257.289	75.12
257.521	91.12
257.754	93.12
257.987	84.12
258.22	76.12
258.452	83.12
258.685	81.12
258.918	79.12
259.151	81.12
259.383	88.12
259.616	84.12
259.849	81.12
260.081	85.12
260.314	81.12
260.547	77.12
260.779	80.12
261.012	99.12
261.244	101.12
261.477	97.12
261.71	96.12
261.942	95.12
262.175	120.12
262.407	92.12
262.64	91.12
262.872	84.12
263.105	72.12
263.337	85.12
263.57	89.12
263.802	88.12
264.035	72.12
264.267	84.12
264.499	83.12
264.732	82.12
264.964	90.12
265.197	96.12
265.429	86.12
265.661	84.12
265.894	71.12
266.126	72.12
266.358	88.12
266.591	95.12
266.823	80.12
267.055	91.12
267.287	86.12
267.52	94.12
267.752	89.12
267.984	66.12
268.216	74.12
268.448	91.12
268.681	81.12
268.913	87.12
269.145	71.12
269.377	91.12
269.609	85.12
269.841	87.12
270.073	92.12
270.306	84.12
270.538	72.12
270.77	84.12
271.002	89.12
271.234	98.12
271.466	99.12
271.698	74.12
271.93	89.12
272.162	94.12
272.394	77.12
272.626	81.12
272.858	90.12
273.09	89.12
273.322	83.12
273.553	85.12
273.785	88.12
274.017	90.12
274.249	84.12
274.481	92.12
274.713	84.12
274.945	86.12
275.176	87.12
275.408	101.12
275.64	96.12
275.872	95.12
276.104	94.12
276.335	99.12
276.567	83.12
276.799	112.12
277.031	124.12
277.262	113.12
277.494	107.12
277.726	104.12
277.957	91.12
278.189	89.12
278.421	90.12
278.652	83.12
278.884	84.12
279.115	94.12
279.347	78.12
279.579	107.12
279.81	101.12
280.042	115.12
280.273	126.12
280.505	109.12
280.736	92.12
280.968	92.12
281.199	88.12
281.431	77.12
281.662	82.12
281.894	82.12
282.125	104.12
282.356	110.12
282.588	138.12
282.819	127.12
283.051	89.12
283.282	91.12
283.513	95.12
283.745	87.12
283.976	80.12
284.207	85.12
284.439	79.12
284.67	83.12
284.901	89.12
285.132	86.12
285.364	97.12
285.595	85.12
285.826	83.12
286.057	89.12
286.288	78.12
286.52	97.12
286.751	83.12
286.982	96.12
287.213	96.12
287.444	92.12
287.675	89.12
287.906	90.12
288.138	84.12
288.369	95.12
288.6	74.12
288.831	85.12
289.062	88.12
289.293	84.12
289.524	88.12
289.755	94.12
289.986	80.12
290.217	92.12
290.448	87.12
290.679	76.12
290.91	89.12
291.141	94.12
291.371	87.12
291.602	88.12
291.833	113.12
292.064	94.12
292.295	90.12
292.526	87.12
292.757	97.12
292.987	87.12
293.218	73.12
293.449	84.12
293.68	102.12
293.91	94.12
294.141	99.12
294.372	92.12
294.603	87.12
294.833	87.12
295.064	92.12
295.295	80.12
295.525	91.12
295.756	86.12
295.987	109.12
296.217	112.12
296.448	118.12
296.679	100.12
296.909	97.12
297.14	73.12
297.37	100.12
297.601	97.12
297.831	77.12
298.062	86.12
298.292	87.12
298.523	86.12
298.753	95.12
298.984	87.12
299.214	91.12
299.445	89.12
299.675	101.12
299.905	95.12
300.136	101.12
300.366	94.12
300.597	76.12
300.827	94.12
301.057	102.12
301.288	102.12
301.518	104.12
301.748	104.12
301.979	117.12
302.209	79.12
302.439	91.12
302.669	83.12
302.9	97.12
303.13	80.12
303.36	106.12
303.59	116.12
303.82	116.12
304.051	81.12
304.281	87.12
304.511	95.12
304.741	90.12
304.971	93.12
305.201	100.12
305.431	80.12
305.661	89.12
305.891	94.12
306.121	106.12
306.352	103.12
306.582	92.12
306.812	90.12
307.042	105.12
307.272	119.12
307.502	119.12
307.731	132.12
307.961	97.12
308.191	84.12
308.421	76.12
308.651	91.12
308.881	96.12
309.111	99.12
309.341	90.12
309.571	95.12
309.8	91.12
310.03	101.12
310.26	100.12
310.49	99.12
310.72	89.12
310.949	104.12
311.179	100.12
311.409	89.12
311.639	97.12
311.868	93.12
312.098	97.12
312.328	97.12
312.557	89.12
312.787	92.12
313.017	103.12
313.246	100.12
313.476	100.12
313.706	90.12
313.935	75.12
314.165	103.12
314.394	113.12
314.624	102.12
314.853	95.12
315.083	87.12
315.312	88.12
315.542	112.12
315.771	100.12
316.001	95.12
316.23	83.12
316.46	103.12
316.689	99.12
316.919	95.12
317.148	98.12
317.377	86.12
317.607	102.12
317.836	96.12
318.065	91.12
318.295	96.12
318.524	81.12
318.753	89.12
318.983	100.12
319.212	93.12
319.441	87.12
319.67	100.12
319.9	102.12
320.129	91.12
320.358	96.12
320.587	94.12
320.816	81.12
321.046	98.12
321.275	97.12
321.504	94.12
321.733	93.12
321.962	91.12
322.191	96.12
322.42	122.12
322.649	104.12
322.878	99.12
323.108	113.12
323.337	120.12
323.566	132.12
323.795	146.12
324.024	203.12
324.253	390.12
324.482	799.12
324.71	1669.12
324.939	2278.12
325.168	792.12
325.397	249.12
325.626	136.12
325.855	129.12
326.084	123.12
326.313	133.12
326.542	157.12
326.77	228.12
326.999	432.12
327.228	931.12
327.457	1745.12
327.686	1409.12
327.914	412.12
328.143	313.12
328.372	372.12
328.6	209.12
328.829	142.12
329.058	130.12
329.287	138.12
329.515	132.12
329.744	164.12
329.972	274.12
330.201	506.12
330.43	723.12
330.658	346.12
330.887	179.12
331.115	131.12
331.344	101.12
331.572	115.12
331.801	96.12
332.03	100.12
332.258	100.12
332.486	111.12
332.715	98.12
332.943	105.12
333.172	100.12
333.4	111.12
333.629	129.12
333.857	153.12
334.085	261.12
334.314	481.12
334.542	921.12
334.771	845.12
334.999	259.12
335.227	134.12
335.455	122.12
335.684	107.12
335.912	113.12
336.14	104.12
336.369	99.12
336.597	100.12
336.825	95.12
337.053	111.12
337.281	92.12
337.51	89.12
337.738	85.12
337.966	98.12
338.194	100.12
338.422	111.12
338.65	91.12
338.878	94.12
339.106	93.12
339.334	100.12
339.562	83.12
339.79	96.12
340.018	94.12
340.246	86.12
340.474	94.12
340.702	88.12
340.93	93.12
341.158	83.12
341.386	99.12
341.614	94.12
341.842	99.12
342.07	93.12
342.298	99.12
342.526	90.12
342.754	80.12
342.981	83.12
343.209	87.12
343.437	97.12
343.665	91.12
343.893	99.12
344.12	100.12
344.348	93.12
344.576	85.12
344.804	97.12
345.031	88.12
345.259	95.12
345.487	95.12
345.714	93.12
345.942	91.12
346.17	100.12
346.397	97.12
346.625	90.12
346.853	83.12
347.08	93.12
347.308	99.12
347.535	122.12
347.763	95.12
347.99	98.12
348.218	111.12
348.445	97.12
348.673	95.12
348.9	97.12
349.128	103.12
349.355	95.12
349.583	96.12
349.81	102.12
350.037	96.12
350.265	109.12
350.492	76.12
350.72	101.12
350.947	100.12
351.174	109.12
351.402	104.12
351.629	103.12
351.856	96.12
352.083	111.12
352.311	98.12
352.538	106.12
352.765	104.12
352.992	105.12
353.22	103.12
353.447	86.12
353.674	90.12
353.901	94.12
354.128	96.12
354.355	95.12
354.583	99.12
354.81	100.12
355.037	100.12
355.264	102.12
355.491	102.12
355.718	89.12
355.945	100.12
356.172	93.12
356.399	92.12
356.626	97.12
356.853	83.12
357.08	91.12
357.307	89.12
357.534	83.12
357.761	81.12
357.988	102.12
358.215	106.12
358.441	104.12
358.668	91.12
358.895	104.12
359.122	85.12
359.349	95.12
359.576	95.12
359.802	95.12
360.029	118.12
360.256	115.12
360.483	104.12
360.709	100.12
360.936	93.12
361.163	95.12
361.39	109.12
361.616	92.12
361.843	85.12
362.07	93.12
362.296	99.12
362.523	85.12
362.749	83.12
362.976	91.12
363.203	100.12
363.429	89.12
363.656	93.12
363.882	78.12
364.109	87.12
364.335	100.12
364.562	92.12
364.788	83.12
365.015	108.12
365.241	102.12
365.468	113.12
365.694	100.12
365.92	85.12
366.147	98.12
366.373	95.12
366.599	89.12
366.826	94.12
367.052	88.12
367.278	87.12
367.505	71.12
367.731	89.12
367.957	95.12
368.184	72.12
368.41	93.12
368.636	91.12
368.862	109.12
369.089	102.12
369.315	86.12
369.541	91.12
369.767	100.12
369.993	100.12
370.219	105.12
370.445	79.12
370.672	90.12
370.898	88.12
371.124	81.12
371.35	91.12
371.576	87.12
371.802	84.12
372.028	94.12
372.254	86.12
372.48	75.12
372.706	94.12
372.932	84.12
373.158	91.12
373.384	91.12
373.61	94.12
373.835	89.12
374.061	97.12
374.287	95.12
374.513	88.12
374.739	86.12
374.965	88.12
375.191	81.12
375.416	105.12
375.642	97.12
375.868	92.12
376.094	87.12
376.319	79.12
376.545	87.12
376.771	94.12
376.997	78.12
377.222	89.12
377.448	95.12
377.674	86.12
377.899	88.12
378.125	99.12
378.35	84.12
378.576	85.12
378.802	84.12
379.027	77.12
379.253	81.12
379.478	89.12
379.704	99.12
379.929	93.12
380.155	92.12
380.38	101.12
380.606	96.12
380.831	84.12
381.057	108.12
381.282	101.12
381.507	96.12
381.733	103.12
381.958	84.12
382.184	100.12
382.409	83.12
382.634	99.12
382.86	97.12
383.085	108.12
383.31	89.12
383.535	92.12
383.761	91.12
383.986	90.12
384.211	100.12
384.436	88.12
384.662	99.12
384.887	106.12
385.112	95.12
385.337	94.12
385.562	106.12
385.787	99.12
386.013	120.12
386.238	116.12
386.463	90.12
386.688	98.12
386.913	88.12
387.138	92.12
387.363	99.12
387.588	113.12
387.813	97.12
388.038	88.12
388.263	103.12
388.488	99.12
388.713	98.12
388.938	87.12
389.163	84.12
389.387	100.12
389.612	84.12
389.837	92.12
390.062	94.12
390.287	83.12
390.512	77.12
390.736	85.12
390.961	83.12
391.186	95.12
391.411	103.12
391.636	94.12
391.86	88.12
392.085	105.12
392.31	96.12
392.534	86.12
392.759	96.12
392.984	84.12
393.208	87.12
393.433	93.12
393.658	86.12
393.882	83.12
394.107	88.12
394.331	93.12
394.556	89.12
394.78	86.12
395.005	87.12
395.229	96.12
395.454	97.12
395.678	88.12
395.903	79.12
396.127	99.12
396.352	94.12
396.576	72.12
396.801	95.12
397.025	85.12
397.249	91.12
397.474	70.12
397.698	110.12
397.922	88.12
398.147	84.12
398.371	84.12
398.595	83.12
398.82	83.12
399.044	86.12
399.268	83.12
399.492	87.12
399.717	73.12
399.941	92.12
400.165	73.12
400.389	87.12
400.613	78.12
400.837	88.12
401.062	81.12
401.286	83.12
401.51	94.12
401.734	91.12
401.958	89.12
402.182	124.12
402.406	143.12
402.63	124.12
402.854	93.12
403.078	75.12
403.302	70.12
403.526	83.12
403.75	86.12
403.974	86.12
404.198	81.12
404.422	87.12
404.645	98.12
404.869	97.12
405.093	100.12
405.317	114.12
405.541	122.12
405.765	109.12
405.988	109.12
406.212	153.12
406.436	195.12
406.66	133.12
406.883	90.12
407.107	84.12
407.331	102.12
407.555	111.12
407.778	84.12
408.002	91.12
408.226	81.12
408.449	78.12
408.673	88.12
408.896	105.12
409.12	99.12
409.344	88.12
409.567	91.12
409.791	93.12
410.014	111.12
410.238	95.12
410.461	100.12
410.685	95.12
410.908	108.12
411.132	96.12
411.355	88.12
411.578	82.12
411.802	76.12
412.025	93.12
412.249	99.12
412.472	113.12
412.695	136.12
412.919	93.12
413.142	100.12
413.365	84.12
413.589	108.12
413.812	78.12
414.035	85.12
414.258	102.12
414.482	79.12
414.705	80.12
414.928	97.12
415.151	78.12
415.374	72.12
415.597	82.12
415.821	92.12
416.044	89.12
416.267	72.12
416.49	95.12
416.713	107.12
416.936	90.12
417.159	86.12
417.382	89.12
417.605	80.12
417.828	94.12
418.051	91.12
418.274	72.12
418.497	75.12
418.72	81.12
418.943	91.12
419.166	92.12
419.389	99.12
419.611	87.12
419.834	102.12
420.057	75.12
420.28	89.12
420.503	91.12
420.726	98.12
420.948	79.12
421.171	102.12
421.394	87.12
421.617	102.12
421.839	96.12
422.062	69.12
422.285	98.12
422.507	90.12
422.73	103.12
422.953	85.12
423.175	91.12
423.398	93.12
423.621	84.12
423.843	87.12
424.066	96.12
424.288	91.12
424.511	94.12
424.733	95.12
424.956	112.12
425.178	77.12
425.401	113.12
425.623	89.12
425.846	101.12
426.068	93.12
426.291	87.12
426.513	98.12
426.735	96.12
426.958	105.12
427.18	105.12
427.402	140.12
427.625	183.12
427.847	174.12
428.069	159.12
428.292	97.12
428.514	103.12
428.736	75.12
428.958	80.12
429.181	86.12
429.403	84.12
429.625	91.12
429.847	97.12
430.069	112.12
430.292	95.12
430.514	96.12
430.736	77.12
430.958	68.12
431.18	99.12
431.402	90.12
431.624	79.12
431.846	75.12
432.068	87.12
432.29	82.12
432.512	97.12
432.734	83.12
432.956	87.12
433.178	94.12
433.4	111.12
433.622	96.12
433.844	93.12
434.066	104.12
434.287	97.12
434.509	108.12
434.731	95.12
434.953	80.12
435.175	102.12
435.397	91.12
435.618	98.12
435.84	82.12
436.062	133.12
436.284	112.12
436.505	109.12
436.727	106.12
436.949	94.12
437.17	93.12
437.392	83.12
437.614	92.12
437.835	118.12
438.057	118.12
438.278	108.12
438.5	110.12
438.721	113.12
438.943	105.12
439.165	70.12
439.386	96.12
439.608	93.12
439.829	100.12
440.05	119.12
440.272	155.12
440.493	93.12
440.715	88.12
440.936	85.12
441.158	78.12
441.379	84.12
441.6	87.12
441.822	101.12
442.043	103.12
442.264	119.12
442.486	89.12
442.707	85.12
442.928	105.12
443.149	131.12
443.371	124.12
443.592	103.12
443.813	111.12
444.034	110.12
444.255	86.12
444.476	87.12
444.698	89.12
444.919	86.12
445.14	114.12
445.361	134.12
445.582	128.12
445.803	139.12
446.024	139.12
446.245	142.12
446.466	107.12
446.687	80.12
446.908	92.12
447.129	68.12
447.35	96.12
447.571	80.12
447.792	88.12
448.013	104.12
448.234	108.12
448.455	99.12
448.675	121.12
448.896	112.12
449.117	99.12
449.338	105.12
449.559	122.12
449.779	138.12
450	111.12
450.221	94.12
450.442	95.12
450.662	101.12
450.883	110.12
451.104	95.12
451.324	86.12
451.545	84.12
451.766	81.12
451.986	87.12
452.207	107.12
452.428	90.12
452.648	97.12
452.869	113.12
453.089	113.12
453.31	121.12
453.53	102.12
453.751	93.12
453.971	109.12
454.192	105.12
454.412	98.12
454.633	102.12
454.853	88.12
455.073	95.12
455.294	94.12
455.514	100.12
455.734	83.12
455.955	87.12
456.175	77.12
456.395	83.12
456.616	65.12
456.836	85.12
457.056	88.12
457.276	83.12
457.497	86.12
457.717	70.12
457.937	87.12
458.157	88.12
458.377	87.12
458.598	122.12
458.818	147.12
459.038	168.12
459.258	123.12
459.478	92.12
459.698	93.12
459.918	109.12
460.138	85.12
460.358	81.12
460.578	72.12
460.798	93.12
461.018	96.12
461.238	78.12
461.458	89.12
461.678	95.12
461.898	95.12
462.118	89.12
462.338	84.12
462.558	85.12
462.777	89.12
462.997	100.12
463.217	92.12
463.437	93.12
463.657	85.12
463.876	83.12
464.096	96.12
464.316	99.12
464.536	93.12
464.755	82.12
464.975	101.12
465.195	146.12
465.414	155.12
465.634	87.12
465.854	84.12
466.073	68.12
466.293	105.12
466.512	76.12
466.732	77.12
466.951	81.12
467.171	75.12
467.391	93.12
467.61	111.12
467.829	150.12
468.049	323.12
468.268	461.12
468.488	130.12
468.707	98.12
468.927	88.12
469.146	100.12
469.365	74.12
469.585	95.12
469.804	101.12
470.023	99.12
470.243	96.12
470.462	109.12
470.681	105.12
470.901	102.12
471.12	95.12
471.339	103.12
471.558	104.12
471.777	120.12
471.997	206.12
472.216	598.12
472.435	1312.12
472.654	341.12
472.873	125.12
473.092	102.12
473.311	97.12
473.53	84.12
473.749	91.12
473.968	96.12
474.187	120.12
474.406	75.12
474.625	91.12
474.844	97.12
475.063	84.12
475.282	86.12
475.501	93.12
475.72	100.12
475.939	76.12
476.158	83.12
476.377	67.12
476.596	84.12
476.814	81.12
477.033	99.12
477.252	84.12
477.471	76.12
477.69	95.12
477.908	87.12
478.127	95.12
478.346	84.12
478.564	92.12
478.783	79.12
479.002	107.12
479.22	87.12
479.439	125.12
479.658	111.12
479.876	104.12
480.095	104.12
480.313	112.12
480.532	112.12
480.751	191.12
480.969	579.12
481.188	2257.12
481.406	1328.12
481.624	245.12
481.843	120.12
482.061	89.12
482.28	90.12
482.498	96.12
482.717	91.12
482.935	94.12
483.153	88.12
483.372	95.12
483.59	93.12
483.808	90.12
484.027	95.12
484.245	84.12
484.463	91.12
484.681	99.12
484.9	84.12
485.118	91.12
485.336	93.12
485.554	97.12
485.772	108.12
485.99	108.12
486.209	112.12
486.427	107.12
486.645	106.12
486.863	107.12
487.081	115.12
487.299	104.12
487.517	111.12
487.735	97.12
487.953	85.12
488.171	86.12
488.389	89.12
488.607	92.12
488.825	100.12
489.043	76.12
489.261	97.12
489.479	93.12
489.696	94.12
489.914	85.12
490.132	91.12
490.35	85.12
490.568	91.12
490.786	84.12
491.003	97.12
491.221	87.12
491.439	103.12
491.657	103.12
491.874	81.12
492.092	83.12
492.31	105.12
492.527	84.12
492.745	86.12
492.963	84.12
493.18	95.12
493.398	93.12
493.615	95.12
493.833	83.12
494.05	106.12
494.268	82.12
494.485	92.12
494.703	99.12
494.92	72.12
495.138	83.12
495.355	67.12
495.573	94.12
495.79	81.12
496.008	83.12
496.225	86.12
496.442	98.12
496.66	91.12
496.877	88.12
497.094	102.12
497.312	87.12
497.529	96.12
497.746	83.12
497.963	89.12
498.181	96.12
498.398	112.12
498.615	101.12
498.832	111.12
499.049	92.12
499.267	85.12
499.484	77.12
499.701	80.12
499.918	98.12
500.135	103.12
500.352	95.12
500.569	97.12
500.786	96.12
501.003	91.12
501.22	93.12
501.437	77.12
501.654	92.12
501.871	105.12
502.088	93.12
502.305	97.12
502.522	88.12
502.739	98.12
502.956	91.12
503.172	91.12
503.389	94.12
503.606	106.12
503.823	93.12
504.04	94.12
504.256	83.12
504.473	95.12
504.69	94.12
504.907	89.12
505.123	98.12
505.34	85.12
505.557	96.12
505.773	112.12
505.99	85.12
506.207	93.12
506.423	94.12
506.64	98.12
506.856	75.12
507.073	93.12
507.289	86.12
507.506	84.12
507.722	112.12
507.939	103.12
508.155	75.12
508.372	92.12
508.588	91.12
508.805	117.12
509.021	96.12
509.238	90.12
509.454	102.12
509.67	95.12
509.887	113.12
510.103	105.12
510.319	169.12
510.536	575.12
510.752	1879.12
510.968	549.12
511.184	148.12
511.401	86.12
511.617	95.12
511.833	81.12
512.049	89.12
512.265	86.12
512.481	103.12
512.698	85.12
512.914	80.12
513.13	87.12
513.346	102.12
513.562	102.12
513.778	101.12
513.994	97.12
514.21	84.12
514.426	123.12
514.642	132.12
514.858	118.12
515.074	155.12
