Data from Circ_1989_H10_HRD10591_00098.txt Node
Date: Wed Jan 03 12:01:41 EST 2024
User: Yrep
Spectrometer: HR+D1059
Trigger mode: 1
Integration Time (sec): 1.000000E-1
Scans to average: 1
Electric dark correction enabled: true
Nonlinearity correction enabled: false
Boxcar width: 0
XAxis mode: Wavelengths
Number of Pixels in Spectrum: 2048
>>>>>Begin Spectral Data<<<<<
223.165	-24.62
223.4	-24.62
223.635	-24.62
223.869	-10.62
224.104	-6.62
224.338	-13.62
224.573	-15.62
224.808	-23.62
225.042	-11.62
225.277	3.38
225.511	0.38
225.746	16.38
225.98	2.38
226.215	6.38
226.449	18.38
226.683	-3.62
226.918	28.38
227.152	34.38
227.387	31.38
227.621	35.38
227.856	53.38
228.09	53.38
228.324	56.38
228.559	48.38
228.793	53.38
229.027	71.38
229.262	63.38
229.496	74.38
229.73	86.38
229.964	90.38
230.199	77.38
230.433	74.38
230.667	83.38
230.901	83.38
231.136	67.38
231.37	71.38
231.604	80.38
231.838	85.38
232.072	94.38
232.306	78.38
232.541	92.38
232.775	70.38
233.009	82.38
233.243	77.38
233.477	78.38
233.711	81.38
233.945	86.38
234.179	87.38
234.413	82.38
234.647	59.38
234.881	87.38
235.115	78.38
235.349	67.38
235.583	76.38
235.817	87.38
236.051	88.38
236.285	81.38
236.519	84.38
236.753	76.38
236.987	79.38
237.221	80.38
237.455	94.38
237.689	77.38
237.922	90.38
238.156	82.38
238.39	71.38
238.624	68.38
238.858	79.38
239.091	67.38
239.325	87.38
239.559	91.38
239.793	71.38
240.027	82.38
240.26	87.38
240.494	84.38
240.728	72.38
240.961	79.38
241.195	74.38
241.429	75.38
241.662	79.38
241.896	68.38
242.13	82.38
242.363	81.38
242.597	79.38
242.83	91.38
243.064	60.38
243.298	76.38
243.531	74.38
243.765	77.38
243.998	71.38
244.232	80.38
244.465	87.38
244.699	71.38
244.932	76.38
245.166	68.38
245.399	84.38
245.633	85.38
245.866	69.38
246.099	78.38
246.333	62.38
246.566	78.38
246.8	82.38
247.033	62.38
247.266	65.38
247.5	82.38
247.733	87.38
247.966	93.38
248.2	80.38
248.433	85.38
248.666	79.38
248.899	72.38
249.133	75.38
249.366	96.38
249.599	87.38
249.832	87.38
250.066	82.38
250.299	79.38
250.532	80.38
250.765	77.38
250.998	70.38
251.231	74.38
251.465	87.38
251.698	86.38
251.931	78.38
252.164	71.38
252.397	89.38
252.63	86.38
252.863	86.38
253.096	66.38
253.329	75.38
253.562	82.38
253.795	76.38
254.028	93.38
254.261	77.38
254.494	81.38
254.727	85.38
254.96	76.38
255.193	84.38
255.426	85.38
255.659	91.38
255.892	85.38
256.124	68.38
256.357	80.38
256.59	74.38
256.823	80.38
257.056	101.38
257.289	67.38
257.521	83.38
257.754	77.38
257.987	81.38
258.22	85.38
258.452	85.38
258.685	85.38
258.918	79.38
259.151	87.38
259.383	85.38
259.616	79.38
259.849	83.38
260.081	80.38
260.314	87.38
260.547	94.38
260.779	80.38
261.012	100.38
261.244	103.38
261.477	87.38
261.71	86.38
261.942	105.38
262.175	118.38
262.407	86.38
262.64	87.38
262.872	79.38
263.105	76.38
263.337	83.38
263.57	75.38
263.802	84.38
264.035	93.38
264.267	80.38
264.499	71.38
264.732	95.38
264.964	86.38
265.197	85.38
265.429	78.38
265.661	77.38
265.894	94.38
266.126	86.38
266.358	94.38
266.591	106.38
266.823	76.38
267.055	74.38
267.287	89.38
267.52	91.38
267.752	85.38
267.984	85.38
268.216	69.38
268.448	90.38
268.681	86.38
268.913	79.38
269.145	82.38
269.377	85.38
269.609	92.38
269.841	85.38
270.073	78.38
270.306	83.38
270.538	90.38
270.77	80.38
271.002	79.38
271.234	94.38
271.466	83.38
271.698	100.38
271.93	88.38
272.162	82.38
272.394	89.38
272.626	91.38
272.858	99.38
273.09	83.38
273.322	89.38
273.553	92.38
273.785	86.38
274.017	94.38
274.249	77.38
274.481	76.38
274.713	90.38
274.945	94.38
275.176	79.38
275.408	93.38
275.64	87.38
275.872	85.38
276.104	102.38
276.335	103.38
276.567	89.38
276.799	125.38
277.031	117.38
277.262	135.38
277.494	125.38
277.726	78.38
277.957	99.38
278.189	96.38
278.421	87.38
278.652	84.38
278.884	88.38
279.115	95.38
279.347	95.38
279.579	87.38
279.81	94.38
280.042	122.38
280.273	165.38
280.505	119.38
280.736	101.38
280.968	85.38
281.199	71.38
281.431	92.38
281.662	87.38
281.894	90.38
282.125	107.38
282.356	113.38
282.588	132.38
282.819	108.38
283.051	83.38
283.282	87.38
283.513	78.38
283.745	83.38
283.976	68.38
284.207	67.38
284.439	86.38
284.67	88.38
284.901	78.38
285.132	79.38
285.364	91.38
285.595	76.38
285.826	85.38
286.057	74.38
286.288	88.38
286.52	78.38
286.751	98.38
286.982	88.38
287.213	70.38
287.444	91.38
287.675	70.38
287.906	95.38
288.138	87.38
288.369	96.38
288.6	104.38
288.831	87.38
289.062	85.38
289.293	95.38
289.524	79.38
289.755	88.38
289.986	72.38
290.217	88.38
290.448	81.38
290.679	88.38
290.91	87.38
291.141	102.38
291.371	76.38
291.602	81.38
291.833	87.38
292.064	84.38
292.295	88.38
292.526	87.38
292.757	88.38
292.987	87.38
293.218	97.38
293.449	97.38
293.68	87.38
293.91	76.38
294.141	92.38
294.372	76.38
294.603	70.38
294.833	78.38
295.064	94.38
295.295	82.38
295.525	73.38
295.756	100.38
295.987	110.38
296.217	112.38
296.448	119.38
296.679	84.38
296.909	91.38
297.14	84.38
297.37	76.38
297.601	93.38
297.831	76.38
298.062	78.38
298.292	85.38
298.523	91.38
298.753	96.38
298.984	86.38
299.214	93.38
299.445	97.38
299.675	82.38
299.905	95.38
300.136	78.38
300.366	94.38
300.597	78.38
300.827	83.38
301.057	89.38
301.288	93.38
301.518	91.38
301.748	99.38
301.979	97.38
302.209	81.38
302.439	100.38
302.669	94.38
302.9	101.38
303.13	84.38
303.36	103.38
303.59	115.38
303.82	120.38
304.051	94.38
304.281	98.38
304.511	81.38
304.741	96.38
304.971	74.38
305.201	87.38
305.431	86.38
305.661	85.38
305.891	88.38
306.121	92.38
306.352	101.38
306.582	95.38
306.812	108.38
307.042	106.38
307.272	133.38
307.502	138.38
307.731	135.38
307.961	97.38
308.191	104.38
308.421	91.38
308.651	74.38
308.881	107.38
309.111	93.38
309.341	95.38
309.571	84.38
309.8	82.38
310.03	100.38
310.26	93.38
310.49	90.38
310.72	91.38
310.949	93.38
311.179	110.38
311.409	103.38
311.639	103.38
311.868	95.38
312.098	96.38
312.328	95.38
312.557	103.38
312.787	100.38
313.017	93.38
313.246	99.38
313.476	102.38
313.706	96.38
313.935	94.38
314.165	109.38
314.394	103.38
314.624	93.38
314.853	91.38
315.083	104.38
315.312	90.38
315.542	80.38
315.771	91.38
316.001	94.38
316.23	84.38
316.46	93.38
316.689	94.38
316.919	75.38
317.148	96.38
317.377	108.38
317.607	103.38
317.836	96.38
318.065	86.38
318.295	90.38
318.524	91.38
318.753	82.38
318.983	82.38
319.212	94.38
319.441	102.38
319.67	103.38
319.9	95.38
320.129	89.38
320.358	96.38
320.587	96.38
320.816	107.38
321.046	100.38
321.275	111.38
321.504	100.38
321.733	107.38
321.962	87.38
322.191	93.38
322.42	93.38
322.649	92.38
322.878	113.38
323.108	112.38
323.337	118.38
323.566	130.38
323.795	142.38
324.024	184.38
324.253	381.38
324.482	806.38
324.71	1634.38
324.939	2162.38
325.168	778.38
325.397	239.38
325.626	150.38
325.855	134.38
326.084	108.38
326.313	124.38
326.542	155.38
326.77	215.38
326.999	451.38
327.228	945.38
327.457	1724.38
327.686	1369.38
327.914	417.38
328.143	365.38
328.372	394.38
328.6	230.38
328.829	150.38
329.058	133.38
329.287	146.38
329.515	152.38
329.744	194.38
329.972	318.38
330.201	574.38
330.43	814.38
330.658	391.38
330.887	226.38
331.115	148.38
331.344	108.38
331.572	100.38
331.801	113.38
332.03	115.38
332.258	122.38
332.486	93.38
332.715	103.38
332.943	110.38
333.172	98.38
333.4	106.38
333.629	119.38
333.857	174.38
334.085	278.38
334.314	563.38
334.542	1055.38
334.771	966.38
334.999	272.38
335.227	142.38
335.455	104.38
335.684	103.38
335.912	102.38
336.14	81.38
336.369	110.38
336.597	92.38
336.825	103.38
337.053	85.38
337.281	87.38
337.51	95.38
337.738	101.38
337.966	84.38
338.194	74.38
338.422	83.38
338.65	88.38
338.878	90.38
339.106	87.38
339.334	104.38
339.562	99.38
339.79	84.38
340.018	92.38
340.246	91.38
340.474	102.38
340.702	88.38
340.93	82.38
341.158	81.38
341.386	91.38
341.614	95.38
341.842	86.38
342.07	81.38
342.298	97.38
342.526	82.38
342.754	87.38
342.981	94.38
343.209	99.38
343.437	98.38
343.665	101.38
343.893	95.38
344.12	91.38
344.348	97.38
344.576	88.38
344.804	83.38
345.031	95.38
345.259	96.38
345.487	87.38
345.714	93.38
345.942	104.38
346.17	92.38
346.397	95.38
346.625	96.38
346.853	90.38
347.08	83.38
347.308	92.38
347.535	80.38
347.763	99.38
347.99	95.38
348.218	96.38
348.445	98.38
348.673	81.38
348.9	88.38
349.128	100.38
349.355	91.38
349.583	81.38
349.81	92.38
350.037	85.38
350.265	87.38
350.492	95.38
350.72	87.38
350.947	98.38
351.174	104.38
351.402	97.38
351.629	84.38
351.856	106.38
352.083	96.38
352.311	87.38
352.538	100.38
352.765	106.38
352.992	110.38
353.22	109.38
353.447	97.38
353.674	101.38
353.901	94.38
354.128	101.38
354.355	94.38
354.583	94.38
354.81	99.38
355.037	86.38
355.264	99.38
355.491	102.38
355.718	86.38
355.945	80.38
356.172	85.38
356.399	85.38
356.626	86.38
356.853	95.38
357.08	82.38
357.307	102.38
357.534	95.38
357.761	104.38
357.988	93.38
358.215	95.38
358.441	84.38
358.668	93.38
358.895	92.38
359.122	87.38
359.349	85.38
359.576	87.38
359.802	109.38
360.029	135.38
360.256	117.38
360.483	96.38
360.709	87.38
360.936	94.38
361.163	92.38
361.39	94.38
361.616	101.38
361.843	79.38
362.07	84.38
362.296	89.38
362.523	87.38
362.749	102.38
362.976	90.38
363.203	95.38
363.429	87.38
363.656	90.38
363.882	92.38
364.109	86.38
364.335	76.38
364.562	86.38
364.788	85.38
365.015	106.38
365.241	104.38
365.468	114.38
365.694	87.38
365.92	99.38
366.147	85.38
366.373	91.38
366.599	87.38
366.826	89.38
367.052	94.38
367.278	85.38
367.505	95.38
367.731	98.38
367.957	85.38
368.184	86.38
368.41	94.38
368.636	108.38
368.862	102.38
369.089	94.38
369.315	100.38
369.541	102.38
369.767	83.38
369.993	88.38
370.219	86.38
370.445	86.38
370.672	83.38
370.898	95.38
371.124	93.38
371.35	91.38
371.576	82.38
371.802	85.38
372.028	92.38
372.254	91.38
372.48	82.38
372.706	84.38
372.932	82.38
373.158	70.38
373.384	90.38
373.61	82.38
373.835	99.38
374.061	87.38
374.287	90.38
374.513	77.38
374.739	86.38
374.965	87.38
375.191	76.38
375.416	76.38
375.642	84.38
375.868	93.38
376.094	102.38
376.319	79.38
376.545	78.38
376.771	91.38
376.997	78.38
377.222	97.38
377.448	86.38
377.674	92.38
377.899	88.38
378.125	91.38
378.35	83.38
378.576	85.38
378.802	91.38
379.027	77.38
379.253	95.38
379.478	83.38
379.704	94.38
379.929	86.38
380.155	87.38
380.38	76.38
380.606	80.38
380.831	88.38
381.057	101.38
381.282	76.38
381.507	93.38
381.733	91.38
381.958	92.38
382.184	89.38
382.409	100.38
382.634	92.38
382.86	87.38
383.085	88.38
383.31	97.38
383.535	95.38
383.761	83.38
383.986	87.38
384.211	86.38
384.436	85.38
384.662	89.38
384.887	92.38
385.112	95.38
385.337	83.38
385.562	82.38
385.787	99.38
386.013	100.38
386.238	96.38
386.463	104.38
386.688	110.38
386.913	89.38
387.138	87.38
387.363	100.38
387.588	95.38
387.813	85.38
388.038	93.38
388.263	103.38
388.488	94.38
388.713	95.38
388.938	96.38
389.163	84.38
389.387	87.38
389.612	90.38
389.837	91.38
390.062	92.38
390.287	92.38
390.512	99.38
390.736	85.38
390.961	94.38
391.186	92.38
391.411	83.38
391.636	88.38
391.86	79.38
392.085	82.38
392.31	86.38
392.534	88.38
392.759	91.38
392.984	80.38
393.208	83.38
393.433	82.38
393.658	91.38
393.882	83.38
394.107	81.38
394.331	81.38
394.556	84.38
394.78	91.38
395.005	86.38
395.229	78.38
395.454	74.38
395.678	83.38
395.903	82.38
396.127	84.38
396.352	89.38
396.576	84.38
396.801	88.38
397.025	75.38
397.249	86.38
397.474	86.38
397.698	81.38
397.922	86.38
398.147	80.38
398.371	77.38
398.595	97.38
398.82	94.38
399.044	73.38
399.268	102.38
399.492	87.38
399.717	89.38
399.941	90.38
400.165	102.38
400.389	94.38
400.613	89.38
400.837	86.38
401.062	74.38
401.286	87.38
401.51	83.38
401.734	76.38
401.958	92.38
402.182	123.38
402.406	144.38
402.63	125.38
402.854	93.38
403.078	87.38
403.302	84.38
403.526	81.38
403.75	92.38
403.974	81.38
404.198	85.38
404.422	94.38
404.645	99.38
404.869	90.38
405.093	100.38
405.317	103.38
405.541	122.38
405.765	97.38
405.988	117.38
406.212	170.38
406.436	203.38
406.66	141.38
406.883	105.38
407.107	95.38
407.331	94.38
407.555	94.38
407.778	99.38
408.002	87.38
408.226	83.38
408.449	78.38
408.673	74.38
408.896	92.38
409.12	92.38
409.344	94.38
409.567	89.38
409.791	85.38
410.014	88.38
410.238	93.38
410.461	86.38
410.685	82.38
410.908	108.38
411.132	112.38
411.355	92.38
411.578	99.38
411.802	93.38
412.025	97.38
412.249	93.38
412.472	110.38
412.695	123.38
412.919	106.38
413.142	90.38
413.365	79.38
413.589	81.38
413.812	79.38
414.035	89.38
414.258	79.38
414.482	90.38
414.705	82.38
414.928	85.38
415.151	93.38
415.374	87.38
415.597	88.38
415.821	74.38
416.044	67.38
416.267	78.38
416.49	86.38
416.713	78.38
416.936	88.38
417.159	92.38
417.382	84.38
417.605	95.38
417.828	90.38
418.051	90.38
418.274	92.38
418.497	84.38
418.72	87.38
418.943	85.38
419.166	86.38
419.389	88.38
419.611	90.38
419.834	87.38
420.057	78.38
420.28	92.38
420.503	89.38
420.726	77.38
420.948	97.38
421.171	110.38
421.394	99.38
421.617	85.38
421.839	80.38
422.062	80.38
422.285	77.38
422.507	90.38
422.73	102.38
422.953	104.38
423.175	84.38
423.398	79.38
423.621	88.38
423.843	74.38
424.066	94.38
424.288	89.38
424.511	94.38
424.733	100.38
424.956	104.38
425.178	95.38
425.401	94.38
425.623	107.38
425.846	90.38
426.068	87.38
426.291	91.38
426.513	95.38
426.735	79.38
426.958	89.38
427.18	84.38
427.402	161.38
427.625	183.38
427.847	178.38
428.069	187.38
428.292	117.38
428.514	95.38
428.736	70.38
428.958	88.38
429.181	87.38
429.403	89.38
429.625	79.38
429.847	91.38
430.069	103.38
430.292	87.38
430.514	86.38
430.736	80.38
430.958	77.38
431.18	71.38
431.402	76.38
431.624	70.38
431.846	76.38
432.068	77.38
432.29	86.38
432.512	81.38
432.734	78.38
432.956	88.38
433.178	116.38
433.4	94.38
433.622	96.38
433.844	92.38
434.066	75.38
434.287	74.38
434.509	86.38
434.731	79.38
434.953	74.38
435.175	93.38
435.397	92.38
435.618	82.38
435.84	108.38
436.062	129.38
436.284	128.38
436.505	101.38
436.727	97.38
436.949	86.38
437.17	88.38
437.392	87.38
437.614	103.38
437.835	118.38
438.057	138.38
438.278	126.38
438.5	103.38
438.721	136.38
438.943	101.38
439.165	92.38
439.386	77.38
439.608	107.38
439.829	107.38
440.05	128.38
440.272	147.38
440.493	91.38
440.715	93.38
440.936	99.38
441.158	99.38
441.379	84.38
441.6	93.38
441.822	102.38
442.043	102.38
442.264	108.38
442.486	103.38
442.707	99.38
442.928	96.38
443.149	146.38
443.371	131.38
443.592	100.38
443.813	124.38
444.034	126.38
444.255	93.38
444.476	76.38
444.698	94.38
444.919	93.38
445.14	138.38
445.361	130.38
445.582	126.38
445.803	154.38
446.024	157.38
446.245	144.38
446.466	104.38
446.687	88.38
446.908	100.38
447.129	79.38
447.35	93.38
447.571	87.38
447.792	95.38
448.013	88.38
448.234	94.38
448.455	112.38
448.675	110.38
448.896	119.38
449.117	96.38
449.338	108.38
449.559	127.38
449.779	142.38
450	96.38
450.221	82.38
450.442	89.38
450.662	101.38
450.883	94.38
451.104	111.38
451.324	91.38
451.545	93.38
451.766	83.38
451.986	85.38
452.207	82.38
452.428	100.38
452.648	104.38
452.869	99.38
453.089	117.38
453.31	103.38
453.53	82.38
453.751	83.38
453.971	103.38
454.192	96.38
454.412	82.38
454.633	90.38
454.853	81.38
455.073	86.38
455.294	98.38
455.514	96.38
455.734	82.38
455.955	86.38
456.175	89.38
456.395	101.38
456.616	90.38
456.836	89.38
457.056	81.38
457.276	87.38
457.497	88.38
457.717	84.38
457.937	74.38
458.157	91.38
458.377	87.38
458.598	101.38
458.818	166.38
459.038	165.38
459.258	143.38
459.478	97.38
459.698	83.38
459.918	74.38
460.138	79.38
460.358	60.38
460.578	89.38
460.798	98.38
461.018	90.38
461.238	80.38
461.458	90.38
461.678	95.38
461.898	98.38
462.118	96.38
462.338	83.38
462.558	75.38
462.777	87.38
462.997	90.38
463.217	86.38
463.437	100.38
463.657	78.38
463.876	93.38
464.096	85.38
464.316	85.38
464.536	94.38
464.755	98.38
464.975	113.38
465.195	168.38
465.414	150.38
465.634	94.38
465.854	83.38
466.073	88.38
466.293	79.38
466.512	91.38
466.732	79.38
466.951	94.38
467.171	102.38
467.391	107.38
467.61	115.38
467.829	139.38
468.049	365.38
468.268	502.38
468.488	154.38
468.707	114.38
468.927	95.38
469.146	68.38
469.365	90.38
469.585	87.38
469.804	96.38
470.023	99.38
470.243	89.38
470.462	102.38
470.681	118.38
470.901	105.38
471.12	88.38
471.339	71.38
471.558	103.38
471.777	123.38
471.997	214.38
472.216	681.38
472.435	1444.38
472.654	369.38
472.873	122.38
473.092	94.38
473.311	88.38
473.53	90.38
473.749	90.38
473.968	87.38
474.187	115.38
474.406	101.38
474.625	92.38
474.844	85.38
475.063	95.38
475.282	99.38
475.501	86.38
475.72	79.38
475.939	89.38
476.158	83.38
476.377	88.38
476.596	102.38
476.814	99.38
477.033	91.38
477.252	83.38
477.471	87.38
477.69	95.38
477.908	95.38
478.127	91.38
478.346	78.38
478.564	88.38
478.783	89.38
479.002	102.38
479.22	110.38
479.439	101.38
479.658	98.38
479.876	111.38
480.095	102.38
480.313	118.38
480.532	140.38
480.751	204.38
480.969	646.38
481.188	2565.38
481.406	1440.38
481.624	247.38
481.843	116.38
482.061	113.38
482.28	103.38
482.498	87.38
482.717	93.38
482.935	88.38
483.153	99.38
483.372	94.38
483.59	86.38
483.808	81.38
484.027	94.38
484.245	89.38
484.463	92.38
484.681	94.38
484.9	94.38
485.118	98.38
485.336	94.38
485.554	86.38
485.772	98.38
485.99	103.38
486.209	99.38
486.427	101.38
486.645	116.38
486.863	120.38
487.081	91.38
487.299	90.38
487.517	92.38
487.735	99.38
487.953	87.38
488.171	91.38
488.389	93.38
488.607	96.38
488.825	79.38
489.043	90.38
489.261	102.38
489.479	78.38
489.696	91.38
489.914	94.38
490.132	95.38
490.35	94.38
490.568	85.38
490.786	98.38
491.003	87.38
491.221	90.38
491.439	91.38
491.657	79.38
491.874	84.38
492.092	94.38
492.31	94.38
492.527	98.38
492.745	80.38
492.963	70.38
493.18	78.38
493.398	73.38
493.615	85.38
493.833	104.38
494.05	98.38
494.268	90.38
494.485	83.38
494.703	92.38
494.92	92.38
495.138	84.38
495.355	96.38
495.573	91.38
495.79	100.38
496.008	92.38
496.225	97.38
496.442	78.38
496.66	94.38
496.877	102.38
497.094	95.38
497.312	79.38
497.529	93.38
497.746	88.38
497.963	90.38
498.181	104.38
498.398	94.38
498.615	103.38
498.832	110.38
499.049	96.38
499.267	86.38
499.484	88.38
499.701	89.38
499.918	93.38
500.135	93.38
500.352	88.38
500.569	74.38
500.786	91.38
501.003	105.38
501.22	86.38
501.437	83.38
501.654	94.38
501.871	126.38
502.088	98.38
502.305	69.38
502.522	90.38
502.739	98.38
502.956	96.38
503.172	106.38
503.389	95.38
503.606	107.38
503.823	85.38
504.04	98.38
504.256	100.38
504.473	85.38
504.69	83.38
504.907	82.38
505.123	81.38
505.34	82.38
505.557	91.38
505.773	77.38
505.99	93.38
506.207	85.38
506.423	93.38
506.64	91.38
506.856	93.38
507.073	98.38
507.289	84.38
507.506	102.38
507.722	131.38
507.939	113.38
508.155	103.38
508.372	91.38
508.588	99.38
508.805	97.38
509.021	95.38
509.238	103.38
509.454	91.38
509.67	92.38
509.887	107.38
510.103	111.38
510.319	194.38
510.536	629.38
510.752	1897.38
510.968	564.38
511.184	150.38
511.401	100.38
511.617	111.38
511.833	109.38
512.049	84.38
512.265	90.38
512.481	96.38
512.698	86.38
512.914	94.38
513.13	90.38
513.346	102.38
513.562	89.38
513.778	90.38
513.994	97.38
514.21	111.38
514.426	120.38
514.642	136.38
514.858	125.38
515.074	170.38
515.29	440.38
515.506	1400.38
