Data from Circ_1989_H10_HRD10591_00056.txt Node
Date: Wed Jan 03 12:01:32 EST 2024
User: Yrep
Spectrometer: HR+D1059
Trigger mode: 1
Integration Time (sec): 1.000000E-1
Scans to average: 1
Electric dark correction enabled: true
Nonlinearity correction enabled: false
Boxcar width: 0
XAxis mode: Wavelengths
Number of Pixels in Spectrum: 2048
>>>>>Begin Spectral Data<<<<<
223.165	-4.62
223.4	-4.62
223.635	-4.62
223.869	-21.62
224.104	-24.62
224.338	-18.62
224.573	-14.62
224.808	-24.62
225.042	-19.62
225.277	-8.62
225.511	-2.62
225.746	8.38
225.98	18.38
226.215	2.38
226.449	30.38
226.683	22.38
226.918	25.38
227.152	32.38
227.387	28.38
227.621	39.38
227.856	50.38
228.09	65.38
228.324	58.38
228.559	69.38
228.793	64.38
229.027	80.38
229.262	80.38
229.496	74.38
229.73	81.38
229.964	95.38
230.199	68.38
230.433	68.38
230.667	81.38
230.901	91.38
231.136	97.38
231.37	70.38
231.604	77.38
231.838	82.38
232.072	80.38
232.306	96.38
232.541	93.38
232.775	98.38
233.009	80.38
233.243	99.38
233.477	76.38
233.711	86.38
233.945	80.38
234.179	71.38
234.413	106.38
234.647	80.38
234.881	97.38
235.115	92.38
235.349	75.38
235.583	89.38
235.817	83.38
236.051	98.38
236.285	88.38
236.519	86.38
236.753	91.38
236.987	86.38
237.221	90.38
237.455	91.38
237.689	68.38
237.922	78.38
238.156	82.38
238.39	86.38
238.624	83.38
238.858	74.38
239.091	80.38
239.325	83.38
239.559	98.38
239.793	89.38
240.027	96.38
240.26	90.38
240.494	85.38
240.728	88.38
240.961	71.38
241.195	87.38
241.429	93.38
241.662	76.38
241.896	82.38
242.13	83.38
242.363	84.38
242.597	78.38
242.83	71.38
243.064	95.38
243.298	76.38
243.531	76.38
243.765	82.38
243.998	96.38
244.232	90.38
244.465	97.38
244.699	88.38
244.932	68.38
245.166	90.38
245.399	88.38
245.633	82.38
245.866	93.38
246.099	78.38
246.333	77.38
246.566	77.38
246.8	81.38
247.033	76.38
247.266	94.38
247.5	71.38
247.733	76.38
247.966	86.38
248.2	86.38
248.433	80.38
248.666	84.38
248.899	73.38
249.133	105.38
249.366	95.38
249.599	103.38
249.832	88.38
250.066	100.38
250.299	65.38
250.532	82.38
250.765	93.38
250.998	78.38
251.231	80.38
251.465	81.38
251.698	77.38
251.931	86.38
252.164	85.38
252.397	90.38
252.63	76.38
252.863	84.38
253.096	92.38
253.329	85.38
253.562	96.38
253.795	89.38
254.028	97.38
254.261	89.38
254.494	78.38
254.727	92.38
254.96	86.38
255.193	88.38
255.426	93.38
255.659	88.38
255.892	105.38
256.124	110.38
256.357	84.38
256.59	91.38
256.823	80.38
257.056	74.38
257.289	92.38
257.521	95.38
257.754	88.38
257.987	91.38
258.22	96.38
258.452	92.38
258.685	96.38
258.918	90.38
259.151	88.38
259.383	84.38
259.616	78.38
259.849	92.38
260.081	82.38
260.314	101.38
260.547	76.38
260.779	110.38
261.012	89.38
261.244	101.38
261.477	95.38
261.71	102.38
261.942	125.38
262.175	139.38
262.407	102.38
262.64	89.38
262.872	92.38
263.105	93.38
263.337	97.38
263.57	78.38
263.802	82.38
264.035	92.38
264.267	82.38
264.499	76.38
264.732	92.38
264.964	100.38
265.197	85.38
265.429	86.38
265.661	98.38
265.894	85.38
266.126	89.38
266.358	88.38
266.591	88.38
266.823	99.38
267.055	80.38
267.287	86.38
267.52	89.38
267.752	95.38
267.984	89.38
268.216	85.38
268.448	91.38
268.681	77.38
268.913	91.38
269.145	89.38
269.377	82.38
269.609	85.38
269.841	87.38
270.073	81.38
270.306	97.38
270.538	94.38
270.77	93.38
271.002	87.38
271.234	90.38
271.466	94.38
271.698	87.38
271.93	93.38
272.162	77.38
272.394	94.38
272.626	100.38
272.858	98.38
273.09	92.38
273.322	85.38
273.553	92.38
273.785	96.38
274.017	89.38
274.249	93.38
274.481	85.38
274.713	81.38
274.945	100.38
275.176	96.38
275.408	92.38
275.64	108.38
275.872	99.38
276.104	89.38
276.335	98.38
276.567	119.38
276.799	116.38
277.031	132.38
277.262	140.38
277.494	137.38
277.726	103.38
277.957	86.38
278.189	104.38
278.421	84.38
278.652	89.38
278.884	96.38
279.115	89.38
279.347	101.38
279.579	93.38
279.81	108.38
280.042	140.38
280.273	192.38
280.505	145.38
280.736	108.38
280.968	98.38
281.199	95.38
281.431	90.38
281.662	85.38
281.894	97.38
282.125	106.38
282.356	124.38
282.588	159.38
282.819	114.38
283.051	94.38
283.282	99.38
283.513	85.38
283.745	99.38
283.976	90.38
284.207	100.38
284.439	85.38
284.67	104.38
284.901	85.38
285.132	100.38
285.364	100.38
285.595	75.38
285.826	88.38
286.057	92.38
286.288	85.38
286.52	93.38
286.751	96.38
286.982	100.38
287.213	80.38
287.444	98.38
287.675	96.38
287.906	80.38
288.138	93.38
288.369	100.38
288.6	96.38
288.831	92.38
289.062	93.38
289.293	88.38
289.524	83.38
289.755	89.38
289.986	94.38
290.217	89.38
290.448	100.38
290.679	88.38
290.91	93.38
291.141	100.38
291.371	95.38
291.602	86.38
291.833	95.38
292.064	91.38
292.295	91.38
292.526	93.38
292.757	89.38
292.987	96.38
293.218	98.38
293.449	84.38
293.68	88.38
293.91	103.38
294.141	91.38
294.372	90.38
294.603	102.38
294.833	94.38
295.064	96.38
295.295	98.38
295.525	104.38
295.756	106.38
295.987	139.38
296.217	152.38
296.448	140.38
296.679	104.38
296.909	83.38
297.14	101.38
297.37	92.38
297.601	88.38
297.831	105.38
298.062	80.38
298.292	80.38
298.523	101.38
298.753	97.38
298.984	89.38
299.214	92.38
299.445	96.38
299.675	90.38
299.905	92.38
300.136	88.38
300.366	100.38
300.597	89.38
300.827	100.38
301.057	94.38
301.288	122.38
301.518	88.38
301.748	96.38
301.979	104.38
302.209	99.38
302.439	104.38
302.669	109.38
302.9	96.38
303.13	104.38
303.36	107.38
303.59	116.38
303.82	118.38
304.051	98.38
304.281	88.38
304.511	104.38
304.741	84.38
304.971	92.38
305.201	101.38
305.431	116.38
305.661	98.38
305.891	100.38
306.121	104.38
306.352	114.38
306.582	107.38
306.812	104.38
307.042	116.38
307.272	130.38
307.502	144.38
307.731	137.38
307.961	116.38
308.191	95.38
308.421	96.38
308.651	104.38
308.881	89.38
309.111	106.38
309.341	91.38
309.571	93.38
309.8	97.38
310.03	101.38
310.26	106.38
310.49	106.38
310.72	113.38
310.949	108.38
311.179	115.38
311.409	119.38
311.639	97.38
311.868	100.38
312.098	100.38
312.328	100.38
312.557	112.38
312.787	104.38
313.017	114.38
313.246	105.38
313.476	96.38
313.706	104.38
313.935	93.38
314.165	110.38
314.394	116.38
314.624	102.38
314.853	90.38
315.083	95.38
315.312	102.38
315.542	102.38
315.771	91.38
316.001	94.38
316.23	96.38
316.46	100.38
316.689	100.38
316.919	102.38
317.148	105.38
317.377	102.38
317.607	98.38
317.836	74.38
318.065	96.38
318.295	104.38
318.524	102.38
318.753	105.38
318.983	106.38
319.212	116.38
319.441	108.38
319.67	104.38
319.9	97.38
320.129	101.38
320.358	113.38
320.587	103.38
320.816	100.38
321.046	108.38
321.275	100.38
321.504	96.38
321.733	103.38
321.962	91.38
322.191	100.38
322.42	113.38
322.649	107.38
322.878	117.38
323.108	117.38
323.337	139.38
323.566	138.38
323.795	170.38
324.024	221.38
324.253	409.38
324.482	938.38
324.71	1934.38
324.939	2632.38
325.168	957.38
325.397	288.38
325.626	168.38
325.855	124.38
326.084	131.38
326.313	153.38
326.542	180.38
326.77	247.38
326.999	495.38
327.228	1061.38
327.457	1987.38
327.686	1632.38
327.914	496.38
328.143	381.38
328.372	434.38
328.6	272.38
328.829	167.38
329.058	166.38
329.287	170.38
329.515	150.38
329.744	186.38
329.972	325.38
330.201	623.38
330.43	866.38
330.658	428.38
330.887	232.38
331.115	164.38
331.344	122.38
331.572	113.38
331.801	104.38
332.03	113.38
332.258	132.38
332.486	103.38
332.715	112.38
332.943	116.38
333.172	121.38
333.4	119.38
333.629	141.38
333.857	173.38
334.085	305.38
334.314	592.38
334.542	1068.38
334.771	1018.38
334.999	300.38
335.227	151.38
335.455	117.38
335.684	125.38
335.912	114.38
336.14	109.38
336.369	119.38
336.597	113.38
336.825	114.38
337.053	103.38
337.281	96.38
337.51	106.38
337.738	103.38
337.966	98.38
338.194	117.38
338.422	104.38
338.65	106.38
338.878	106.38
339.106	102.38
339.334	95.38
339.562	113.38
339.79	103.38
340.018	89.38
340.246	107.38
340.474	101.38
340.702	97.38
340.93	102.38
341.158	116.38
341.386	97.38
341.614	98.38
341.842	95.38
342.07	97.38
342.298	101.38
342.526	105.38
342.754	97.38
342.981	106.38
343.209	87.38
343.437	103.38
343.665	95.38
343.893	101.38
344.12	97.38
344.348	91.38
344.576	94.38
344.804	107.38
345.031	112.38
345.259	124.38
345.487	106.38
345.714	80.38
345.942	86.38
346.17	92.38
346.397	93.38
346.625	87.38
346.853	97.38
347.08	90.38
347.308	118.38
347.535	115.38
347.763	107.38
347.99	84.38
348.218	90.38
348.445	100.38
348.673	89.38
348.9	109.38
349.128	100.38
349.355	90.38
349.583	86.38
349.81	104.38
350.037	90.38
350.265	94.38
350.492	110.38
350.72	114.38
350.947	97.38
351.174	113.38
351.402	112.38
351.629	105.38
351.856	110.38
352.083	103.38
352.311	112.38
352.538	111.38
352.765	117.38
352.992	115.38
353.22	110.38
353.447	124.38
353.674	90.38
353.901	104.38
354.128	96.38
354.355	107.38
354.583	92.38
354.81	111.38
355.037	96.38
355.264	96.38
355.491	86.38
355.718	95.38
355.945	106.38
356.172	95.38
356.399	100.38
356.626	100.38
356.853	96.38
357.08	110.38
357.307	97.38
357.534	103.38
357.761	89.38
357.988	102.38
358.215	104.38
358.441	103.38
358.668	98.38
358.895	86.38
359.122	96.38
359.349	98.38
359.576	89.38
359.802	104.38
360.029	130.38
360.256	128.38
360.483	121.38
360.709	117.38
360.936	107.38
361.163	102.38
361.39	108.38
361.616	106.38
361.843	107.38
362.07	96.38
362.296	98.38
362.523	97.38
362.749	100.38
362.976	81.38
363.203	112.38
363.429	96.38
363.656	102.38
363.882	93.38
364.109	108.38
364.335	118.38
364.562	108.38
364.788	87.38
365.015	83.38
365.241	113.38
365.468	109.38
365.694	114.38
365.92	109.38
366.147	101.38
366.373	99.38
366.599	102.38
366.826	98.38
367.052	105.38
367.278	97.38
367.505	97.38
367.731	98.38
367.957	98.38
368.184	102.38
368.41	105.38
368.636	128.38
368.862	140.38
369.089	104.38
369.315	110.38
369.541	99.38
369.767	106.38
369.993	97.38
370.219	101.38
370.445	101.38
370.672	87.38
370.898	85.38
371.124	105.38
371.35	91.38
371.576	90.38
371.802	96.38
372.028	81.38
372.254	103.38
372.48	91.38
372.706	86.38
372.932	92.38
373.158	91.38
373.384	111.38
373.61	96.38
373.835	103.38
374.061	97.38
374.287	99.38
374.513	82.38
374.739	102.38
374.965	99.38
375.191	98.38
375.416	111.38
375.642	80.38
375.868	99.38
376.094	98.38
376.319	82.38
376.545	98.38
376.771	86.38
376.997	84.38
377.222	86.38
377.448	104.38
377.674	82.38
377.899	100.38
378.125	89.38
378.35	92.38
378.576	85.38
378.802	87.38
379.027	95.38
379.253	103.38
379.478	93.38
379.704	96.38
379.929	105.38
380.155	93.38
380.38	100.38
380.606	98.38
380.831	89.38
381.057	102.38
381.282	93.38
381.507	97.38
381.733	104.38
381.958	85.38
382.184	97.38
382.409	110.38
382.634	103.38
382.86	101.38
383.085	103.38
383.31	107.38
383.535	119.38
383.761	106.38
383.986	94.38
384.211	111.38
384.436	113.38
384.662	119.38
384.887	113.38
385.112	116.38
385.337	92.38
385.562	98.38
385.787	100.38
386.013	108.38
386.238	112.38
386.463	111.38
386.688	110.38
386.913	107.38
387.138	97.38
387.363	107.38
387.588	99.38
387.813	90.38
388.038	95.38
388.263	111.38
388.488	103.38
388.713	107.38
388.938	91.38
389.163	96.38
389.387	99.38
389.612	93.38
389.837	96.38
390.062	95.38
390.287	96.38
390.512	104.38
390.736	100.38
390.961	98.38
391.186	101.38
391.411	97.38
391.636	103.38
391.86	98.38
392.085	92.38
392.31	88.38
392.534	89.38
392.759	87.38
392.984	78.38
393.208	94.38
393.433	96.38
393.658	73.38
393.882	89.38
394.107	89.38
394.331	94.38
394.556	103.38
394.78	96.38
395.005	86.38
395.229	105.38
395.454	75.38
395.678	86.38
395.903	85.38
396.127	94.38
396.352	102.38
396.576	104.38
396.801	102.38
397.025	103.38
397.249	90.38
397.474	91.38
397.698	93.38
397.922	94.38
398.147	94.38
398.371	106.38
398.595	88.38
398.82	89.38
399.044	81.38
399.268	82.38
399.492	104.38
399.717	94.38
399.941	95.38
400.165	108.38
400.389	110.38
400.613	101.38
400.837	92.38
401.062	84.38
401.286	98.38
401.51	82.38
401.734	96.38
401.958	103.38
402.182	146.38
402.406	182.38
402.63	145.38
402.854	105.38
403.078	106.38
403.302	109.38
403.526	97.38
403.75	104.38
403.974	91.38
404.198	93.38
404.422	101.38
404.645	95.38
404.869	101.38
405.093	106.38
405.317	126.38
405.541	122.38
405.765	101.38
405.988	131.38
406.212	178.38
406.436	239.38
406.66	170.38
406.883	121.38
407.107	106.38
407.331	90.38
407.555	113.38
407.778	100.38
408.002	98.38
408.226	109.38
408.449	90.38
408.673	93.38
408.896	83.38
409.12	99.38
409.344	88.38
409.567	91.38
409.791	83.38
410.014	99.38
410.238	104.38
410.461	88.38
410.685	115.38
410.908	120.38
411.132	108.38
411.355	80.38
411.578	101.38
411.802	96.38
412.025	109.38
412.249	101.38
412.472	104.38
412.695	117.38
412.919	95.38
413.142	96.38
413.365	84.38
413.589	88.38
413.812	99.38
414.035	99.38
414.258	90.38
414.482	92.38
414.705	90.38
414.928	83.38
415.151	84.38
415.374	86.38
415.597	103.38
415.821	92.38
416.044	87.38
416.267	105.38
416.49	105.38
416.713	82.38
416.936	93.38
417.159	108.38
417.382	94.38
417.605	91.38
417.828	103.38
418.051	102.38
418.274	84.38
418.497	98.38
418.72	92.38
418.943	99.38
419.166	107.38
419.389	76.38
419.611	86.38
419.834	91.38
420.057	98.38
420.28	94.38
420.503	97.38
420.726	91.38
420.948	98.38
421.171	104.38
421.394	94.38
421.617	105.38
421.839	99.38
422.062	82.38
422.285	86.38
422.507	104.38
422.73	106.38
422.953	106.38
423.175	98.38
423.398	93.38
423.621	102.38
423.843	91.38
424.066	92.38
424.288	91.38
424.511	113.38
424.733	101.38
424.956	113.38
425.178	93.38
425.401	112.38
425.623	105.38
425.846	98.38
426.068	105.38
426.291	96.38
426.513	91.38
426.735	95.38
426.958	102.38
427.18	121.38
427.402	160.38
427.625	235.38
427.847	212.38
428.069	194.38
428.292	121.38
428.514	90.38
428.736	100.38
428.958	102.38
429.181	90.38
429.403	79.38
429.625	100.38
429.847	88.38
430.069	106.38
430.292	90.38
430.514	100.38
430.736	98.38
430.958	99.38
431.18	97.38
431.402	94.38
431.624	71.38
431.846	88.38
432.068	72.38
432.29	101.38
432.512	96.38
432.734	87.38
432.956	100.38
433.178	100.38
433.4	101.38
433.622	87.38
433.844	89.38
434.066	94.38
434.287	106.38
434.509	77.38
434.731	106.38
434.953	92.38
435.175	113.38
435.397	108.38
435.618	100.38
435.84	106.38
436.062	144.38
436.284	120.38
436.505	116.38
436.727	118.38
436.949	83.38
437.17	107.38
437.392	82.38
437.614	108.38
437.835	109.38
438.057	134.38
438.278	119.38
438.5	110.38
438.721	134.38
438.943	110.38
439.165	97.38
439.386	99.38
439.608	88.38
439.829	99.38
440.05	138.38
440.272	167.38
440.493	116.38
440.715	96.38
440.936	89.38
441.158	104.38
441.379	106.38
441.6	98.38
441.822	110.38
442.043	103.38
442.264	111.38
442.486	109.38
442.707	102.38
442.928	100.38
443.149	140.38
443.371	149.38
443.592	132.38
443.813	120.38
444.034	108.38
444.255	98.38
444.476	92.38
444.698	91.38
444.919	90.38
445.14	128.38
445.361	137.38
445.582	127.38
445.803	181.38
446.024	149.38
446.245	154.38
446.466	137.38
446.687	99.38
446.908	97.38
447.129	92.38
447.35	88.38
447.571	96.38
447.792	97.38
448.013	120.38
448.234	136.38
448.455	117.38
448.675	126.38
448.896	141.38
449.117	108.38
449.338	120.38
449.559	135.38
449.779	147.38
450	106.38
450.221	91.38
450.442	89.38
450.662	103.38
450.883	115.38
451.104	114.38
451.324	110.38
451.545	92.38
451.766	93.38
451.986	98.38
452.207	93.38
452.428	108.38
452.648	102.38
452.869	122.38
453.089	127.38
453.31	133.38
453.53	101.38
453.751	88.38
453.971	124.38
454.192	131.38
454.412	113.38
454.633	104.38
454.853	93.38
455.073	98.38
455.294	86.38
455.514	104.38
455.734	95.38
455.955	91.38
456.175	77.38
456.395	88.38
456.616	86.38
456.836	92.38
457.056	94.38
457.276	84.38
457.497	92.38
457.717	89.38
457.937	92.38
458.157	100.38
458.377	91.38
458.598	126.38
458.818	173.38
459.038	178.38
459.258	131.38
459.478	100.38
459.698	92.38
459.918	76.38
460.138	97.38
460.358	82.38
460.578	101.38
460.798	93.38
461.018	80.38
461.238	77.38
461.458	96.38
461.678	97.38
461.898	87.38
462.118	87.38
462.338	94.38
462.558	93.38
462.777	101.38
462.997	85.38
463.217	98.38
463.437	100.38
463.657	102.38
463.876	86.38
464.096	92.38
464.316	94.38
464.536	97.38
464.755	109.38
464.975	108.38
465.195	197.38
465.414	201.38
465.634	109.38
465.854	88.38
466.073	82.38
466.293	83.38
466.512	79.38
466.732	99.38
466.951	100.38
467.171	103.38
467.391	116.38
467.61	128.38
467.829	172.38
468.049	369.38
468.268	540.38
468.488	163.38
468.707	102.38
468.927	75.38
469.146	88.38
469.365	86.38
469.585	109.38
469.804	114.38
470.023	107.38
470.243	115.38
470.462	113.38
470.681	129.38
470.901	91.38
471.12	110.38
471.339	85.38
471.558	102.38
471.777	131.38
471.997	212.38
472.216	717.38
472.435	1570.38
472.654	389.38
472.873	141.38
473.092	103.38
473.311	100.38
473.53	101.38
473.749	94.38
473.968	98.38
474.187	117.38
474.406	113.38
474.625	95.38
474.844	89.38
475.063	103.38
475.282	96.38
475.501	103.38
475.72	90.38
475.939	88.38
476.158	80.38
476.377	90.38
476.596	96.38
476.814	111.38
477.033	103.38
477.252	101.38
477.471	100.38
477.69	97.38
477.908	95.38
478.127	102.38
478.346	104.38
478.564	94.38
478.783	109.38
479.002	106.38
479.22	94.38
479.439	117.38
479.658	145.38
479.876	112.38
480.095	104.38
480.313	134.38
480.532	137.38
480.751	205.38
480.969	653.38
481.188	2707.38
481.406	1575.38
481.624	252.38
481.843	110.38
482.061	101.38
482.28	110.38
482.498	98.38
482.717	76.38
482.935	98.38
483.153	110.38
483.372	89.38
483.59	101.38
483.808	101.38
484.027	77.38
484.245	110.38
484.463	99.38
484.681	91.38
484.9	92.38
485.118	105.38
485.336	97.38
485.554	105.38
485.772	117.38
485.99	95.38
486.209	101.38
486.427	96.38
486.645	120.38
486.863	105.38
487.081	108.38
487.299	93.38
487.517	85.38
487.735	83.38
487.953	108.38
488.171	85.38
488.389	84.38
488.607	102.38
488.825	96.38
489.043	100.38
489.261	99.38
489.479	90.38
489.696	88.38
489.914	95.38
490.132	102.38
490.35	99.38
490.568	104.38
490.786	83.38
491.003	76.38
491.221	90.38
491.439	95.38
491.657	94.38
491.874	94.38
492.092	93.38
492.31	96.38
492.527	91.38
492.745	103.38
492.963	86.38
493.18	84.38
493.398	89.38
493.615	110.38
493.833	106.38
494.05	103.38
494.268	94.38
494.485	91.38
494.703	80.38
494.92	98.38
495.138	88.38
495.355	105.38
495.573	105.38
495.79	100.38
496.008	94.38
496.225	94.38
496.442	104.38
496.66	114.38
496.877	103.38
497.094	107.38
497.312	121.38
497.529	109.38
497.746	94.38
497.963	84.38
498.181	83.38
498.398	97.38
498.615	109.38
498.832	104.38
499.049	101.38
499.267	93.38
499.484	100.38
499.701	106.38
499.918	110.38
500.135	101.38
500.352	92.38
500.569	88.38
500.786	115.38
501.003	101.38
501.22	78.38
501.437	87.38
501.654	106.38
501.871	119.38
502.088	106.38
502.305	95.38
502.522	102.38
502.739	87.38
502.956	98.38
503.172	104.38
503.389	103.38
503.606	103.38
503.823	122.38
504.04	94.38
504.256	87.38
504.473	96.38
504.69	107.38
504.907	80.38
505.123	98.38
505.34	93.38
505.557	89.38
505.773	88.38
505.99	105.38
506.207	104.38
506.423	86.38
506.64	99.38
506.856	104.38
507.073	98.38
507.289	98.38
507.506	96.38
507.722	143.38
507.939	127.38
508.155	102.38
508.372	114.38
508.588	94.38
508.805	89.38
509.021	101.38
509.238	117.38
509.454	109.38
509.67	98.38
509.887	118.38
510.103	130.38
510.319	197.38
510.536	764.38
510.752	2575.38
510.968	701.38
511.184	175.38
511.401	107.38
511.617	106.38
