Data from Circ_1989_H10_HRD10591_00051.txt Node
Date: Wed Jan 03 12:01:31 EST 2024
User: Yrep
Spectrometer: HR+D1059
Trigger mode: 1
Integration Time (sec): 1.000000E-1
Scans to average: 1
Electric dark correction enabled: true
Nonlinearity correction enabled: false
Boxcar width: 0
XAxis mode: Wavelengths
Number of Pixels in Spectrum: 2048
>>>>>Begin Spectral Data<<<<<
223.165	-13.94
223.4	-13.94
223.635	-13.94
223.869	-15.94
224.104	-23.94
224.338	-18.94
224.573	-7.94
224.808	-3.94
225.042	-13.94
225.277	0.06
225.511	-8.94
225.746	-13.94
225.98	-15.94
226.215	11.06
226.449	30.06
226.683	34.06
226.918	35.06
227.152	27.06
227.387	33.06
227.621	38.06
227.856	32.06
228.09	55.06
228.324	47.06
228.559	40.06
228.793	153.06
229.027	441.06
229.262	509.06
229.496	598.06
229.73	783.06
229.964	792.06
230.199	535.06
230.433	488.06
230.667	476.06
230.901	474.06
231.136	466.06
231.37	438.06
231.604	456.06
231.838	459.06
232.072	472.06
232.306	467.06
232.541	491.06
232.775	495.06
233.009	479.06
233.243	495.06
233.477	494.06
233.711	516.06
233.945	522.06
234.179	523.06
234.413	526.06
234.647	543.06
234.881	536.06
235.115	560.06
235.349	576.06
235.583	562.06
235.817	639.06
236.051	646.06
236.285	644.06
236.519	633.06
236.753	723.06
236.987	902.06
237.221	1355.06
237.455	1469.06
237.689	878.06
237.922	762.06
238.156	740.06
238.39	680.06
238.624	688.06
238.858	687.06
239.091	667.06
239.325	696.06
239.559	718.06
239.793	714.06
240.027	816.06
240.26	908.06
240.494	955.06
240.728	958.06
240.961	923.06
241.195	844.06
241.429	829.06
241.662	808.06
241.896	849.06
242.13	832.06
242.363	858.06
242.597	860.06
242.83	918.06
243.064	893.06
243.298	893.06
243.531	911.06
243.765	918.06
243.998	916.06
244.232	932.06
244.465	942.06
244.699	958.06
244.932	974.06
245.166	982.06
245.399	995.06
245.633	960.06
245.866	1002.06
246.099	994.06
246.333	1035.06
246.566	1015.06
246.8	1048.06
247.033	1088.06
247.266	1105.06
247.5	1162.06
247.733	1214.06
247.966	1223.06
248.2	1211.06
248.433	1254.06
248.666	1290.06
248.899	1408.06
249.133	1504.06
249.366	1546.06
249.599	1496.06
249.832	1478.06
250.066	1644.06
250.299	2103.06
250.532	2684.06
250.765	2615.06
250.998	2247.06
251.231	1960.06
251.465	1743.06
251.698	1644.06
251.931	1566.06
252.164	1556.06
252.397	1567.06
252.63	1607.06
252.863	1647.06
253.096	1762.06
253.329	1822.06
253.562	1735.06
253.795	1677.06
254.028	1670.06
254.261	1751.06
254.494	1958.06
254.727	2261.06
254.96	2375.06
255.193	2150.06
255.426	2226.06
255.659	2572.06
255.892	3607.06
256.124	4714.06
256.357	4050.06
256.59	2976.06
256.823	2476.06
257.056	2157.06
257.289	2031.06
257.521	1950.06
257.754	1886.06
257.987	1841.06
258.22	1783.06
258.452	1802.06
258.685	1751.06
258.918	1771.06
259.151	1813.06
259.383	1814.06
259.616	1848.06
259.849	1886.06
260.081	2041.06
260.314	2164.06
260.547	2110.06
260.779	1951.06
261.012	1884.06
261.244	1870.06
261.477	1809.06
261.71	1803.06
261.942	1896.06
262.175	1894.06
262.407	1850.06
262.64	1795.06
262.872	1789.06
263.105	1803.06
263.337	1772.06
263.57	1799.06
263.802	1820.06
264.035	1832.06
264.267	1794.06
264.499	1813.06
264.732	1798.06
264.964	1811.06
265.197	1824.06
265.429	1814.06
265.661	1815.06
265.894	1881.06
266.126	1876.06
266.358	1908.06
266.591	1941.06
266.823	2012.06
267.055	2001.06
267.287	1981.06
267.52	1978.06
267.752	1957.06
267.984	1974.06
268.216	2026.06
268.448	2025.06
268.681	2111.06
268.913	2200.06
269.145	2378.06
269.377	2426.06
269.609	2340.06
269.841	2336.06
270.073	2430.06
270.306	2675.06
270.538	2830.06
270.77	2660.06
271.002	2492.06
271.234	2514.06
271.466	2651.06
271.698	2778.06
271.93	2758.06
272.162	2764.06
272.394	2695.06
272.626	2494.06
272.858	2472.06
273.09	2404.06
273.322	2447.06
273.553	2395.06
273.785	2349.06
274.017	2351.06
274.249	2424.06
274.481	2421.06
274.713	2484.06
274.945	2506.06
275.176	2523.06
275.408	2466.06
275.64	2525.06
275.872	2549.06
276.104	2564.06
276.335	2590.06
276.567	2682.06
276.799	2898.06
277.031	3169.06
277.262	3328.06
277.494	3141.06
277.726	2902.06
277.957	2776.06
278.189	2759.06
278.421	2622.06
278.652	2606.06
278.884	2692.06
279.115	2650.06
279.347	2695.06
279.579	2735.06
279.81	2790.06
280.042	2882.06
280.273	3066.06
280.505	2974.06
280.736	2839.06
280.968	2788.06
281.199	2821.06
281.431	2786.06
281.662	2759.06
281.894	2767.06
282.125	2752.06
282.356	2892.06
282.588	3032.06
282.819	2919.06
283.051	2755.06
283.282	2744.06
283.513	2801.06
283.745	2830.06
283.976	2866.06
284.207	2839.06
284.439	2852.06
284.67	2795.06
284.901	2823.06
285.132	2806.06
285.364	2815.06
285.595	2800.06
285.826	2820.06
286.057	2884.06
286.288	2924.06
286.52	2905.06
286.751	2885.06
286.982	2887.06
287.213	2913.06
287.444	2921.06
287.675	2991.06
287.906	3058.06
288.138	3169.06
288.369	3071.06
288.6	3108.06
288.831	3050.06
289.062	3030.06
289.293	3068.06
289.524	2985.06
289.755	2972.06
289.986	3025.06
290.217	2999.06
290.448	2974.06
290.679	3030.06
290.91	3020.06
291.141	3008.06
291.371	3009.06
291.602	2988.06
291.833	2957.06
292.064	2955.06
292.295	3042.06
292.526	3002.06
292.757	3004.06
292.987	2985.06
293.218	2946.06
293.449	3057.06
293.68	3025.06
293.91	2997.06
294.141	2995.06
294.372	2975.06
294.603	3038.06
294.833	3051.06
295.064	3041.06
295.295	3035.06
295.525	3002.06
295.756	3078.06
295.987	3203.06
296.217	3344.06
296.448	3292.06
296.679	3148.06
296.909	3083.06
297.14	3099.06
297.37	3126.06
297.601	3183.06
297.831	3175.06
298.062	3181.06
298.292	3244.06
298.523	3329.06
298.753	3303.06
298.984	3270.06
299.214	3227.06
299.445	3263.06
299.675	3272.06
299.905	3368.06
300.136	3256.06
300.366	3319.06
300.597	3348.06
300.827	3391.06
301.057	3515.06
301.288	3555.06
301.518	3481.06
301.748	3474.06
301.979	3621.06
302.209	3630.06
302.439	3621.06
302.669	3472.06
302.9	3482.06
303.13	3478.06
303.36	3521.06
303.59	3564.06
303.82	3673.06
304.051	3616.06
304.281	3575.06
304.511	3490.06
304.741	3470.06
304.971	3456.06
305.201	3417.06
305.431	3429.06
305.661	3465.06
305.891	3408.06
306.121	3408.06
306.352	3499.06
306.582	3490.06
306.812	3415.06
307.042	3496.06
307.272	3655.06
307.502	3684.06
307.731	3617.06
307.961	3536.06
308.191	3502.06
308.421	3518.06
308.651	3540.06
308.881	3438.06
309.111	3525.06
309.341	3540.06
309.571	3678.06
309.8	3688.06
310.03	3779.06
310.26	3777.06
310.49	3815.06
310.72	3906.06
310.949	3940.06
311.179	3944.06
311.409	3844.06
311.639	3837.06
311.868	3814.06
312.098	3864.06
312.328	3965.06
312.557	4114.06
312.787	4164.06
313.017	4011.06
313.246	4016.06
313.476	3872.06
313.706	3957.06
313.935	4033.06
314.165	4185.06
314.394	4147.06
314.624	4087.06
314.853	4008.06
315.083	3948.06
315.312	3926.06
315.542	3899.06
315.771	3865.06
316.001	3868.06
316.23	3871.06
316.46	3886.06
316.689	3946.06
316.919	3986.06
317.148	4068.06
317.377	3938.06
317.607	3951.06
317.836	3957.06
318.065	3901.06
318.295	3958.06
318.524	3900.06
318.753	3905.06
318.983	3975.06
319.212	3873.06
319.441	4002.06
319.67	3991.06
319.9	3862.06
320.129	3889.06
320.358	3967.06
320.587	4004.06
320.816	4068.06
321.046	4124.06
321.275	4117.06
321.504	4138.06
321.733	4131.06
321.962	4204.06
322.191	4284.06
322.42	4417.06
322.649	4519.06
322.878	4539.06
323.108	4582.06
323.337	5003.06
323.566	5062.06
323.795	5328.06
324.024	5939.06
324.253	7668.06
324.482	11339.06
324.71	15477.06
324.939	15624.06
325.168	13288.06
325.397	6902.06
325.626	5730.06
325.855	5306.06
326.084	5280.06
326.313	5371.06
326.542	5614.06
326.77	6128.06
326.999	7754.06
327.228	11114.06
327.457	14890.06
327.686	14324.06
327.914	9088.06
328.143	8436.06
328.372	8764.06
328.6	7506.06
328.829	6834.06
329.058	6895.06
329.287	6942.06
329.515	7013.06
329.744	7731.06
329.972	9389.06
330.201	11769.06
330.43	12911.06
330.658	9940.06
330.887	8040.06
331.115	6987.06
331.344	6362.06
331.572	6090.06
331.801	6130.06
332.03	6081.06
332.258	6043.06
332.486	6095.06
332.715	6251.06
332.943	6588.06
333.172	6859.06
333.4	7322.06
333.629	7857.06
333.857	8926.06
334.085	10730.06
334.314	13380.06
334.542	15132.06
334.771	14369.06
334.999	9664.06
335.227	7844.06
335.455	6920.06
335.684	6415.06
335.912	6165.06
336.14	5910.06
336.369	5730.06
336.597	5722.06
336.825	5510.06
337.053	5453.06
337.281	5276.06
337.51	5187.06
337.738	5198.06
337.966	5128.06
338.194	5125.06
338.422	5066.06
338.65	4893.06
338.878	4932.06
339.106	4844.06
339.334	4851.06
339.562	4776.06
339.79	4652.06
340.018	4717.06
340.246	4691.06
340.474	4726.06
340.702	4717.06
340.93	4660.06
341.158	4669.06
341.386	4639.06
341.614	4653.06
341.842	4567.06
342.07	4600.06
342.298	4514.06
342.526	4524.06
342.754	4510.06
342.981	4496.06
343.209	4590.06
343.437	4835.06
343.665	5082.06
343.893	5342.06
344.12	5338.06
344.348	5174.06
344.576	4979.06
344.804	4955.06
345.031	4832.06
345.259	4816.06
345.487	4616.06
345.714	4557.06
345.942	4470.06
346.17	4398.06
346.397	4395.06
346.625	4377.06
346.853	4343.06
347.08	4317.06
347.308	4414.06
347.535	4414.06
347.763	4523.06
347.99	4483.06
348.218	4495.06
348.445	4542.06
348.673	4501.06
348.9	4337.06
349.128	4353.06
349.355	4261.06
349.583	4242.06
349.81	4297.06
350.037	4210.06
350.265	4194.06
350.492	4239.06
350.72	4231.06
350.947	4280.06
351.174	4412.06
351.402	4428.06
351.629	4334.06
351.856	4314.06
352.083	4414.06
352.311	4413.06
352.538	4437.06
352.765	4428.06
352.992	4349.06
353.22	4291.06
353.447	4296.06
353.674	4135.06
353.901	4154.06
354.128	4199.06
354.355	4127.06
354.583	4117.06
354.81	4134.06
355.037	4186.06
355.264	4119.06
355.491	4107.06
355.718	4191.06
355.945	4080.06
356.172	4100.06
356.399	4116.06
356.626	4122.06
356.853	4126.06
357.08	4123.06
357.307	4137.06
357.534	4090.06
357.761	4075.06
357.988	4109.06
358.215	4142.06
358.441	4139.06
358.668	4158.06
358.895	4236.06
359.122	4234.06
359.349	4376.06
359.576	4394.06
359.802	4594.06
360.029	4784.06
360.256	4706.06
360.483	4524.06
360.709	4362.06
360.936	4304.06
361.163	4338.06
361.39	4427.06
361.616	4424.06
361.843	4338.06
362.07	4354.06
362.296	4358.06
362.523	4323.06
362.749	4362.06
362.976	4282.06
363.203	4283.06
363.429	4254.06
363.656	4218.06
363.882	4239.06
364.109	4200.06
364.335	4215.06
364.562	4182.06
364.788	4223.06
365.015	4203.06
365.241	4217.06
365.468	4265.06
365.694	4226.06
365.92	4236.06
366.147	4245.06
366.373	4171.06
366.599	4169.06
366.826	4159.06
367.052	4133.06
367.278	4233.06
367.505	4233.06
367.731	4269.06
367.957	4195.06
368.184	4258.06
368.41	4324.06
368.636	4431.06
368.862	4460.06
369.089	4365.06
369.315	4314.06
369.541	4305.06
369.767	4338.06
369.993	4391.06
370.219	4348.06
370.445	4337.06
370.672	4354.06
370.898	4410.06
371.124	4410.06
371.35	4482.06
371.576	4490.06
371.802	4402.06
372.028	4408.06
372.254	4462.06
372.48	4496.06
372.706	4559.06
372.932	4562.06
373.158	4551.06
373.384	4509.06
373.61	4540.06
373.835	4526.06
374.061	4469.06
374.287	4618.06
374.513	4591.06
374.739	4746.06
374.965	4839.06
375.191	4874.06
375.416	4724.06
375.642	4647.06
375.868	4711.06
376.094	4533.06
376.319	4492.06
376.545	4510.06
376.771	4478.06
376.997	4440.06
377.222	4522.06
377.448	4389.06
377.674	4440.06
377.899	4410.06
378.125	4341.06
378.35	4371.06
378.576	4410.06
378.802	4357.06
379.027	4339.06
379.253	4372.06
379.478	4345.06
379.704	4386.06
379.929	4379.06
380.155	4418.06
380.38	4461.06
380.606	4500.06
380.831	4426.06
381.057	4431.06
381.282	4401.06
381.507	4454.06
381.733	4516.06
381.958	4541.06
382.184	4587.06
382.409	4666.06
382.634	4654.06
382.86	4688.06
383.085	4726.06
383.31	4718.06
383.535	4900.06
383.761	4906.06
383.986	4925.06
384.211	5086.06
384.436	5156.06
384.662	5141.06
384.887	5319.06
385.112	5276.06
385.337	5337.06
385.562	5368.06
385.787	5248.06
386.013	5407.06
386.238	5468.06
386.463	5350.06
386.688	5312.06
386.913	5294.06
387.138	5258.06
387.363	5302.06
387.588	5282.06
387.813	5263.06
388.038	5277.06
388.263	5332.06
388.488	5342.06
388.713	5256.06
388.938	5185.06
389.163	5255.06
389.387	5181.06
389.612	5203.06
389.837	5188.06
390.062	5239.06
390.287	5217.06
390.512	5232.06
390.736	5322.06
390.961	5332.06
391.186	5413.06
391.411	5571.06
391.636	5689.06
391.86	5826.06
392.085	5874.06
392.31	5783.06
392.534	5697.06
392.759	5584.06
392.984	5498.06
393.208	5396.06
393.433	5423.06
393.658	5468.06
393.882	5516.06
394.107	5434.06
394.331	5559.06
394.556	5538.06
394.78	5533.06
395.005	5594.06
395.229	5583.06
395.454	5805.06
395.678	5928.06
395.903	5928.06
396.127	6007.06
396.352	5819.06
396.576	5633.06
396.801	5552.06
397.025	5664.06
397.249	5899.06
397.474	5996.06
397.698	6050.06
397.922	6120.06
398.147	6227.06
398.371	6322.06
398.595	6433.06
398.82	6735.06
399.044	7261.06
399.268	7949.06
399.492	9020.06
399.717	9700.06
399.941	9396.06
400.165	8821.06
400.389	8146.06
400.613	7414.06
400.837	6930.06
401.062	6834.06
401.286	6653.06
401.51	6711.06
401.734	6656.06
401.958	6735.06
402.182	6830.06
402.406	6983.06
402.63	7034.06
402.854	7186.06
403.078	7202.06
403.302	7414.06
403.526	7514.06
403.75	7543.06
403.974	7702.06
404.198	7639.06
404.422	7949.06
404.645	8008.06
404.869	8195.06
405.093	8815.06
405.317	9463.06
405.541	9242.06
405.765	8414.06
405.988	7747.06
406.212	7890.06
406.436	7895.06
406.66	8005.06
406.883	7932.06
407.107	8567.06
407.331	9061.06
407.555	9503.06
407.778	9169.06
408.002	8420.06
408.226	8066.06
408.449	7930.06
408.673	7808.06
408.896	7975.06
409.12	8151.06
409.344	7663.06
409.567	7328.06
409.791	7378.06
410.014	7239.06
410.238	7179.06
410.461	7219.06
410.685	7204.06
410.908	7282.06
411.132	7580.06
411.355	7646.06
411.578	7342.06
411.802	7184.06
412.025	7446.06
412.249	7903.06
412.472	8556.06
412.695	9215.06
412.919	8456.06
413.142	7873.06
413.365	7611.06
413.589	7334.06
413.812	6990.06
414.035	6896.06
414.258	6915.06
414.482	6881.06
414.705	6844.06
414.928	6828.06
415.151	6759.06
415.374	6706.06
415.597	6639.06
415.821	6482.06
416.044	6635.06
416.267	6574.06
416.49	6388.06
416.713	6433.06
416.936	6491.06
417.159	6564.06
417.382	6769.06
417.605	6815.06
417.828	6986.06
418.051	6978.06
418.274	6764.06
418.497	6664.06
418.72	6782.06
418.943	6804.06
419.166	7261.06
419.389	7638.06
419.611	7679.06
419.834	7600.06
420.057	7764.06
420.28	8121.06
420.503	7865.06
420.726	7656.06
420.948	7465.06
421.171	7668.06
421.394	7408.06
421.617	6939.06
421.839	6823.06
422.062	6904.06
422.285	7040.06
422.507	7655.06
422.73	8110.06
422.953	7468.06
423.175	7169.06
423.398	7179.06
423.621	7110.06
423.843	7363.06
424.066	7250.06
424.288	7191.06
424.511	7398.06
424.733	7908.06
424.956	8362.06
425.178	7811.06
425.401	7960.06
425.623	7822.06
425.846	6841.06
426.068	6734.06
426.291	6631.06
426.513	6727.06
426.735	6761.06
426.958	7258.06
427.18	8135.06
427.402	9376.06
427.625	9763.06
427.847	9038.06
428.069	8891.06
428.292	7468.06
428.514	6554.06
428.736	6307.06
428.958	6331.06
429.181	6011.06
429.403	6035.06
429.625	6155.06
429.847	6476.06
430.069	7000.06
430.292	6449.06
430.514	5939.06
430.736	6014.06
430.958	5932.06
431.18	5842.06
431.402	5790.06
431.624	5712.06
431.846	5902.06
432.068	5853.06
432.29	5998.06
432.512	5880.06
432.734	5919.06
432.956	5915.06
433.178	6010.06
433.4	5949.06
433.622	5831.06
433.844	5930.06
434.066	5891.06
434.287	6028.06
434.509	6195.06
434.731	6432.06
434.953	6522.06
435.175	6653.06
435.397	6883.06
435.618	6740.06
435.84	7051.06
436.062	8086.06
436.284	7894.06
436.505	6582.06
436.727	6342.06
436.949	6078.06
437.17	5949.06
437.392	5861.06
437.614	6091.06
437.835	6451.06
438.057	7408.06
438.278	8132.06
438.5	7938.06
438.721	8839.06
438.943	7602.06
439.165	6418.06
439.386	6301.06
439.608	6308.06
439.829	6423.06
440.05	6794.06
440.272	7290.06
440.493	6520.06
440.715	6211.06
440.936	6272.06
441.158	6254.06
441.379	6368.06
441.6	6658.06
441.822	6960.06
442.043	7330.06
442.264	8120.06
442.486	7763.06
442.707	6980.06
442.928	6748.06
443.149	6959.06
443.371	7220.06
443.592	7759.06
443.813	8760.06
444.034	8624.06
444.255	7485.06
444.476	7329.06
444.698	7574.06
444.919	7717.06
445.14	7451.06
445.361	7358.06
445.582	7534.06
445.803	8194.06
446.024	8829.06
446.245	8354.06
446.466	7425.06
446.687	6549.06
446.908	6213.06
447.129	5931.06
447.35	5831.06
447.571	5800.06
447.792	5634.06
448.013	5703.06
448.234	5926.06
448.455	6650.06
448.675	7849.06
448.896	8259.06
449.117	6694.06
449.338	7100.06
449.559	8324.06
449.779	8478.06
450	6458.06
450.221	5821.06
450.442	5566.06
450.662	5547.06
450.883	5680.06
451.104	5711.06
451.324	5607.06
451.545	5428.06
451.766	5327.06
451.986	5158.06
452.207	5156.06
452.428	5111.06
452.648	5241.06
452.869	5157.06
453.089	5243.06
453.31	5285.06
453.53	5195.06
453.751	5213.06
453.971	5174.06
454.192	5376.06
454.412	5046.06
454.633	5059.06
454.853	5040.06
455.073	5019.06
455.294	5458.06
455.514	5926.06
455.734	5406.06
455.955	4875.06
456.175	4822.06
456.395	4840.06
456.616	4768.06
456.836	4866.06
457.056	4783.06
457.276	4675.06
457.497	4899.06
457.717	4869.06
457.937	4983.06
458.157	5043.06
458.377	5108.06
458.598	5456.06
458.818	6158.06
459.038	6885.06
459.258	6779.06
459.478	6062.06
459.698	5936.06
459.918	6019.06
460.138	6194.06
460.358	6450.06
460.578	6392.06
460.798	6499.06
461.018	6546.06
461.238	6454.06
461.458	6398.06
461.678	6330.06
461.898	6511.06
462.118	6559.06
462.338	6893.06
462.558	6949.06
462.777	7277.06
462.997	7820.06
463.217	8306.06
463.437	8058.06
463.657	7536.06
463.876	7276.06
464.096	7399.06
464.316	7348.06
464.536	7371.06
464.755	7193.06
464.975	7068.06
465.195	7271.06
465.414	7313.06
465.634	6527.06
465.854	6152.06
466.073	5918.06
466.293	5718.06
466.512	5475.06
466.732	5458.06
466.951	5472.06
467.171	5492.06
467.391	5475.06
467.61	5740.06
467.829	5900.06
468.049	6628.06
468.268	7461.06
468.488	6299.06
468.707	5717.06
468.927	5526.06
469.146	5458.06
469.365	5480.06
469.585	5413.06
469.804	5594.06
470.023	5784.06
470.243	5709.06
470.462	5916.06
470.681	5968.06
470.901	5886.06
471.12	5802.06
471.339	5775.06
471.558	5854.06
471.777	5888.06
471.997	6231.06
472.216	8382.06
472.435	12066.06
472.654	9175.06
472.873	7156.06
473.092	6457.06
473.311	6159.06
473.53	5960.06
473.749	5985.06
473.968	6316.06
474.187	7204.06
474.406	6659.06
474.625	5753.06
474.844	5498.06
475.063	5475.06
475.282	5398.06
475.501	5523.06
475.72	5558.06
475.939	5536.06
476.158	5595.06
476.377	5643.06
476.596	5547.06
476.814	5772.06
477.033	5742.06
477.252	5819.06
477.471	6000.06
477.69	6075.06
477.908	6090.06
478.127	6290.06
478.346	6377.06
478.564	6463.06
478.783	6518.06
479.002	6746.06
479.22	6824.06
479.439	6931.06
479.658	7020.06
479.876	7265.06
480.095	7424.06
480.313	7955.06
480.532	7984.06
480.751	8366.06
480.969	10349.06
481.188	15347.06
481.406	15376.06
481.624	11310.06
481.843	9339.06
482.061	8450.06
482.28	7856.06
482.498	7391.06
482.717	7222.06
482.935	7039.06
483.153	6957.06
483.372	6867.06
483.59	6728.06
483.808	6630.06
484.027	6590.06
484.245	6620.06
484.463	6648.06
484.681	6756.06
484.9	6877.06
485.118	6716.06
485.336	6911.06
485.554	6860.06
485.772	6932.06
485.99	6851.06
486.209	7012.06
486.427	6951.06
486.645	7032.06
486.863	7090.06
487.081	7008.06
487.299	6966.06
487.517	6933.06
487.735	7013.06
