Data from Circ_1989_H10_HRD10591_00045.txt Node
Date: Wed Jan 03 12:01:30 EST 2024
User: Yrep
Spectrometer: HR+D1059
Trigger mode: 1
Integration Time (sec): 1.000000E-1
Scans to average: 1
Electric dark correction enabled: true
Nonlinearity correction enabled: false
Boxcar width: 0
XAxis mode: Wavelengths
Number of Pixels in Spectrum: 2048
>>>>>Begin Spectral Data<<<<<
223.165	-29.88
223.4	-29.88
223.635	-29.88
223.869	-15.88
224.104	-17.88
224.338	-7.88
224.573	-8.88
224.808	-12.88
225.042	11.12
225.277	-3.88
225.511	5.12
225.746	-0.88
225.98	-3.88
226.215	-2.88
226.449	15.12
226.683	20.12
226.918	29.12
227.152	24.12
227.387	44.12
227.621	26.12
227.856	33.12
228.09	41.12
228.324	55.12
228.559	48.12
228.793	64.12
229.027	58.12
229.262	81.12
229.496	68.12
229.73	85.12
229.964	85.12
230.199	71.12
230.433	71.12
230.667	75.12
230.901	76.12
231.136	71.12
231.37	73.12
231.604	71.12
231.838	88.12
232.072	91.12
232.306	73.12
232.541	81.12
232.775	90.12
233.009	91.12
233.243	86.12
233.477	77.12
233.711	84.12
233.945	99.12
234.179	77.12
234.413	84.12
234.647	72.12
234.881	83.12
235.115	81.12
235.349	64.12
235.583	88.12
235.817	68.12
236.051	67.12
236.285	91.12
236.519	78.12
236.753	74.12
236.987	78.12
237.221	75.12
237.455	70.12
237.689	63.12
237.922	70.12
238.156	65.12
238.39	60.12
238.624	68.12
238.858	81.12
239.091	94.12
239.325	78.12
239.559	88.12
239.793	78.12
240.027	89.12
240.26	77.12
240.494	77.12
240.728	81.12
240.961	83.12
241.195	70.12
241.429	77.12
241.662	79.12
241.896	78.12
242.13	81.12
242.363	67.12
242.597	79.12
242.83	80.12
243.064	78.12
243.298	70.12
243.531	70.12
243.765	85.12
243.998	75.12
244.232	79.12
244.465	85.12
244.699	85.12
244.932	79.12
245.166	71.12
245.399	83.12
245.633	87.12
245.866	71.12
246.099	71.12
246.333	75.12
246.566	72.12
246.8	69.12
247.033	81.12
247.266	70.12
247.5	84.12
247.733	92.12
247.966	87.12
248.2	87.12
248.433	80.12
248.666	79.12
248.899	79.12
249.133	76.12
249.366	81.12
249.599	94.12
249.832	99.12
250.066	87.12
250.299	76.12
250.532	77.12
250.765	70.12
250.998	71.12
251.231	75.12
251.465	71.12
251.698	78.12
251.931	93.12
252.164	86.12
252.397	79.12
252.63	92.12
252.863	81.12
253.096	81.12
253.329	90.12
253.562	76.12
253.795	86.12
254.028	86.12
254.261	88.12
254.494	75.12
254.727	63.12
254.96	82.12
255.193	70.12
255.426	73.12
255.659	72.12
255.892	87.12
256.124	81.12
256.357	70.12
256.59	83.12
256.823	86.12
257.056	83.12
257.289	77.12
257.521	81.12
257.754	68.12
257.987	81.12
258.22	99.12
258.452	87.12
258.685	91.12
258.918	84.12
259.151	85.12
259.383	81.12
259.616	82.12
259.849	88.12
260.081	72.12
260.314	83.12
260.547	91.12
260.779	84.12
261.012	97.12
261.244	91.12
261.477	81.12
261.71	85.12
261.942	111.12
262.175	117.12
262.407	69.12
262.64	90.12
262.872	91.12
263.105	73.12
263.337	89.12
263.57	87.12
263.802	91.12
264.035	79.12
264.267	72.12
264.499	79.12
264.732	68.12
264.964	84.12
265.197	76.12
265.429	82.12
265.661	82.12
265.894	80.12
266.126	83.12
266.358	93.12
266.591	80.12
266.823	83.12
267.055	82.12
267.287	79.12
267.52	85.12
267.752	94.12
267.984	88.12
268.216	88.12
268.448	95.12
268.681	86.12
268.913	85.12
269.145	86.12
269.377	73.12
269.609	88.12
269.841	83.12
270.073	78.12
270.306	97.12
270.538	88.12
270.77	92.12
271.002	68.12
271.234	83.12
271.466	101.12
271.698	91.12
271.93	89.12
272.162	85.12
272.394	89.12
272.626	102.12
272.858	93.12
273.09	75.12
273.322	82.12
273.553	101.12
273.785	91.12
274.017	73.12
274.249	85.12
274.481	75.12
274.713	91.12
274.945	87.12
275.176	83.12
275.408	93.12
275.64	83.12
275.872	95.12
276.104	94.12
276.335	90.12
276.567	108.12
276.799	110.12
277.031	126.12
277.262	122.12
277.494	113.12
277.726	89.12
277.957	83.12
278.189	96.12
278.421	90.12
278.652	94.12
278.884	80.12
279.115	88.12
279.347	77.12
279.579	86.12
279.81	102.12
280.042	116.12
280.273	133.12
280.505	131.12
280.736	85.12
280.968	79.12
281.199	98.12
281.431	78.12
281.662	99.12
281.894	83.12
282.125	89.12
282.356	97.12
282.588	136.12
282.819	104.12
283.051	69.12
283.282	81.12
283.513	82.12
283.745	79.12
283.976	87.12
284.207	95.12
284.439	110.12
284.67	85.12
284.901	100.12
285.132	83.12
285.364	92.12
285.595	99.12
285.826	77.12
286.057	83.12
286.288	70.12
286.52	87.12
286.751	93.12
286.982	85.12
287.213	86.12
287.444	79.12
287.675	91.12
287.906	90.12
288.138	98.12
288.369	100.12
288.6	106.12
288.831	80.12
289.062	84.12
289.293	98.12
289.524	90.12
289.755	88.12
289.986	75.12
290.217	91.12
290.448	94.12
290.679	83.12
290.91	99.12
291.141	80.12
291.371	91.12
291.602	95.12
291.833	94.12
292.064	69.12
292.295	89.12
292.526	87.12
292.757	88.12
292.987	89.12
293.218	98.12
293.449	87.12
293.68	95.12
293.91	83.12
294.141	94.12
294.372	99.12
294.603	87.12
294.833	86.12
295.064	70.12
295.295	88.12
295.525	95.12
295.756	96.12
295.987	115.12
296.217	134.12
296.448	112.12
296.679	99.12
296.909	94.12
297.14	89.12
297.37	104.12
297.601	101.12
297.831	88.12
298.062	89.12
298.292	87.12
298.523	89.12
298.753	77.12
298.984	89.12
299.214	91.12
299.445	93.12
299.675	100.12
299.905	95.12
300.136	81.12
300.366	95.12
300.597	79.12
300.827	94.12
301.057	93.12
301.288	106.12
301.518	99.12
301.748	86.12
301.979	88.12
302.209	86.12
302.439	88.12
302.669	79.12
302.9	99.12
303.13	84.12
303.36	101.12
303.59	100.12
303.82	113.12
304.051	91.12
304.281	80.12
304.511	93.12
304.741	80.12
304.971	77.12
305.201	81.12
305.431	64.12
305.661	91.12
305.891	81.12
306.121	102.12
306.352	100.12
306.582	113.12
306.812	106.12
307.042	102.12
307.272	111.12
307.502	115.12
307.731	116.12
307.961	93.12
308.191	96.12
308.421	91.12
308.651	78.12
308.881	106.12
309.111	98.12
309.341	113.12
309.571	89.12
309.8	101.12
310.03	85.12
310.26	103.12
310.49	93.12
310.72	105.12
310.949	102.12
311.179	100.12
311.409	98.12
311.639	56.12
311.868	79.12
312.098	93.12
312.328	92.12
312.557	107.12
312.787	94.12
313.017	104.12
313.246	87.12
313.476	102.12
313.706	88.12
313.935	83.12
314.165	106.12
314.394	99.12
314.624	99.12
314.853	87.12
315.083	101.12
315.312	94.12
315.542	106.12
315.771	83.12
316.001	92.12
316.23	91.12
316.46	91.12
316.689	103.12
316.919	92.12
317.148	88.12
317.377	79.12
317.607	82.12
317.836	93.12
318.065	104.12
318.295	91.12
318.524	85.12
318.753	85.12
318.983	97.12
319.212	105.12
319.441	103.12
319.67	113.12
319.9	93.12
320.129	92.12
320.358	87.12
320.587	96.12
320.816	98.12
321.046	108.12
321.275	112.12
321.504	83.12
321.733	99.12
321.962	90.12
322.191	109.12
322.42	109.12
322.649	119.12
322.878	113.12
323.108	113.12
323.337	130.12
323.566	124.12
323.795	147.12
324.024	199.12
324.253	321.12
324.482	704.12
324.71	1434.12
324.939	1968.12
325.168	711.12
325.397	217.12
325.626	132.12
325.855	127.12
326.084	121.12
326.313	103.12
326.542	150.12
326.77	221.12
326.999	392.12
327.228	807.12
327.457	1493.12
327.686	1199.12
327.914	343.12
328.143	280.12
328.372	301.12
328.6	209.12
328.829	135.12
329.058	122.12
329.287	132.12
329.515	114.12
329.744	140.12
329.972	227.12
330.201	411.12
330.43	571.12
330.658	295.12
330.887	165.12
331.115	124.12
331.344	107.12
331.572	120.12
331.801	105.12
332.03	104.12
332.258	104.12
332.486	85.12
332.715	98.12
332.943	93.12
333.172	95.12
333.4	95.12
333.629	116.12
333.857	136.12
334.085	219.12
334.314	393.12
334.542	715.12
334.771	653.12
334.999	223.12
335.227	126.12
335.455	97.12
335.684	110.12
335.912	92.12
336.14	92.12
336.369	96.12
336.597	99.12
336.825	92.12
337.053	87.12
337.281	92.12
337.51	94.12
337.738	105.12
337.966	96.12
338.194	103.12
338.422	90.12
338.65	89.12
338.878	99.12
339.106	88.12
339.334	103.12
339.562	94.12
339.79	91.12
340.018	95.12
340.246	79.12
340.474	95.12
340.702	99.12
340.93	88.12
341.158	87.12
341.386	112.12
341.614	94.12
341.842	83.12
342.07	99.12
342.298	89.12
342.526	94.12
342.754	89.12
342.981	87.12
343.209	87.12
343.437	85.12
343.665	100.12
343.893	81.12
344.12	91.12
344.348	86.12
344.576	91.12
344.804	91.12
345.031	100.12
345.259	92.12
345.487	101.12
345.714	90.12
345.942	97.12
346.17	97.12
346.397	84.12
346.625	94.12
346.853	87.12
347.08	87.12
347.308	85.12
347.535	98.12
347.763	89.12
347.99	101.12
348.218	87.12
348.445	89.12
348.673	104.12
348.9	101.12
349.128	86.12
349.355	97.12
349.583	110.12
349.81	89.12
350.037	91.12
350.265	101.12
350.492	94.12
350.72	92.12
350.947	95.12
351.174	102.12
351.402	101.12
351.629	101.12
351.856	86.12
352.083	101.12
352.311	103.12
352.538	94.12
352.765	116.12
352.992	108.12
353.22	104.12
353.447	111.12
353.674	97.12
353.901	97.12
354.128	101.12
354.355	85.12
354.583	117.12
354.81	112.12
355.037	99.12
355.264	107.12
355.491	87.12
355.718	94.12
355.945	93.12
356.172	93.12
356.399	99.12
356.626	99.12
356.853	90.12
357.08	86.12
357.307	99.12
357.534	101.12
357.761	92.12
357.988	84.12
358.215	108.12
358.441	102.12
358.668	84.12
358.895	98.12
359.122	101.12
359.349	91.12
359.576	102.12
359.802	87.12
360.029	105.12
360.256	101.12
360.483	96.12
360.709	88.12
360.936	88.12
361.163	94.12
361.39	99.12
361.616	79.12
361.843	84.12
362.07	91.12
362.296	88.12
362.523	83.12
362.749	90.12
362.976	94.12
363.203	95.12
363.429	97.12
363.656	101.12
363.882	99.12
364.109	89.12
364.335	86.12
364.562	93.12
364.788	76.12
365.015	88.12
365.241	113.12
365.468	87.12
365.694	97.12
365.92	104.12
366.147	83.12
366.373	95.12
366.599	82.12
366.826	77.12
367.052	79.12
367.278	96.12
367.505	93.12
367.731	86.12
367.957	85.12
368.184	96.12
368.41	104.12
368.636	98.12
368.862	115.12
369.089	98.12
369.315	95.12
369.541	96.12
369.767	77.12
369.993	91.12
370.219	87.12
370.445	89.12
370.672	76.12
370.898	91.12
371.124	81.12
371.35	100.12
371.576	92.12
371.802	86.12
372.028	91.12
372.254	105.12
372.48	96.12
372.706	84.12
372.932	100.12
373.158	89.12
373.384	83.12
373.61	95.12
373.835	83.12
374.061	70.12
374.287	91.12
374.513	94.12
374.739	76.12
374.965	95.12
375.191	93.12
375.416	81.12
375.642	93.12
375.868	91.12
376.094	104.12
376.319	95.12
376.545	101.12
376.771	85.12
376.997	75.12
377.222	100.12
377.448	87.12
377.674	86.12
377.899	82.12
378.125	83.12
378.35	94.12
378.576	84.12
378.802	86.12
379.027	103.12
379.253	79.12
379.478	82.12
379.704	95.12
379.929	87.12
380.155	93.12
380.38	101.12
380.606	87.12
380.831	77.12
381.057	116.12
381.282	101.12
381.507	95.12
381.733	102.12
381.958	89.12
382.184	91.12
382.409	96.12
382.634	101.12
382.86	104.12
383.085	94.12
383.31	87.12
383.535	88.12
383.761	105.12
383.986	100.12
384.211	91.12
384.436	93.12
384.662	97.12
384.887	88.12
385.112	105.12
385.337	98.12
385.562	101.12
385.787	101.12
386.013	97.12
386.238	126.12
386.463	85.12
386.688	97.12
386.913	96.12
387.138	96.12
387.363	103.12
387.588	106.12
387.813	106.12
388.038	88.12
388.263	102.12
388.488	108.12
388.713	95.12
388.938	80.12
389.163	86.12
389.387	99.12
389.612	96.12
389.837	102.12
390.062	91.12
390.287	83.12
390.512	91.12
390.736	91.12
390.961	95.12
391.186	88.12
391.411	91.12
391.636	91.12
391.86	104.12
392.085	87.12
392.31	82.12
392.534	88.12
392.759	85.12
392.984	91.12
393.208	91.12
393.433	96.12
393.658	89.12
393.882	97.12
394.107	81.12
394.331	91.12
394.556	73.12
394.78	103.12
395.005	86.12
395.229	88.12
395.454	88.12
395.678	86.12
395.903	71.12
396.127	77.12
396.352	88.12
396.576	72.12
396.801	90.12
397.025	85.12
397.249	86.12
397.474	97.12
397.698	83.12
397.922	76.12
398.147	77.12
398.371	89.12
398.595	90.12
398.82	107.12
399.044	85.12
399.268	91.12
399.492	103.12
399.717	82.12
399.941	75.12
400.165	87.12
400.389	91.12
400.613	83.12
400.837	109.12
401.062	99.12
401.286	100.12
401.51	93.12
401.734	104.12
401.958	101.12
402.182	94.12
402.406	134.12
402.63	102.12
402.854	100.12
403.078	97.12
403.302	84.12
403.526	82.12
403.75	88.12
403.974	76.12
404.198	83.12
404.422	73.12
404.645	93.12
404.869	86.12
405.093	108.12
405.317	86.12
405.541	109.12
405.765	96.12
405.988	115.12
406.212	159.12
406.436	212.12
406.66	125.12
406.883	105.12
407.107	106.12
407.331	87.12
407.555	98.12
407.778	102.12
408.002	87.12
408.226	86.12
408.449	92.12
408.673	93.12
408.896	88.12
409.12	102.12
409.344	88.12
409.567	88.12
409.791	90.12
410.014	91.12
410.238	100.12
410.461	92.12
410.685	104.12
410.908	102.12
411.132	96.12
411.355	84.12
411.578	89.12
411.802	87.12
412.025	89.12
412.249	80.12
412.472	101.12
412.695	104.12
412.919	85.12
413.142	70.12
413.365	91.12
413.589	77.12
413.812	91.12
414.035	94.12
414.258	91.12
414.482	94.12
414.705	85.12
414.928	93.12
415.151	85.12
415.374	100.12
415.597	91.12
415.821	85.12
416.044	75.12
416.267	85.12
416.49	82.12
416.713	78.12
416.936	88.12
417.159	94.12
417.382	76.12
417.605	88.12
417.828	81.12
418.051	91.12
418.274	96.12
418.497	94.12
418.72	85.12
418.943	72.12
419.166	80.12
419.389	86.12
419.611	88.12
419.834	84.12
420.057	96.12
420.28	79.12
420.503	104.12
420.726	91.12
420.948	84.12
421.171	107.12
421.394	110.12
421.617	83.12
421.839	98.12
422.062	97.12
422.285	93.12
422.507	84.12
422.73	109.12
422.953	75.12
423.175	95.12
423.398	89.12
423.621	79.12
423.843	93.12
424.066	83.12
424.288	88.12
424.511	82.12
424.733	101.12
424.956	107.12
425.178	105.12
425.401	95.12
425.623	98.12
425.846	91.12
426.068	87.12
426.291	78.12
426.513	81.12
426.735	99.12
426.958	101.12
427.18	102.12
427.402	135.12
427.625	166.12
427.847	154.12
428.069	148.12
428.292	110.12
428.514	92.12
428.736	85.12
428.958	87.12
429.181	79.12
429.403	78.12
429.625	66.12
429.847	75.12
430.069	84.12
430.292	94.12
430.514	92.12
430.736	95.12
430.958	82.12
431.18	79.12
431.402	89.12
431.624	94.12
431.846	95.12
432.068	91.12
432.29	77.12
432.512	94.12
432.734	92.12
432.956	101.12
433.178	93.12
433.4	89.12
433.622	96.12
433.844	89.12
434.066	83.12
434.287	102.12
434.509	88.12
434.731	76.12
434.953	75.12
435.175	99.12
435.397	95.12
435.618	84.12
435.84	103.12
436.062	100.12
436.284	101.12
436.505	100.12
436.727	93.12
436.949	93.12
437.17	89.12
437.392	85.12
437.614	93.12
437.835	98.12
438.057	117.12
438.278	111.12
438.5	105.12
438.721	108.12
438.943	95.12
439.165	87.12
439.386	91.12
439.608	85.12
439.829	96.12
440.05	105.12
440.272	128.12
440.493	101.12
440.715	91.12
440.936	76.12
441.158	73.12
441.379	84.12
441.6	96.12
441.822	92.12
442.043	87.12
442.264	97.12
442.486	91.12
442.707	90.12
442.928	105.12
443.149	133.12
443.371	134.12
443.592	106.12
443.813	108.12
444.034	93.12
444.255	89.12
444.476	84.12
444.698	83.12
444.919	80.12
445.14	141.12
445.361	118.12
445.582	118.12
445.803	136.12
446.024	133.12
446.245	124.12
446.466	88.12
446.687	97.12
446.908	82.12
447.129	98.12
447.35	90.12
447.571	95.12
447.792	98.12
448.013	93.12
448.234	104.12
448.455	84.12
448.675	93.12
448.896	101.12
449.117	96.12
449.338	105.12
449.559	130.12
449.779	120.12
450	98.12
450.221	83.12
450.442	98.12
450.662	79.12
450.883	96.12
451.104	118.12
451.324	95.12
451.545	80.12
451.766	85.12
451.986	83.12
452.207	90.12
452.428	85.12
452.648	94.12
452.869	111.12
453.089	124.12
453.31	106.12
453.53	102.12
453.751	95.12
453.971	90.12
454.192	100.12
454.412	87.12
454.633	84.12
454.853	99.12
455.073	82.12
455.294	81.12
455.514	96.12
455.734	79.12
455.955	90.12
456.175	68.12
456.395	83.12
456.616	85.12
456.836	72.12
457.056	81.12
457.276	100.12
457.497	83.12
457.717	80.12
457.937	77.12
458.157	87.12
458.377	83.12
458.598	102.12
458.818	126.12
459.038	161.12
459.258	106.12
459.478	84.12
459.698	87.12
459.918	79.12
460.138	84.12
460.358	85.12
460.578	78.12
460.798	84.12
461.018	94.12
461.238	75.12
461.458	85.12
461.678	88.12
461.898	61.12
462.118	88.12
462.338	81.12
462.558	84.12
462.777	79.12
462.997	101.12
463.217	81.12
463.437	93.12
463.657	91.12
463.876	97.12
464.096	87.12
464.316	103.12
464.536	83.12
464.755	91.12
464.975	89.12
465.195	145.12
465.414	140.12
465.634	76.12
465.854	71.12
466.073	93.12
466.293	70.12
466.512	84.12
466.732	92.12
466.951	94.12
467.171	95.12
467.391	96.12
467.61	110.12
467.829	135.12
468.049	280.12
468.268	393.12
468.488	117.12
468.707	99.12
468.927	83.12
469.146	81.12
469.365	92.12
469.585	73.12
469.804	97.12
470.023	91.12
470.243	95.12
470.462	95.12
470.681	114.12
470.901	94.12
471.12	97.12
471.339	99.12
471.558	105.12
471.777	115.12
471.997	174.12
472.216	513.12
472.435	1045.12
472.654	287.12
472.873	104.12
473.092	90.12
473.311	94.12
473.53	95.12
473.749	93.12
473.968	88.12
474.187	107.12
474.406	109.12
474.625	69.12
474.844	96.12
475.063	91.12
475.282	95.12
475.501	85.12
475.72	83.12
475.939	89.12
476.158	86.12
476.377	102.12
476.596	81.12
476.814	97.12
477.033	96.12
477.252	101.12
477.471	81.12
477.69	90.12
477.908	92.12
478.127	91.12
478.346	93.12
478.564	102.12
478.783	111.12
479.002	95.12
479.22	88.12
479.439	108.12
479.658	107.12
479.876	89.12
480.095	95.12
480.313	111.12
480.532	128.12
480.751	161.12
480.969	486.12
481.188	1828.12
481.406	1051.12
481.624	220.12
481.843	102.12
482.061	77.12
482.28	91.12
482.498	83.12
482.717	80.12
482.935	94.12
483.153	88.12
483.372	83.12
483.59	81.12
483.808	95.12
484.027	95.12
484.245	103.12
484.463	95.12
484.681	97.12
484.9	77.12
485.118	87.12
485.336	94.12
485.554	91.12
485.772	87.12
485.99	95.12
486.209	115.12
486.427	98.12
486.645	101.12
486.863	99.12
487.081	81.12
487.299	109.12
487.517	95.12
487.735	94.12
487.953	84.12
488.171	73.12
488.389	97.12
488.607	104.12
488.825	102.12
489.043	83.12
489.261	91.12
489.479	87.12
489.696	83.12
489.914	92.12
490.132	99.12
490.35	91.12
490.568	94.12
490.786	84.12
491.003	99.12
491.221	91.12
491.439	102.12
491.657	81.12
491.874	93.12
492.092	104.12
492.31	85.12
492.527	91.12
492.745	87.12
492.963	84.12
493.18	86.12
493.398	98.12
493.615	88.12
493.833	96.12
494.05	98.12
494.268	81.12
494.485	87.12
494.703	92.12
494.92	85.12
495.138	80.12
495.355	81.12
495.573	86.12
495.79	95.12
496.008	86.12
496.225	72.12
496.442	76.12
496.66	91.12
496.877	81.12
497.094	87.12
497.312	99.12
497.529	96.12
497.746	96.12
497.963	87.12
498.181	81.12
498.398	79.12
498.615	100.12
498.832	102.12
499.049	84.12
499.267	107.12
499.484	105.12
499.701	91.12
499.918	88.12
500.135	88.12
500.352	87.12
500.569	88.12
500.786	92.12
501.003	87.12
501.22	80.12
501.437	83.12
501.654	98.12
501.871	116.12
502.088	92.12
502.305	81.12
502.522	95.12
502.739	86.12
502.956	101.12
503.172	78.12
503.389	94.12
503.606	106.12
503.823	102.12
504.04	85.12
504.256	63.12
504.473	70.12
504.69	90.12
504.907	104.12
505.123	91.12
505.34	89.12
505.557	86.12
505.773	100.12
505.99	95.12
506.207	77.12
506.423	80.12
506.64	82.12
506.856	81.12
507.073	79.12
507.289	100.12
507.506	94.12
507.722	121.12
507.939	104.12
508.155	95.12
508.372	69.12
508.588	87.12
508.805	94.12
509.021	101.12
509.238	92.12
509.454	95.12
509.67	92.12
509.887	101.12
510.103	111.12
510.319	189.12
510.536	581.12
510.752	1949.12
510.968	554.12
511.184	155.12
511.401	113.12
511.617	99.12
511.833	97.12
512.049	90.12
512.265	69.12
512.481	87.12
512.698	95.12
512.914	91.12
513.13	103.12
513.346	91.12
513.562	87.12
513.778	98.12
513.994	85.12
514.21	105.12
514.426	125.12
514.642	124.12
514.858	109.12
515.074	159.12
515.29	388.12
515.506	1303.12
