Data from Circ_1989_H10_HRD10591_00065.txt Node
Date: Wed Jan 03 12:01:34 EST 2024
User: Yrep
Spectrometer: HR+D1059
Trigger mode: 1
Integration Time (sec): 1.000000E-1
Scans to average: 1
Electric dark correction enabled: true
Nonlinearity correction enabled: false
Boxcar width: 0
XAxis mode: Wavelengths
Number of Pixels in Spectrum: 2048
>>>>>Begin Spectral Data<<<<<
223.165	-19
223.4	-19
223.635	-19
223.869	-26
224.104	-27
224.338	-13
224.573	-4
224.808	-16
225.042	3
225.277	1
225.511	-4
225.746	-9
225.98	7
226.215	13
226.449	20
226.683	23
226.918	22
227.152	29
227.387	38
227.621	36
227.856	43
228.09	35
228.324	40
228.559	53
228.793	55
229.027	66
229.262	61
229.496	61
229.73	74
229.964	69
230.199	67
230.433	82
230.667	87
230.901	83
231.136	78
231.37	82
231.604	78
231.838	71
232.072	80
232.306	81
232.541	84
232.775	85
233.009	86
233.243	79
233.477	91
233.711	91
233.945	88
234.179	81
234.413	74
234.647	76
234.881	78
235.115	80
235.349	81
235.583	70
235.817	71
236.051	90
236.285	74
236.519	84
236.753	74
236.987	78
237.221	82
237.455	79
237.689	85
237.922	78
238.156	86
238.39	70
238.624	84
238.858	67
239.091	71
239.325	78
239.559	68
239.793	65
240.027	78
240.26	74
240.494	80
240.728	64
240.961	78
241.195	80
241.429	70
241.662	68
241.896	88
242.13	68
242.363	83
242.597	62
242.83	76
243.064	79
243.298	66
243.531	70
243.765	70
243.998	65
244.232	71
244.465	88
244.699	77
244.932	80
245.166	62
245.399	69
245.633	79
245.866	79
246.099	79
246.333	74
246.566	64
246.8	58
247.033	77
247.266	88
247.5	76
247.733	70
247.966	84
248.2	71
248.433	86
248.666	86
248.899	76
249.133	77
249.366	87
249.599	93
249.832	85
250.066	86
250.299	71
250.532	84
250.765	78
250.998	82
251.231	74
251.465	79
251.698	71
251.931	79
252.164	84
252.397	64
252.63	76
252.863	70
253.096	88
253.329	74
253.562	91
253.795	85
254.028	80
254.261	87
254.494	74
254.727	78
254.96	85
255.193	75
255.426	83
255.659	91
255.892	83
256.124	80
256.357	92
256.59	74
256.823	84
257.056	83
257.289	104
257.521	76
257.754	74
257.987	74
258.22	66
258.452	90
258.685	79
258.918	77
259.151	79
259.383	92
259.616	75
259.849	77
260.081	75
260.314	90
260.547	78
260.779	83
261.012	84
261.244	94
261.477	85
261.71	88
261.942	101
262.175	107
262.407	77
262.64	69
262.872	89
263.105	86
263.337	92
263.57	86
263.802	76
264.035	78
264.267	76
264.499	87
264.732	83
264.964	88
265.197	86
265.429	89
265.661	96
265.894	82
266.126	91
266.358	82
266.591	78
266.823	74
267.055	78
267.287	79
267.52	84
267.752	87
267.984	85
268.216	82
268.448	74
268.681	91
268.913	85
269.145	74
269.377	80
269.609	81
269.841	94
270.073	85
270.306	78
270.538	90
270.77	76
271.002	83
271.234	75
271.466	88
271.698	97
271.93	96
272.162	82
272.394	86
272.626	93
272.858	100
273.09	88
273.322	78
273.553	89
273.785	70
274.017	90
274.249	99
274.481	77
274.713	82
274.945	84
275.176	93
275.408	103
275.64	99
275.872	90
276.104	100
276.335	90
276.567	82
276.799	110
277.031	105
277.262	122
277.494	109
277.726	95
277.957	91
278.189	83
278.421	83
278.652	60
278.884	78
279.115	84
279.347	94
279.579	78
279.81	90
280.042	107
280.273	140
280.505	113
280.736	93
280.968	76
281.199	90
281.431	83
281.662	91
281.894	96
282.125	87
282.356	100
282.588	114
282.819	93
283.051	84
283.282	73
283.513	76
283.745	91
283.976	86
284.207	98
284.439	90
284.67	94
284.901	89
285.132	84
285.364	97
285.595	83
285.826	82
286.057	92
286.288	86
286.52	90
286.751	99
286.982	71
287.213	74
287.444	76
287.675	81
287.906	95
288.138	84
288.369	105
288.6	82
288.831	86
289.062	79
289.293	86
289.524	79
289.755	71
289.986	92
290.217	97
290.448	79
290.679	83
290.91	95
291.141	67
291.371	101
291.602	90
291.833	76
292.064	77
292.295	98
292.526	85
292.757	91
292.987	88
293.218	89
293.449	85
293.68	92
293.91	90
294.141	90
294.372	87
294.603	84
294.833	95
295.064	85
295.295	76
295.525	91
295.756	85
295.987	111
296.217	114
296.448	99
296.679	86
296.909	94
297.14	100
297.37	102
297.601	76
297.831	80
298.062	93
298.292	96
298.523	80
298.753	86
298.984	69
299.214	86
299.445	74
299.675	74
299.905	88
300.136	96
300.366	90
300.597	96
300.827	77
301.057	87
301.288	90
301.518	92
301.748	91
301.979	92
302.209	81
302.439	89
302.669	91
302.9	87
303.13	76
303.36	92
303.59	102
303.82	114
304.051	95
304.281	86
304.511	87
304.741	82
304.971	86
305.201	89
305.431	85
305.661	86
305.891	72
306.121	84
306.352	99
306.582	81
306.812	101
307.042	102
307.272	108
307.502	101
307.731	116
307.961	102
308.191	92
308.421	91
308.651	74
308.881	94
309.111	96
309.341	105
309.571	103
309.8	85
310.03	85
310.26	93
310.49	87
310.72	97
310.949	95
311.179	100
311.409	93
311.639	81
311.868	101
312.098	97
312.328	91
312.557	95
312.787	95
313.017	96
313.246	102
313.476	74
313.706	99
313.935	91
314.165	102
314.394	99
314.624	81
314.853	95
315.083	80
315.312	90
315.542	90
315.771	93
316.001	86
316.23	102
316.46	106
316.689	86
316.919	96
317.148	86
317.377	95
317.607	95
317.836	99
318.065	85
318.295	67
318.524	82
318.753	98
318.983	84
319.212	90
319.441	100
319.67	103
319.9	95
320.129	89
320.358	80
320.587	79
320.816	96
321.046	97
321.275	91
321.504	95
321.733	70
321.962	92
322.191	104
322.42	110
322.649	92
322.878	104
323.108	108
323.337	107
323.566	109
323.795	131
324.024	191
324.253	326
324.482	680
324.71	1363
324.939	1880
325.168	679
325.397	202
325.626	139
325.855	109
326.084	118
326.313	125
326.542	148
326.77	196
326.999	379
327.228	780
327.457	1438
327.686	1198
327.914	348
328.143	266
328.372	279
328.6	186
328.829	119
329.058	124
329.287	133
329.515	125
329.744	134
329.972	232
330.201	413
330.43	533
330.658	294
330.887	154
331.115	111
331.344	106
331.572	104
331.801	93
332.03	105
332.258	91
332.486	98
332.715	95
332.943	91
333.172	81
333.4	104
333.629	118
333.857	146
334.085	221
334.314	367
334.542	704
334.771	654
334.999	204
335.227	103
335.455	95
335.684	96
335.912	99
336.14	96
336.369	108
336.597	100
336.825	118
337.053	89
337.281	83
337.51	87
337.738	99
337.966	92
338.194	92
338.422	87
338.65	95
338.878	93
339.106	98
339.334	90
339.562	103
339.79	85
340.018	80
340.246	96
340.474	93
340.702	90
340.93	92
341.158	87
341.386	81
341.614	97
341.842	93
342.07	85
342.298	93
342.526	102
342.754	90
342.981	82
343.209	82
343.437	96
343.665	79
343.893	85
344.12	90
344.348	82
344.576	85
344.804	92
345.031	90
345.259	96
345.487	92
345.714	84
345.942	91
346.17	90
346.397	83
346.625	94
346.853	92
347.08	77
347.308	105
347.535	97
347.763	96
347.99	98
348.218	95
348.445	100
348.673	95
348.9	96
349.128	86
349.355	75
349.583	96
349.81	85
350.037	91
350.265	91
350.492	84
350.72	110
350.947	84
351.174	102
351.402	104
351.629	100
351.856	92
352.083	103
352.311	108
352.538	106
352.765	90
352.992	88
353.22	99
353.447	103
353.674	109
353.901	85
354.128	94
354.355	101
354.583	101
354.81	101
355.037	90
355.264	95
355.491	95
355.718	94
355.945	77
356.172	95
356.399	100
356.626	88
356.853	82
357.08	94
357.307	88
357.534	93
357.761	90
357.988	88
358.215	98
358.441	76
358.668	95
358.895	78
359.122	88
359.349	80
359.576	91
359.802	96
360.029	91
360.256	114
360.483	87
360.709	93
360.936	80
361.163	88
361.39	99
361.616	92
361.843	79
362.07	91
362.296	91
362.523	84
362.749	91
362.976	85
363.203	78
363.429	88
363.656	85
363.882	85
364.109	96
364.335	85
364.562	81
364.788	87
365.015	88
365.241	111
365.468	86
365.694	101
365.92	80
366.147	80
366.373	87
366.599	94
366.826	79
367.052	72
367.278	77
367.505	86
367.731	88
367.957	90
368.184	98
368.41	95
368.636	108
368.862	110
369.089	101
369.315	89
369.541	92
369.767	97
369.993	90
370.219	94
370.445	102
370.672	100
370.898	86
371.124	84
371.35	88
371.576	88
371.802	76
372.028	99
372.254	92
372.48	79
372.706	99
372.932	85
373.158	109
373.384	75
373.61	86
373.835	78
374.061	93
374.287	98
374.513	93
374.739	85
374.965	82
375.191	75
375.416	82
375.642	90
375.868	78
376.094	72
376.319	88
376.545	95
376.771	94
376.997	87
377.222	95
377.448	92
377.674	84
377.899	83
378.125	83
378.35	94
378.576	90
378.802	97
379.027	98
379.253	90
379.478	87
379.704	97
379.929	84
380.155	85
380.38	88
380.606	83
380.831	80
381.057	88
381.282	95
381.507	83
381.733	95
381.958	85
382.184	85
382.409	89
382.634	102
382.86	88
383.085	96
383.31	103
383.535	89
383.761	89
383.986	91
384.211	89
384.436	103
384.662	102
384.887	91
385.112	94
385.337	82
385.562	98
385.787	103
386.013	113
386.238	107
386.463	88
386.688	108
386.913	102
387.138	106
387.363	91
387.588	94
387.813	93
388.038	106
388.263	110
388.488	109
388.713	71
388.938	102
389.163	92
389.387	97
389.612	95
389.837	82
390.062	87
390.287	83
390.512	91
390.736	94
390.961	86
391.186	70
391.411	79
391.636	81
391.86	93
392.085	84
392.31	82
392.534	92
392.759	67
392.984	84
393.208	84
393.433	90
393.658	92
393.882	81
394.107	82
394.331	90
394.556	80
394.78	87
395.005	67
395.229	95
395.454	98
395.678	90
395.903	91
396.127	93
396.352	75
396.576	89
396.801	82
397.025	87
397.249	82
397.474	76
397.698	89
397.922	96
398.147	94
398.371	86
398.595	87
398.82	94
399.044	84
399.268	89
399.492	94
399.717	91
399.941	94
400.165	95
400.389	82
400.613	90
400.837	85
401.062	84
401.286	90
401.51	82
401.734	95
401.958	95
402.182	99
402.406	113
402.63	109
402.854	70
403.078	89
403.302	80
403.526	78
403.75	87
403.974	77
404.198	100
404.422	76
404.645	80
404.869	90
405.093	105
405.317	102
405.541	112
405.765	106
405.988	103
406.212	133
406.436	183
406.66	124
406.883	110
407.107	95
407.331	86
407.555	95
407.778	103
408.002	104
408.226	94
408.449	81
408.673	74
408.896	99
409.12	99
409.344	84
409.567	90
409.791	94
410.014	82
410.238	69
410.461	89
410.685	97
410.908	95
411.132	107
411.355	100
411.578	88
411.802	82
412.025	92
412.249	97
412.472	95
412.695	119
412.919	85
413.142	96
413.365	83
413.589	90
413.812	80
414.035	84
414.258	67
414.482	89
414.705	88
414.928	81
415.151	96
415.374	93
415.597	78
415.821	82
416.044	91
416.267	97
416.49	97
416.713	98
416.936	88
417.159	86
417.382	63
417.605	88
417.828	88
418.051	101
418.274	103
418.497	84
418.72	91
418.943	101
419.166	65
419.389	91
419.611	84
419.834	89
420.057	90
420.28	78
420.503	97
420.726	83
420.948	86
421.171	79
421.394	89
421.617	92
421.839	80
422.062	83
422.285	93
422.507	93
422.73	112
422.953	85
423.175	109
423.398	67
423.621	99
423.843	88
424.066	97
424.288	80
424.511	77
424.733	111
424.956	117
425.178	99
425.401	106
425.623	98
425.846	82
426.068	77
426.291	88
426.513	98
426.735	91
426.958	87
427.18	96
427.402	129
427.625	143
427.847	137
428.069	143
428.292	91
428.514	92
428.736	87
428.958	78
429.181	94
429.403	94
429.625	80
429.847	92
430.069	103
430.292	77
430.514	96
430.736	87
430.958	85
431.18	95
431.402	92
431.624	92
431.846	85
432.068	84
432.29	81
432.512	74
432.734	82
432.956	83
433.178	94
433.4	93
433.622	81
433.844	85
434.066	102
434.287	104
434.509	81
434.731	74
434.953	86
435.175	87
435.397	86
435.618	95
435.84	92
436.062	119
436.284	112
436.505	100
436.727	95
436.949	88
437.17	90
437.392	84
437.614	87
437.835	88
438.057	116
438.278	98
438.5	90
438.721	114
438.943	92
439.165	78
439.386	65
439.608	95
439.829	94
440.05	124
440.272	132
440.493	104
440.715	84
440.936	81
441.158	88
441.379	86
441.6	81
441.822	82
442.043	88
442.264	102
442.486	101
442.707	95
442.928	99
443.149	119
443.371	107
443.592	96
443.813	103
444.034	100
444.255	91
444.476	82
444.698	94
444.919	90
445.14	128
445.361	124
445.582	103
445.803	119
446.024	118
446.245	125
446.466	98
446.687	79
446.908	92
447.129	87
447.35	99
447.571	95
447.792	95
448.013	87
448.234	109
448.455	91
448.675	100
448.896	113
449.117	98
449.338	92
449.559	123
449.779	106
450	92
450.221	91
450.442	92
450.662	76
450.883	92
451.104	94
451.324	92
451.545	83
451.766	97
451.986	75
452.207	96
452.428	79
452.648	91
452.869	101
453.089	100
453.31	110
453.53	85
453.751	87
453.971	90
454.192	87
454.412	77
454.633	84
454.853	81
455.073	77
455.294	91
455.514	95
455.734	91
455.955	72
456.175	82
456.395	82
456.616	70
456.836	88
457.056	83
457.276	78
457.497	76
457.717	76
457.937	85
458.157	93
458.377	79
458.598	101
458.818	114
459.038	140
459.258	101
459.478	95
459.698	84
459.918	78
460.138	88
460.358	96
460.578	74
460.798	80
461.018	97
461.238	80
461.458	78
461.678	66
461.898	83
462.118	94
462.338	78
462.558	95
462.777	83
462.997	90
463.217	89
463.437	80
463.657	82
463.876	80
464.096	87
464.316	94
464.536	74
464.755	88
464.975	97
465.195	141
465.414	128
465.634	90
465.854	80
466.073	98
466.293	95
466.512	80
466.732	85
466.951	90
467.171	91
467.391	95
467.61	109
467.829	130
468.049	248
468.268	367
468.488	127
468.707	86
468.927	86
469.146	84
469.365	89
469.585	81
469.804	82
470.023	87
470.243	88
470.462	92
470.681	99
470.901	93
471.12	97
471.339	83
471.558	93
471.777	119
471.997	175
472.216	481
472.435	996
472.654	257
472.873	102
473.092	93
473.311	84
473.53	90
473.749	93
473.968	87
474.187	91
474.406	87
474.625	91
474.844	99
475.063	89
475.282	87
475.501	83
475.72	88
475.939	83
476.158	70
476.377	95
476.596	86
476.814	81
477.033	93
477.252	89
477.471	95
477.69	103
477.908	86
478.127	99
478.346	86
478.564	95
478.783	91
479.002	81
479.22	88
479.439	106
479.658	84
479.876	98
480.095	104
480.313	102
480.532	98
480.751	174
480.969	453
481.188	1752
481.406	1036
481.624	201
481.843	103
482.061	100
482.28	93
482.498	84
482.717	74
482.935	92
483.153	90
483.372	93
483.59	82
483.808	85
484.027	84
484.245	92
484.463	98
484.681	92
484.9	86
485.118	85
485.336	93
485.554	96
485.772	90
485.99	98
486.209	95
486.427	98
486.645	95
486.863	109
487.081	112
487.299	93
487.517	111
487.735	99
487.953	104
488.171	101
488.389	82
488.607	98
488.825	84
489.043	85
489.261	102
489.479	93
489.696	75
489.914	87
490.132	92
490.35	87
490.568	72
490.786	82
491.003	87
491.221	100
491.439	98
491.657	95
491.874	92
492.092	92
492.31	93
492.527	92
492.745	89
492.963	85
493.18	81
493.398	93
493.615	97
493.833	93
494.05	96
494.268	93
494.485	92
494.703	85
494.92	92
495.138	80
495.355	93
495.573	76
495.79	97
496.008	100
496.225	90
496.442	88
496.66	93
496.877	97
497.094	108
497.312	95
497.529	93
497.746	90
497.963	84
498.181	90
498.398	107
498.615	111
498.832	117
499.049	90
499.267	97
499.484	87
499.701	86
499.918	87
500.135	97
500.352	84
500.569	85
500.786	91
501.003	92
501.22	92
501.437	83
501.654	71
501.871	95
502.088	94
502.305	86
502.522	79
502.739	93
502.956	91
503.172	87
503.389	92
503.606	85
503.823	95
504.04	104
504.256	97
504.473	93
504.69	107
504.907	87
505.123	74
505.34	85
505.557	91
505.773	94
505.99	95
506.207	81
506.423	86
506.64	102
506.856	74
507.073	93
507.289	94
507.506	92
507.722	97
507.939	104
508.155	98
508.372	78
508.588	90
508.805	84
509.021	91
509.238	116
509.454	99
509.67	95
509.887	103
510.103	130
510.319	184
510.536	558
510.752	1647
510.968	496
511.184	135
511.401	102
511.617	102
511.833	100
512.049	91
512.265	80
512.481	78
512.698	88
512.914	99
513.13	82
513.346	100
513.562	85
513.778	98
513.994	96
514.21	90
514.426	105
514.642	110
514.858	108
515.074	142
515.29	336
515.506	1070
515.721	411
515.937	127
516.153	101
516.369	101
516.585	94
516.801	90
517.016	74
517.232	96
517.448	99
517.664	83
517.879	96
518.095	103
518.311	90
518.527	104
518.742	90
518.958	84
519.173	87
519.389	93
519.605	92
519.82	89
520.036	106
520.251	102
520.467	94
520.682	93
520.898	103
521.113	85
521.329	110
521.544	166
521.76	406
521.975	1750
522.19	1036
522.406	252
522.621	108
522.836	91
523.052	110
523.267	78
523.482	81
523.698	72
523.913	119
524.128	99
524.343	91
524.559	95
524.774	104
524.989	94
525.204	94
525.419	85
525.634	87
525.849	83
526.064	86
526.28	81
526.495	100
526.71	94
526.925	95
527.14	103
527.355	80
527.57	75
527.785	98
527.999	83
528.214	85
528.429	99
528.644	94
528.859	80
529.074	77
529.289	123
529.503	133
529.718	97
529.933	81
530.148	92
530.363	107
530.577	84
530.792	93
531.007	84
531.221	91
531.436	92
531.651	85
531.865	87
532.08	87
532.295	79
532.509	89
532.724	96
532.938	90
533.153	101
533.367	95
533.582	84
533.796	82
534.011	83
534.225	77
534.44	93
534.654	92
534.868	85
535.083	97
535.297	96
535.511	92
535.726	87
535.94	80
536.154	89
536.369	83
536.583	82
536.797	95
537.011	96
537.225	86
537.44	86
537.654	89
537.868	91
538.082	100
538.296	80
538.51	76
538.724	76
538.938	91
539.153	94
539.367	96
539.581	100
539.795	82
540.009	99
540.222	85
540.436	93
540.65	89
540.864	82
541.078	89
541.292	99
541.506	93
541.72	91
541.934	76
542.147	87
542.361	75
542.575	79
542.789	89
543.002	78
543.216	87
543.43	109
543.644	86
543.857	90
544.071	96
544.285	101
544.498	107
544.712	87
544.925	83
545.139	87
545.352	75
545.566	81
545.779	82
545.993	90
546.206	96
546.42	87
546.633	80
546.847	87
547.06	79
547.274	96
547.487	99
547.7	87
547.914	101
548.127	85
548.34	104
548.554	71
548.767	63
548.98	94
549.193	84
549.407	81
549.62	90
549.833	86
550.046	89
550.259	80
550.473	81
550.686	85
550.899	97
551.112	99
551.325	80
551.538	80
551.751	92
551.964	95
552.177	105
552.39	87
552.603	90
552.816	83
553.029	100
553.242	76
553.455	94
553.667	108
553.88	94
554.093	82
554.306	88
554.519	77
554.732	81
554.944	101
555.157	93
555.37	84
555.583	94
555.795	92
556.008	84
556.221	88
556.433	93
556.646	98
556.859	86
557.071	86
557.284	85
557.496	84
557.709	75
557.921	84
558.134	104
558.346	87
558.559	85
558.771	91
558.984	82
559.196	83
559.409	88
559.621	93
559.833	100
560.046	88
560.258	85
560.47	88
560.683	88
560.895	80
561.107	87
561.32	79
561.532	70
561.744	79
561.956	67
562.168	93
562.381	106
562.593	88
562.805	96
563.017	86
563.229	91
563.441	86
563.653	90
563.865	94
564.077	76
564.289	90
564.501	96
564.713	88
564.925	100
565.137	93
565.349	101
565.561	65
565.773	91
565.985	78
566.197	78
566.408	77
566.62	90
566.832	77
567.044	85
567.255	86
567.467	80
567.679	95
567.891	94
568.102	99
568.314	82
568.526	80
568.737	88
568.949	98
569.161	100
569.372	74
569.584	95
569.795	92
570.007	110
570.218	182
570.43	115
570.641	91
570.853	88
571.064	95
571.276	86
571.487	89
571.698	82
571.91	91
572.121	90
572.333	63
572.544	86
572.755	85
572.966	76
573.178	76
573.389	93
573.6	96
573.811	88
574.023	83
574.234	100
574.445	84
574.656	55
574.867	71
575.078	96
575.289	94
575.501	80
575.712	88
575.923	77
576.134	85
576.345	84
576.556	71
576.767	92
576.978	94
577.188	81
577.399	89
577.61	85
577.821	90
578.032	109
578.243	196
578.454	528
578.665	164
578.875	86
579.086	87
579.297	92
579.508	83
579.718	92
579.929	83
580.14	90
580.35	99
580.561	91
580.772	86
580.982	100
581.193	96
581.403	90
581.614	75
581.825	84
582.035	80
582.246	67
582.456	78
582.667	82
582.877	86
583.087	76
583.298	86
583.508	85
583.719	91
583.929	90
584.139	80
584.35	90
584.56	103
584.77	105
584.981	90
585.191	78
585.401	91
