Data from Circ_1989_H10_HRD10591_00092.txt Node
Date: Wed Jan 03 12:01:40 EST 2024
User: Yrep
Spectrometer: HR+D1059
Trigger mode: 1
Integration Time (sec): 1.000000E-1
Scans to average: 1
Electric dark correction enabled: true
Nonlinearity correction enabled: false
Boxcar width: 0
XAxis mode: Wavelengths
Number of Pixels in Spectrum: 2048
>>>>>Begin Spectral Data<<<<<
223.165	-14.12
223.4	-14.12
223.635	-14.12
223.869	-28.12
224.104	-2.12
224.338	-14.12
224.573	-11.12
224.808	-18.12
225.042	-11.12
225.277	2.88
225.511	-10.12
225.746	-5.12
225.98	5.88
226.215	8.88
226.449	11.88
226.683	25.88
226.918	23.88
227.152	34.88
227.387	28.88
227.621	45.88
227.856	53.88
228.09	44.88
228.324	60.88
228.559	60.88
228.793	74.88
229.027	64.88
229.262	87.88
229.496	74.88
229.73	90.88
229.964	90.88
230.199	69.88
230.433	85.88
230.667	86.88
230.901	84.88
231.136	94.88
231.37	83.88
231.604	75.88
231.838	80.88
232.072	92.88
232.306	76.88
232.541	76.88
232.775	84.88
233.009	90.88
233.243	79.88
233.477	95.88
233.711	95.88
233.945	85.88
234.179	88.88
234.413	69.88
234.647	72.88
234.881	80.88
235.115	78.88
235.349	83.88
235.583	82.88
235.817	80.88
236.051	86.88
236.285	96.88
236.519	85.88
236.753	83.88
236.987	67.88
237.221	91.88
237.455	94.88
237.689	84.88
237.922	92.88
238.156	94.88
238.39	75.88
238.624	73.88
238.858	74.88
239.091	64.88
239.325	74.88
239.559	102.88
239.793	85.88
240.027	91.88
240.26	83.88
240.494	70.88
240.728	80.88
240.961	78.88
241.195	79.88
241.429	83.88
241.662	73.88
241.896	81.88
242.13	82.88
242.363	66.88
242.597	83.88
242.83	69.88
243.064	78.88
243.298	71.88
243.531	76.88
243.765	83.88
243.998	82.88
244.232	82.88
244.465	85.88
244.699	93.88
244.932	78.88
245.166	87.88
245.399	68.88
245.633	80.88
245.866	82.88
246.099	82.88
246.333	84.88
246.566	91.88
246.8	72.88
247.033	74.88
247.266	78.88
247.5	82.88
247.733	96.88
247.966	81.88
248.2	91.88
248.433	65.88
248.666	76.88
248.899	79.88
249.133	96.88
249.366	106.88
249.599	103.88
249.832	92.88
250.066	77.88
250.299	92.88
250.532	90.88
250.765	80.88
250.998	76.88
251.231	89.88
251.465	94.88
251.698	68.88
251.931	81.88
252.164	94.88
252.397	77.88
252.63	78.88
252.863	64.88
253.096	98.88
253.329	70.88
253.562	82.88
253.795	82.88
254.028	90.88
254.261	85.88
254.494	86.88
254.727	94.88
254.96	83.88
255.193	91.88
255.426	86.88
255.659	88.88
255.892	81.88
256.124	91.88
256.357	82.88
256.59	88.88
256.823	92.88
257.056	82.88
257.289	101.88
257.521	102.88
257.754	93.88
257.987	93.88
258.22	94.88
258.452	81.88
258.685	81.88
258.918	96.88
259.151	88.88
259.383	75.88
259.616	84.88
259.849	88.88
260.081	94.88
260.314	82.88
260.547	91.88
260.779	103.88
261.012	109.88
261.244	105.88
261.477	95.88
261.71	106.88
261.942	123.88
262.175	132.88
262.407	103.88
262.64	88.88
262.872	91.88
263.105	91.88
263.337	80.88
263.57	81.88
263.802	87.88
264.035	97.88
264.267	80.88
264.499	100.88
264.732	101.88
264.964	88.88
265.197	91.88
265.429	82.88
265.661	86.88
265.894	89.88
266.126	101.88
266.358	89.88
266.591	95.88
266.823	93.88
267.055	75.88
267.287	100.88
267.52	86.88
267.752	91.88
267.984	84.88
268.216	82.88
268.448	95.88
268.681	92.88
268.913	89.88
269.145	89.88
269.377	103.88
269.609	90.88
269.841	83.88
270.073	94.88
270.306	87.88
270.538	81.88
270.77	81.88
271.002	82.88
271.234	70.88
271.466	83.88
271.698	88.88
271.93	89.88
272.162	94.88
272.394	89.88
272.626	96.88
272.858	87.88
273.09	83.88
273.322	89.88
273.553	89.88
273.785	95.88
274.017	82.88
274.249	94.88
274.481	95.88
274.713	87.88
274.945	85.88
275.176	97.88
275.408	104.88
275.64	129.88
275.872	132.88
276.104	97.88
276.335	99.88
276.567	121.88
276.799	148.88
277.031	162.88
277.262	194.88
277.494	135.88
277.726	90.88
277.957	96.88
278.189	89.88
278.421	99.88
278.652	99.88
278.884	92.88
279.115	90.88
279.347	93.88
279.579	105.88
279.81	113.88
280.042	194.88
280.273	261.88
280.505	174.88
280.736	116.88
280.968	84.88
281.199	94.88
281.431	90.88
281.662	95.88
281.894	110.88
282.125	107.88
282.356	129.88
282.588	170.88
282.819	122.88
283.051	98.88
283.282	101.88
283.513	92.88
283.745	97.88
283.976	82.88
284.207	103.88
284.439	82.88
284.67	90.88
284.901	92.88
285.132	89.88
285.364	91.88
285.595	97.88
285.826	80.88
286.057	102.88
286.288	93.88
286.52	91.88
286.751	85.88
286.982	84.88
287.213	92.88
287.444	73.88
287.675	95.88
287.906	102.88
288.138	99.88
288.369	106.88
288.6	118.88
288.831	103.88
289.062	101.88
289.293	84.88
289.524	67.88
289.755	94.88
289.986	90.88
290.217	91.88
290.448	90.88
290.679	95.88
290.91	82.88
291.141	89.88
291.371	95.88
291.602	90.88
291.833	87.88
292.064	95.88
292.295	95.88
292.526	102.88
292.757	79.88
292.987	97.88
293.218	96.88
293.449	82.88
293.68	82.88
293.91	96.88
294.141	93.88
294.372	80.88
294.603	93.88
294.833	103.88
295.064	95.88
295.295	95.88
295.525	93.88
295.756	98.88
295.987	127.88
296.217	162.88
296.448	146.88
296.679	100.88
296.909	81.88
297.14	94.88
297.37	83.88
297.601	102.88
297.831	103.88
298.062	97.88
298.292	95.88
298.523	88.88
298.753	99.88
298.984	96.88
299.214	84.88
299.445	91.88
299.675	106.88
299.905	101.88
300.136	106.88
300.366	102.88
300.597	100.88
300.827	89.88
301.057	119.88
301.288	115.88
301.518	94.88
301.748	107.88
301.979	107.88
302.209	103.88
302.439	95.88
302.669	92.88
302.9	101.88
303.13	100.88
303.36	108.88
303.59	131.88
303.82	146.88
304.051	107.88
304.281	92.88
304.511	94.88
304.741	99.88
304.971	87.88
305.201	84.88
305.431	91.88
305.661	91.88
305.891	95.88
306.121	109.88
306.352	103.88
306.582	121.88
306.812	108.88
307.042	118.88
307.272	147.88
307.502	179.88
307.731	149.88
307.961	108.88
308.191	85.88
308.421	98.88
308.651	105.88
308.881	93.88
309.111	86.88
309.341	93.88
309.571	108.88
309.8	95.88
310.03	105.88
310.26	106.88
310.49	99.88
310.72	106.88
310.949	115.88
311.179	108.88
311.409	100.88
311.639	94.88
311.868	106.88
312.098	118.88
312.328	107.88
312.557	108.88
312.787	144.88
313.017	124.88
313.246	98.88
313.476	100.88
313.706	105.88
313.935	92.88
314.165	111.88
314.394	95.88
314.624	114.88
314.853	112.88
315.083	107.88
315.312	107.88
315.542	98.88
315.771	97.88
316.001	95.88
316.23	88.88
316.46	98.88
316.689	90.88
316.919	92.88
317.148	96.88
317.377	99.88
317.607	107.88
317.836	103.88
318.065	92.88
318.295	90.88
318.524	92.88
318.753	87.88
318.983	84.88
319.212	103.88
319.441	106.88
319.67	102.88
319.9	92.88
320.129	105.88
320.358	112.88
320.587	106.88
320.816	114.88
321.046	107.88
321.275	112.88
321.504	103.88
321.733	95.88
321.962	104.88
322.191	120.88
322.42	120.88
322.649	126.88
322.878	134.88
323.108	123.88
323.337	144.88
323.566	151.88
323.795	178.88
324.024	236.88
324.253	466.88
324.482	1042.88
324.71	2243.88
324.939	3046.88
325.168	1088.88
325.397	292.88
325.626	180.88
325.855	164.88
326.084	145.88
326.313	147.88
326.542	165.88
326.77	256.88
326.999	556.88
327.228	1186.88
327.457	2212.88
327.686	1812.88
327.914	579.88
328.143	508.88
328.372	614.88
328.6	354.88
328.829	188.88
329.058	183.88
329.287	186.88
329.515	184.88
329.744	262.88
329.972	432.88
330.201	948.88
330.43	1368.88
330.658	623.88
330.887	277.88
331.115	198.88
331.344	128.88
331.572	127.88
331.801	134.88
332.03	132.88
332.258	113.88
332.486	107.88
332.715	115.88
332.943	125.88
333.172	130.88
333.4	134.88
333.629	172.88
333.857	236.88
334.085	388.88
334.314	855.88
334.542	1732.88
334.771	1635.88
334.999	437.88
335.227	196.88
335.455	124.88
335.684	119.88
335.912	115.88
336.14	111.88
336.369	120.88
336.597	119.88
336.825	134.88
337.053	111.88
337.281	114.88
337.51	98.88
337.738	103.88
337.966	119.88
338.194	123.88
338.422	101.88
338.65	84.88
338.878	100.88
339.106	99.88
339.334	98.88
339.562	104.88
339.79	100.88
340.018	90.88
340.246	110.88
340.474	112.88
340.702	113.88
340.93	91.88
341.158	94.88
341.386	91.88
341.614	110.88
341.842	102.88
342.07	106.88
342.298	107.88
342.526	106.88
342.754	100.88
342.981	94.88
343.209	105.88
343.437	123.88
343.665	83.88
343.893	89.88
344.12	97.88
344.348	98.88
344.576	104.88
344.804	105.88
345.031	129.88
345.259	114.88
345.487	112.88
345.714	111.88
345.942	102.88
346.17	97.88
346.397	98.88
346.625	89.88
346.853	111.88
347.08	100.88
347.308	108.88
347.535	108.88
347.763	100.88
347.99	84.88
348.218	105.88
348.445	114.88
348.673	114.88
348.9	107.88
349.128	109.88
349.355	88.88
349.583	103.88
349.81	108.88
350.037	92.88
350.265	112.88
350.492	99.88
350.72	111.88
350.947	111.88
351.174	127.88
351.402	124.88
351.629	116.88
351.856	106.88
352.083	98.88
352.311	114.88
352.538	132.88
352.765	124.88
352.992	125.88
353.22	112.88
353.447	110.88
353.674	104.88
353.901	97.88
354.128	86.88
354.355	98.88
354.583	97.88
354.81	104.88
355.037	94.88
355.264	99.88
355.491	102.88
355.718	89.88
355.945	98.88
356.172	105.88
356.399	82.88
356.626	69.88
356.853	85.88
357.08	98.88
357.307	105.88
357.534	87.88
357.761	87.88
357.988	96.88
358.215	93.88
358.441	104.88
358.668	102.88
358.895	98.88
359.122	89.88
359.349	115.88
359.576	103.88
359.802	101.88
360.029	131.88
360.256	131.88
360.483	112.88
360.709	101.88
360.936	95.88
361.163	115.88
361.39	112.88
361.616	112.88
361.843	105.88
362.07	94.88
362.296	85.88
362.523	100.88
362.749	89.88
362.976	95.88
363.203	98.88
363.429	93.88
363.656	96.88
363.882	90.88
364.109	96.88
364.335	105.88
364.562	94.88
364.788	105.88
365.015	107.88
365.241	107.88
365.468	117.88
365.694	135.88
365.92	90.88
366.147	92.88
366.373	89.88
366.599	110.88
366.826	100.88
367.052	82.88
367.278	89.88
367.505	104.88
367.731	104.88
367.957	89.88
368.184	108.88
368.41	121.88
368.636	111.88
368.862	107.88
369.089	117.88
369.315	106.88
369.541	83.88
369.767	103.88
369.993	95.88
370.219	103.88
370.445	84.88
370.672	95.88
370.898	102.88
371.124	93.88
371.35	83.88
371.576	82.88
371.802	81.88
372.028	74.88
372.254	96.88
372.48	98.88
372.706	86.88
372.932	98.88
373.158	85.88
373.384	89.88
373.61	96.88
373.835	99.88
374.061	88.88
374.287	97.88
374.513	96.88
374.739	95.88
374.965	95.88
375.191	101.88
375.416	98.88
375.642	78.88
375.868	82.88
376.094	86.88
376.319	76.88
376.545	82.88
376.771	88.88
376.997	97.88
377.222	95.88
377.448	96.88
377.674	104.88
377.899	84.88
378.125	98.88
378.35	92.88
378.576	94.88
378.802	105.88
379.027	94.88
379.253	110.88
379.478	94.88
379.704	95.88
379.929	88.88
380.155	89.88
380.38	88.88
380.606	96.88
380.831	99.88
381.057	94.88
381.282	98.88
381.507	91.88
381.733	98.88
381.958	93.88
382.184	99.88
382.409	94.88
382.634	98.88
382.86	101.88
383.085	105.88
383.31	100.88
383.535	96.88
383.761	102.88
383.986	104.88
384.211	98.88
384.436	103.88
384.662	107.88
384.887	110.88
385.112	94.88
385.337	100.88
385.562	100.88
385.787	91.88
386.013	112.88
386.238	115.88
386.463	102.88
386.688	118.88
386.913	107.88
387.138	122.88
387.363	104.88
387.588	101.88
387.813	103.88
388.038	110.88
388.263	110.88
388.488	106.88
388.713	99.88
388.938	101.88
389.163	107.88
389.387	87.88
389.612	97.88
389.837	99.88
390.062	96.88
390.287	92.88
390.512	91.88
390.736	94.88
390.961	105.88
391.186	90.88
391.411	96.88
391.636	87.88
391.86	86.88
392.085	98.88
392.31	79.88
392.534	86.88
392.759	98.88
392.984	98.88
393.208	80.88
393.433	106.88
393.658	102.88
393.882	101.88
394.107	81.88
394.331	95.88
394.556	87.88
394.78	92.88
395.005	86.88
395.229	82.88
395.454	99.88
395.678	97.88
395.903	91.88
396.127	84.88
396.352	91.88
396.576	85.88
396.801	90.88
397.025	98.88
397.249	96.88
397.474	86.88
397.698	87.88
397.922	85.88
398.147	92.88
398.371	96.88
398.595	97.88
398.82	95.88
399.044	92.88
399.268	95.88
399.492	84.88
399.717	99.88
399.941	91.88
400.165	95.88
400.389	113.88
400.613	94.88
400.837	96.88
401.062	98.88
401.286	88.88
401.51	98.88
401.734	102.88
401.958	108.88
402.182	135.88
402.406	207.88
402.63	148.88
402.854	118.88
403.078	93.88
403.302	89.88
403.526	97.88
403.75	94.88
403.974	101.88
404.198	99.88
404.422	101.88
404.645	95.88
404.869	117.88
405.093	124.88
405.317	143.88
405.541	126.88
405.765	127.88
405.988	136.88
406.212	207.88
406.436	296.88
406.66	197.88
406.883	135.88
407.107	100.88
407.331	105.88
407.555	103.88
407.778	101.88
408.002	108.88
408.226	92.88
408.449	105.88
408.673	91.88
408.896	104.88
409.12	111.88
409.344	100.88
409.567	80.88
409.791	94.88
410.014	96.88
410.238	101.88
410.461	108.88
410.685	120.88
410.908	100.88
411.132	114.88
411.355	105.88
411.578	94.88
411.802	98.88
412.025	97.88
412.249	101.88
412.472	120.88
412.695	142.88
412.919	124.88
413.142	95.88
413.365	94.88
413.589	96.88
413.812	95.88
414.035	100.88
414.258	95.88
414.482	101.88
414.705	90.88
414.928	90.88
415.151	108.88
415.374	103.88
415.597	93.88
415.821	82.88
416.044	92.88
416.267	90.88
416.49	86.88
416.713	92.88
416.936	92.88
417.159	95.88
417.382	99.88
417.605	108.88
417.828	102.88
418.051	98.88
418.274	107.88
418.497	114.88
418.72	96.88
418.943	88.88
419.166	91.88
419.389	104.88
419.611	97.88
419.834	103.88
420.057	101.88
420.28	91.88
420.503	98.88
420.726	83.88
420.948	105.88
421.171	112.88
421.394	110.88
421.617	103.88
421.839	95.88
422.062	101.88
422.285	102.88
422.507	100.88
422.73	117.88
422.953	108.88
423.175	94.88
423.398	96.88
423.621	96.88
423.843	83.88
424.066	91.88
424.288	96.88
424.511	94.88
424.733	108.88
424.956	123.88
425.178	115.88
425.401	107.88
425.623	126.88
425.846	92.88
426.068	96.88
426.291	89.88
426.513	94.88
426.735	105.88
426.958	101.88
427.18	118.88
427.402	172.88
427.625	254.88
427.847	244.88
428.069	232.88
428.292	133.88
428.514	104.88
428.736	103.88
428.958	98.88
429.181	100.88
429.403	98.88
429.625	83.88
429.847	110.88
430.069	116.88
430.292	111.88
430.514	85.88
430.736	92.88
430.958	90.88
431.18	84.88
431.402	81.88
431.624	91.88
431.846	73.88
432.068	100.88
432.29	97.88
432.512	107.88
432.734	103.88
432.956	105.88
433.178	105.88
433.4	104.88
433.622	118.88
433.844	93.88
434.066	90.88
434.287	99.88
434.509	88.88
434.731	94.88
434.953	103.88
435.175	87.88
435.397	106.88
435.618	91.88
435.84	127.88
436.062	149.88
436.284	142.88
436.505	117.88
436.727	109.88
436.949	108.88
437.17	94.88
437.392	96.88
437.614	97.88
437.835	116.88
438.057	157.88
438.278	135.88
438.5	115.88
438.721	137.88
438.943	106.88
439.165	92.88
439.386	96.88
439.608	104.88
439.829	117.88
440.05	152.88
440.272	207.88
440.493	120.88
440.715	92.88
440.936	98.88
441.158	98.88
441.379	104.88
441.6	108.88
441.822	115.88
442.043	101.88
442.264	113.88
442.486	107.88
442.707	100.88
442.928	133.88
443.149	176.88
443.371	179.88
443.592	148.88
443.813	144.88
444.034	131.88
444.255	82.88
444.476	84.88
444.698	83.88
444.919	95.88
445.14	136.88
445.361	144.88
445.582	139.88
445.803	200.88
446.024	179.88
446.245	165.88
446.466	125.88
446.687	99.88
446.908	101.88
447.129	81.88
447.35	83.88
447.571	103.88
447.792	97.88
448.013	102.88
448.234	119.88
448.455	104.88
448.675	133.88
448.896	132.88
449.117	123.88
449.338	131.88
449.559	167.88
449.779	167.88
450	94.88
450.221	84.88
450.442	107.88
450.662	114.88
450.883	117.88
451.104	142.88
451.324	105.88
451.545	88.88
451.766	99.88
451.986	84.88
452.207	94.88
452.428	96.88
452.648	103.88
452.869	121.88
453.089	138.88
453.31	143.88
453.53	101.88
453.751	111.88
453.971	126.88
454.192	134.88
454.412	112.88
454.633	111.88
454.853	98.88
455.073	91.88
455.294	97.88
455.514	105.88
455.734	93.88
455.955	82.88
456.175	102.88
456.395	83.88
456.616	88.88
456.836	94.88
457.056	94.88
457.276	89.88
457.497	97.88
457.717	99.88
457.937	96.88
458.157	85.88
458.377	102.88
458.598	118.88
458.818	211.88
459.038	235.88
459.258	146.88
459.478	107.88
459.698	107.88
459.918	102.88
460.138	84.88
460.358	87.88
460.578	103.88
460.798	100.88
461.018	102.88
461.238	96.88
461.458	80.88
461.678	84.88
461.898	96.88
462.118	64.88
462.338	103.88
462.558	93.88
462.777	90.88
462.997	103.88
463.217	114.88
463.437	104.88
463.657	89.88
463.876	96.88
464.096	104.88
464.316	101.88
464.536	111.88
464.755	114.88
464.975	122.88
465.195	252.88
465.414	219.88
465.634	119.88
465.854	102.88
466.073	98.88
466.293	102.88
466.512	97.88
466.732	94.88
466.951	112.88
467.171	119.88
467.391	103.88
467.61	146.88
467.829	200.88
468.049	518.88
468.268	790.88
468.488	222.88
468.707	114.88
468.927	90.88
469.146	111.88
469.365	97.88
469.585	112.88
469.804	99.88
470.023	94.88
470.243	95.88
470.462	99.88
470.681	133.88
470.901	107.88
471.12	101.88
471.339	95.88
471.558	112.88
471.777	146.88
471.997	282.88
472.216	1027.88
472.435	2406.88
472.654	540.88
472.873	164.88
473.092	130.88
473.311	99.88
473.53	78.88
473.749	97.88
473.968	101.88
474.187	112.88
474.406	119.88
474.625	94.88
474.844	91.88
475.063	91.88
475.282	86.88
475.501	78.88
475.72	95.88
475.939	98.88
476.158	93.88
476.377	97.88
476.596	107.88
476.814	106.88
477.033	96.88
477.252	96.88
477.471	99.88
477.69	84.88
477.908	100.88
478.127	98.88
478.346	99.88
478.564	112.88
478.783	100.88
479.002	99.88
479.22	102.88
479.439	108.88
479.658	132.88
479.876	115.88
480.095	129.88
480.313	124.88
480.532	172.88
480.751	276.88
480.969	888.88
481.188	4091.88
481.406	2303.88
481.624	360.88
481.843	160.88
482.061	107.88
482.28	99.88
482.498	99.88
482.717	90.88
482.935	101.88
483.153	95.88
483.372	88.88
483.59	91.88
483.808	86.88
484.027	86.88
484.245	99.88
484.463	99.88
484.681	107.88
484.9	89.88
485.118	94.88
485.336	110.88
485.554	93.88
485.772	99.88
485.99	119.88
486.209	100.88
486.427	102.88
486.645	108.88
486.863	130.88
487.081	102.88
487.299	101.88
487.517	88.88
487.735	96.88
487.953	98.88
488.171	97.88
488.389	104.88
488.607	103.88
488.825	96.88
489.043	100.88
489.261	91.88
489.479	93.88
489.696	97.88
489.914	99.88
490.132	102.88
490.35	96.88
490.568	110.88
490.786	82.88
491.003	92.88
491.221	90.88
491.439	98.88
491.657	103.88
491.874	93.88
492.092	92.88
492.31	104.88
492.527	94.88
492.745	87.88
492.963	93.88
493.18	104.88
493.398	99.88
493.615	104.88
493.833	110.88
494.05	98.88
494.268	101.88
494.485	92.88
494.703	95.88
494.92	90.88
495.138	88.88
495.355	86.88
495.573	102.88
495.79	104.88
496.008	101.88
496.225	88.88
496.442	91.88
496.66	105.88
496.877	101.88
497.094	87.88
497.312	100.88
497.529	101.88
497.746	102.88
497.963	90.88
498.181	99.88
498.398	95.88
498.615	115.88
498.832	117.88
499.049	102.88
499.267	84.88
499.484	88.88
499.701	89.88
499.918	107.88
500.135	97.88
500.352	94.88
500.569	91.88
500.786	88.88
501.003	86.88
501.22	91.88
501.437	98.88
501.654	105.88
501.871	121.88
502.088	110.88
502.305	89.88
502.522	81.88
502.739	101.88
502.956	86.88
503.172	90.88
503.389	101.88
503.606	130.88
503.823	118.88
504.04	92.88
504.256	102.88
504.473	93.88
504.69	110.88
504.907	92.88
505.123	102.88
505.34	96.88
505.557	106.88
505.773	98.88
505.99	95.88
506.207	99.88
506.423	101.88
506.64	86.88
506.856	100.88
507.073	93.88
507.289	95.88
507.506	114.88
507.722	122.88
507.939	131.88
508.155	96.88
508.372	95.88
508.588	99.88
508.805	98.88
509.021	108.88
509.238	98.88
509.454	107.88
509.67	105.88
509.887	106.88
510.103	131.88
510.319	219.88
510.536	822.88
510.752	2846.88
510.968	778.88
511.184	171.88
511.401	139.88
511.617	112.88
