Data from Circ_1989_H10_HRD10591_00042.txt Node
Date: Wed Jan 03 12:01:30 EST 2024
User: Yrep
Spectrometer: HR+D1059
Trigger mode: 1
Integration Time (sec): 1.000000E-1
Scans to average: 1
Electric dark correction enabled: true
Nonlinearity correction enabled: false
Boxcar width: 0
XAxis mode: Wavelengths
Number of Pixels in Spectrum: 2048
>>>>>Begin Spectral Data<<<<<
223.165	-21.44
223.4	-21.44
223.635	-21.44
223.869	-18.44
224.104	-11.44
224.338	-17.44
224.573	-0.44
224.808	-13.44
225.042	-8.44
225.277	-10.44
225.511	-13.44
225.746	0.56
225.98	9.56
226.215	3.56
226.449	22.56
226.683	31.56
226.918	14.56
227.152	32.56
227.387	26.56
227.621	50.56
227.856	50.56
228.09	47.56
228.324	56.56
228.559	49.56
228.793	65.56
229.027	62.56
229.262	51.56
229.496	74.56
229.73	88.56
229.964	92.56
230.199	71.56
230.433	84.56
230.667	92.56
230.901	77.56
231.136	73.56
231.37	77.56
231.604	80.56
231.838	78.56
232.072	90.56
232.306	86.56
232.541	87.56
232.775	78.56
233.009	92.56
233.243	84.56
233.477	86.56
233.711	84.56
233.945	78.56
234.179	80.56
234.413	79.56
234.647	92.56
234.881	82.56
235.115	67.56
235.349	76.56
235.583	77.56
235.817	92.56
236.051	98.56
236.285	65.56
236.519	86.56
236.753	86.56
236.987	82.56
237.221	79.56
237.455	81.56
237.689	86.56
237.922	82.56
238.156	59.56
238.39	67.56
238.624	80.56
238.858	86.56
239.091	69.56
239.325	73.56
239.559	79.56
239.793	88.56
240.027	76.56
240.26	72.56
240.494	78.56
240.728	81.56
240.961	71.56
241.195	70.56
241.429	71.56
241.662	79.56
241.896	73.56
242.13	85.56
242.363	69.56
242.597	72.56
242.83	70.56
243.064	92.56
243.298	81.56
243.531	74.56
243.765	84.56
243.998	79.56
244.232	81.56
244.465	86.56
244.699	84.56
244.932	72.56
245.166	84.56
245.399	98.56
245.633	75.56
245.866	83.56
246.099	95.56
246.333	97.56
246.566	77.56
246.8	88.56
247.033	73.56
247.266	80.56
247.5	82.56
247.733	72.56
247.966	89.56
248.2	79.56
248.433	76.56
248.666	94.56
248.899	80.56
249.133	87.56
249.366	96.56
249.599	86.56
249.832	81.56
250.066	85.56
250.299	90.56
250.532	86.56
250.765	74.56
250.998	79.56
251.231	73.56
251.465	78.56
251.698	90.56
251.931	102.56
252.164	69.56
252.397	88.56
252.63	78.56
252.863	70.56
253.096	82.56
253.329	78.56
253.562	85.56
253.795	71.56
254.028	80.56
254.261	78.56
254.494	85.56
254.727	89.56
254.96	89.56
255.193	78.56
255.426	82.56
255.659	87.56
255.892	87.56
256.124	80.56
256.357	93.56
256.59	85.56
256.823	90.56
257.056	74.56
257.289	80.56
257.521	61.56
257.754	86.56
257.987	72.56
258.22	96.56
258.452	72.56
258.685	85.56
258.918	79.56
259.151	77.56
259.383	86.56
259.616	80.56
259.849	79.56
260.081	98.56
260.314	82.56
260.547	87.56
260.779	87.56
261.012	96.56
261.244	78.56
261.477	72.56
261.71	78.56
261.942	108.56
262.175	122.56
262.407	95.56
262.64	86.56
262.872	84.56
263.105	82.56
263.337	80.56
263.57	96.56
263.802	89.56
264.035	82.56
264.267	88.56
264.499	80.56
264.732	73.56
264.964	88.56
265.197	85.56
265.429	76.56
265.661	76.56
265.894	86.56
266.126	90.56
266.358	85.56
266.591	78.56
266.823	60.56
267.055	92.56
267.287	92.56
267.52	85.56
267.752	84.56
267.984	92.56
268.216	85.56
268.448	88.56
268.681	82.56
268.913	84.56
269.145	77.56
269.377	80.56
269.609	82.56
269.841	91.56
270.073	69.56
270.306	92.56
270.538	101.56
270.77	81.56
271.002	91.56
271.234	71.56
271.466	89.56
271.698	84.56
271.93	94.56
272.162	105.56
272.394	80.56
272.626	94.56
272.858	90.56
273.09	92.56
273.322	76.56
273.553	79.56
273.785	73.56
274.017	94.56
274.249	84.56
274.481	95.56
274.713	97.56
274.945	74.56
275.176	92.56
275.408	68.56
275.64	93.56
275.872	84.56
276.104	86.56
276.335	95.56
276.567	106.56
276.799	108.56
277.031	124.56
277.262	110.56
277.494	99.56
277.726	88.56
277.957	80.56
278.189	73.56
278.421	87.56
278.652	82.56
278.884	91.56
279.115	72.56
279.347	85.56
279.579	79.56
279.81	101.56
280.042	109.56
280.273	137.56
280.505	108.56
280.736	106.56
280.968	87.56
281.199	78.56
281.431	81.56
281.662	98.56
281.894	105.56
282.125	99.56
282.356	111.56
282.588	131.56
282.819	99.56
283.051	92.56
283.282	88.56
283.513	85.56
283.745	85.56
283.976	90.56
284.207	89.56
284.439	80.56
284.67	92.56
284.901	94.56
285.132	86.56
285.364	83.56
285.595	80.56
285.826	79.56
286.057	85.56
286.288	81.56
286.52	81.56
286.751	101.56
286.982	89.56
287.213	81.56
287.444	88.56
287.675	92.56
287.906	92.56
288.138	96.56
288.369	81.56
288.6	88.56
288.831	81.56
289.062	94.56
289.293	80.56
289.524	92.56
289.755	78.56
289.986	90.56
290.217	88.56
290.448	92.56
290.679	95.56
290.91	85.56
291.141	78.56
291.371	82.56
291.602	84.56
291.833	97.56
292.064	103.56
292.295	84.56
292.526	84.56
292.757	82.56
292.987	89.56
293.218	84.56
293.449	76.56
293.68	87.56
293.91	89.56
294.141	95.56
294.372	98.56
294.603	86.56
294.833	103.56
295.064	94.56
295.295	104.56
295.525	101.56
295.756	100.56
295.987	101.56
296.217	112.56
296.448	125.56
296.679	98.56
296.909	83.56
297.14	76.56
297.37	99.56
297.601	96.56
297.831	104.56
298.062	79.56
298.292	95.56
298.523	97.56
298.753	97.56
298.984	87.56
299.214	97.56
299.445	85.56
299.675	90.56
299.905	91.56
300.136	83.56
300.366	92.56
300.597	84.56
300.827	85.56
301.057	94.56
301.288	102.56
301.518	88.56
301.748	106.56
301.979	86.56
302.209	91.56
302.439	76.56
302.669	78.56
302.9	96.56
303.13	103.56
303.36	102.56
303.59	100.56
303.82	112.56
304.051	92.56
304.281	75.56
304.511	86.56
304.741	87.56
304.971	74.56
305.201	92.56
305.431	104.56
305.661	77.56
305.891	83.56
306.121	97.56
306.352	112.56
306.582	103.56
306.812	108.56
307.042	105.56
307.272	104.56
307.502	104.56
307.731	122.56
307.961	102.56
308.191	87.56
308.421	92.56
308.651	87.56
308.881	92.56
309.111	85.56
309.341	90.56
309.571	92.56
309.8	98.56
310.03	87.56
310.26	92.56
310.49	102.56
310.72	97.56
310.949	98.56
311.179	97.56
311.409	88.56
311.639	93.56
311.868	105.56
312.098	94.56
312.328	94.56
312.557	106.56
312.787	104.56
313.017	98.56
313.246	85.56
313.476	99.56
313.706	101.56
313.935	92.56
314.165	101.56
314.394	101.56
314.624	96.56
314.853	85.56
315.083	86.56
315.312	103.56
315.542	94.56
315.771	100.56
316.001	87.56
316.23	99.56
316.46	100.56
316.689	81.56
316.919	81.56
317.148	96.56
317.377	106.56
317.607	101.56
317.836	85.56
318.065	89.56
318.295	83.56
318.524	99.56
318.753	92.56
318.983	87.56
319.212	96.56
319.441	111.56
319.67	115.56
319.9	87.56
320.129	80.56
320.358	88.56
320.587	100.56
320.816	93.56
321.046	116.56
321.275	106.56
321.504	105.56
321.733	94.56
321.962	92.56
322.191	94.56
322.42	92.56
322.649	106.56
322.878	113.56
323.108	112.56
323.337	105.56
323.566	122.56
323.795	146.56
324.024	181.56
324.253	328.56
324.482	709.56
324.71	1426.56
324.939	1888.56
325.168	716.56
325.397	224.56
325.626	134.56
325.855	131.56
326.084	112.56
326.313	113.56
326.542	146.56
326.77	212.56
326.999	398.56
327.228	789.56
327.457	1459.56
327.686	1196.56
327.914	366.56
328.143	268.56
328.372	285.56
328.6	192.56
328.829	127.56
329.058	141.56
329.287	129.56
329.515	106.56
329.744	158.56
329.972	220.56
330.201	379.56
330.43	532.56
330.658	261.56
330.887	146.56
331.115	133.56
331.344	103.56
331.572	104.56
331.801	99.56
332.03	126.56
332.258	104.56
332.486	94.56
332.715	93.56
332.943	94.56
333.172	120.56
333.4	103.56
333.629	124.56
333.857	149.56
334.085	216.56
334.314	381.56
334.542	683.56
334.771	631.56
334.999	218.56
335.227	127.56
335.455	107.56
335.684	125.56
335.912	94.56
336.14	84.56
336.369	101.56
336.597	111.56
336.825	93.56
337.053	100.56
337.281	109.56
337.51	97.56
337.738	93.56
337.966	95.56
338.194	102.56
338.422	90.56
338.65	88.56
338.878	101.56
339.106	93.56
339.334	101.56
339.562	99.56
339.79	84.56
340.018	84.56
340.246	85.56
340.474	96.56
340.702	95.56
340.93	88.56
341.158	81.56
341.386	86.56
341.614	108.56
341.842	78.56
342.07	89.56
342.298	66.56
342.526	85.56
342.754	75.56
342.981	97.56
343.209	95.56
343.437	101.56
343.665	82.56
343.893	84.56
344.12	98.56
344.348	93.56
344.576	100.56
344.804	100.56
345.031	81.56
345.259	107.56
345.487	100.56
345.714	93.56
345.942	95.56
346.17	89.56
346.397	92.56
346.625	81.56
346.853	92.56
347.08	83.56
347.308	95.56
347.535	92.56
347.763	102.56
347.99	87.56
348.218	101.56
348.445	100.56
348.673	103.56
348.9	99.56
349.128	88.56
349.355	95.56
349.583	99.56
349.81	104.56
350.037	102.56
350.265	99.56
350.492	98.56
350.72	92.56
350.947	99.56
351.174	97.56
351.402	107.56
351.629	111.56
351.856	103.56
352.083	98.56
352.311	120.56
352.538	101.56
352.765	93.56
352.992	113.56
353.22	101.56
353.447	97.56
353.674	106.56
353.901	97.56
354.128	98.56
354.355	106.56
354.583	99.56
354.81	102.56
355.037	88.56
355.264	94.56
355.491	86.56
355.718	94.56
355.945	103.56
356.172	96.56
356.399	97.56
356.626	94.56
356.853	105.56
357.08	90.56
357.307	95.56
357.534	86.56
357.761	85.56
357.988	100.56
358.215	92.56
358.441	87.56
358.668	76.56
358.895	90.56
359.122	97.56
359.349	88.56
359.576	97.56
359.802	93.56
360.029	110.56
360.256	85.56
360.483	96.56
360.709	81.56
360.936	92.56
361.163	82.56
361.39	100.56
361.616	84.56
361.843	84.56
362.07	93.56
362.296	94.56
362.523	77.56
362.749	83.56
362.976	91.56
363.203	87.56
363.429	85.56
363.656	95.56
363.882	86.56
364.109	94.56
364.335	91.56
364.562	93.56
364.788	90.56
365.015	88.56
365.241	97.56
365.468	93.56
365.694	96.56
365.92	97.56
366.147	85.56
366.373	102.56
366.599	94.56
366.826	92.56
367.052	93.56
367.278	74.56
367.505	92.56
367.731	82.56
367.957	86.56
368.184	103.56
368.41	95.56
368.636	108.56
368.862	103.56
369.089	114.56
369.315	90.56
369.541	100.56
369.767	92.56
369.993	100.56
370.219	92.56
370.445	94.56
370.672	93.56
370.898	97.56
371.124	102.56
371.35	79.56
371.576	98.56
371.802	79.56
372.028	96.56
372.254	98.56
372.48	84.56
372.706	91.56
372.932	102.56
373.158	91.56
373.384	97.56
373.61	81.56
373.835	82.56
374.061	91.56
374.287	93.56
374.513	87.56
374.739	83.56
374.965	92.56
375.191	91.56
375.416	80.56
375.642	97.56
375.868	104.56
376.094	114.56
376.319	87.56
376.545	88.56
376.771	94.56
376.997	89.56
377.222	92.56
377.448	89.56
377.674	84.56
377.899	97.56
378.125	96.56
378.35	88.56
378.576	81.56
378.802	89.56
379.027	84.56
379.253	92.56
379.478	92.56
379.704	89.56
379.929	87.56
380.155	90.56
380.38	91.56
380.606	92.56
380.831	94.56
381.057	95.56
381.282	94.56
381.507	85.56
381.733	98.56
381.958	97.56
382.184	89.56
382.409	108.56
382.634	117.56
382.86	109.56
383.085	100.56
383.31	99.56
383.535	99.56
383.761	102.56
383.986	109.56
384.211	94.56
384.436	90.56
384.662	94.56
384.887	96.56
385.112	89.56
385.337	104.56
385.562	112.56
385.787	98.56
386.013	96.56
386.238	105.56
386.463	120.56
386.688	105.56
386.913	104.56
387.138	102.56
387.363	102.56
387.588	105.56
387.813	93.56
388.038	109.56
388.263	108.56
388.488	98.56
388.713	100.56
388.938	77.56
389.163	86.56
389.387	95.56
389.612	92.56
389.837	79.56
390.062	104.56
390.287	91.56
390.512	85.56
390.736	86.56
390.961	93.56
391.186	94.56
391.411	111.56
391.636	94.56
391.86	86.56
392.085	84.56
392.31	90.56
392.534	81.56
392.759	100.56
392.984	84.56
393.208	105.56
393.433	95.56
393.658	84.56
393.882	73.56
394.107	86.56
394.331	98.56
394.556	76.56
394.78	82.56
395.005	97.56
395.229	81.56
395.454	105.56
395.678	82.56
395.903	100.56
396.127	63.56
396.352	98.56
396.576	90.56
396.801	97.56
397.025	99.56
397.249	84.56
397.474	101.56
397.698	77.56
397.922	78.56
398.147	95.56
398.371	92.56
398.595	85.56
398.82	85.56
399.044	91.56
399.268	86.56
399.492	87.56
399.717	78.56
399.941	87.56
400.165	94.56
400.389	79.56
400.613	101.56
400.837	96.56
401.062	95.56
401.286	100.56
401.51	97.56
401.734	94.56
401.958	95.56
402.182	112.56
402.406	144.56
402.63	114.56
402.854	93.56
403.078	88.56
403.302	80.56
403.526	86.56
403.75	96.56
403.974	78.56
404.198	79.56
404.422	83.56
404.645	82.56
404.869	101.56
405.093	100.56
405.317	108.56
405.541	116.56
405.765	96.56
405.988	101.56
406.212	152.56
406.436	209.56
406.66	137.56
406.883	84.56
407.107	94.56
407.331	99.56
407.555	100.56
407.778	106.56
408.002	90.56
408.226	102.56
408.449	95.56
408.673	86.56
408.896	88.56
409.12	87.56
409.344	73.56
409.567	92.56
409.791	86.56
410.014	92.56
410.238	95.56
410.461	78.56
410.685	92.56
410.908	92.56
411.132	109.56
411.355	103.56
411.578	83.56
411.802	96.56
412.025	84.56
412.249	95.56
412.472	124.56
412.695	100.56
412.919	94.56
413.142	93.56
413.365	101.56
413.589	83.56
413.812	99.56
414.035	97.56
414.258	94.56
414.482	97.56
414.705	94.56
414.928	91.56
415.151	97.56
415.374	97.56
415.597	91.56
415.821	101.56
416.044	85.56
416.267	89.56
416.49	88.56
416.713	90.56
416.936	94.56
417.159	79.56
417.382	90.56
417.605	81.56
417.828	97.56
418.051	89.56
418.274	89.56
418.497	92.56
418.72	79.56
418.943	82.56
419.166	100.56
419.389	87.56
419.611	93.56
419.834	90.56
420.057	86.56
420.28	89.56
420.503	84.56
420.726	76.56
420.948	83.56
421.171	102.56
421.394	84.56
421.617	88.56
421.839	93.56
422.062	76.56
422.285	87.56
422.507	112.56
422.73	103.56
422.953	90.56
423.175	85.56
423.398	93.56
423.621	94.56
423.843	89.56
424.066	92.56
424.288	89.56
424.511	102.56
424.733	86.56
424.956	104.56
425.178	98.56
425.401	93.56
425.623	84.56
425.846	87.56
426.068	89.56
426.291	100.56
426.513	96.56
426.735	91.56
426.958	83.56
427.18	88.56
427.402	121.56
427.625	176.56
427.847	151.56
428.069	145.56
428.292	103.56
428.514	92.56
428.736	86.56
428.958	93.56
429.181	94.56
429.403	90.56
429.625	94.56
429.847	100.56
430.069	100.56
430.292	94.56
430.514	85.56
430.736	92.56
430.958	84.56
431.18	92.56
431.402	81.56
431.624	71.56
431.846	71.56
432.068	99.56
432.29	84.56
432.512	88.56
432.734	82.56
432.956	89.56
433.178	104.56
433.4	103.56
433.622	93.56
433.844	92.56
434.066	92.56
434.287	97.56
434.509	87.56
434.731	90.56
434.953	89.56
435.175	80.56
435.397	78.56
435.618	89.56
435.84	91.56
436.062	113.56
436.284	108.56
436.505	103.56
436.727	98.56
436.949	97.56
437.17	87.56
437.392	83.56
437.614	93.56
437.835	108.56
438.057	105.56
438.278	127.56
438.5	102.56
438.721	101.56
438.943	93.56
439.165	83.56
439.386	82.56
439.608	82.56
439.829	107.56
440.05	127.56
440.272	134.56
440.493	93.56
440.715	88.56
440.936	89.56
441.158	81.56
441.379	77.56
441.6	95.56
441.822	108.56
442.043	96.56
442.264	88.56
442.486	111.56
442.707	105.56
442.928	104.56
443.149	114.56
443.371	115.56
443.592	101.56
443.813	103.56
444.034	103.56
444.255	90.56
444.476	90.56
444.698	87.56
444.919	80.56
445.14	118.56
445.361	117.56
445.582	111.56
445.803	115.56
446.024	126.56
446.245	136.56
446.466	94.56
446.687	94.56
446.908	79.56
447.129	82.56
447.35	93.56
447.571	102.56
447.792	78.56
448.013	103.56
448.234	96.56
448.455	98.56
448.675	102.56
448.896	102.56
449.117	96.56
449.338	109.56
449.559	130.56
449.779	114.56
450	94.56
450.221	88.56
450.442	73.56
450.662	85.56
450.883	101.56
451.104	111.56
451.324	93.56
451.545	93.56
451.766	95.56
451.986	113.56
452.207	78.56
452.428	92.56
452.648	91.56
452.869	95.56
453.089	111.56
453.31	106.56
453.53	94.56
453.751	85.56
453.971	103.56
454.192	110.56
454.412	96.56
454.633	91.56
454.853	89.56
455.073	92.56
455.294	72.56
455.514	88.56
455.734	109.56
455.955	82.56
456.175	88.56
456.395	87.56
456.616	85.56
456.836	78.56
457.056	85.56
457.276	92.56
457.497	91.56
457.717	90.56
457.937	78.56
458.157	87.56
458.377	90.56
458.598	88.56
458.818	119.56
459.038	129.56
459.258	114.56
459.478	87.56
459.698	82.56
459.918	91.56
460.138	102.56
460.358	95.56
460.578	61.56
460.798	94.56
461.018	75.56
461.238	84.56
461.458	71.56
461.678	89.56
461.898	95.56
462.118	98.56
462.338	76.56
462.558	77.56
462.777	85.56
462.997	105.56
463.217	95.56
463.437	70.56
463.657	79.56
463.876	92.56
464.096	80.56
464.316	77.56
464.536	84.56
464.755	99.56
464.975	106.56
465.195	143.56
465.414	154.56
465.634	97.56
465.854	95.56
466.073	91.56
466.293	90.56
466.512	78.56
466.732	90.56
466.951	90.56
467.171	100.56
467.391	80.56
467.61	106.56
467.829	117.56
468.049	250.56
468.268	341.56
468.488	124.56
468.707	92.56
468.927	86.56
469.146	101.56
469.365	80.56
469.585	86.56
469.804	77.56
470.023	73.56
470.243	100.56
470.462	97.56
470.681	105.56
470.901	96.56
471.12	109.56
471.339	87.56
471.558	93.56
471.777	119.56
471.997	174.56
472.216	494.56
472.435	948.56
472.654	242.56
472.873	101.56
473.092	102.56
473.311	97.56
473.53	90.56
473.749	85.56
473.968	81.56
474.187	103.56
474.406	107.56
474.625	96.56
474.844	95.56
475.063	88.56
475.282	89.56
475.501	68.56
475.72	83.56
475.939	84.56
476.158	88.56
476.377	100.56
476.596	88.56
476.814	85.56
477.033	95.56
477.252	86.56
477.471	92.56
477.69	94.56
477.908	101.56
478.127	79.56
478.346	85.56
478.564	98.56
478.783	92.56
479.002	102.56
479.22	87.56
479.439	103.56
479.658	103.56
479.876	94.56
480.095	98.56
480.313	116.56
480.532	126.56
480.751	170.56
480.969	462.56
481.188	1691.56
481.406	1006.56
481.624	206.56
481.843	110.56
482.061	90.56
482.28	95.56
482.498	90.56
482.717	77.56
482.935	88.56
483.153	97.56
483.372	84.56
483.59	88.56
483.808	82.56
484.027	102.56
484.245	98.56
484.463	93.56
484.681	89.56
484.9	89.56
485.118	98.56
485.336	100.56
485.554	85.56
485.772	102.56
485.99	99.56
486.209	113.56
486.427	110.56
486.645	115.56
486.863	121.56
487.081	85.56
487.299	85.56
487.517	101.56
487.735	95.56
487.953	99.56
488.171	109.56
488.389	97.56
488.607	113.56
488.825	101.56
489.043	98.56
489.261	83.56
489.479	92.56
489.696	102.56
489.914	87.56
490.132	94.56
490.35	97.56
490.568	98.56
490.786	100.56
491.003	95.56
491.221	80.56
491.439	94.56
491.657	87.56
491.874	98.56
492.092	87.56
492.31	89.56
492.527	82.56
492.745	106.56
492.963	101.56
493.18	83.56
493.398	88.56
493.615	80.56
493.833	96.56
494.05	79.56
494.268	96.56
494.485	100.56
494.703	98.56
494.92	89.56
495.138	96.56
495.355	101.56
495.573	90.56
495.79	96.56
496.008	89.56
496.225	94.56
496.442	76.56
496.66	98.56
496.877	96.56
497.094	96.56
497.312	87.56
497.529	80.56
497.746	86.56
497.963	101.56
498.181	97.56
498.398	90.56
498.615	104.56
498.832	102.56
499.049	88.56
499.267	82.56
499.484	106.56
499.701	89.56
499.918	95.56
500.135	95.56
500.352	88.56
500.569	71.56
500.786	94.56
501.003	89.56
501.22	91.56
501.437	89.56
501.654	103.56
501.871	95.56
502.088	92.56
502.305	104.56
502.522	93.56
502.739	96.56
502.956	101.56
503.172	89.56
503.389	92.56
503.606	108.56
503.823	107.56
504.04	92.56
504.256	97.56
504.473	81.56
504.69	85.56
504.907	92.56
505.123	87.56
505.34	92.56
505.557	93.56
505.773	81.56
505.99	89.56
506.207	85.56
506.423	78.56
506.64	95.56
506.856	87.56
507.073	98.56
507.289	90.56
507.506	86.56
507.722	111.56
507.939	92.56
508.155	95.56
508.372	74.56
508.588	110.56
508.805	89.56
509.021	87.56
509.238	94.56
509.454	97.56
509.67	84.56
509.887	103.56
510.103	130.56
510.319	180.56
510.536	602.56
510.752	2021.56
510.968	560.56
511.184	142.56
511.401	105.56
511.617	107.56
511.833	92.56
512.049	100.56
512.265	98.56
512.481	98.56
512.698	95.56
512.914	97.56
513.13	99.56
513.346	100.56
513.562	100.56
513.778	109.56
513.994	84.56
514.21	101.56
514.426	107.56
514.642	134.56
514.858	120.56
515.074	143.56
