Data from Circ_1989_H10_HRD10591_00085.txt Node
Date: Wed Jan 03 12:01:38 EST 2024
User: Yrep
Spectrometer: HR+D1059
Trigger mode: 1
Integration Time (sec): 1.000000E-1
Scans to average: 1
Electric dark correction enabled: true
Nonlinearity correction enabled: false
Boxcar width: 0
XAxis mode: Wavelengths
Number of Pixels in Spectrum: 2048
>>>>>Begin Spectral Data<<<<<
223.165	-15.81
223.4	-15.81
223.635	-15.81
223.869	-20.81
224.104	-10.81
224.338	-15.81
224.573	-9.81
224.808	-13.81
225.042	-10.81
225.277	-14.81
225.511	-1.81
225.746	8.19
225.98	0.19
226.215	16.19
226.449	14.19
226.683	16.19
226.918	33.19
227.152	26.19
227.387	36.19
227.621	49.19
227.856	46.19
228.09	52.19
228.324	51.19
228.559	66.19
228.793	49.19
229.027	57.19
229.262	70.19
229.496	71.19
229.73	99.19
229.964	99.19
230.199	63.19
230.433	73.19
230.667	76.19
230.901	78.19
231.136	87.19
231.37	88.19
231.604	81.19
231.838	88.19
232.072	73.19
232.306	91.19
232.541	82.19
232.775	96.19
233.009	90.19
233.243	78.19
233.477	79.19
233.711	82.19
233.945	99.19
234.179	88.19
234.413	79.19
234.647	84.19
234.881	79.19
235.115	78.19
235.349	69.19
235.583	73.19
235.817	83.19
236.051	84.19
236.285	81.19
236.519	86.19
236.753	82.19
236.987	77.19
237.221	92.19
237.455	82.19
237.689	90.19
237.922	73.19
238.156	75.19
238.39	69.19
238.624	62.19
238.858	68.19
239.091	97.19
239.325	90.19
239.559	80.19
239.793	91.19
240.027	83.19
240.26	76.19
240.494	78.19
240.728	85.19
240.961	82.19
241.195	79.19
241.429	64.19
241.662	73.19
241.896	67.19
242.13	76.19
242.363	80.19
242.597	67.19
242.83	63.19
243.064	85.19
243.298	84.19
243.531	77.19
243.765	85.19
243.998	84.19
244.232	85.19
244.465	96.19
244.699	79.19
244.932	77.19
245.166	79.19
245.399	79.19
245.633	84.19
245.866	78.19
246.099	65.19
246.333	84.19
246.566	81.19
246.8	95.19
247.033	78.19
247.266	94.19
247.5	83.19
247.733	78.19
247.966	77.19
248.2	70.19
248.433	95.19
248.666	82.19
248.899	79.19
249.133	87.19
249.366	99.19
249.599	88.19
249.832	99.19
250.066	71.19
250.299	79.19
250.532	99.19
250.765	86.19
250.998	84.19
251.231	95.19
251.465	81.19
251.698	85.19
251.931	79.19
252.164	95.19
252.397	72.19
252.63	80.19
252.863	87.19
253.096	63.19
253.329	88.19
253.562	100.19
253.795	72.19
254.028	83.19
254.261	82.19
254.494	87.19
254.727	96.19
254.96	79.19
255.193	69.19
255.426	75.19
255.659	98.19
255.892	98.19
256.124	81.19
256.357	81.19
256.59	69.19
256.823	81.19
257.056	71.19
257.289	84.19
257.521	77.19
257.754	80.19
257.987	73.19
258.22	91.19
258.452	93.19
258.685	87.19
258.918	82.19
259.151	85.19
259.383	87.19
259.616	88.19
259.849	86.19
260.081	80.19
260.314	87.19
260.547	93.19
260.779	92.19
261.012	103.19
261.244	92.19
261.477	87.19
261.71	85.19
261.942	116.19
262.175	122.19
262.407	79.19
262.64	94.19
262.872	85.19
263.105	81.19
263.337	88.19
263.57	80.19
263.802	81.19
264.035	85.19
264.267	82.19
264.499	76.19
264.732	69.19
264.964	88.19
265.197	70.19
265.429	83.19
265.661	72.19
265.894	88.19
266.126	99.19
266.358	99.19
266.591	83.19
266.823	90.19
267.055	85.19
267.287	88.19
267.52	80.19
267.752	74.19
267.984	92.19
268.216	97.19
268.448	90.19
268.681	84.19
268.913	82.19
269.145	87.19
269.377	84.19
269.609	89.19
269.841	79.19
270.073	100.19
270.306	90.19
270.538	92.19
270.77	92.19
271.002	83.19
271.234	83.19
271.466	72.19
271.698	94.19
271.93	84.19
272.162	83.19
272.394	86.19
272.626	81.19
272.858	87.19
273.09	87.19
273.322	78.19
273.553	84.19
273.785	91.19
274.017	90.19
274.249	80.19
274.481	84.19
274.713	78.19
274.945	87.19
275.176	82.19
275.408	84.19
275.64	103.19
275.872	102.19
276.104	100.19
276.335	93.19
276.567	105.19
276.799	119.19
277.031	128.19
277.262	151.19
277.494	114.19
277.726	82.19
277.957	101.19
278.189	91.19
278.421	94.19
278.652	89.19
278.884	98.19
279.115	81.19
279.347	87.19
279.579	95.19
279.81	114.19
280.042	117.19
280.273	160.19
280.505	133.19
280.736	89.19
280.968	104.19
281.199	85.19
281.431	91.19
281.662	89.19
281.894	85.19
282.125	112.19
282.356	116.19
282.588	141.19
282.819	103.19
283.051	79.19
283.282	73.19
283.513	87.19
283.745	75.19
283.976	68.19
284.207	101.19
284.439	111.19
284.67	92.19
284.901	81.19
285.132	84.19
285.364	84.19
285.595	83.19
285.826	82.19
286.057	92.19
286.288	100.19
286.52	77.19
286.751	81.19
286.982	66.19
287.213	80.19
287.444	79.19
287.675	74.19
287.906	87.19
288.138	97.19
288.369	94.19
288.6	97.19
288.831	84.19
289.062	105.19
289.293	92.19
289.524	88.19
289.755	79.19
289.986	83.19
290.217	82.19
290.448	77.19
290.679	80.19
290.91	79.19
291.141	85.19
291.371	70.19
291.602	89.19
291.833	92.19
292.064	95.19
292.295	96.19
292.526	92.19
292.757	84.19
292.987	80.19
293.218	102.19
293.449	89.19
293.68	98.19
293.91	66.19
294.141	80.19
294.372	71.19
294.603	94.19
294.833	87.19
295.064	92.19
295.295	80.19
295.525	101.19
295.756	96.19
295.987	122.19
296.217	131.19
296.448	136.19
296.679	100.19
296.909	95.19
297.14	102.19
297.37	109.19
297.601	89.19
297.831	87.19
298.062	86.19
298.292	102.19
298.523	100.19
298.753	90.19
298.984	103.19
299.214	88.19
299.445	94.19
299.675	95.19
299.905	80.19
300.136	73.19
300.366	101.19
300.597	96.19
300.827	101.19
301.057	97.19
301.288	94.19
301.518	91.19
301.748	85.19
301.979	105.19
302.209	100.19
302.439	87.19
302.669	104.19
302.9	93.19
303.13	93.19
303.36	96.19
303.59	118.19
303.82	119.19
304.051	104.19
304.281	82.19
304.511	98.19
304.741	103.19
304.971	93.19
305.201	99.19
305.431	90.19
305.661	87.19
305.891	80.19
306.121	103.19
306.352	98.19
306.582	112.19
306.812	102.19
307.042	97.19
307.272	133.19
307.502	142.19
307.731	132.19
307.961	101.19
308.191	103.19
308.421	99.19
308.651	77.19
308.881	88.19
309.111	89.19
309.341	98.19
309.571	82.19
309.8	104.19
310.03	93.19
310.26	88.19
310.49	98.19
310.72	101.19
310.949	104.19
311.179	110.19
311.409	99.19
311.639	80.19
311.868	108.19
312.098	86.19
312.328	94.19
312.557	100.19
312.787	104.19
313.017	97.19
313.246	99.19
313.476	89.19
313.706	103.19
313.935	104.19
314.165	115.19
314.394	115.19
314.624	105.19
314.853	109.19
315.083	90.19
315.312	85.19
315.542	101.19
315.771	106.19
316.001	106.19
316.23	99.19
316.46	85.19
316.689	82.19
316.919	103.19
317.148	96.19
317.377	108.19
317.607	103.19
317.836	94.19
318.065	101.19
318.295	79.19
318.524	104.19
318.753	101.19
318.983	98.19
319.212	94.19
319.441	100.19
319.67	123.19
319.9	92.19
320.129	93.19
320.358	98.19
320.587	94.19
320.816	100.19
321.046	99.19
321.275	89.19
321.504	93.19
321.733	94.19
321.962	102.19
322.191	109.19
322.42	119.19
322.649	134.19
322.878	124.19
323.108	138.19
323.337	136.19
323.566	151.19
323.795	173.19
324.024	214.19
324.253	397.19
324.482	881.19
324.71	1858.19
324.939	2530.19
325.168	896.19
325.397	270.19
325.626	169.19
325.855	145.19
326.084	104.19
326.313	142.19
326.542	153.19
326.77	249.19
326.999	513.19
327.228	1024.19
327.457	2000.19
327.686	1579.19
327.914	489.19
328.143	366.19
328.372	416.19
328.6	264.19
328.829	164.19
329.058	151.19
329.287	168.19
329.515	138.19
329.744	190.19
329.972	330.19
330.201	602.19
330.43	892.19
330.658	443.19
330.887	204.19
331.115	168.19
331.344	104.19
331.572	111.19
331.801	120.19
332.03	121.19
332.258	112.19
332.486	100.19
332.715	119.19
332.943	108.19
333.172	122.19
333.4	126.19
333.629	143.19
333.857	182.19
334.085	277.19
334.314	600.19
334.542	1124.19
334.771	1077.19
334.999	305.19
335.227	140.19
335.455	111.19
335.684	102.19
335.912	102.19
336.14	119.19
336.369	104.19
336.597	103.19
336.825	113.19
337.053	95.19
337.281	100.19
337.51	97.19
337.738	105.19
337.966	98.19
338.194	104.19
338.422	96.19
338.65	91.19
338.878	96.19
339.106	122.19
339.334	96.19
339.562	93.19
339.79	84.19
340.018	80.19
340.246	93.19
340.474	82.19
340.702	104.19
340.93	85.19
341.158	92.19
341.386	93.19
341.614	100.19
341.842	87.19
342.07	88.19
342.298	97.19
342.526	86.19
342.754	86.19
342.981	83.19
343.209	94.19
343.437	100.19
343.665	96.19
343.893	86.19
344.12	89.19
344.348	90.19
344.576	90.19
344.804	95.19
345.031	97.19
345.259	102.19
345.487	94.19
345.714	102.19
345.942	96.19
346.17	91.19
346.397	90.19
346.625	102.19
346.853	101.19
347.08	90.19
347.308	90.19
347.535	109.19
347.763	103.19
347.99	105.19
348.218	101.19
348.445	92.19
348.673	111.19
348.9	106.19
349.128	95.19
349.355	98.19
349.583	84.19
349.81	93.19
350.037	86.19
350.265	106.19
350.492	101.19
350.72	111.19
350.947	109.19
351.174	116.19
351.402	107.19
351.629	106.19
351.856	112.19
352.083	108.19
352.311	102.19
352.538	126.19
352.765	122.19
352.992	109.19
353.22	125.19
353.447	104.19
353.674	96.19
353.901	91.19
354.128	98.19
354.355	89.19
354.583	101.19
354.81	104.19
355.037	89.19
355.264	100.19
355.491	85.19
355.718	100.19
355.945	106.19
356.172	103.19
356.399	91.19
356.626	94.19
356.853	88.19
357.08	95.19
357.307	100.19
357.534	92.19
357.761	101.19
357.988	94.19
358.215	102.19
358.441	99.19
358.668	106.19
358.895	86.19
359.122	81.19
359.349	94.19
359.576	109.19
359.802	116.19
360.029	107.19
360.256	114.19
360.483	93.19
360.709	92.19
360.936	102.19
361.163	90.19
361.39	97.19
361.616	103.19
361.843	98.19
362.07	96.19
362.296	99.19
362.523	101.19
362.749	111.19
362.976	108.19
363.203	96.19
363.429	87.19
363.656	91.19
363.882	90.19
364.109	82.19
364.335	102.19
364.562	104.19
364.788	98.19
365.015	106.19
365.241	91.19
365.468	96.19
365.694	106.19
365.92	108.19
366.147	85.19
366.373	85.19
366.599	86.19
366.826	98.19
367.052	95.19
367.278	95.19
367.505	94.19
367.731	104.19
367.957	94.19
368.184	90.19
368.41	96.19
368.636	99.19
368.862	106.19
369.089	104.19
369.315	89.19
369.541	95.19
369.767	89.19
369.993	103.19
370.219	87.19
370.445	92.19
370.672	86.19
370.898	93.19
371.124	99.19
371.35	81.19
371.576	88.19
371.802	82.19
372.028	82.19
372.254	73.19
372.48	94.19
372.706	87.19
372.932	96.19
373.158	83.19
373.384	86.19
373.61	79.19
373.835	81.19
374.061	85.19
374.287	85.19
374.513	84.19
374.739	89.19
374.965	84.19
375.191	94.19
375.416	95.19
375.642	94.19
375.868	88.19
376.094	96.19
376.319	85.19
376.545	90.19
376.771	93.19
376.997	94.19
377.222	85.19
377.448	89.19
377.674	106.19
377.899	111.19
378.125	83.19
378.35	92.19
378.576	101.19
378.802	118.19
379.027	106.19
379.253	101.19
379.478	94.19
379.704	80.19
379.929	94.19
380.155	92.19
380.38	94.19
380.606	95.19
380.831	86.19
381.057	105.19
381.282	87.19
381.507	100.19
381.733	92.19
381.958	92.19
382.184	97.19
382.409	106.19
382.634	104.19
382.86	100.19
383.085	102.19
383.31	91.19
383.535	94.19
383.761	105.19
383.986	109.19
384.211	93.19
384.436	97.19
384.662	97.19
384.887	113.19
385.112	104.19
385.337	99.19
385.562	106.19
385.787	101.19
386.013	111.19
386.238	110.19
386.463	90.19
386.688	116.19
386.913	90.19
387.138	98.19
387.363	98.19
387.588	105.19
387.813	98.19
388.038	87.19
388.263	103.19
388.488	105.19
388.713	100.19
388.938	92.19
389.163	91.19
389.387	101.19
389.612	96.19
389.837	104.19
390.062	87.19
390.287	97.19
390.512	86.19
390.736	91.19
390.961	98.19
391.186	108.19
391.411	74.19
391.636	92.19
391.86	92.19
392.085	92.19
392.31	90.19
392.534	89.19
392.759	85.19
392.984	80.19
393.208	98.19
393.433	87.19
393.658	96.19
393.882	77.19
394.107	84.19
394.331	86.19
394.556	99.19
394.78	102.19
395.005	79.19
395.229	93.19
395.454	101.19
395.678	80.19
395.903	92.19
396.127	95.19
396.352	86.19
396.576	80.19
396.801	85.19
397.025	83.19
397.249	87.19
397.474	97.19
397.698	78.19
397.922	72.19
398.147	86.19
398.371	88.19
398.595	86.19
398.82	96.19
399.044	80.19
399.268	76.19
399.492	98.19
399.717	79.19
399.941	88.19
400.165	85.19
400.389	82.19
400.613	81.19
400.837	93.19
401.062	88.19
401.286	80.19
401.51	92.19
401.734	82.19
401.958	104.19
402.182	123.19
402.406	172.19
402.63	124.19
402.854	96.19
403.078	91.19
403.302	82.19
403.526	88.19
403.75	94.19
403.974	93.19
404.198	103.19
404.422	104.19
404.645	92.19
404.869	94.19
405.093	106.19
405.317	125.19
405.541	130.19
405.765	108.19
405.988	124.19
406.212	164.19
406.436	238.19
406.66	130.19
406.883	107.19
407.107	86.19
407.331	86.19
407.555	111.19
407.778	107.19
408.002	88.19
408.226	71.19
408.449	88.19
408.673	78.19
408.896	103.19
409.12	90.19
409.344	92.19
409.567	88.19
409.791	92.19
410.014	92.19
410.238	80.19
410.461	97.19
410.685	88.19
410.908	100.19
411.132	107.19
411.355	98.19
411.578	103.19
411.802	88.19
412.025	84.19
412.249	93.19
412.472	110.19
412.695	108.19
412.919	103.19
413.142	93.19
413.365	88.19
413.589	99.19
413.812	93.19
414.035	98.19
414.258	107.19
414.482	96.19
414.705	96.19
414.928	100.19
415.151	114.19
415.374	87.19
415.597	71.19
415.821	89.19
416.044	93.19
416.267	81.19
416.49	95.19
416.713	84.19
416.936	85.19
417.159	82.19
417.382	96.19
417.605	106.19
417.828	93.19
418.051	81.19
418.274	88.19
418.497	83.19
418.72	98.19
418.943	90.19
419.166	74.19
419.389	92.19
419.611	87.19
419.834	89.19
420.057	83.19
420.28	85.19
420.503	88.19
420.726	86.19
420.948	80.19
421.171	87.19
421.394	87.19
421.617	85.19
421.839	89.19
422.062	101.19
422.285	89.19
422.507	99.19
422.73	121.19
422.953	90.19
423.175	88.19
423.398	82.19
423.621	97.19
423.843	100.19
424.066	94.19
424.288	98.19
424.511	86.19
424.733	106.19
424.956	126.19
425.178	100.19
425.401	116.19
425.623	108.19
425.846	94.19
426.068	95.19
426.291	95.19
426.513	97.19
426.735	90.19
426.958	104.19
427.18	103.19
427.402	149.19
427.625	226.19
427.847	216.19
428.069	195.19
428.292	119.19
428.514	93.19
428.736	78.19
428.958	89.19
429.181	89.19
429.403	90.19
429.625	97.19
429.847	94.19
430.069	100.19
430.292	91.19
430.514	82.19
430.736	90.19
430.958	80.19
431.18	78.19
431.402	83.19
431.624	93.19
431.846	102.19
432.068	89.19
432.29	92.19
432.512	77.19
432.734	85.19
432.956	88.19
433.178	105.19
433.4	110.19
433.622	101.19
433.844	100.19
434.066	94.19
434.287	81.19
434.509	92.19
434.731	88.19
434.953	94.19
435.175	88.19
435.397	76.19
435.618	89.19
435.84	113.19
436.062	147.19
436.284	140.19
436.505	103.19
436.727	98.19
436.949	93.19
437.17	88.19
437.392	89.19
437.614	89.19
437.835	114.19
438.057	127.19
438.278	117.19
438.5	102.19
438.721	132.19
438.943	113.19
439.165	95.19
439.386	100.19
439.608	94.19
439.829	92.19
440.05	148.19
440.272	167.19
440.493	96.19
440.715	93.19
440.936	86.19
441.158	88.19
441.379	81.19
441.6	89.19
441.822	97.19
442.043	110.19
442.264	93.19
442.486	104.19
442.707	98.19
442.928	114.19
443.149	156.19
443.371	161.19
443.592	114.19
443.813	133.19
444.034	115.19
444.255	102.19
444.476	99.19
444.698	89.19
444.919	89.19
445.14	132.19
445.361	129.19
445.582	138.19
445.803	166.19
446.024	158.19
446.245	157.19
446.466	124.19
446.687	77.19
446.908	92.19
447.129	90.19
447.35	90.19
447.571	97.19
447.792	88.19
448.013	99.19
448.234	122.19
448.455	103.19
448.675	124.19
448.896	125.19
449.117	101.19
449.338	103.19
449.559	152.19
449.779	163.19
450	95.19
450.221	80.19
450.442	83.19
450.662	102.19
450.883	111.19
451.104	133.19
451.324	103.19
451.545	100.19
451.766	99.19
451.986	94.19
452.207	94.19
452.428	91.19
452.648	87.19
452.869	112.19
453.089	116.19
453.31	116.19
453.53	91.19
453.751	90.19
453.971	97.19
454.192	124.19
454.412	93.19
454.633	87.19
454.853	79.19
455.073	86.19
455.294	95.19
455.514	106.19
455.734	98.19
455.955	110.19
456.175	81.19
456.395	84.19
456.616	89.19
456.836	76.19
457.056	87.19
457.276	85.19
457.497	82.19
457.717	72.19
457.937	92.19
458.157	74.19
458.377	93.19
458.598	118.19
458.818	154.19
459.038	182.19
459.258	118.19
459.478	108.19
459.698	100.19
459.918	85.19
460.138	86.19
460.358	85.19
460.578	86.19
460.798	94.19
461.018	85.19
461.238	79.19
461.458	87.19
461.678	95.19
461.898	80.19
462.118	94.19
462.338	89.19
462.558	87.19
462.777	93.19
462.997	98.19
463.217	102.19
463.437	80.19
463.657	77.19
463.876	87.19
464.096	83.19
464.316	92.19
464.536	98.19
464.755	100.19
464.975	125.19
465.195	189.19
465.414	183.19
465.634	100.19
465.854	88.19
466.073	85.19
466.293	84.19
466.512	103.19
466.732	82.19
466.951	88.19
467.171	86.19
467.391	106.19
467.61	106.19
467.829	165.19
468.049	370.19
468.268	530.19
468.488	180.19
468.707	100.19
468.927	79.19
469.146	102.19
469.365	89.19
469.585	92.19
469.804	94.19
470.023	99.19
470.243	95.19
470.462	99.19
470.681	116.19
470.901	90.19
471.12	112.19
471.339	104.19
471.558	111.19
471.777	115.19
471.997	209.19
472.216	707.19
472.435	1564.19
472.654	408.19
472.873	141.19
473.092	92.19
473.311	95.19
473.53	92.19
473.749	99.19
473.968	121.19
474.187	126.19
474.406	101.19
474.625	79.19
474.844	84.19
475.063	86.19
475.282	96.19
475.501	84.19
475.72	74.19
475.939	87.19
476.158	82.19
476.377	89.19
476.596	91.19
476.814	89.19
477.033	93.19
477.252	78.19
477.471	94.19
477.69	83.19
477.908	84.19
478.127	103.19
478.346	87.19
478.564	89.19
478.783	97.19
479.002	102.19
479.22	95.19
479.439	111.19
479.658	122.19
479.876	104.19
480.095	113.19
480.313	112.19
480.532	136.19
480.751	227.19
480.969	637.19
481.188	2704.19
481.406	1574.19
481.624	260.19
481.843	127.19
482.061	97.19
482.28	107.19
482.498	93.19
482.717	93.19
482.935	94.19
483.153	86.19
483.372	90.19
483.59	105.19
483.808	88.19
484.027	80.19
484.245	82.19
484.463	99.19
484.681	106.19
484.9	99.19
485.118	94.19
485.336	95.19
485.554	93.19
485.772	96.19
485.99	122.19
486.209	97.19
486.427	102.19
486.645	109.19
486.863	121.19
487.081	101.19
487.299	99.19
487.517	97.19
487.735	96.19
487.953	91.19
488.171	83.19
488.389	105.19
488.607	85.19
488.825	103.19
489.043	72.19
489.261	91.19
489.479	95.19
489.696	95.19
489.914	111.19
490.132	96.19
490.35	87.19
490.568	82.19
490.786	78.19
491.003	83.19
491.221	78.19
491.439	85.19
491.657	88.19
491.874	104.19
492.092	83.19
492.31	99.19
492.527	101.19
492.745	87.19
492.963	78.19
493.18	101.19
493.398	89.19
493.615	98.19
493.833	99.19
494.05	95.19
494.268	98.19
494.485	92.19
494.703	92.19
494.92	83.19
495.138	85.19
495.355	91.19
495.573	85.19
495.79	92.19
496.008	94.19
496.225	88.19
496.442	93.19
496.66	101.19
496.877	95.19
497.094	92.19
497.312	84.19
497.529	85.19
497.746	102.19
497.963	98.19
498.181	99.19
498.398	79.19
498.615	117.19
498.832	106.19
499.049	96.19
499.267	73.19
499.484	76.19
499.701	86.19
499.918	87.19
500.135	90.19
500.352	88.19
500.569	79.19
500.786	91.19
501.003	106.19
501.22	80.19
501.437	88.19
501.654	95.19
501.871	122.19
502.088	98.19
502.305	89.19
502.522	75.19
502.739	85.19
502.956	92.19
503.172	105.19
503.389	95.19
503.606	109.19
503.823	111.19
504.04	81.19
504.256	82.19
504.473	87.19
504.69	100.19
504.907	90.19
505.123	87.19
505.34	84.19
505.557	85.19
505.773	104.19
505.99	101.19
506.207	88.19
506.423	101.19
506.64	74.19
506.856	80.19
507.073	86.19
507.289	98.19
507.506	93.19
507.722	125.19
507.939	131.19
508.155	105.19
508.372	95.19
508.588	92.19
508.805	102.19
509.021	99.19
509.238	95.19
509.454	103.19
509.67	103.19
509.887	117.19
510.103	100.19
510.319	176.19
510.536	651.19
510.752	2084.19
510.968	603.19
511.184	151.19
511.401	108.19
511.617	104.19
511.833	103.19
512.049	101.19
512.265	92.19
512.481	93.19
512.698	101.19
512.914	86.19
513.13	104.19
513.346	88.19
513.562	88.19
513.778	102.19
