Data from Circ_1989_H10_HRD10591_00001.txt Node
Date: Wed Jan 03 12:01:21 EST 2024
User: Yrep
Spectrometer: HR+D1059
Trigger mode: 1
Integration Time (sec): 1.000000E-1
Scans to average: 1
Electric dark correction enabled: true
Nonlinearity correction enabled: false
Boxcar width: 0
XAxis mode: Wavelengths
Number of Pixels in Spectrum: 2048
>>>>>Begin Spectral Data<<<<<
223.165	-13.31
223.4	-13.31
223.635	-13.31
223.869	-13.31
224.104	-22.31
224.338	-15.31
224.573	-13.31
224.808	-20.31
225.042	-14.31
225.277	-7.31
225.511	-4.31
225.746	2.69
225.98	8.69
226.215	9.69
226.449	20.69
226.683	24.69
226.918	25.69
227.152	31.69
227.387	46.69
227.621	49.69
227.856	47.69
228.09	59.69
228.324	50.69
228.559	51.69
228.793	53.69
229.027	68.69
229.262	58.69
229.496	72.69
229.73	79.69
229.964	80.69
230.199	71.69
230.433	66.69
230.667	81.69
230.901	83.69
231.136	83.69
231.37	89.69
231.604	87.69
231.838	76.69
232.072	68.69
232.306	78.69
232.541	79.69
232.775	63.69
233.009	83.69
233.243	84.69
233.477	97.69
233.711	77.69
233.945	92.69
234.179	95.69
234.413	91.69
234.647	90.69
234.881	80.69
235.115	89.69
235.349	67.69
235.583	79.69
235.817	83.69
236.051	75.69
236.285	58.69
236.519	66.69
236.753	72.69
236.987	77.69
237.221	68.69
237.455	77.69
237.689	79.69
237.922	77.69
238.156	77.69
238.39	78.69
238.624	75.69
238.858	81.69
239.091	75.69
239.325	83.69
239.559	84.69
239.793	73.69
240.027	78.69
240.26	75.69
240.494	79.69
240.728	81.69
240.961	72.69
241.195	90.69
241.429	67.69
241.662	79.69
241.896	68.69
242.13	75.69
242.363	66.69
242.597	73.69
242.83	86.69
243.064	75.69
243.298	74.69
243.531	79.69
243.765	84.69
243.998	76.69
244.232	79.69
244.465	75.69
244.699	68.69
244.932	85.69
245.166	77.69
245.399	64.69
245.633	72.69
245.866	73.69
246.099	75.69
246.333	65.69
246.566	68.69
246.8	71.69
247.033	85.69
247.266	70.69
247.5	79.69
247.733	64.69
247.966	70.69
248.2	64.69
248.433	82.69
248.666	83.69
248.899	67.69
249.133	79.69
249.366	87.69
249.599	93.69
249.832	91.69
250.066	84.69
250.299	75.69
250.532	76.69
250.765	86.69
250.998	87.69
251.231	86.69
251.465	85.69
251.698	68.69
251.931	83.69
252.164	83.69
252.397	65.69
252.63	79.69
252.863	77.69
253.096	78.69
253.329	79.69
253.562	84.69
253.795	66.69
254.028	81.69
254.261	91.69
254.494	82.69
254.727	95.69
254.96	72.69
255.193	64.69
255.426	83.69
255.659	83.69
255.892	87.69
256.124	92.69
256.357	82.69
256.59	87.69
256.823	93.69
257.056	85.69
257.289	68.69
257.521	70.69
257.754	83.69
257.987	76.69
258.22	80.69
258.452	88.69
258.685	88.69
258.918	80.69
259.151	70.69
259.383	86.69
259.616	78.69
259.849	85.69
260.081	95.69
260.314	83.69
260.547	86.69
260.779	85.69
261.012	89.69
261.244	63.69
261.477	87.69
261.71	92.69
261.942	103.69
262.175	104.69
262.407	90.69
262.64	95.69
262.872	81.69
263.105	76.69
263.337	86.69
263.57	76.69
263.802	88.69
264.035	79.69
264.267	53.69
264.499	81.69
264.732	73.69
264.964	83.69
265.197	75.69
265.429	76.69
265.661	92.69
265.894	92.69
266.126	87.69
266.358	89.69
266.591	91.69
266.823	97.69
267.055	94.69
267.287	72.69
267.52	88.69
267.752	97.69
267.984	83.69
268.216	83.69
268.448	79.69
268.681	71.69
268.913	98.69
269.145	80.69
269.377	70.69
269.609	79.69
269.841	77.69
270.073	80.69
270.306	75.69
270.538	78.69
270.77	82.69
271.002	84.69
271.234	96.69
271.466	86.69
271.698	84.69
271.93	83.69
272.162	86.69
272.394	93.69
272.626	78.69
272.858	78.69
273.09	87.69
273.322	86.69
273.553	71.69
273.785	79.69
274.017	94.69
274.249	91.69
274.481	86.69
274.713	81.69
274.945	75.69
275.176	91.69
275.408	88.69
275.64	77.69
275.872	88.69
276.104	86.69
276.335	100.69
276.567	110.69
276.799	106.69
277.031	115.69
277.262	92.69
277.494	95.69
277.726	71.69
277.957	82.69
278.189	85.69
278.421	89.69
278.652	93.69
278.884	82.69
279.115	91.69
279.347	79.69
279.579	73.69
279.81	87.69
280.042	99.69
280.273	102.69
280.505	96.69
280.736	72.69
280.968	90.69
281.199	88.69
281.431	75.69
281.662	93.69
281.894	95.69
282.125	97.69
282.356	92.69
282.588	116.69
282.819	107.69
283.051	84.69
283.282	91.69
283.513	87.69
283.745	89.69
283.976	68.69
284.207	81.69
284.439	84.69
284.67	100.69
284.901	85.69
285.132	98.69
285.364	77.69
285.595	72.69
285.826	101.69
286.057	92.69
286.288	77.69
286.52	90.69
286.751	91.69
286.982	91.69
287.213	92.69
287.444	81.69
287.675	93.69
287.906	80.69
288.138	88.69
288.369	82.69
288.6	83.69
288.831	75.69
289.062	87.69
289.293	71.69
289.524	77.69
289.755	83.69
289.986	91.69
290.217	94.69
290.448	91.69
290.679	100.69
290.91	88.69
291.141	76.69
291.371	72.69
291.602	84.69
291.833	71.69
292.064	93.69
292.295	86.69
292.526	79.69
292.757	83.69
292.987	82.69
293.218	87.69
293.449	89.69
293.68	97.69
293.91	83.69
294.141	82.69
294.372	88.69
294.603	77.69
294.833	83.69
295.064	71.69
295.295	79.69
295.525	98.69
295.756	95.69
295.987	108.69
296.217	116.69
296.448	102.69
296.679	86.69
296.909	97.69
297.14	92.69
297.37	88.69
297.601	70.69
297.831	71.69
298.062	67.69
298.292	80.69
298.523	85.69
298.753	94.69
298.984	94.69
299.214	98.69
299.445	78.69
299.675	77.69
299.905	81.69
300.136	89.69
300.366	103.69
300.597	96.69
300.827	96.69
301.057	91.69
301.288	88.69
301.518	84.69
301.748	81.69
301.979	103.69
302.209	83.69
302.439	104.69
302.669	78.69
302.9	104.69
303.13	92.69
303.36	85.69
303.59	97.69
303.82	104.69
304.051	102.69
304.281	100.69
304.511	87.69
304.741	81.69
304.971	100.69
305.201	93.69
305.431	94.69
305.661	73.69
305.891	85.69
306.121	96.69
306.352	91.69
306.582	87.69
306.812	98.69
307.042	104.69
307.272	99.69
307.502	110.69
307.731	103.69
307.961	119.69
308.191	88.69
308.421	92.69
308.651	79.69
308.881	87.69
309.111	84.69
309.341	95.69
309.571	94.69
309.8	83.69
310.03	89.69
310.26	90.69
310.49	96.69
310.72	81.69
310.949	94.69
311.179	105.69
311.409	91.69
311.639	105.69
311.868	102.69
312.098	89.69
312.328	96.69
312.557	101.69
312.787	96.69
313.017	98.69
313.246	99.69
313.476	92.69
313.706	94.69
313.935	95.69
314.165	85.69
314.394	97.69
314.624	87.69
314.853	103.69
315.083	80.69
315.312	101.69
315.542	95.69
315.771	90.69
316.001	89.69
316.23	86.69
316.46	94.69
316.689	81.69
316.919	87.69
317.148	88.69
317.377	87.69
317.607	96.69
317.836	93.69
318.065	98.69
318.295	75.69
318.524	88.69
318.753	83.69
318.983	104.69
319.212	107.69
319.441	96.69
319.67	99.69
319.9	91.69
320.129	94.69
320.358	97.69
320.587	103.69
320.816	100.69
321.046	96.69
321.275	105.69
321.504	97.69
321.733	99.69
321.962	81.69
322.191	110.69
322.42	99.69
322.649	95.69
322.878	107.69
323.108	110.69
323.337	111.69
323.566	126.69
323.795	149.69
324.024	177.69
324.253	325.69
324.482	661.69
324.71	1317.69
324.939	1813.69
325.168	681.69
325.397	220.69
325.626	150.69
325.855	122.69
326.084	113.69
326.313	123.69
326.542	131.69
326.77	195.69
326.999	382.69
327.228	779.69
327.457	1351.69
327.686	1108.69
327.914	327.69
328.143	207.69
328.372	217.69
328.6	148.69
328.829	115.69
329.058	120.69
329.287	123.69
329.515	105.69
329.744	125.69
329.972	155.69
330.201	228.69
330.43	297.69
330.658	189.69
330.887	135.69
331.115	115.69
331.344	92.69
331.572	101.69
331.801	104.69
332.03	93.69
332.258	83.69
332.486	82.69
332.715	96.69
332.943	108.69
333.172	97.69
333.4	104.69
333.629	99.69
333.857	121.69
334.085	140.69
334.314	232.69
334.542	364.69
334.771	341.69
334.999	132.69
335.227	112.69
335.455	94.69
335.684	100.69
335.912	109.69
336.14	100.69
336.369	84.69
336.597	94.69
336.825	103.69
337.053	88.69
337.281	108.69
337.51	104.69
337.738	93.69
337.966	92.69
338.194	96.69
338.422	102.69
338.65	86.69
338.878	81.69
339.106	83.69
339.334	84.69
339.562	94.69
339.79	97.69
340.018	89.69
340.246	96.69
340.474	94.69
340.702	102.69
340.93	91.69
341.158	91.69
341.386	96.69
341.614	89.69
341.842	87.69
342.07	92.69
342.298	98.69
342.526	100.69
342.754	93.69
342.981	79.69
343.209	83.69
343.437	87.69
343.665	93.69
343.893	91.69
344.12	91.69
344.348	81.69
344.576	96.69
344.804	73.69
345.031	87.69
345.259	81.69
345.487	84.69
345.714	90.69
345.942	95.69
346.17	78.69
346.397	96.69
346.625	105.69
346.853	91.69
347.08	101.69
347.308	85.69
347.535	99.69
347.763	88.69
347.99	86.69
348.218	92.69
348.445	82.69
348.673	91.69
348.9	91.69
349.128	93.69
349.355	89.69
349.583	92.69
349.81	93.69
350.037	85.69
350.265	83.69
350.492	85.69
350.72	92.69
350.947	102.69
351.174	104.69
351.402	112.69
351.629	107.69
351.856	91.69
352.083	89.69
352.311	101.69
352.538	96.69
352.765	122.69
352.992	110.69
353.22	120.69
353.447	112.69
353.674	89.69
353.901	92.69
354.128	86.69
354.355	85.69
354.583	97.69
354.81	101.69
355.037	86.69
355.264	86.69
355.491	80.69
355.718	103.69
355.945	99.69
356.172	93.69
356.399	98.69
356.626	102.69
356.853	99.69
357.08	94.69
357.307	85.69
357.534	105.69
357.761	91.69
357.988	96.69
358.215	96.69
358.441	101.69
358.668	100.69
358.895	95.69
359.122	93.69
359.349	81.69
359.576	102.69
359.802	100.69
360.029	97.69
360.256	117.69
360.483	100.69
360.709	88.69
360.936	100.69
361.163	91.69
361.39	99.69
361.616	89.69
361.843	100.69
362.07	101.69
362.296	88.69
362.523	73.69
362.749	71.69
362.976	96.69
363.203	88.69
363.429	92.69
363.656	88.69
363.882	86.69
364.109	87.69
364.335	84.69
364.562	77.69
364.788	87.69
365.015	85.69
365.241	98.69
365.468	98.69
365.694	89.69
365.92	94.69
366.147	97.69
366.373	93.69
366.599	99.69
366.826	98.69
367.052	95.69
367.278	98.69
367.505	87.69
367.731	88.69
367.957	97.69
368.184	99.69
368.41	95.69
368.636	106.69
368.862	118.69
369.089	106.69
369.315	113.69
369.541	84.69
369.767	90.69
369.993	93.69
370.219	85.69
370.445	90.69
370.672	91.69
370.898	83.69
371.124	75.69
371.35	76.69
371.576	95.69
371.802	91.69
372.028	91.69
372.254	80.69
372.48	95.69
372.706	87.69
372.932	82.69
373.158	92.69
373.384	88.69
373.61	81.69
373.835	96.69
374.061	99.69
374.287	104.69
374.513	100.69
374.739	86.69
374.965	83.69
375.191	80.69
375.416	79.69
375.642	98.69
375.868	96.69
376.094	93.69
376.319	88.69
376.545	80.69
376.771	92.69
376.997	83.69
377.222	85.69
377.448	95.69
377.674	97.69
377.899	88.69
378.125	95.69
378.35	105.69
378.576	98.69
378.802	101.69
379.027	102.69
379.253	104.69
379.478	104.69
379.704	109.69
379.929	102.69
380.155	87.69
380.38	93.69
380.606	104.69
380.831	108.69
381.057	103.69
381.282	101.69
381.507	111.69
381.733	111.69
381.958	110.69
382.184	107.69
382.409	117.69
382.634	127.69
382.86	101.69
383.085	102.69
383.31	121.69
383.535	120.69
383.761	129.69
383.986	108.69
384.211	104.69
384.436	119.69
384.662	126.69
384.887	128.69
385.112	149.69
385.337	149.69
385.562	129.69
385.787	126.69
386.013	123.69
386.238	167.69
386.463	114.69
386.688	147.69
386.913	143.69
387.138	144.69
387.363	125.69
387.588	133.69
387.813	125.69
388.038	135.69
388.263	157.69
388.488	131.69
388.713	101.69
388.938	108.69
389.163	92.69
389.387	96.69
389.612	97.69
389.837	96.69
390.062	84.69
390.287	102.69
390.512	85.69
390.736	91.69
390.961	95.69
391.186	83.69
391.411	92.69
391.636	85.69
391.86	85.69
392.085	100.69
392.31	88.69
392.534	94.69
392.759	81.69
392.984	85.69
393.208	109.69
393.433	126.69
393.658	99.69
393.882	90.69
394.107	97.69
394.331	96.69
394.556	93.69
394.78	79.69
395.005	82.69
395.229	80.69
395.454	77.69
395.678	85.69
395.903	92.69
396.127	91.69
396.352	90.69
396.576	87.69
396.801	95.69
397.025	109.69
397.249	103.69
397.474	101.69
397.698	71.69
397.922	86.69
398.147	97.69
398.371	81.69
398.595	88.69
398.82	93.69
399.044	83.69
399.268	87.69
399.492	100.69
399.717	94.69
399.941	79.69
400.165	83.69
400.389	85.69
400.613	91.69
400.837	90.69
401.062	83.69
401.286	95.69
401.51	104.69
401.734	96.69
401.958	71.69
402.182	101.69
402.406	147.69
402.63	118.69
402.854	90.69
403.078	95.69
403.302	78.69
403.526	85.69
403.75	95.69
403.974	93.69
404.198	84.69
404.422	81.69
404.645	99.69
404.869	87.69
405.093	97.69
405.317	109.69
405.541	104.69
405.765	91.69
405.988	106.69
406.212	161.69
406.436	188.69
406.66	144.69
406.883	93.69
407.107	87.69
407.331	90.69
407.555	104.69
407.778	69.69
408.002	94.69
408.226	79.69
408.449	86.69
408.673	93.69
408.896	82.69
409.12	91.69
409.344	94.69
409.567	95.69
409.791	82.69
410.014	88.69
410.238	104.69
410.461	86.69
410.685	94.69
410.908	89.69
411.132	105.69
411.355	111.69
411.578	93.69
411.802	82.69
412.025	88.69
412.249	92.69
412.472	103.69
412.695	117.69
412.919	97.69
413.142	94.69
413.365	73.69
413.589	95.69
413.812	98.69
414.035	98.69
414.258	91.69
414.482	83.69
414.705	84.69
414.928	90.69
415.151	101.69
415.374	89.69
415.597	102.69
415.821	86.69
416.044	92.69
416.267	83.69
416.49	95.69
416.713	94.69
416.936	88.69
417.159	88.69
417.382	84.69
417.605	95.69
417.828	99.69
418.051	97.69
418.274	103.69
418.497	90.69
418.72	86.69
418.943	96.69
419.166	77.69
419.389	88.69
419.611	98.69
419.834	87.69
420.057	95.69
420.28	79.69
420.503	92.69
420.726	91.69
420.948	91.69
421.171	92.69
421.394	96.69
421.617	95.69
421.839	87.69
422.062	83.69
422.285	93.69
422.507	87.69
422.73	98.69
422.953	113.69
423.175	87.69
423.398	93.69
423.621	85.69
423.843	72.69
424.066	70.69
424.288	79.69
424.511	98.69
424.733	93.69
424.956	101.69
425.178	102.69
425.401	94.69
425.623	74.69
425.846	87.69
426.068	87.69
426.291	89.69
426.513	85.69
426.735	75.69
426.958	87.69
427.18	90.69
427.402	118.69
427.625	152.69
427.847	129.69
428.069	131.69
428.292	103.69
428.514	83.69
428.736	97.69
428.958	85.69
429.181	99.69
429.403	70.69
429.625	75.69
429.847	90.69
430.069	112.69
430.292	91.69
430.514	96.69
430.736	91.69
430.958	91.69
431.18	84.69
431.402	79.69
431.624	90.69
431.846	83.69
432.068	78.69
432.29	84.69
432.512	84.69
432.734	83.69
432.956	94.69
433.178	102.69
433.4	89.69
433.622	85.69
433.844	96.69
434.066	100.69
434.287	96.69
434.509	85.69
434.731	79.69
434.953	86.69
435.175	88.69
435.397	87.69
435.618	101.69
435.84	93.69
436.062	102.69
436.284	96.69
436.505	92.69
436.727	79.69
436.949	86.69
437.17	90.69
437.392	97.69
437.614	76.69
437.835	105.69
438.057	103.69
438.278	105.69
438.5	106.69
438.721	109.69
438.943	85.69
439.165	79.69
439.386	80.69
439.608	96.69
439.829	96.69
440.05	129.69
440.272	122.69
440.493	105.69
440.715	100.69
440.936	80.69
441.158	80.69
441.379	85.69
441.6	81.69
441.822	97.69
442.043	86.69
442.264	86.69
442.486	95.69
442.707	83.69
442.928	87.69
443.149	110.69
443.371	134.69
443.592	96.69
443.813	110.69
444.034	105.69
444.255	91.69
444.476	106.69
444.698	92.69
444.919	88.69
445.14	128.69
445.361	123.69
445.582	109.69
445.803	129.69
446.024	119.69
446.245	128.69
446.466	96.69
446.687	99.69
446.908	101.69
447.129	83.69
447.35	81.69
447.571	100.69
447.792	100.69
448.013	76.69
448.234	93.69
448.455	109.69
448.675	103.69
448.896	115.69
449.117	86.69
449.338	92.69
449.559	108.69
449.779	102.69
450	103.69
450.221	86.69
450.442	67.69
450.662	87.69
450.883	97.69
451.104	98.69
451.324	90.69
451.545	77.69
451.766	83.69
451.986	81.69
452.207	90.69
452.428	89.69
452.648	96.69
452.869	111.69
453.089	100.69
453.31	103.69
453.53	96.69
453.751	91.69
453.971	104.69
454.192	103.69
454.412	85.69
454.633	95.69
454.853	76.69
455.073	79.69
455.294	87.69
455.514	91.69
455.734	73.69
455.955	75.69
456.175	87.69
456.395	82.69
456.616	82.69
456.836	87.69
457.056	91.69
457.276	80.69
457.497	87.69
457.717	89.69
457.937	79.69
458.157	93.69
458.377	84.69
458.598	101.69
458.818	118.69
459.038	130.69
459.258	111.69
459.478	85.69
459.698	77.69
459.918	89.69
460.138	80.69
460.358	68.69
460.578	85.69
460.798	88.69
461.018	84.69
461.238	93.69
461.458	92.69
461.678	76.69
461.898	96.69
462.118	95.69
462.338	90.69
462.558	82.69
462.777	91.69
462.997	84.69
463.217	89.69
463.437	80.69
463.657	92.69
463.876	79.69
464.096	99.69
464.316	74.69
464.536	92.69
464.755	88.69
464.975	100.69
465.195	146.69
465.414	155.69
465.634	83.69
465.854	94.69
466.073	83.69
466.293	86.69
466.512	81.69
466.732	98.69
466.951	80.69
467.171	88.69
467.391	87.69
467.61	104.69
467.829	124.69
468.049	173.69
468.268	211.69
468.488	113.69
468.707	95.69
468.927	95.69
469.146	102.69
469.365	77.69
469.585	85.69
469.804	89.69
470.023	103.69
470.243	84.69
470.462	95.69
470.681	106.69
470.901	77.69
471.12	83.69
471.339	91.69
471.558	91.69
471.777	93.69
471.997	125.69
472.216	274.69
472.435	518.69
472.654	172.69
472.873	96.69
473.092	91.69
473.311	97.69
473.53	97.69
473.749	94.69
473.968	95.69
474.187	85.69
474.406	87.69
474.625	95.69
474.844	84.69
475.063	89.69
475.282	84.69
475.501	85.69
475.72	96.69
475.939	93.69
476.158	97.69
476.377	88.69
476.596	101.69
476.814	95.69
477.033	88.69
477.252	92.69
477.471	80.69
477.69	77.69
477.908	83.69
478.127	83.69
478.346	97.69
478.564	86.69
478.783	95.69
479.002	79.69
479.22	82.69
479.439	93.69
479.658	103.69
479.876	88.69
480.095	96.69
480.313	95.69
480.532	94.69
480.751	130.69
480.969	260.69
481.188	871.69
481.406	533.69
481.624	148.69
481.843	91.69
482.061	96.69
482.28	102.69
482.498	87.69
482.717	94.69
482.935	88.69
483.153	92.69
483.372	83.69
483.59	100.69
483.808	87.69
484.027	91.69
484.245	85.69
484.463	83.69
484.681	93.69
484.9	85.69
485.118	93.69
485.336	92.69
485.554	105.69
485.772	102.69
485.99	102.69
486.209	115.69
486.427	117.69
486.645	122.69
486.863	124.69
487.081	102.69
487.299	92.69
487.517	82.69
487.735	100.69
487.953	103.69
488.171	84.69
488.389	94.69
488.607	93.69
488.825	79.69
489.043	86.69
489.261	90.69
489.479	85.69
489.696	84.69
489.914	93.69
490.132	78.69
490.35	79.69
490.568	79.69
490.786	80.69
491.003	88.69
491.221	96.69
491.439	84.69
491.657	93.69
491.874	95.69
492.092	85.69
492.31	83.69
492.527	94.69
492.745	99.69
492.963	95.69
493.18	101.69
493.398	101.69
493.615	102.69
493.833	99.69
494.05	92.69
494.268	88.69
494.485	69.69
494.703	98.69
494.92	95.69
495.138	78.69
495.355	76.69
495.573	86.69
495.79	97.69
496.008	87.69
496.225	99.69
496.442	83.69
496.66	92.69
496.877	81.69
497.094	91.69
497.312	85.69
497.529	81.69
497.746	93.69
497.963	84.69
498.181	98.69
498.398	80.69
498.615	101.69
498.832	97.69
499.049	94.69
499.267	81.69
499.484	78.69
499.701	96.69
499.918	101.69
500.135	82.69
500.352	90.69
500.569	88.69
500.786	96.69
501.003	76.69
501.22	92.69
501.437	96.69
501.654	85.69
501.871	112.69
502.088	95.69
502.305	89.69
502.522	84.69
502.739	90.69
502.956	93.69
503.172	86.69
503.389	79.69
503.606	98.69
503.823	96.69
504.04	69.69
504.256	93.69
504.473	82.69
504.69	95.69
504.907	97.69
505.123	101.69
505.34	91.69
505.557	81.69
505.773	100.69
505.99	91.69
506.207	98.69
506.423	80.69
506.64	77.69
506.856	97.69
507.073	93.69
507.289	79.69
507.506	87.69
507.722	103.69
507.939	104.69
508.155	88.69
508.372	87.69
508.588	77.69
508.805	95.69
509.021	91.69
509.238	109.69
509.454	104.69
509.67	98.69
509.887	104.69
510.103	123.69
510.319	186.69
510.536	594.69
510.752	1839.69
510.968	555.69
511.184	136.69
511.401	118.69
511.617	85.69
511.833	97.69
512.049	88.69
512.265	87.69
512.481	91.69
512.698	91.69
512.914	86.69
513.13	85.69
513.346	91.69
513.562	100.69
513.778	81.69
513.994	108.69
514.21	91.69
514.426	95.69
514.642	119.69
514.858	109.69
515.074	133.69
515.29	368.69
515.506	1184.69
515.721	431.69
