Data from Circ_1989_H10_HRD10591_00039.txt Node
Date: Wed Jan 03 12:01:29 EST 2024
User: Yrep
Spectrometer: HR+D1059
Trigger mode: 1
Integration Time (sec): 1.000000E-1
Scans to average: 1
Electric dark correction enabled: true
Nonlinearity correction enabled: false
Boxcar width: 0
XAxis mode: Wavelengths
Number of Pixels in Spectrum: 2048
>>>>>Begin Spectral Data<<<<<
223.165	-23.31
223.4	-23.31
223.635	-23.31
223.869	-3.31
224.104	-7.31
224.338	-10.31
224.573	-18.31
224.808	-12.31
225.042	0.69
225.277	-3.31
225.511	-2.31
225.746	1.69
225.98	-0.31
226.215	17.69
226.449	9.69
226.683	17.69
226.918	12.69
227.152	20.69
227.387	22.69
227.621	24.69
227.856	37.69
228.09	50.69
228.324	49.69
228.559	69.69
228.793	56.69
229.027	53.69
229.262	55.69
229.496	58.69
229.73	73.69
229.964	76.69
230.199	64.69
230.433	76.69
230.667	74.69
230.901	76.69
231.136	75.69
231.37	65.69
231.604	88.69
231.838	88.69
232.072	69.69
232.306	94.69
232.541	62.69
232.775	55.69
233.009	86.69
233.243	81.69
233.477	79.69
233.711	85.69
233.945	81.69
234.179	79.69
234.413	86.69
234.647	73.69
234.881	83.69
235.115	66.69
235.349	66.69
235.583	65.69
235.817	74.69
236.051	76.69
236.285	78.69
236.519	73.69
236.753	85.69
236.987	83.69
237.221	73.69
237.455	74.69
237.689	84.69
237.922	65.69
238.156	82.69
238.39	72.69
238.624	80.69
238.858	73.69
239.091	68.69
239.325	78.69
239.559	82.69
239.793	65.69
240.027	74.69
240.26	64.69
240.494	61.69
240.728	87.69
240.961	72.69
241.195	80.69
241.429	82.69
241.662	73.69
241.896	72.69
242.13	84.69
242.363	72.69
242.597	65.69
242.83	93.69
243.064	67.69
243.298	81.69
243.531	64.69
243.765	78.69
243.998	70.69
244.232	65.69
244.465	79.69
244.699	88.69
244.932	73.69
245.166	74.69
245.399	75.69
245.633	79.69
245.866	76.69
246.099	79.69
246.333	81.69
246.566	75.69
246.8	83.69
247.033	68.69
247.266	83.69
247.5	84.69
247.733	80.69
247.966	89.69
248.2	62.69
248.433	60.69
248.666	69.69
248.899	90.69
249.133	92.69
249.366	86.69
249.599	97.69
249.832	81.69
250.066	82.69
250.299	65.69
250.532	81.69
250.765	69.69
250.998	78.69
251.231	64.69
251.465	69.69
251.698	78.69
251.931	84.69
252.164	88.69
252.397	83.69
252.63	85.69
252.863	84.69
253.096	72.69
253.329	76.69
253.562	75.69
253.795	70.69
254.028	76.69
254.261	82.69
254.494	70.69
254.727	76.69
254.96	82.69
255.193	73.69
255.426	80.69
255.659	77.69
255.892	84.69
256.124	79.69
256.357	66.69
256.59	73.69
256.823	62.69
257.056	82.69
257.289	92.69
257.521	85.69
257.754	93.69
257.987	75.69
258.22	77.69
258.452	69.69
258.685	83.69
258.918	80.69
259.151	73.69
259.383	76.69
259.616	80.69
259.849	76.69
260.081	90.69
260.314	88.69
260.547	72.69
260.779	79.69
261.012	88.69
261.244	97.69
261.477	81.69
261.71	94.69
261.942	96.69
262.175	92.69
262.407	88.69
262.64	75.69
262.872	85.69
263.105	74.69
263.337	81.69
263.57	85.69
263.802	73.69
264.035	87.69
264.267	78.69
264.499	74.69
264.732	83.69
264.964	83.69
265.197	84.69
265.429	61.69
265.661	79.69
265.894	83.69
266.126	77.69
266.358	81.69
266.591	66.69
266.823	89.69
267.055	88.69
267.287	76.69
267.52	75.69
267.752	88.69
267.984	81.69
268.216	81.69
268.448	88.69
268.681	82.69
268.913	79.69
269.145	79.69
269.377	77.69
269.609	86.69
269.841	102.69
270.073	80.69
270.306	84.69
270.538	83.69
270.77	69.69
271.002	70.69
271.234	82.69
271.466	78.69
271.698	86.69
271.93	78.69
272.162	70.69
272.394	77.69
272.626	82.69
272.858	89.69
273.09	89.69
273.322	89.69
273.553	84.69
273.785	76.69
274.017	68.69
274.249	85.69
274.481	84.69
274.713	77.69
274.945	80.69
275.176	85.69
275.408	93.69
275.64	80.69
275.872	93.69
276.104	79.69
276.335	77.69
276.567	101.69
276.799	97.69
277.031	102.69
277.262	97.69
277.494	96.69
277.726	77.69
277.957	86.69
278.189	81.69
278.421	81.69
278.652	77.69
278.884	98.69
279.115	89.69
279.347	74.69
279.579	83.69
279.81	87.69
280.042	111.69
280.273	126.69
280.505	96.69
280.736	80.69
280.968	94.69
281.199	90.69
281.431	80.69
281.662	87.69
281.894	85.69
282.125	102.69
282.356	123.69
282.588	112.69
282.819	108.69
283.051	77.69
283.282	89.69
283.513	80.69
283.745	69.69
283.976	72.69
284.207	86.69
284.439	88.69
284.67	95.69
284.901	72.69
285.132	83.69
285.364	78.69
285.595	67.69
285.826	97.69
286.057	86.69
286.288	73.69
286.52	88.69
286.751	80.69
286.982	76.69
287.213	81.69
287.444	82.69
287.675	85.69
287.906	84.69
288.138	96.69
288.369	78.69
288.6	95.69
288.831	86.69
289.062	78.69
289.293	89.69
289.524	80.69
289.755	80.69
289.986	85.69
290.217	83.69
290.448	87.69
290.679	80.69
290.91	82.69
291.141	89.69
291.371	86.69
291.602	84.69
291.833	82.69
292.064	85.69
292.295	86.69
292.526	93.69
292.757	91.69
292.987	73.69
293.218	77.69
293.449	83.69
293.68	89.69
293.91	79.69
294.141	91.69
294.372	82.69
294.603	90.69
294.833	88.69
295.064	80.69
295.295	85.69
295.525	84.69
295.756	101.69
295.987	108.69
296.217	110.69
296.448	114.69
296.679	90.69
296.909	91.69
297.14	86.69
297.37	80.69
297.601	95.69
297.831	91.69
298.062	77.69
298.292	85.69
298.523	86.69
298.753	77.69
298.984	87.69
299.214	82.69
299.445	100.69
299.675	90.69
299.905	88.69
300.136	106.69
300.366	76.69
300.597	108.69
300.827	84.69
301.057	103.69
301.288	105.69
301.518	78.69
301.748	97.69
301.979	109.69
302.209	98.69
302.439	80.69
302.669	84.69
302.9	75.69
303.13	77.69
303.36	93.69
303.59	101.69
303.82	106.69
304.051	100.69
304.281	84.69
304.511	84.69
304.741	90.69
304.971	97.69
305.201	94.69
305.431	86.69
305.661	95.69
305.891	94.69
306.121	92.69
306.352	106.69
306.582	93.69
306.812	105.69
307.042	97.69
307.272	95.69
307.502	112.69
307.731	116.69
307.961	84.69
308.191	90.69
308.421	83.69
308.651	100.69
308.881	68.69
309.111	76.69
309.341	89.69
309.571	88.69
309.8	93.69
310.03	94.69
310.26	97.69
310.49	96.69
310.72	94.69
310.949	80.69
311.179	100.69
311.409	80.69
311.639	104.69
311.868	84.69
312.098	105.69
312.328	99.69
312.557	100.69
312.787	105.69
313.017	93.69
313.246	99.69
313.476	88.69
313.706	92.69
313.935	89.69
314.165	90.69
314.394	91.69
314.624	92.69
314.853	94.69
315.083	104.69
315.312	88.69
315.542	92.69
315.771	98.69
316.001	87.69
316.23	97.69
316.46	101.69
316.689	107.69
316.919	82.69
317.148	92.69
317.377	101.69
317.607	84.69
317.836	70.69
318.065	80.69
318.295	89.69
318.524	78.69
318.753	92.69
318.983	83.69
319.212	89.69
319.441	104.69
319.67	110.69
319.9	98.69
320.129	85.69
320.358	102.69
320.587	108.69
320.816	93.69
321.046	94.69
321.275	85.69
321.504	100.69
321.733	93.69
321.962	97.69
322.191	92.69
322.42	92.69
322.649	91.69
322.878	105.69
323.108	111.69
323.337	106.69
323.566	118.69
323.795	127.69
324.024	170.69
324.253	306.69
324.482	617.69
324.71	1262.69
324.939	1733.69
325.168	650.69
325.397	192.69
325.626	126.69
325.855	99.69
326.084	114.69
326.313	115.69
326.542	144.69
326.77	206.69
326.999	352.69
327.228	702.69
327.457	1346.69
327.686	1110.69
327.914	339.69
328.143	246.69
328.372	264.69
328.6	166.69
328.829	113.69
329.058	113.69
329.287	130.69
329.515	113.69
329.744	131.69
329.972	196.69
330.201	337.69
330.43	468.69
330.658	239.69
330.887	150.69
331.115	130.69
331.344	97.69
331.572	94.69
331.801	98.69
332.03	99.69
332.258	100.69
332.486	90.69
332.715	93.69
332.943	82.69
333.172	95.69
333.4	97.69
333.629	101.69
333.857	148.69
334.085	208.69
334.314	330.69
334.542	585.69
334.771	531.69
334.999	173.69
335.227	114.69
335.455	106.69
335.684	94.69
335.912	103.69
336.14	99.69
336.369	102.69
336.597	94.69
336.825	91.69
337.053	96.69
337.281	86.69
337.51	87.69
337.738	78.69
337.966	78.69
338.194	93.69
338.422	94.69
338.65	91.69
338.878	108.69
339.106	89.69
339.334	94.69
339.562	80.69
339.79	79.69
340.018	78.69
340.246	88.69
340.474	83.69
340.702	92.69
340.93	97.69
341.158	90.69
341.386	86.69
341.614	93.69
341.842	91.69
342.07	80.69
342.298	86.69
342.526	89.69
342.754	75.69
342.981	97.69
343.209	89.69
343.437	82.69
343.665	91.69
343.893	80.69
344.12	94.69
344.348	86.69
344.576	81.69
344.804	77.69
345.031	98.69
345.259	95.69
345.487	90.69
345.714	85.69
345.942	79.69
346.17	76.69
346.397	72.69
346.625	86.69
346.853	76.69
347.08	84.69
347.308	93.69
347.535	65.69
347.763	89.69
347.99	94.69
348.218	93.69
348.445	96.69
348.673	88.69
348.9	111.69
349.128	99.69
349.355	86.69
349.583	81.69
349.81	74.69
350.037	91.69
350.265	97.69
350.492	95.69
350.72	86.69
350.947	106.69
351.174	93.69
351.402	105.69
351.629	90.69
351.856	80.69
352.083	107.69
352.311	108.69
352.538	96.69
352.765	100.69
352.992	95.69
353.22	92.69
353.447	90.69
353.674	92.69
353.901	82.69
354.128	97.69
354.355	82.69
354.583	96.69
354.81	92.69
355.037	102.69
355.264	95.69
355.491	87.69
355.718	96.69
355.945	92.69
356.172	99.69
356.399	92.69
356.626	83.69
356.853	98.69
357.08	96.69
357.307	87.69
357.534	72.69
357.761	92.69
357.988	92.69
358.215	96.69
358.441	86.69
358.668	84.69
358.895	95.69
359.122	91.69
359.349	80.69
359.576	78.69
359.802	93.69
360.029	97.69
360.256	107.69
360.483	91.69
360.709	93.69
360.936	81.69
361.163	95.69
361.39	83.69
361.616	99.69
361.843	89.69
362.07	83.69
362.296	96.69
362.523	84.69
362.749	86.69
362.976	98.69
363.203	91.69
363.429	84.69
363.656	91.69
363.882	91.69
364.109	99.69
364.335	96.69
364.562	87.69
364.788	93.69
365.015	102.69
365.241	88.69
365.468	85.69
365.694	89.69
365.92	91.69
366.147	93.69
366.373	89.69
366.599	101.69
366.826	87.69
367.052	82.69
367.278	86.69
367.505	80.69
367.731	83.69
367.957	87.69
368.184	83.69
368.41	92.69
368.636	109.69
368.862	109.69
369.089	92.69
369.315	95.69
369.541	79.69
369.767	91.69
369.993	101.69
370.219	81.69
370.445	92.69
370.672	69.69
370.898	74.69
371.124	90.69
371.35	100.69
371.576	86.69
371.802	86.69
372.028	82.69
372.254	81.69
372.48	70.69
372.706	83.69
372.932	82.69
373.158	79.69
373.384	82.69
373.61	98.69
373.835	93.69
374.061	85.69
374.287	81.69
374.513	78.69
374.739	93.69
374.965	89.69
375.191	85.69
375.416	85.69
375.642	79.69
375.868	83.69
376.094	84.69
376.319	78.69
376.545	81.69
376.771	81.69
376.997	91.69
377.222	86.69
377.448	89.69
377.674	90.69
377.899	92.69
378.125	86.69
378.35	98.69
378.576	90.69
378.802	84.69
379.027	88.69
379.253	78.69
379.478	84.69
379.704	83.69
379.929	84.69
380.155	90.69
380.38	105.69
380.606	96.69
380.831	97.69
381.057	108.69
381.282	77.69
381.507	97.69
381.733	101.69
381.958	82.69
382.184	80.69
382.409	95.69
382.634	102.69
382.86	91.69
383.085	95.69
383.31	113.69
383.535	114.69
383.761	85.69
383.986	100.69
384.211	92.69
384.436	98.69
384.662	99.69
384.887	95.69
385.112	99.69
385.337	97.69
385.562	98.69
385.787	99.69
386.013	104.69
386.238	100.69
386.463	93.69
386.688	104.69
386.913	103.69
387.138	98.69
387.363	95.69
387.588	76.69
387.813	89.69
388.038	107.69
388.263	115.69
388.488	102.69
388.713	105.69
388.938	89.69
389.163	88.69
389.387	95.69
389.612	85.69
389.837	83.69
390.062	98.69
390.287	85.69
390.512	92.69
390.736	85.69
390.961	80.69
391.186	95.69
391.411	96.69
391.636	76.69
391.86	77.69
392.085	86.69
392.31	83.69
392.534	92.69
392.759	84.69
392.984	87.69
393.208	76.69
393.433	88.69
393.658	88.69
393.882	91.69
394.107	88.69
394.331	70.69
394.556	92.69
394.78	97.69
395.005	87.69
395.229	83.69
395.454	88.69
395.678	76.69
395.903	94.69
396.127	83.69
396.352	88.69
396.576	89.69
396.801	95.69
397.025	104.69
397.249	80.69
397.474	79.69
397.698	93.69
397.922	84.69
398.147	77.69
398.371	85.69
398.595	89.69
398.82	84.69
399.044	82.69
399.268	77.69
399.492	88.69
399.717	90.69
399.941	95.69
400.165	88.69
400.389	96.69
400.613	75.69
400.837	85.69
401.062	95.69
401.286	72.69
401.51	88.69
401.734	89.69
401.958	102.69
402.182	130.69
402.406	142.69
402.63	103.69
402.854	88.69
403.078	66.69
403.302	90.69
403.526	82.69
403.75	91.69
403.974	93.69
404.198	106.69
404.422	100.69
404.645	80.69
404.869	81.69
405.093	90.69
405.317	102.69
405.541	114.69
405.765	85.69
405.988	101.69
406.212	147.69
406.436	172.69
406.66	124.69
406.883	90.69
407.107	84.69
407.331	92.69
407.555	101.69
407.778	104.69
408.002	84.69
408.226	95.69
408.449	89.69
408.673	88.69
408.896	82.69
409.12	84.69
409.344	86.69
409.567	85.69
409.791	98.69
410.014	84.69
410.238	84.69
410.461	79.69
410.685	86.69
410.908	82.69
411.132	98.69
411.355	86.69
411.578	92.69
411.802	80.69
412.025	89.69
412.249	99.69
412.472	94.69
412.695	108.69
412.919	81.69
413.142	77.69
413.365	83.69
413.589	74.69
413.812	96.69
414.035	93.69
414.258	84.69
414.482	102.69
414.705	84.69
414.928	81.69
415.151	78.69
415.374	87.69
415.597	84.69
415.821	83.69
416.044	73.69
416.267	88.69
416.49	89.69
416.713	84.69
416.936	89.69
417.159	99.69
417.382	100.69
417.605	101.69
417.828	80.69
418.051	92.69
418.274	92.69
418.497	81.69
418.72	82.69
418.943	81.69
419.166	79.69
419.389	86.69
419.611	81.69
419.834	86.69
420.057	80.69
420.28	88.69
420.503	93.69
420.726	81.69
420.948	92.69
421.171	82.69
421.394	94.69
421.617	92.69
421.839	96.69
422.062	90.69
422.285	77.69
422.507	94.69
422.73	85.69
422.953	74.69
423.175	88.69
423.398	84.69
423.621	97.69
423.843	84.69
424.066	76.69
424.288	88.69
424.511	90.69
424.733	85.69
424.956	89.69
425.178	95.69
425.401	94.69
425.623	97.69
425.846	79.69
426.068	91.69
426.291	98.69
426.513	77.69
426.735	74.69
426.958	90.69
427.18	95.69
427.402	135.69
427.625	149.69
427.847	152.69
428.069	139.69
428.292	93.69
428.514	104.69
428.736	84.69
428.958	72.69
429.181	79.69
429.403	78.69
429.625	89.69
429.847	92.69
430.069	98.69
430.292	79.69
430.514	86.69
430.736	72.69
430.958	97.69
431.18	85.69
431.402	81.69
431.624	77.69
431.846	96.69
432.068	86.69
432.29	90.69
432.512	93.69
432.734	92.69
432.956	90.69
433.178	81.69
433.4	106.69
433.622	79.69
433.844	81.69
434.066	91.69
434.287	78.69
434.509	87.69
434.731	85.69
434.953	81.69
435.175	86.69
435.397	88.69
435.618	100.69
435.84	102.69
436.062	109.69
436.284	92.69
436.505	75.69
436.727	85.69
436.949	90.69
437.17	90.69
437.392	77.69
437.614	74.69
437.835	98.69
438.057	114.69
438.278	93.69
438.5	99.69
438.721	103.69
438.943	102.69
439.165	84.69
439.386	90.69
439.608	94.69
439.829	82.69
440.05	107.69
440.272	128.69
440.493	100.69
440.715	96.69
440.936	82.69
441.158	101.69
441.379	92.69
441.6	104.69
441.822	99.69
442.043	94.69
442.264	101.69
442.486	93.69
442.707	84.69
442.928	99.69
443.149	110.69
443.371	119.69
443.592	105.69
443.813	101.69
444.034	74.69
444.255	74.69
444.476	83.69
444.698	88.69
444.919	83.69
445.14	146.69
445.361	108.69
445.582	94.69
445.803	126.69
446.024	128.69
446.245	126.69
446.466	107.69
446.687	84.69
446.908	95.69
447.129	99.69
447.35	100.69
447.571	100.69
447.792	76.69
448.013	97.69
448.234	87.69
448.455	91.69
448.675	89.69
448.896	103.69
449.117	94.69
449.338	101.69
449.559	113.69
449.779	122.69
450	89.69
450.221	94.69
450.442	90.69
450.662	75.69
450.883	96.69
451.104	95.69
451.324	70.69
451.545	101.69
451.766	69.69
451.986	77.69
452.207	93.69
452.428	90.69
452.648	86.69
452.869	107.69
453.089	101.69
453.31	95.69
453.53	91.69
453.751	91.69
453.971	106.69
454.192	100.69
454.412	95.69
454.633	98.69
454.853	74.69
455.073	73.69
455.294	95.69
455.514	100.69
455.734	88.69
455.955	85.69
456.175	88.69
456.395	90.69
456.616	74.69
456.836	83.69
457.056	74.69
457.276	91.69
457.497	82.69
457.717	88.69
457.937	73.69
458.157	87.69
458.377	75.69
458.598	94.69
458.818	130.69
459.038	138.69
459.258	112.69
459.478	84.69
459.698	77.69
459.918	95.69
460.138	89.69
460.358	72.69
460.578	91.69
460.798	93.69
461.018	82.69
461.238	96.69
461.458	98.69
461.678	78.69
461.898	66.69
462.118	78.69
462.338	84.69
462.558	91.69
462.777	91.69
462.997	81.69
463.217	83.69
463.437	86.69
463.657	77.69
463.876	76.69
464.096	85.69
464.316	85.69
464.536	94.69
464.755	86.69
464.975	95.69
465.195	131.69
465.414	147.69
465.634	91.69
465.854	84.69
466.073	86.69
466.293	74.69
466.512	65.69
466.732	84.69
466.951	78.69
467.171	85.69
467.391	92.69
467.61	97.69
467.829	117.69
468.049	242.69
468.268	308.69
468.488	129.69
468.707	82.69
468.927	78.69
469.146	83.69
469.365	83.69
469.585	79.69
469.804	82.69
470.023	88.69
470.243	84.69
470.462	94.69
470.681	92.69
470.901	85.69
471.12	83.69
471.339	107.69
471.558	98.69
471.777	106.69
471.997	133.69
472.216	427.69
472.435	833.69
472.654	219.69
472.873	112.69
473.092	86.69
473.311	77.69
473.53	76.69
473.749	90.69
473.968	104.69
474.187	88.69
474.406	90.69
474.625	86.69
474.844	82.69
475.063	83.69
475.282	88.69
475.501	69.69
475.72	88.69
475.939	88.69
476.158	80.69
476.377	69.69
476.596	99.69
476.814	98.69
477.033	83.69
477.252	85.69
477.471	77.69
477.69	80.69
477.908	85.69
478.127	94.69
478.346	86.69
478.564	89.69
478.783	83.69
479.002	92.69
479.22	100.69
479.439	107.69
479.658	91.69
479.876	80.69
480.095	93.69
480.313	102.69
480.532	116.69
480.751	141.69
480.969	410.69
481.188	1422.69
481.406	851.69
481.624	172.69
481.843	103.69
482.061	99.69
482.28	92.69
482.498	83.69
482.717	77.69
482.935	87.69
483.153	81.69
483.372	77.69
483.59	103.69
483.808	96.69
484.027	76.69
484.245	90.69
484.463	93.69
484.681	96.69
484.9	82.69
485.118	96.69
485.336	97.69
485.554	84.69
485.772	83.69
485.99	97.69
486.209	93.69
486.427	113.69
486.645	97.69
486.863	104.69
487.081	96.69
487.299	84.69
487.517	98.69
487.735	91.69
487.953	91.69
488.171	75.69
488.389	89.69
488.607	88.69
488.825	85.69
489.043	76.69
489.261	81.69
489.479	98.69
489.696	90.69
489.914	98.69
490.132	106.69
490.35	76.69
490.568	86.69
490.786	73.69
491.003	84.69
491.221	90.69
491.439	83.69
491.657	92.69
491.874	90.69
492.092	87.69
492.31	92.69
492.527	83.69
492.745	83.69
492.963	67.69
493.18	93.69
493.398	90.69
493.615	79.69
493.833	80.69
494.05	79.69
494.268	85.69
494.485	87.69
494.703	79.69
494.92	98.69
495.138	91.69
495.355	97.69
495.573	88.69
495.79	78.69
496.008	97.69
496.225	78.69
496.442	80.69
496.66	92.69
496.877	93.69
497.094	89.69
497.312	93.69
497.529	83.69
497.746	86.69
497.963	73.69
498.181	101.69
498.398	100.69
498.615	91.69
498.832	90.69
499.049	87.69
499.267	98.69
499.484	83.69
499.701	93.69
499.918	74.69
500.135	81.69
500.352	64.69
500.569	68.69
500.786	89.69
501.003	92.69
501.22	83.69
501.437	91.69
501.654	66.69
501.871	96.69
502.088	87.69
502.305	91.69
502.522	84.69
502.739	96.69
502.956	82.69
503.172	89.69
503.389	82.69
503.606	84.69
503.823	87.69
504.04	91.69
504.256	77.69
504.473	95.69
504.69	86.69
504.907	86.69
505.123	83.69
505.34	82.69
505.557	86.69
505.773	80.69
505.99	89.69
506.207	94.69
506.423	95.69
506.64	74.69
506.856	79.69
507.073	92.69
507.289	94.69
507.506	96.69
507.722	106.69
507.939	104.69
508.155	85.69
508.372	81.69
508.588	89.69
508.805	99.69
509.021	109.69
509.238	93.69
509.454	86.69
509.67	88.69
509.887	99.69
510.103	120.69
510.319	186.69
510.536	585.69
510.752	1792.69
510.968	508.69
511.184	128.69
511.401	88.69
511.617	91.69
511.833	86.69
512.049	96.69
512.265	96.69
512.481	96.69
512.698	83.69
512.914	101.69
513.13	91.69
513.346	86.69
513.562	90.69
513.778	88.69
513.994	96.69
514.21	93.69
514.426	107.69
514.642	107.69
514.858	122.69
515.074	137.69
515.29	351.69
515.506	1116.69
515.721	436.69
515.937	128.69
516.153	104.69
516.369	98.69
516.585	105.69
516.801	82.69
