Data from Circ_1989_H10_HRD10591_00026.txt Node
Date: Wed Jan 03 12:01:26 EST 2024
User: Yrep
Spectrometer: HR+D1059
Trigger mode: 1
Integration Time (sec): 1.000000E-1
Scans to average: 1
Electric dark correction enabled: true
Nonlinearity correction enabled: false
Boxcar width: 0
XAxis mode: Wavelengths
Number of Pixels in Spectrum: 2048
>>>>>Begin Spectral Data<<<<<
223.165	-13.44
223.4	-13.44
223.635	-13.44
223.869	-24.44
224.104	-22.44
224.338	-24.44
224.573	-29.44
224.808	-14.44
225.042	-5.44
225.277	10.56
225.511	10.56
225.746	2.56
225.98	15.56
226.215	14.56
226.449	15.56
226.683	17.56
226.918	24.56
227.152	22.56
227.387	37.56
227.621	40.56
227.856	41.56
228.09	46.56
228.324	48.56
228.559	49.56
228.793	65.56
229.027	51.56
229.262	66.56
229.496	68.56
229.73	68.56
229.964	93.56
230.199	84.56
230.433	71.56
230.667	68.56
230.901	75.56
231.136	76.56
231.37	62.56
231.604	64.56
231.838	86.56
232.072	70.56
232.306	83.56
232.541	81.56
232.775	75.56
233.009	79.56
233.243	78.56
233.477	78.56
233.711	76.56
233.945	87.56
234.179	82.56
234.413	82.56
234.647	71.56
234.881	69.56
235.115	77.56
235.349	80.56
235.583	77.56
235.817	67.56
236.051	70.56
236.285	76.56
236.519	96.56
236.753	74.56
236.987	84.56
237.221	68.56
237.455	81.56
237.689	75.56
237.922	59.56
238.156	80.56
238.39	74.56
238.624	71.56
238.858	76.56
239.091	70.56
239.325	76.56
239.559	91.56
239.793	78.56
240.027	83.56
240.26	72.56
240.494	74.56
240.728	84.56
240.961	72.56
241.195	84.56
241.429	68.56
241.662	75.56
241.896	74.56
242.13	78.56
242.363	73.56
242.597	82.56
242.83	78.56
243.064	80.56
243.298	68.56
243.531	55.56
243.765	71.56
243.998	68.56
244.232	82.56
244.465	78.56
244.699	79.56
244.932	79.56
245.166	72.56
245.399	68.56
245.633	71.56
245.866	75.56
246.099	85.56
246.333	74.56
246.566	71.56
246.8	69.56
247.033	77.56
247.266	76.56
247.5	81.56
247.733	76.56
247.966	90.56
248.2	86.56
248.433	87.56
248.666	74.56
248.899	87.56
249.133	77.56
249.366	82.56
249.599	97.56
249.832	82.56
250.066	74.56
250.299	74.56
250.532	93.56
250.765	78.56
250.998	78.56
251.231	80.56
251.465	81.56
251.698	85.56
251.931	85.56
252.164	78.56
252.397	86.56
252.63	81.56
252.863	80.56
253.096	85.56
253.329	74.56
253.562	83.56
253.795	78.56
254.028	82.56
254.261	85.56
254.494	65.56
254.727	64.56
254.96	80.56
255.193	93.56
255.426	90.56
255.659	76.56
255.892	79.56
256.124	76.56
256.357	78.56
256.59	91.56
256.823	90.56
257.056	79.56
257.289	86.56
257.521	85.56
257.754	86.56
257.987	86.56
258.22	93.56
258.452	81.56
258.685	79.56
258.918	80.56
259.151	86.56
259.383	79.56
259.616	82.56
259.849	82.56
260.081	84.56
260.314	84.56
260.547	82.56
260.779	81.56
261.012	91.56
261.244	82.56
261.477	83.56
261.71	95.56
261.942	101.56
262.175	101.56
262.407	95.56
262.64	83.56
262.872	72.56
263.105	84.56
263.337	86.56
263.57	68.56
263.802	87.56
264.035	74.56
264.267	84.56
264.499	88.56
264.732	96.56
264.964	83.56
265.197	71.56
265.429	79.56
265.661	88.56
265.894	97.56
266.126	84.56
266.358	74.56
266.591	79.56
266.823	89.56
267.055	75.56
267.287	78.56
267.52	80.56
267.752	85.56
267.984	86.56
268.216	79.56
268.448	77.56
268.681	78.56
268.913	90.56
269.145	92.56
269.377	83.56
269.609	90.56
269.841	80.56
270.073	75.56
270.306	77.56
270.538	78.56
270.77	84.56
271.002	77.56
271.234	81.56
271.466	78.56
271.698	74.56
271.93	74.56
272.162	78.56
272.394	94.56
272.626	76.56
272.858	84.56
273.09	88.56
273.322	94.56
273.553	81.56
273.785	79.56
274.017	73.56
274.249	77.56
274.481	71.56
274.713	88.56
274.945	90.56
275.176	88.56
275.408	85.56
275.64	87.56
275.872	97.56
276.104	77.56
276.335	90.56
276.567	83.56
276.799	94.56
277.031	98.56
277.262	113.56
277.494	84.56
277.726	89.56
277.957	76.56
278.189	85.56
278.421	86.56
278.652	79.56
278.884	90.56
279.115	66.56
279.347	86.56
279.579	94.56
279.81	88.56
280.042	117.56
280.273	114.56
280.505	109.56
280.736	95.56
280.968	85.56
281.199	95.56
281.431	85.56
281.662	87.56
281.894	87.56
282.125	107.56
282.356	104.56
282.588	116.56
282.819	117.56
283.051	89.56
283.282	87.56
283.513	92.56
283.745	94.56
283.976	85.56
284.207	80.56
284.439	86.56
284.67	85.56
284.901	82.56
285.132	85.56
285.364	91.56
285.595	83.56
285.826	86.56
286.057	79.56
286.288	79.56
286.52	70.56
286.751	102.56
286.982	86.56
287.213	87.56
287.444	91.56
287.675	79.56
287.906	87.56
288.138	80.56
288.369	93.56
288.6	74.56
288.831	72.56
289.062	94.56
289.293	107.56
289.524	84.56
289.755	88.56
289.986	86.56
290.217	72.56
290.448	90.56
290.679	88.56
290.91	80.56
291.141	81.56
291.371	83.56
291.602	94.56
291.833	93.56
292.064	86.56
292.295	68.56
292.526	94.56
292.757	78.56
292.987	90.56
293.218	79.56
293.449	96.56
293.68	80.56
293.91	97.56
294.141	88.56
294.372	74.56
294.603	88.56
294.833	95.56
295.064	74.56
295.295	84.56
295.525	89.56
295.756	102.56
295.987	94.56
296.217	114.56
296.448	106.56
296.679	92.56
296.909	76.56
297.14	82.56
297.37	96.56
297.601	100.56
297.831	90.56
298.062	92.56
298.292	92.56
298.523	87.56
298.753	99.56
298.984	78.56
299.214	82.56
299.445	88.56
299.675	91.56
299.905	88.56
300.136	86.56
300.366	89.56
300.597	82.56
300.827	91.56
301.057	108.56
301.288	84.56
301.518	93.56
301.748	86.56
301.979	102.56
302.209	72.56
302.439	86.56
302.669	72.56
302.9	91.56
303.13	91.56
303.36	86.56
303.59	106.56
303.82	94.56
304.051	106.56
304.281	84.56
304.511	85.56
304.741	90.56
304.971	84.56
305.201	99.56
305.431	90.56
305.661	84.56
305.891	86.56
306.121	91.56
306.352	92.56
306.582	95.56
306.812	91.56
307.042	105.56
307.272	114.56
307.502	119.56
307.731	119.56
307.961	95.56
308.191	91.56
308.421	83.56
308.651	91.56
308.881	104.56
309.111	86.56
309.341	97.56
309.571	108.56
309.8	90.56
310.03	82.56
310.26	85.56
310.49	83.56
310.72	84.56
310.949	90.56
311.179	92.56
311.409	85.56
311.639	87.56
311.868	87.56
312.098	96.56
312.328	85.56
312.557	87.56
312.787	104.56
313.017	95.56
313.246	81.56
313.476	97.56
313.706	93.56
313.935	93.56
314.165	85.56
314.394	107.56
314.624	94.56
314.853	92.56
315.083	89.56
315.312	86.56
315.542	82.56
315.771	95.56
316.001	84.56
316.23	94.56
316.46	101.56
316.689	88.56
316.919	87.56
317.148	83.56
317.377	100.56
317.607	100.56
317.836	93.56
318.065	83.56
318.295	84.56
318.524	78.56
318.753	94.56
318.983	93.56
319.212	100.56
319.441	108.56
319.67	82.56
319.9	92.56
320.129	85.56
320.358	100.56
320.587	94.56
320.816	92.56
321.046	110.56
321.275	103.56
321.504	91.56
321.733	91.56
321.962	89.56
322.191	93.56
322.42	97.56
322.649	97.56
322.878	93.56
323.108	111.56
323.337	109.56
323.566	121.56
323.795	132.56
324.024	169.56
324.253	299.56
324.482	626.56
324.71	1250.56
324.939	1637.56
325.168	622.56
325.397	191.56
325.626	136.56
325.855	108.56
326.084	119.56
326.313	111.56
326.542	138.56
326.77	206.56
326.999	352.56
327.228	732.56
327.457	1290.56
327.686	1063.56
327.914	327.56
328.143	209.56
328.372	231.56
328.6	155.56
328.829	109.56
329.058	104.56
329.287	112.56
329.515	99.56
329.744	123.56
329.972	182.56
330.201	280.56
330.43	387.56
330.658	204.56
330.887	124.56
331.115	97.56
331.344	97.56
331.572	110.56
331.801	94.56
332.03	110.56
332.258	110.56
332.486	91.56
332.715	79.56
332.943	88.56
333.172	94.56
333.4	103.56
333.629	116.56
333.857	124.56
334.085	174.56
334.314	281.56
334.542	473.56
334.771	450.56
334.999	148.56
335.227	108.56
335.455	107.56
335.684	101.56
335.912	91.56
336.14	102.56
336.369	86.56
336.597	102.56
336.825	103.56
337.053	96.56
337.281	103.56
337.51	98.56
337.738	99.56
337.966	107.56
338.194	97.56
338.422	93.56
338.65	88.56
338.878	97.56
339.106	90.56
339.334	104.56
339.562	97.56
339.79	96.56
340.018	99.56
340.246	102.56
340.474	83.56
340.702	96.56
340.93	86.56
341.158	82.56
341.386	87.56
341.614	88.56
341.842	96.56
342.07	82.56
342.298	87.56
342.526	88.56
342.754	97.56
342.981	95.56
343.209	95.56
343.437	97.56
343.665	84.56
343.893	92.56
344.12	100.56
344.348	85.56
344.576	85.56
344.804	96.56
345.031	93.56
345.259	80.56
345.487	85.56
345.714	81.56
345.942	99.56
346.17	84.56
346.397	91.56
346.625	90.56
346.853	96.56
347.08	88.56
347.308	77.56
347.535	101.56
347.763	100.56
347.99	97.56
348.218	101.56
348.445	86.56
348.673	93.56
348.9	100.56
349.128	83.56
349.355	91.56
349.583	82.56
349.81	93.56
350.037	95.56
350.265	88.56
350.492	82.56
350.72	88.56
350.947	94.56
351.174	86.56
351.402	100.56
351.629	100.56
351.856	99.56
352.083	100.56
352.311	85.56
352.538	103.56
352.765	101.56
352.992	108.56
353.22	106.56
353.447	75.56
353.674	104.56
353.901	98.56
354.128	86.56
354.355	102.56
354.583	103.56
354.81	88.56
355.037	82.56
355.264	92.56
355.491	85.56
355.718	94.56
355.945	97.56
356.172	101.56
356.399	99.56
356.626	97.56
356.853	94.56
357.08	91.56
357.307	100.56
357.534	94.56
357.761	79.56
357.988	102.56
358.215	98.56
358.441	97.56
358.668	91.56
358.895	92.56
359.122	97.56
359.349	77.56
359.576	101.56
359.802	89.56
360.029	103.56
360.256	95.56
360.483	79.56
360.709	87.56
360.936	94.56
361.163	86.56
361.39	100.56
361.616	93.56
361.843	84.56
362.07	87.56
362.296	92.56
362.523	88.56
362.749	96.56
362.976	78.56
363.203	92.56
363.429	109.56
363.656	71.56
363.882	94.56
364.109	85.56
364.335	95.56
364.562	83.56
364.788	84.56
365.015	86.56
365.241	90.56
365.468	100.56
365.694	91.56
365.92	83.56
366.147	108.56
366.373	95.56
366.599	90.56
366.826	76.56
367.052	87.56
367.278	86.56
367.505	74.56
367.731	92.56
367.957	100.56
368.184	79.56
368.41	107.56
368.636	107.56
368.862	104.56
369.089	96.56
369.315	92.56
369.541	87.56
369.767	85.56
369.993	89.56
370.219	96.56
370.445	70.56
370.672	84.56
370.898	82.56
371.124	111.56
371.35	97.56
371.576	94.56
371.802	78.56
372.028	71.56
372.254	98.56
372.48	94.56
372.706	84.56
372.932	91.56
373.158	76.56
373.384	69.56
373.61	87.56
373.835	87.56
374.061	77.56
374.287	88.56
374.513	86.56
374.739	75.56
374.965	92.56
375.191	94.56
375.416	102.56
375.642	76.56
375.868	98.56
376.094	85.56
376.319	79.56
376.545	87.56
376.771	96.56
376.997	94.56
377.222	76.56
377.448	90.56
377.674	83.56
377.899	98.56
378.125	85.56
378.35	88.56
378.576	81.56
378.802	90.56
379.027	87.56
379.253	86.56
379.478	83.56
379.704	95.56
379.929	110.56
380.155	92.56
380.38	74.56
380.606	99.56
380.831	90.56
381.057	99.56
381.282	88.56
381.507	97.56
381.733	91.56
381.958	96.56
382.184	90.56
382.409	88.56
382.634	92.56
382.86	84.56
383.085	98.56
383.31	101.56
383.535	106.56
383.761	96.56
383.986	107.56
384.211	96.56
384.436	104.56
384.662	98.56
384.887	112.56
385.112	106.56
385.337	95.56
385.562	112.56
385.787	117.56
386.013	112.56
386.238	114.56
386.463	117.56
386.688	114.56
386.913	107.56
387.138	96.56
387.363	96.56
387.588	86.56
387.813	85.56
388.038	109.56
388.263	111.56
388.488	114.56
388.713	87.56
388.938	84.56
389.163	96.56
389.387	83.56
389.612	106.56
389.837	94.56
390.062	87.56
390.287	99.56
390.512	64.56
390.736	87.56
390.961	86.56
391.186	97.56
391.411	87.56
391.636	76.56
391.86	67.56
392.085	89.56
392.31	98.56
392.534	82.56
392.759	87.56
392.984	95.56
393.208	90.56
393.433	84.56
393.658	105.56
393.882	89.56
394.107	92.56
394.331	72.56
394.556	85.56
394.78	80.56
395.005	80.56
395.229	86.56
395.454	83.56
395.678	89.56
395.903	81.56
396.127	84.56
396.352	102.56
396.576	93.56
396.801	95.56
397.025	89.56
397.249	75.56
397.474	102.56
397.698	95.56
397.922	79.56
398.147	82.56
398.371	87.56
398.595	85.56
398.82	76.56
399.044	98.56
399.268	86.56
399.492	89.56
399.717	78.56
399.941	84.56
400.165	86.56
400.389	88.56
400.613	90.56
400.837	82.56
401.062	83.56
401.286	78.56
401.51	74.56
401.734	98.56
401.958	91.56
402.182	111.56
402.406	118.56
402.63	113.56
402.854	86.56
403.078	88.56
403.302	99.56
403.526	84.56
403.75	74.56
403.974	83.56
404.198	91.56
404.422	81.56
404.645	74.56
404.869	99.56
405.093	85.56
405.317	97.56
405.541	107.56
405.765	92.56
405.988	100.56
406.212	135.56
406.436	172.56
406.66	125.56
406.883	88.56
407.107	95.56
407.331	86.56
407.555	105.56
407.778	95.56
408.002	78.56
408.226	64.56
408.449	79.56
408.673	82.56
408.896	99.56
409.12	93.56
409.344	94.56
409.567	81.56
409.791	103.56
410.014	92.56
410.238	91.56
410.461	80.56
410.685	90.56
410.908	84.56
411.132	91.56
411.355	99.56
411.578	88.56
411.802	86.56
412.025	91.56
412.249	82.56
412.472	95.56
412.695	101.56
412.919	102.56
413.142	91.56
413.365	76.56
413.589	80.56
413.812	92.56
414.035	99.56
414.258	88.56
414.482	91.56
414.705	90.56
414.928	90.56
415.151	79.56
415.374	94.56
415.597	90.56
415.821	87.56
416.044	86.56
416.267	82.56
416.49	91.56
416.713	88.56
416.936	91.56
417.159	92.56
417.382	85.56
417.605	90.56
417.828	86.56
418.051	93.56
418.274	95.56
418.497	94.56
418.72	85.56
418.943	87.56
419.166	69.56
419.389	87.56
419.611	90.56
419.834	87.56
420.057	99.56
420.28	77.56
420.503	92.56
420.726	101.56
420.948	92.56
421.171	84.56
421.394	80.56
421.617	86.56
421.839	92.56
422.062	95.56
422.285	73.56
422.507	87.56
422.73	98.56
422.953	85.56
423.175	76.56
423.398	86.56
423.621	87.56
423.843	80.56
424.066	76.56
424.288	81.56
424.511	84.56
424.733	95.56
424.956	102.56
425.178	93.56
425.401	96.56
425.623	105.56
425.846	83.56
426.068	86.56
426.291	82.56
426.513	79.56
426.735	78.56
426.958	92.56
427.18	98.56
427.402	116.56
427.625	143.56
427.847	137.56
428.069	121.56
428.292	88.56
428.514	92.56
428.736	76.56
428.958	99.56
429.181	80.56
429.403	76.56
429.625	80.56
429.847	99.56
430.069	102.56
430.292	94.56
430.514	83.56
430.736	77.56
430.958	84.56
431.18	75.56
431.402	94.56
431.624	79.56
431.846	75.56
432.068	92.56
432.29	98.56
432.512	98.56
432.734	88.56
432.956	82.56
433.178	94.56
433.4	85.56
433.622	88.56
433.844	101.56
434.066	86.56
434.287	92.56
434.509	98.56
434.731	93.56
434.953	84.56
435.175	76.56
435.397	93.56
435.618	83.56
435.84	86.56
436.062	103.56
436.284	96.56
436.505	94.56
436.727	87.56
436.949	97.56
437.17	91.56
437.392	88.56
437.614	75.56
437.835	96.56
438.057	98.56
438.278	104.56
438.5	112.56
438.721	90.56
438.943	91.56
439.165	94.56
439.386	76.56
439.608	94.56
439.829	97.56
440.05	96.56
440.272	130.56
440.493	93.56
440.715	84.56
440.936	77.56
441.158	76.56
441.379	79.56
441.6	91.56
441.822	93.56
442.043	103.56
442.264	92.56
442.486	94.56
442.707	83.56
442.928	116.56
443.149	121.56
443.371	108.56
443.592	90.56
443.813	95.56
444.034	96.56
444.255	93.56
444.476	79.56
444.698	78.56
444.919	87.56
445.14	117.56
445.361	96.56
445.582	96.56
445.803	111.56
446.024	104.56
446.245	128.56
446.466	102.56
446.687	90.56
446.908	90.56
447.129	97.56
447.35	94.56
447.571	95.56
447.792	86.56
448.013	95.56
448.234	92.56
448.455	87.56
448.675	106.56
448.896	106.56
449.117	88.56
449.338	99.56
449.559	101.56
449.779	120.56
450	89.56
450.221	86.56
450.442	77.56
450.662	95.56
450.883	97.56
451.104	101.56
451.324	91.56
451.545	78.56
451.766	86.56
451.986	74.56
452.207	86.56
452.428	87.56
452.648	100.56
452.869	86.56
453.089	96.56
453.31	101.56
453.53	84.56
453.751	100.56
453.971	109.56
454.192	93.56
454.412	78.56
454.633	90.56
454.853	86.56
455.073	85.56
455.294	86.56
455.514	83.56
455.734	89.56
455.955	75.56
456.175	91.56
456.395	99.56
456.616	79.56
456.836	68.56
457.056	78.56
457.276	92.56
457.497	88.56
457.717	83.56
457.937	84.56
458.157	85.56
458.377	85.56
458.598	100.56
458.818	124.56
459.038	125.56
459.258	83.56
459.478	97.56
459.698	69.56
459.918	100.56
460.138	96.56
460.358	75.56
460.578	80.56
460.798	65.56
461.018	84.56
461.238	79.56
461.458	86.56
461.678	84.56
461.898	89.56
462.118	85.56
462.338	84.56
462.558	83.56
462.777	65.56
462.997	82.56
463.217	82.56
463.437	70.56
463.657	78.56
463.876	66.56
464.096	68.56
464.316	93.56
464.536	81.56
464.755	93.56
464.975	89.56
465.195	133.56
465.414	134.56
465.634	90.56
465.854	88.56
466.073	83.56
466.293	81.56
466.512	94.56
466.732	66.56
466.951	92.56
467.171	101.56
467.391	98.56
467.61	93.56
467.829	106.56
468.049	198.56
468.268	257.56
468.488	111.56
468.707	98.56
468.927	83.56
469.146	95.56
469.365	87.56
469.585	92.56
469.804	101.56
470.023	85.56
470.243	78.56
470.462	95.56
470.681	109.56
470.901	93.56
471.12	85.56
471.339	102.56
471.558	100.56
471.777	98.56
471.997	131.56
472.216	372.56
472.435	695.56
472.654	210.56
472.873	112.56
473.092	90.56
473.311	86.56
473.53	96.56
473.749	88.56
473.968	82.56
474.187	92.56
474.406	97.56
474.625	67.56
474.844	81.56
475.063	82.56
475.282	85.56
475.501	89.56
475.72	88.56
475.939	78.56
476.158	89.56
476.377	81.56
476.596	91.56
476.814	79.56
477.033	82.56
477.252	92.56
477.471	82.56
477.69	83.56
477.908	72.56
478.127	95.56
478.346	99.56
478.564	84.56
478.783	88.56
479.002	98.56
479.22	104.56
479.439	92.56
479.658	93.56
479.876	95.56
480.095	96.56
480.313	89.56
480.532	115.56
480.751	135.56
480.969	349.56
481.188	1155.56
481.406	701.56
481.624	157.56
481.843	97.56
482.061	94.56
482.28	86.56
482.498	84.56
482.717	88.56
482.935	78.56
483.153	89.56
483.372	79.56
483.59	90.56
483.808	90.56
484.027	88.56
484.245	91.56
484.463	92.56
484.681	88.56
484.9	79.56
485.118	104.56
485.336	89.56
485.554	91.56
485.772	92.56
485.99	94.56
486.209	100.56
486.427	98.56
486.645	116.56
486.863	106.56
487.081	95.56
487.299	92.56
487.517	88.56
487.735	87.56
487.953	96.56
488.171	92.56
488.389	98.56
488.607	105.56
488.825	94.56
489.043	78.56
489.261	95.56
489.479	93.56
489.696	82.56
489.914	70.56
490.132	94.56
490.35	90.56
490.568	96.56
490.786	77.56
491.003	87.56
491.221	91.56
491.439	87.56
491.657	80.56
491.874	90.56
492.092	84.56
492.31	87.56
492.527	91.56
492.745	87.56
492.963	97.56
493.18	94.56
493.398	93.56
493.615	96.56
493.833	92.56
494.05	90.56
494.268	108.56
494.485	92.56
494.703	88.56
494.92	84.56
495.138	92.56
495.355	79.56
495.573	97.56
495.79	86.56
496.008	100.56
496.225	84.56
496.442	91.56
496.66	92.56
496.877	88.56
497.094	104.56
497.312	89.56
497.529	82.56
497.746	88.56
497.963	96.56
498.181	78.56
498.398	88.56
498.615	101.56
498.832	81.56
499.049	95.56
499.267	87.56
499.484	95.56
499.701	78.56
499.918	82.56
500.135	93.56
500.352	89.56
500.569	85.56
500.786	87.56
501.003	77.56
501.22	86.56
501.437	87.56
501.654	84.56
501.871	95.56
502.088	98.56
502.305	90.56
502.522	91.56
502.739	81.56
502.956	88.56
503.172	85.56
503.389	81.56
503.606	91.56
503.823	89.56
504.04	77.56
504.256	102.56
504.473	83.56
504.69	81.56
504.907	93.56
505.123	87.56
505.34	99.56
505.557	82.56
505.773	87.56
505.99	94.56
506.207	101.56
506.423	95.56
506.64	100.56
506.856	101.56
507.073	73.56
507.289	80.56
507.506	96.56
507.722	100.56
507.939	99.56
508.155	93.56
508.372	93.56
508.588	89.56
508.805	101.56
509.021	90.56
509.238	90.56
509.454	101.56
509.67	96.56
509.887	103.56
510.103	125.56
510.319	165.56
510.536	565.56
510.752	1777.56
510.968	501.56
511.184	133.56
511.401	100.56
511.617	99.56
511.833	85.56
512.049	89.56
512.265	82.56
512.481	88.56
512.698	82.56
512.914	77.56
513.13	100.56
513.346	84.56
513.562	88.56
513.778	91.56
513.994	95.56
514.21	102.56
514.426	92.56
514.642	127.56
514.858	113.56
515.074	138.56
515.29	327.56
515.506	1067.56
515.721	412.56
515.937	134.56
516.153	90.56
516.369	78.56
516.585	82.56
