Data from Circ_1989_H10_HRD10591_00088.txt Node
Date: Wed Jan 03 12:01:39 EST 2024
User: Yrep
Spectrometer: HR+D1059
Trigger mode: 1
Integration Time (sec): 1.000000E-1
Scans to average: 1
Electric dark correction enabled: true
Nonlinearity correction enabled: false
Boxcar width: 0
XAxis mode: Wavelengths
Number of Pixels in Spectrum: 2048
>>>>>Begin Spectral Data<<<<<
223.165	-11.5
223.4	-11.5
223.635	-11.5
223.869	-27.5
224.104	-20.5
224.338	-19.5
224.573	-10.5
224.808	-13.5
225.042	-22.5
225.277	2.5
225.511	2.5
225.746	8.5
225.98	6.5
226.215	21.5
226.449	25.5
226.683	11.5
226.918	15.5
227.152	31.5
227.387	32.5
227.621	43.5
227.856	45.5
228.09	43.5
228.324	47.5
228.559	50.5
228.793	68.5
229.027	69.5
229.262	57.5
229.496	65.5
229.73	77.5
229.964	73.5
230.199	87.5
230.433	75.5
230.667	82.5
230.901	74.5
231.136	62.5
231.37	78.5
231.604	87.5
231.838	85.5
232.072	93.5
232.306	83.5
232.541	65.5
232.775	79.5
233.009	85.5
233.243	87.5
233.477	86.5
233.711	81.5
233.945	72.5
234.179	78.5
234.413	86.5
234.647	71.5
234.881	77.5
235.115	81.5
235.349	69.5
235.583	80.5
235.817	89.5
236.051	71.5
236.285	74.5
236.519	90.5
236.753	81.5
236.987	88.5
237.221	82.5
237.455	86.5
237.689	88.5
237.922	81.5
238.156	74.5
238.39	73.5
238.624	85.5
238.858	85.5
239.091	81.5
239.325	81.5
239.559	74.5
239.793	84.5
240.027	71.5
240.26	82.5
240.494	89.5
240.728	83.5
240.961	73.5
241.195	81.5
241.429	77.5
241.662	88.5
241.896	78.5
242.13	62.5
242.363	72.5
242.597	71.5
242.83	66.5
243.064	69.5
243.298	71.5
243.531	95.5
243.765	89.5
243.998	81.5
244.232	75.5
244.465	92.5
244.699	75.5
244.932	81.5
245.166	90.5
245.399	75.5
245.633	87.5
245.866	63.5
246.099	77.5
246.333	87.5
246.566	79.5
246.8	77.5
247.033	91.5
247.266	74.5
247.5	95.5
247.733	60.5
247.966	84.5
248.2	79.5
248.433	60.5
248.666	94.5
248.899	92.5
249.133	78.5
249.366	97.5
249.599	95.5
249.832	69.5
250.066	84.5
250.299	81.5
250.532	82.5
250.765	86.5
250.998	82.5
251.231	99.5
251.465	81.5
251.698	81.5
251.931	86.5
252.164	84.5
252.397	70.5
252.63	98.5
252.863	98.5
253.096	98.5
253.329	86.5
253.562	75.5
253.795	81.5
254.028	90.5
254.261	83.5
254.494	69.5
254.727	86.5
254.96	81.5
255.193	88.5
255.426	78.5
255.659	96.5
255.892	73.5
256.124	89.5
256.357	89.5
256.59	80.5
256.823	79.5
257.056	81.5
257.289	82.5
257.521	83.5
257.754	74.5
257.987	82.5
258.22	91.5
258.452	105.5
258.685	96.5
258.918	95.5
259.151	75.5
259.383	83.5
259.616	85.5
259.849	86.5
260.081	82.5
260.314	81.5
260.547	84.5
260.779	95.5
261.012	108.5
261.244	93.5
261.477	89.5
261.71	94.5
261.942	91.5
262.175	114.5
262.407	78.5
262.64	75.5
262.872	91.5
263.105	83.5
263.337	87.5
263.57	85.5
263.802	78.5
264.035	79.5
264.267	87.5
264.499	101.5
264.732	79.5
264.964	80.5
265.197	85.5
265.429	78.5
265.661	93.5
265.894	71.5
266.126	73.5
266.358	89.5
266.591	80.5
266.823	70.5
267.055	82.5
267.287	79.5
267.52	81.5
267.752	93.5
267.984	83.5
268.216	94.5
268.448	93.5
268.681	85.5
268.913	98.5
269.145	87.5
269.377	84.5
269.609	78.5
269.841	84.5
270.073	70.5
270.306	89.5
270.538	87.5
270.77	86.5
271.002	82.5
271.234	105.5
271.466	89.5
271.698	84.5
271.93	74.5
272.162	89.5
272.394	87.5
272.626	85.5
272.858	91.5
273.09	84.5
273.322	85.5
273.553	89.5
273.785	86.5
274.017	87.5
274.249	86.5
274.481	86.5
274.713	85.5
274.945	105.5
275.176	102.5
275.408	98.5
275.64	90.5
275.872	98.5
276.104	88.5
276.335	90.5
276.567	120.5
276.799	112.5
277.031	117.5
277.262	121.5
277.494	106.5
277.726	105.5
277.957	84.5
278.189	66.5
278.421	87.5
278.652	85.5
278.884	94.5
279.115	104.5
279.347	91.5
279.579	95.5
279.81	108.5
280.042	145.5
280.273	142.5
280.505	129.5
280.736	87.5
280.968	93.5
281.199	95.5
281.431	90.5
281.662	87.5
281.894	97.5
282.125	84.5
282.356	106.5
282.588	124.5
282.819	118.5
283.051	94.5
283.282	89.5
283.513	85.5
283.745	89.5
283.976	83.5
284.207	86.5
284.439	78.5
284.67	86.5
284.901	71.5
285.132	89.5
285.364	83.5
285.595	99.5
285.826	75.5
286.057	90.5
286.288	83.5
286.52	95.5
286.751	78.5
286.982	93.5
287.213	84.5
287.444	82.5
287.675	91.5
287.906	95.5
288.138	99.5
288.369	88.5
288.6	77.5
288.831	94.5
289.062	94.5
289.293	103.5
289.524	90.5
289.755	86.5
289.986	95.5
290.217	94.5
290.448	94.5
290.679	90.5
290.91	92.5
291.141	99.5
291.371	94.5
291.602	86.5
291.833	94.5
292.064	97.5
292.295	83.5
292.526	98.5
292.757	88.5
292.987	90.5
293.218	83.5
293.449	96.5
293.68	99.5
293.91	82.5
294.141	91.5
294.372	85.5
294.603	83.5
294.833	84.5
295.064	88.5
295.295	93.5
295.525	97.5
295.756	106.5
295.987	110.5
296.217	127.5
296.448	112.5
296.679	91.5
296.909	92.5
297.14	89.5
297.37	94.5
297.601	93.5
297.831	89.5
298.062	94.5
298.292	100.5
298.523	82.5
298.753	91.5
298.984	101.5
299.214	81.5
299.445	90.5
299.675	97.5
299.905	93.5
300.136	100.5
300.366	98.5
300.597	84.5
300.827	89.5
301.057	103.5
301.288	99.5
301.518	85.5
301.748	89.5
301.979	104.5
302.209	95.5
302.439	79.5
302.669	73.5
302.9	94.5
303.13	92.5
303.36	110.5
303.59	102.5
303.82	113.5
304.051	103.5
304.281	90.5
304.511	101.5
304.741	105.5
304.971	82.5
305.201	93.5
305.431	89.5
305.661	89.5
305.891	93.5
306.121	94.5
306.352	107.5
306.582	109.5
306.812	96.5
307.042	102.5
307.272	112.5
307.502	128.5
307.731	128.5
307.961	109.5
308.191	100.5
308.421	108.5
308.651	98.5
308.881	95.5
309.111	95.5
309.341	99.5
309.571	100.5
309.8	101.5
310.03	99.5
310.26	99.5
310.49	99.5
310.72	100.5
310.949	104.5
311.179	95.5
311.409	97.5
311.639	90.5
311.868	95.5
312.098	114.5
312.328	100.5
312.557	97.5
312.787	107.5
313.017	104.5
313.246	91.5
313.476	97.5
313.706	89.5
313.935	90.5
314.165	117.5
314.394	87.5
314.624	98.5
314.853	104.5
315.083	91.5
315.312	95.5
315.542	87.5
315.771	104.5
316.001	83.5
316.23	81.5
316.46	86.5
316.689	97.5
316.919	82.5
317.148	93.5
317.377	95.5
317.607	99.5
317.836	91.5
318.065	83.5
318.295	91.5
318.524	104.5
318.753	95.5
318.983	101.5
319.212	105.5
319.441	100.5
319.67	107.5
319.9	101.5
320.129	97.5
320.358	104.5
320.587	89.5
320.816	96.5
321.046	90.5
321.275	87.5
321.504	105.5
321.733	98.5
321.962	108.5
322.191	111.5
322.42	104.5
322.649	107.5
322.878	119.5
323.108	113.5
323.337	115.5
323.566	133.5
323.795	137.5
324.024	196.5
324.253	352.5
324.482	751.5
324.71	1552.5
324.939	2098.5
325.168	754.5
325.397	228.5
325.626	125.5
325.855	133.5
326.084	147.5
326.313	137.5
326.542	155.5
326.77	212.5
326.999	449.5
327.228	873.5
327.457	1652.5
327.686	1367.5
327.914	433.5
328.143	324.5
328.372	364.5
328.6	217.5
328.829	145.5
329.058	145.5
329.287	146.5
329.515	126.5
329.744	154.5
329.972	284.5
330.201	503.5
330.43	690.5
330.658	326.5
330.887	178.5
331.115	149.5
331.344	112.5
331.572	109.5
331.801	111.5
332.03	96.5
332.258	101.5
332.486	100.5
332.715	110.5
332.943	111.5
333.172	111.5
333.4	120.5
333.629	126.5
333.857	153.5
334.085	251.5
334.314	493.5
334.542	902.5
334.771	801.5
334.999	241.5
335.227	128.5
335.455	107.5
335.684	111.5
335.912	113.5
336.14	85.5
336.369	90.5
336.597	101.5
336.825	104.5
337.053	89.5
337.281	86.5
337.51	98.5
337.738	103.5
337.966	78.5
338.194	113.5
338.422	90.5
338.65	94.5
338.878	80.5
339.106	92.5
339.334	89.5
339.562	99.5
339.79	102.5
340.018	93.5
340.246	97.5
340.474	93.5
340.702	116.5
340.93	104.5
341.158	102.5
341.386	109.5
341.614	96.5
341.842	113.5
342.07	92.5
342.298	86.5
342.526	102.5
342.754	97.5
342.981	91.5
343.209	83.5
343.437	97.5
343.665	90.5
343.893	73.5
344.12	102.5
344.348	97.5
344.576	87.5
344.804	86.5
345.031	96.5
345.259	93.5
345.487	102.5
345.714	85.5
345.942	98.5
346.17	97.5
346.397	90.5
346.625	86.5
346.853	98.5
347.08	93.5
347.308	106.5
347.535	101.5
347.763	102.5
347.99	83.5
348.218	106.5
348.445	101.5
348.673	94.5
348.9	102.5
349.128	99.5
349.355	93.5
349.583	95.5
349.81	87.5
350.037	92.5
350.265	99.5
350.492	106.5
350.72	86.5
350.947	115.5
351.174	95.5
351.402	113.5
351.629	101.5
351.856	88.5
352.083	102.5
352.311	103.5
352.538	106.5
352.765	94.5
352.992	101.5
353.22	105.5
353.447	114.5
353.674	111.5
353.901	99.5
354.128	105.5
354.355	103.5
354.583	90.5
354.81	97.5
355.037	102.5
355.264	94.5
355.491	87.5
355.718	116.5
355.945	119.5
356.172	122.5
356.399	102.5
356.626	95.5
356.853	86.5
357.08	93.5
357.307	95.5
357.534	92.5
357.761	104.5
357.988	97.5
358.215	89.5
358.441	89.5
358.668	99.5
358.895	89.5
359.122	89.5
359.349	84.5
359.576	101.5
359.802	98.5
360.029	119.5
360.256	113.5
360.483	92.5
360.709	82.5
360.936	97.5
361.163	90.5
361.39	91.5
361.616	100.5
361.843	89.5
362.07	97.5
362.296	97.5
362.523	93.5
362.749	95.5
362.976	96.5
363.203	103.5
363.429	95.5
363.656	112.5
363.882	91.5
364.109	98.5
364.335	100.5
364.562	77.5
364.788	107.5
365.015	81.5
365.241	91.5
365.468	98.5
365.694	97.5
365.92	105.5
366.147	102.5
366.373	88.5
366.599	91.5
366.826	93.5
367.052	93.5
367.278	92.5
367.505	108.5
367.731	86.5
367.957	98.5
368.184	87.5
368.41	95.5
368.636	93.5
368.862	119.5
369.089	107.5
369.315	99.5
369.541	99.5
369.767	97.5
369.993	91.5
370.219	101.5
370.445	87.5
370.672	71.5
370.898	89.5
371.124	89.5
371.35	100.5
371.576	96.5
371.802	91.5
372.028	104.5
372.254	102.5
372.48	90.5
372.706	85.5
372.932	89.5
373.158	69.5
373.384	103.5
373.61	106.5
373.835	73.5
374.061	92.5
374.287	103.5
374.513	91.5
374.739	88.5
374.965	93.5
375.191	87.5
375.416	90.5
375.642	89.5
375.868	97.5
376.094	86.5
376.319	89.5
376.545	92.5
376.771	99.5
376.997	98.5
377.222	96.5
377.448	102.5
377.674	90.5
377.899	101.5
378.125	91.5
378.35	85.5
378.576	94.5
378.802	95.5
379.027	98.5
379.253	96.5
379.478	95.5
379.704	94.5
379.929	94.5
380.155	93.5
380.38	92.5
380.606	91.5
380.831	90.5
381.057	98.5
381.282	88.5
381.507	91.5
381.733	100.5
381.958	95.5
382.184	98.5
382.409	97.5
382.634	89.5
382.86	92.5
383.085	94.5
383.31	96.5
383.535	105.5
383.761	92.5
383.986	112.5
384.211	96.5
384.436	85.5
384.662	99.5
384.887	115.5
385.112	96.5
385.337	97.5
385.562	111.5
385.787	89.5
386.013	105.5
386.238	104.5
386.463	110.5
386.688	104.5
386.913	94.5
387.138	113.5
387.363	106.5
387.588	100.5
387.813	108.5
388.038	114.5
388.263	102.5
388.488	112.5
388.713	107.5
388.938	96.5
389.163	92.5
389.387	107.5
389.612	96.5
389.837	83.5
390.062	97.5
390.287	94.5
390.512	102.5
390.736	95.5
390.961	84.5
391.186	81.5
391.411	96.5
391.636	90.5
391.86	82.5
392.085	88.5
392.31	91.5
392.534	95.5
392.759	87.5
392.984	92.5
393.208	103.5
393.433	96.5
393.658	97.5
393.882	88.5
394.107	93.5
394.331	91.5
394.556	87.5
394.78	86.5
395.005	90.5
395.229	78.5
395.454	78.5
395.678	81.5
395.903	89.5
396.127	91.5
396.352	97.5
396.576	78.5
396.801	84.5
397.025	81.5
397.249	79.5
397.474	93.5
397.698	108.5
397.922	93.5
398.147	99.5
398.371	82.5
398.595	88.5
398.82	99.5
399.044	107.5
399.268	91.5
399.492	85.5
399.717	90.5
399.941	102.5
400.165	114.5
400.389	89.5
400.613	90.5
400.837	81.5
401.062	96.5
401.286	86.5
401.51	63.5
401.734	91.5
401.958	104.5
402.182	116.5
402.406	134.5
402.63	119.5
402.854	101.5
403.078	83.5
403.302	75.5
403.526	97.5
403.75	82.5
403.974	85.5
404.198	90.5
404.422	91.5
404.645	92.5
404.869	87.5
405.093	98.5
405.317	128.5
405.541	114.5
405.765	109.5
405.988	100.5
406.212	154.5
406.436	208.5
406.66	146.5
406.883	112.5
407.107	98.5
407.331	107.5
407.555	94.5
407.778	102.5
408.002	107.5
408.226	82.5
408.449	96.5
408.673	98.5
408.896	103.5
409.12	82.5
409.344	94.5
409.567	95.5
409.791	99.5
410.014	95.5
410.238	84.5
410.461	88.5
410.685	101.5
410.908	109.5
411.132	122.5
411.355	101.5
411.578	91.5
411.802	84.5
412.025	83.5
412.249	97.5
412.472	101.5
412.695	124.5
412.919	109.5
413.142	111.5
413.365	88.5
413.589	83.5
413.812	77.5
414.035	83.5
414.258	86.5
414.482	111.5
414.705	84.5
414.928	97.5
415.151	96.5
415.374	94.5
415.597	84.5
415.821	89.5
416.044	95.5
416.267	94.5
416.49	90.5
416.713	104.5
416.936	81.5
417.159	91.5
417.382	70.5
417.605	97.5
417.828	96.5
418.051	105.5
418.274	79.5
418.497	91.5
418.72	90.5
418.943	88.5
419.166	101.5
419.389	89.5
419.611	73.5
419.834	93.5
420.057	86.5
420.28	91.5
420.503	102.5
420.726	85.5
420.948	86.5
421.171	92.5
421.394	98.5
421.617	85.5
421.839	91.5
422.062	93.5
422.285	74.5
422.507	101.5
422.73	107.5
422.953	97.5
423.175	97.5
423.398	93.5
423.621	95.5
423.843	85.5
424.066	89.5
424.288	93.5
424.511	81.5
424.733	111.5
424.956	126.5
425.178	109.5
425.401	106.5
425.623	101.5
425.846	89.5
426.068	89.5
426.291	78.5
426.513	90.5
426.735	89.5
426.958	117.5
427.18	114.5
427.402	164.5
427.625	167.5
427.847	177.5
428.069	169.5
428.292	113.5
428.514	95.5
428.736	90.5
428.958	87.5
429.181	82.5
429.403	91.5
429.625	88.5
429.847	97.5
430.069	111.5
430.292	102.5
430.514	91.5
430.736	93.5
430.958	97.5
431.18	95.5
431.402	98.5
431.624	89.5
431.846	86.5
432.068	91.5
432.29	92.5
432.512	84.5
432.734	103.5
432.956	107.5
433.178	97.5
433.4	94.5
433.622	75.5
433.844	79.5
434.066	93.5
434.287	87.5
434.509	98.5
434.731	91.5
434.953	93.5
435.175	112.5
435.397	87.5
435.618	91.5
435.84	104.5
436.062	136.5
436.284	114.5
436.505	100.5
436.727	102.5
436.949	83.5
437.17	95.5
437.392	89.5
437.614	97.5
437.835	102.5
438.057	122.5
438.278	115.5
438.5	114.5
438.721	146.5
438.943	111.5
439.165	99.5
439.386	88.5
439.608	101.5
439.829	97.5
440.05	139.5
440.272	152.5
440.493	100.5
440.715	93.5
440.936	97.5
441.158	107.5
441.379	89.5
441.6	110.5
441.822	98.5
442.043	91.5
442.264	112.5
442.486	107.5
442.707	92.5
442.928	101.5
443.149	124.5
443.371	146.5
443.592	104.5
443.813	105.5
444.034	121.5
444.255	105.5
444.476	90.5
444.698	91.5
444.919	90.5
445.14	122.5
445.361	110.5
445.582	119.5
445.803	139.5
446.024	149.5
446.245	154.5
446.466	115.5
446.687	94.5
446.908	89.5
447.129	90.5
447.35	90.5
447.571	91.5
447.792	93.5
448.013	87.5
448.234	110.5
448.455	85.5
448.675	117.5
448.896	128.5
449.117	117.5
449.338	94.5
449.559	120.5
449.779	131.5
450	94.5
450.221	91.5
450.442	101.5
450.662	89.5
450.883	98.5
451.104	97.5
451.324	98.5
451.545	100.5
451.766	86.5
451.986	97.5
452.207	97.5
452.428	97.5
452.648	87.5
452.869	108.5
453.089	109.5
453.31	104.5
453.53	91.5
453.751	87.5
453.971	97.5
454.192	120.5
454.412	101.5
454.633	93.5
454.853	83.5
455.073	94.5
455.294	91.5
455.514	107.5
455.734	88.5
455.955	83.5
456.175	90.5
456.395	90.5
456.616	85.5
456.836	87.5
457.056	68.5
457.276	100.5
457.497	83.5
457.717	89.5
457.937	78.5
458.157	85.5
458.377	84.5
458.598	114.5
458.818	149.5
459.038	167.5
459.258	117.5
459.478	100.5
459.698	90.5
459.918	85.5
460.138	82.5
460.358	97.5
460.578	80.5
460.798	86.5
461.018	89.5
461.238	93.5
461.458	82.5
461.678	84.5
461.898	91.5
462.118	88.5
462.338	98.5
462.558	108.5
462.777	81.5
462.997	87.5
463.217	91.5
463.437	92.5
463.657	94.5
463.876	95.5
464.096	101.5
464.316	101.5
464.536	81.5
464.755	89.5
464.975	107.5
465.195	137.5
465.414	140.5
465.634	97.5
465.854	95.5
466.073	81.5
466.293	91.5
466.512	96.5
466.732	82.5
466.951	91.5
467.171	101.5
467.391	109.5
467.61	117.5
467.829	138.5
468.049	312.5
468.268	422.5
468.488	157.5
468.707	101.5
468.927	86.5
469.146	93.5
469.365	81.5
469.585	100.5
469.804	90.5
470.023	96.5
470.243	104.5
470.462	94.5
470.681	98.5
470.901	88.5
471.12	98.5
471.339	87.5
471.558	104.5
471.777	112.5
471.997	210.5
472.216	593.5
472.435	1227.5
472.654	321.5
472.873	120.5
473.092	96.5
473.311	101.5
473.53	78.5
473.749	81.5
473.968	98.5
474.187	104.5
474.406	95.5
474.625	86.5
474.844	93.5
475.063	85.5
475.282	88.5
475.501	79.5
475.72	89.5
475.939	85.5
476.158	93.5
476.377	96.5
476.596	84.5
476.814	87.5
477.033	104.5
477.252	97.5
477.471	90.5
477.69	95.5
477.908	88.5
478.127	89.5
478.346	94.5
478.564	97.5
478.783	81.5
479.002	107.5
479.22	100.5
479.439	106.5
479.658	112.5
479.876	99.5
480.095	102.5
480.313	109.5
480.532	130.5
480.751	198.5
480.969	553.5
481.188	2186.5
481.406	1259.5
481.624	232.5
481.843	123.5
482.061	106.5
482.28	94.5
482.498	97.5
482.717	87.5
482.935	99.5
483.153	91.5
483.372	91.5
483.59	93.5
483.808	98.5
484.027	90.5
484.245	91.5
484.463	78.5
484.681	89.5
484.9	77.5
485.118	99.5
485.336	91.5
485.554	88.5
485.772	102.5
485.99	94.5
486.209	86.5
486.427	109.5
486.645	120.5
486.863	124.5
487.081	97.5
487.299	92.5
487.517	105.5
487.735	91.5
487.953	95.5
488.171	91.5
488.389	89.5
488.607	103.5
488.825	86.5
489.043	90.5
489.261	86.5
489.479	74.5
489.696	97.5
489.914	79.5
490.132	98.5
490.35	88.5
490.568	89.5
490.786	92.5
491.003	89.5
491.221	91.5
491.439	89.5
491.657	106.5
491.874	92.5
492.092	82.5
492.31	81.5
492.527	85.5
492.745	93.5
492.963	95.5
493.18	93.5
493.398	94.5
493.615	94.5
493.833	87.5
494.05	90.5
494.268	90.5
494.485	88.5
494.703	95.5
494.92	101.5
495.138	74.5
495.355	89.5
495.573	98.5
495.79	102.5
496.008	101.5
496.225	97.5
496.442	102.5
496.66	96.5
496.877	105.5
497.094	98.5
497.312	83.5
497.529	97.5
497.746	97.5
497.963	74.5
498.181	106.5
498.398	90.5
498.615	106.5
498.832	106.5
499.049	91.5
499.267	85.5
499.484	98.5
499.701	102.5
499.918	91.5
500.135	105.5
500.352	93.5
500.569	101.5
500.786	103.5
501.003	102.5
501.22	74.5
501.437	101.5
501.654	93.5
501.871	104.5
502.088	87.5
502.305	86.5
502.522	91.5
502.739	92.5
502.956	92.5
503.172	85.5
503.389	102.5
503.606	101.5
503.823	102.5
504.04	96.5
504.256	89.5
504.473	88.5
504.69	81.5
504.907	115.5
505.123	94.5
505.34	83.5
505.557	80.5
505.773	91.5
505.99	97.5
506.207	101.5
506.423	89.5
506.64	81.5
506.856	93.5
507.073	98.5
507.289	99.5
507.506	97.5
507.722	115.5
507.939	102.5
508.155	102.5
508.372	93.5
508.588	97.5
508.805	87.5
509.021	90.5
509.238	101.5
509.454	102.5
509.67	100.5
509.887	102.5
510.103	119.5
510.319	178.5
510.536	589.5
510.752	1755.5
510.968	523.5
511.184	144.5
511.401	119.5
511.617	101.5
511.833	93.5
512.049	103.5
512.265	75.5
512.481	94.5
512.698	101.5
512.914	91.5
513.13	90.5
513.346	92.5
513.562	85.5
513.778	102.5
513.994	104.5
514.21	100.5
514.426	108.5
514.642	143.5
514.858	123.5
515.074	155.5
515.29	408.5
515.506	1211.5
515.721	457.5
515.937	136.5
516.153	95.5
516.369	98.5
516.585	106.5
516.801	104.5
517.016	91.5
517.232	116.5
517.448	89.5
517.664	99.5
517.879	94.5
518.095	92.5
518.311	107.5
518.527	106.5
518.742	83.5
518.958	102.5
519.173	101.5
519.389	91.5
519.605	93.5
519.82	95.5
520.036	80.5
520.251	103.5
520.467	106.5
520.682	108.5
520.898	109.5
521.113	110.5
521.329	137.5
521.544	190.5
521.76	477.5
521.975	1973.5
522.19	1210.5
522.406	264.5
522.621	113.5
522.836	113.5
523.052	111.5
523.267	107.5
523.482	93.5
523.698	108.5
523.913	130.5
524.128	99.5
524.343	98.5
524.559	81.5
524.774	91.5
524.989	90.5
525.204	94.5
525.419	94.5
525.634	86.5
525.849	86.5
526.064	89.5
526.28	83.5
526.495	96.5
526.71	94.5
526.925	94.5
527.14	102.5
527.355	75.5
527.57	91.5
527.785	94.5
527.999	98.5
528.214	87.5
528.429	103.5
528.644	96.5
528.859	98.5
529.074	83.5
529.289	125.5
529.503	168.5
529.718	101.5
529.933	106.5
530.148	101.5
530.363	90.5
530.577	87.5
530.792	85.5
531.007	96.5
531.221	88.5
531.436	86.5
531.651	86.5
531.865	96.5
532.08	111.5
532.295	88.5
532.509	96.5
532.724	98.5
532.938	98.5
533.153	110.5
533.367	85.5
533.582	96.5
