Data from Circ_1989_H10_HRD10591_00053.txt Node
Date: Wed Jan 03 12:01:32 EST 2024
User: Yrep
Spectrometer: HR+D1059
Trigger mode: 1
Integration Time (sec): 1.000000E-1
Scans to average: 1
Electric dark correction enabled: true
Nonlinearity correction enabled: false
Boxcar width: 0
XAxis mode: Wavelengths
Number of Pixels in Spectrum: 2048
>>>>>Begin Spectral Data<<<<<
223.165	-18.62
223.4	-18.62
223.635	-18.62
223.869	-23.62
224.104	-19.62
224.338	-24.62
224.573	-22.62
224.808	-16.62
225.042	3.38
225.277	11.38
225.511	-7.62
225.746	11.38
225.98	12.38
226.215	7.38
226.449	21.38
226.683	20.38
226.918	17.38
227.152	28.38
227.387	27.38
227.621	35.38
227.856	42.38
228.09	42.38
228.324	35.38
228.559	61.38
228.793	40.38
229.027	68.38
229.262	66.38
229.496	71.38
229.73	76.38
229.964	82.38
230.199	71.38
230.433	86.38
230.667	77.38
230.901	91.38
231.136	70.38
231.37	74.38
231.604	71.38
231.838	67.38
232.072	75.38
232.306	80.38
232.541	54.38
232.775	91.38
233.009	79.38
233.243	74.38
233.477	84.38
233.711	80.38
233.945	73.38
234.179	83.38
234.413	83.38
234.647	71.38
234.881	79.38
235.115	66.38
235.349	85.38
235.583	82.38
235.817	78.38
236.051	75.38
236.285	71.38
236.519	76.38
236.753	68.38
236.987	79.38
237.221	82.38
237.455	80.38
237.689	77.38
237.922	80.38
238.156	67.38
238.39	72.38
238.624	71.38
238.858	76.38
239.091	56.38
239.325	69.38
239.559	84.38
239.793	79.38
240.027	76.38
240.26	92.38
240.494	71.38
240.728	78.38
240.961	80.38
241.195	64.38
241.429	70.38
241.662	75.38
241.896	70.38
242.13	64.38
242.363	65.38
242.597	66.38
242.83	66.38
243.064	80.38
243.298	83.38
243.531	84.38
243.765	71.38
243.998	85.38
244.232	66.38
244.465	83.38
244.699	83.38
244.932	84.38
245.166	69.38
245.399	85.38
245.633	87.38
245.866	87.38
246.099	81.38
246.333	78.38
246.566	89.38
246.8	65.38
247.033	71.38
247.266	71.38
247.5	74.38
247.733	86.38
247.966	85.38
248.2	81.38
248.433	72.38
248.666	86.38
248.899	70.38
249.133	84.38
249.366	81.38
249.599	91.38
249.832	72.38
250.066	89.38
250.299	78.38
250.532	93.38
250.765	77.38
250.998	65.38
251.231	71.38
251.465	91.38
251.698	69.38
251.931	81.38
252.164	80.38
252.397	79.38
252.63	78.38
252.863	67.38
253.096	75.38
253.329	80.38
253.562	75.38
253.795	94.38
254.028	80.38
254.261	84.38
254.494	72.38
254.727	86.38
254.96	75.38
255.193	91.38
255.426	83.38
255.659	75.38
255.892	73.38
256.124	84.38
256.357	90.38
256.59	77.38
256.823	76.38
257.056	87.38
257.289	90.38
257.521	77.38
257.754	86.38
257.987	74.38
258.22	87.38
258.452	91.38
258.685	96.38
258.918	76.38
259.151	78.38
259.383	68.38
259.616	86.38
259.849	83.38
260.081	72.38
260.314	74.38
260.547	90.38
260.779	79.38
261.012	93.38
261.244	102.38
261.477	89.38
261.71	96.38
261.942	120.38
262.175	110.38
262.407	93.38
262.64	90.38
262.872	76.38
263.105	82.38
263.337	77.38
263.57	84.38
263.802	79.38
264.035	101.38
264.267	84.38
264.499	81.38
264.732	89.38
264.964	80.38
265.197	74.38
265.429	90.38
265.661	78.38
265.894	79.38
266.126	93.38
266.358	82.38
266.591	87.38
266.823	77.38
267.055	79.38
267.287	86.38
267.52	87.38
267.752	81.38
267.984	80.38
268.216	80.38
268.448	87.38
268.681	72.38
268.913	93.38
269.145	83.38
269.377	78.38
269.609	84.38
269.841	88.38
270.073	77.38
270.306	81.38
270.538	90.38
270.77	95.38
271.002	77.38
271.234	87.38
271.466	85.38
271.698	88.38
271.93	99.38
272.162	78.38
272.394	90.38
272.626	76.38
272.858	84.38
273.09	89.38
273.322	70.38
273.553	84.38
273.785	96.38
274.017	84.38
274.249	90.38
274.481	92.38
274.713	77.38
274.945	82.38
275.176	86.38
275.408	86.38
275.64	93.38
275.872	90.38
276.104	91.38
276.335	100.38
276.567	94.38
276.799	128.38
277.031	126.38
277.262	138.38
277.494	111.38
277.726	83.38
277.957	92.38
278.189	77.38
278.421	69.38
278.652	76.38
278.884	73.38
279.115	96.38
279.347	82.38
279.579	95.38
279.81	100.38
280.042	143.38
280.273	166.38
280.505	128.38
280.736	98.38
280.968	89.38
281.199	97.38
281.431	83.38
281.662	89.38
281.894	81.38
282.125	95.38
282.356	118.38
282.588	142.38
282.819	123.38
283.051	105.38
283.282	82.38
283.513	79.38
283.745	87.38
283.976	87.38
284.207	86.38
284.439	89.38
284.67	73.38
284.901	78.38
285.132	86.38
285.364	86.38
285.595	79.38
285.826	86.38
286.057	80.38
286.288	88.38
286.52	72.38
286.751	92.38
286.982	86.38
287.213	94.38
287.444	81.38
287.675	71.38
287.906	91.38
288.138	87.38
288.369	86.38
288.6	95.38
288.831	94.38
289.062	88.38
289.293	94.38
289.524	88.38
289.755	83.38
289.986	86.38
290.217	88.38
290.448	79.38
290.679	107.38
290.91	87.38
291.141	84.38
291.371	84.38
291.602	85.38
291.833	75.38
292.064	97.38
292.295	85.38
292.526	96.38
292.757	84.38
292.987	82.38
293.218	92.38
293.449	94.38
293.68	92.38
293.91	74.38
294.141	88.38
294.372	95.38
294.603	98.38
294.833	82.38
295.064	82.38
295.295	74.38
295.525	86.38
295.756	114.38
295.987	119.38
296.217	128.38
296.448	122.38
296.679	103.38
296.909	94.38
297.14	87.38
297.37	77.38
297.601	101.38
297.831	77.38
298.062	76.38
298.292	93.38
298.523	102.38
298.753	94.38
298.984	92.38
299.214	99.38
299.445	78.38
299.675	90.38
299.905	96.38
300.136	82.38
300.366	76.38
300.597	93.38
300.827	96.38
301.057	92.38
301.288	106.38
301.518	85.38
301.748	80.38
301.979	99.38
302.209	98.38
302.439	88.38
302.669	101.38
302.9	86.38
303.13	83.38
303.36	97.38
303.59	116.38
303.82	126.38
304.051	98.38
304.281	98.38
304.511	89.38
304.741	92.38
304.971	80.38
305.201	95.38
305.431	85.38
305.661	85.38
305.891	83.38
306.121	93.38
306.352	96.38
306.582	101.38
306.812	103.38
307.042	102.38
307.272	126.38
307.502	133.38
307.731	135.38
307.961	105.38
308.191	84.38
308.421	92.38
308.651	91.38
308.881	93.38
309.111	94.38
309.341	96.38
309.571	111.38
309.8	114.38
310.03	89.38
310.26	109.38
310.49	88.38
310.72	97.38
310.949	111.38
311.179	90.38
311.409	88.38
311.639	82.38
311.868	112.38
312.098	89.38
312.328	106.38
312.557	109.38
312.787	99.38
313.017	100.38
313.246	86.38
313.476	87.38
313.706	95.38
313.935	89.38
314.165	112.38
314.394	104.38
314.624	90.38
314.853	94.38
315.083	102.38
315.312	82.38
315.542	92.38
315.771	88.38
316.001	82.38
316.23	101.38
316.46	86.38
316.689	94.38
316.919	90.38
317.148	90.38
317.377	101.38
317.607	88.38
317.836	95.38
318.065	96.38
318.295	90.38
318.524	84.38
318.753	86.38
318.983	86.38
319.212	107.38
319.441	119.38
319.67	102.38
319.9	85.38
320.129	84.38
320.358	93.38
320.587	87.38
320.816	104.38
321.046	98.38
321.275	100.38
321.504	95.38
321.733	82.38
321.962	85.38
322.191	101.38
322.42	92.38
322.649	104.38
322.878	118.38
323.108	111.38
323.337	113.38
323.566	146.38
323.795	154.38
324.024	204.38
324.253	399.38
324.482	856.38
324.71	1789.38
324.939	2452.38
325.168	898.38
325.397	245.38
325.626	143.38
325.855	124.38
326.084	114.38
326.313	149.38
326.542	160.38
326.77	237.38
326.999	468.38
327.228	956.38
327.457	1792.38
327.686	1490.38
327.914	452.38
328.143	358.38
328.372	446.38
328.6	260.38
328.829	156.38
329.058	166.38
329.287	150.38
329.515	153.38
329.744	213.38
329.972	334.38
330.201	636.38
330.43	898.38
330.658	422.38
330.887	211.38
331.115	148.38
331.344	117.38
331.572	115.38
331.801	108.38
332.03	127.38
332.258	100.38
332.486	92.38
332.715	95.38
332.943	97.38
333.172	108.38
333.4	118.38
333.629	130.38
333.857	173.38
334.085	301.38
334.314	596.38
334.542	1138.38
334.771	1062.38
334.999	303.38
335.227	124.38
335.455	116.38
335.684	112.38
335.912	118.38
336.14	100.38
336.369	90.38
336.597	101.38
336.825	91.38
337.053	91.38
337.281	110.38
337.51	104.38
337.738	97.38
337.966	98.38
338.194	90.38
338.422	91.38
338.65	95.38
338.878	93.38
339.106	99.38
339.334	86.38
339.562	86.38
339.79	95.38
340.018	94.38
340.246	98.38
340.474	97.38
340.702	100.38
340.93	97.38
341.158	98.38
341.386	105.38
341.614	90.38
341.842	79.38
342.07	100.38
342.298	104.38
342.526	94.38
342.754	92.38
342.981	95.38
343.209	84.38
343.437	94.38
343.665	83.38
343.893	97.38
344.12	81.38
344.348	76.38
344.576	87.38
344.804	106.38
345.031	96.38
345.259	97.38
345.487	92.38
345.714	82.38
345.942	96.38
346.17	82.38
346.397	84.38
346.625	86.38
346.853	92.38
347.08	102.38
347.308	94.38
347.535	106.38
347.763	98.38
347.99	106.38
348.218	91.38
348.445	101.38
348.673	86.38
348.9	94.38
349.128	85.38
349.355	102.38
349.583	81.38
349.81	107.38
350.037	94.38
350.265	91.38
350.492	98.38
350.72	87.38
350.947	94.38
351.174	109.38
351.402	112.38
351.629	110.38
351.856	91.38
352.083	112.38
352.311	95.38
352.538	94.38
352.765	98.38
352.992	111.38
353.22	116.38
353.447	114.38
353.674	101.38
353.901	88.38
354.128	97.38
354.355	86.38
354.583	102.38
354.81	88.38
355.037	83.38
355.264	106.38
355.491	97.38
355.718	94.38
355.945	83.38
356.172	90.38
356.399	100.38
356.626	95.38
356.853	87.38
357.08	88.38
357.307	85.38
357.534	91.38
357.761	79.38
357.988	92.38
358.215	96.38
358.441	88.38
358.668	91.38
358.895	101.38
359.122	92.38
359.349	89.38
359.576	102.38
359.802	107.38
360.029	109.38
360.256	123.38
360.483	101.38
360.709	101.38
360.936	96.38
361.163	99.38
361.39	95.38
361.616	94.38
361.843	94.38
362.07	100.38
362.296	85.38
362.523	97.38
362.749	91.38
362.976	92.38
363.203	103.38
363.429	79.38
363.656	102.38
363.882	94.38
364.109	66.38
364.335	96.38
364.562	93.38
364.788	94.38
365.015	87.38
365.241	106.38
365.468	109.38
365.694	113.38
365.92	100.38
366.147	96.38
366.373	88.38
366.599	85.38
366.826	93.38
367.052	95.38
367.278	94.38
367.505	99.38
367.731	87.38
367.957	108.38
368.184	98.38
368.41	107.38
368.636	105.38
368.862	121.38
369.089	87.38
369.315	102.38
369.541	77.38
369.767	92.38
369.993	97.38
370.219	81.38
370.445	79.38
370.672	93.38
370.898	98.38
371.124	84.38
371.35	95.38
371.576	91.38
371.802	78.38
372.028	85.38
372.254	94.38
372.48	78.38
372.706	71.38
372.932	87.38
373.158	89.38
373.384	82.38
373.61	90.38
373.835	80.38
374.061	90.38
374.287	86.38
374.513	89.38
374.739	82.38
374.965	86.38
375.191	87.38
375.416	97.38
375.642	80.38
375.868	92.38
376.094	91.38
376.319	83.38
376.545	85.38
376.771	100.38
376.997	86.38
377.222	79.38
377.448	96.38
377.674	98.38
377.899	85.38
378.125	78.38
378.35	94.38
378.576	86.38
378.802	87.38
379.027	87.38
379.253	80.38
379.478	83.38
379.704	85.38
379.929	74.38
380.155	87.38
380.38	82.38
380.606	100.38
380.831	110.38
381.057	90.38
381.282	78.38
381.507	87.38
381.733	111.38
381.958	79.38
382.184	94.38
382.409	100.38
382.634	108.38
382.86	96.38
383.085	92.38
383.31	89.38
383.535	96.38
383.761	95.38
383.986	88.38
384.211	92.38
384.436	89.38
384.662	69.38
384.887	84.38
385.112	79.38
385.337	110.38
385.562	97.38
385.787	108.38
386.013	110.38
386.238	115.38
386.463	100.38
386.688	112.38
386.913	107.38
387.138	103.38
387.363	108.38
387.588	97.38
387.813	98.38
388.038	102.38
388.263	103.38
388.488	99.38
388.713	96.38
388.938	91.38
389.163	95.38
389.387	75.38
389.612	89.38
389.837	96.38
390.062	80.38
390.287	94.38
390.512	102.38
390.736	83.38
390.961	82.38
391.186	83.38
391.411	89.38
391.636	88.38
391.86	76.38
392.085	78.38
392.31	80.38
392.534	85.38
392.759	87.38
392.984	80.38
393.208	90.38
393.433	95.38
393.658	91.38
393.882	83.38
394.107	77.38
394.331	80.38
394.556	89.38
394.78	62.38
395.005	71.38
395.229	77.38
395.454	87.38
395.678	90.38
395.903	77.38
396.127	93.38
396.352	88.38
396.576	80.38
396.801	76.38
397.025	75.38
397.249	84.38
397.474	84.38
397.698	88.38
397.922	96.38
398.147	98.38
398.371	81.38
398.595	76.38
398.82	88.38
399.044	88.38
399.268	84.38
399.492	90.38
399.717	76.38
399.941	69.38
400.165	78.38
400.389	85.38
400.613	72.38
400.837	99.38
401.062	93.38
401.286	88.38
401.51	85.38
401.734	92.38
401.958	95.38
402.182	126.38
402.406	144.38
402.63	124.38
402.854	96.38
403.078	104.38
403.302	93.38
403.526	76.38
403.75	73.38
403.974	98.38
404.198	85.38
404.422	107.38
404.645	107.38
404.869	98.38
405.093	102.38
405.317	119.38
405.541	133.38
405.765	88.38
405.988	116.38
406.212	166.38
406.436	232.38
406.66	163.38
406.883	110.38
407.107	95.38
407.331	100.38
407.555	99.38
407.778	104.38
408.002	102.38
408.226	82.38
408.449	92.38
408.673	83.38
408.896	98.38
409.12	93.38
409.344	78.38
409.567	86.38
409.791	98.38
410.014	97.38
410.238	99.38
410.461	93.38
410.685	96.38
410.908	99.38
411.132	111.38
411.355	102.38
411.578	86.38
411.802	87.38
412.025	86.38
412.249	92.38
412.472	108.38
412.695	125.38
412.919	102.38
413.142	85.38
413.365	100.38
413.589	78.38
413.812	95.38
414.035	100.38
414.258	87.38
414.482	83.38
414.705	91.38
414.928	96.38
415.151	88.38
415.374	82.38
415.597	90.38
415.821	94.38
416.044	91.38
416.267	97.38
416.49	94.38
416.713	84.38
416.936	90.38
417.159	67.38
417.382	80.38
417.605	90.38
417.828	98.38
418.051	101.38
418.274	92.38
418.497	83.38
418.72	90.38
418.943	98.38
419.166	86.38
419.389	73.38
419.611	70.38
419.834	74.38
420.057	98.38
420.28	99.38
420.503	98.38
420.726	84.38
420.948	96.38
421.171	91.38
421.394	84.38
421.617	77.38
421.839	97.38
422.062	87.38
422.285	90.38
422.507	81.38
422.73	100.38
422.953	103.38
423.175	82.38
423.398	87.38
423.621	88.38
423.843	79.38
424.066	82.38
424.288	98.38
424.511	98.38
424.733	100.38
424.956	110.38
425.178	114.38
425.401	97.38
425.623	97.38
425.846	85.38
426.068	100.38
426.291	95.38
426.513	83.38
426.735	85.38
426.958	93.38
427.18	104.38
427.402	148.38
427.625	209.38
427.847	201.38
428.069	195.38
428.292	111.38
428.514	101.38
428.736	90.38
428.958	88.38
429.181	76.38
429.403	79.38
429.625	88.38
429.847	87.38
430.069	110.38
430.292	85.38
430.514	80.38
430.736	87.38
430.958	85.38
431.18	79.38
431.402	82.38
431.624	81.38
431.846	79.38
432.068	97.38
432.29	83.38
432.512	96.38
432.734	94.38
432.956	93.38
433.178	95.38
433.4	109.38
433.622	94.38
433.844	86.38
434.066	96.38
434.287	88.38
434.509	82.38
434.731	71.38
434.953	83.38
435.175	83.38
435.397	89.38
435.618	97.38
435.84	117.38
436.062	118.38
436.284	129.38
436.505	97.38
436.727	90.38
436.949	83.38
437.17	99.38
437.392	93.38
437.614	82.38
437.835	94.38
438.057	121.38
438.278	104.38
438.5	102.38
438.721	125.38
438.943	98.38
439.165	90.38
439.386	93.38
439.608	92.38
439.829	100.38
440.05	134.38
440.272	162.38
440.493	103.38
440.715	93.38
440.936	89.38
441.158	78.38
441.379	86.38
441.6	94.38
441.822	103.38
442.043	105.38
442.264	115.38
442.486	93.38
442.707	98.38
442.928	95.38
443.149	131.38
443.371	125.38
443.592	115.38
443.813	116.38
444.034	107.38
444.255	86.38
444.476	81.38
444.698	88.38
444.919	86.38
445.14	122.38
445.361	126.38
445.582	120.38
445.803	159.38
446.024	162.38
446.245	163.38
446.466	122.38
446.687	93.38
446.908	86.38
447.129	94.38
447.35	96.38
447.571	95.38
447.792	98.38
448.013	91.38
448.234	102.38
448.455	95.38
448.675	118.38
448.896	142.38
449.117	100.38
449.338	107.38
449.559	133.38
449.779	139.38
450	87.38
450.221	91.38
450.442	79.38
450.662	94.38
450.883	103.38
451.104	119.38
451.324	104.38
451.545	93.38
451.766	91.38
451.986	84.38
452.207	92.38
452.428	93.38
452.648	107.38
452.869	108.38
453.089	109.38
453.31	110.38
453.53	100.38
453.751	82.38
453.971	107.38
454.192	112.38
454.412	90.38
454.633	93.38
454.853	87.38
455.073	96.38
455.294	100.38
455.514	100.38
455.734	94.38
455.955	92.38
456.175	90.38
456.395	76.38
456.616	91.38
456.836	82.38
457.056	82.38
457.276	87.38
457.497	83.38
457.717	80.38
457.937	74.38
458.157	78.38
458.377	87.38
458.598	106.38
458.818	151.38
459.038	164.38
459.258	123.38
459.478	97.38
459.698	79.38
459.918	92.38
460.138	84.38
460.358	74.38
460.578	96.38
460.798	84.38
461.018	88.38
461.238	90.38
461.458	76.38
461.678	96.38
461.898	82.38
462.118	90.38
462.338	77.38
462.558	89.38
462.777	92.38
462.997	71.38
463.217	95.38
463.437	91.38
463.657	78.38
463.876	76.38
464.096	94.38
464.316	82.38
464.536	103.38
464.755	102.38
464.975	108.38
465.195	173.38
465.414	154.38
465.634	99.38
465.854	80.38
466.073	84.38
466.293	85.38
466.512	93.38
466.732	89.38
466.951	82.38
467.171	87.38
467.391	90.38
467.61	109.38
467.829	162.38
468.049	352.38
468.268	511.38
468.488	141.38
468.707	93.38
468.927	78.38
469.146	75.38
469.365	86.38
469.585	87.38
469.804	92.38
470.023	103.38
470.243	94.38
470.462	118.38
470.681	112.38
470.901	104.38
471.12	82.38
471.339	117.38
471.558	95.38
471.777	126.38
471.997	217.38
472.216	686.38
472.435	1521.38
472.654	400.38
472.873	137.38
473.092	94.38
473.311	98.38
473.53	88.38
473.749	102.38
473.968	93.38
474.187	128.38
474.406	103.38
474.625	88.38
474.844	83.38
475.063	80.38
475.282	81.38
475.501	78.38
475.72	85.38
475.939	91.38
476.158	100.38
476.377	85.38
476.596	78.38
476.814	93.38
477.033	91.38
477.252	97.38
477.471	90.38
477.69	79.38
477.908	92.38
478.127	94.38
478.346	84.38
478.564	93.38
478.783	89.38
479.002	94.38
479.22	90.38
479.439	105.38
479.658	114.38
479.876	114.38
480.095	124.38
480.313	113.38
480.532	130.38
480.751	210.38
480.969	675.38
481.188	2728.38
481.406	1547.38
481.624	246.38
481.843	126.38
482.061	104.38
482.28	94.38
482.498	90.38
482.717	91.38
482.935	95.38
483.153	74.38
483.372	97.38
483.59	78.38
483.808	74.38
484.027	101.38
484.245	86.38
484.463	86.38
484.681	101.38
484.9	83.38
485.118	95.38
485.336	85.38
485.554	98.38
485.772	99.38
485.99	98.38
486.209	96.38
486.427	104.38
486.645	102.38
486.863	116.38
487.081	106.38
487.299	82.38
487.517	81.38
487.735	93.38
487.953	94.38
488.171	100.38
488.389	102.38
488.607	99.38
488.825	81.38
489.043	83.38
489.261	92.38
489.479	85.38
489.696	75.38
489.914	79.38
490.132	76.38
490.35	79.38
490.568	90.38
490.786	82.38
491.003	85.38
491.221	88.38
491.439	93.38
491.657	92.38
491.874	88.38
492.092	96.38
492.31	88.38
492.527	98.38
492.745	92.38
492.963	76.38
493.18	82.38
493.398	83.38
493.615	95.38
493.833	81.38
494.05	88.38
494.268	90.38
494.485	94.38
494.703	98.38
494.92	92.38
495.138	100.38
495.355	73.38
495.573	97.38
495.79	104.38
496.008	93.38
496.225	84.38
496.442	85.38
496.66	94.38
496.877	83.38
497.094	89.38
497.312	87.38
497.529	84.38
497.746	95.38
497.963	88.38
498.181	86.38
498.398	86.38
498.615	116.38
498.832	102.38
499.049	100.38
499.267	92.38
499.484	95.38
499.701	94.38
499.918	90.38
500.135	87.38
500.352	93.38
500.569	91.38
500.786	88.38
501.003	83.38
501.22	86.38
501.437	80.38
501.654	112.38
501.871	123.38
502.088	108.38
502.305	81.38
502.522	86.38
502.739	89.38
502.956	96.38
503.172	86.38
503.389	84.38
503.606	109.38
503.823	92.38
504.04	89.38
504.256	102.38
504.473	87.38
504.69	84.38
504.907	97.38
505.123	94.38
505.34	88.38
505.557	90.38
505.773	100.38
505.99	97.38
506.207	103.38
506.423	93.38
506.64	82.38
506.856	88.38
507.073	83.38
507.289	90.38
507.506	87.38
507.722	130.38
507.939	107.38
508.155	101.38
508.372	81.38
508.588	95.38
508.805	96.38
509.021	102.38
509.238	91.38
509.454	78.38
509.67	101.38
509.887	118.38
510.103	125.38
510.319	209.38
510.536	675.38
510.752	2220.38
510.968	621.38
511.184	156.38
511.401	120.38
511.617	109.38
511.833	103.38
512.049	70.38
512.265	97.38
512.481	91.38
512.698	95.38
512.914	90.38
513.13	93.38
513.346	94.38
513.562	101.38
513.778	103.38
513.994	98.38
514.21	98.38
514.426	112.38
514.642	154.38
514.858	127.38
515.074	173.38
