Data from Circ_1989_H10_HRD10591_00075.txt Node
Date: Wed Jan 03 12:01:36 EST 2024
User: Yrep
Spectrometer: HR+D1059
Trigger mode: 1
Integration Time (sec): 1.000000E-1
Scans to average: 1
Electric dark correction enabled: true
Nonlinearity correction enabled: false
Boxcar width: 0
XAxis mode: Wavelengths
Number of Pixels in Spectrum: 2048
>>>>>Begin Spectral Data<<<<<
223.165	-9
223.4	-9
223.635	-9
223.869	-20
224.104	-24
224.338	-11
224.573	-21
224.808	-8
225.042	5
225.277	-15
225.511	8
225.746	8
225.98	12
226.215	5
226.449	9
226.683	9
226.918	27
227.152	25
227.387	34
227.621	42
227.856	50
228.09	50
228.324	40
228.559	60
228.793	62
229.027	71
229.262	63
229.496	82
229.73	77
229.964	75
230.199	82
230.433	68
230.667	79
230.901	86
231.136	73
231.37	78
231.604	80
231.838	87
232.072	83
232.306	82
232.541	71
232.775	81
233.009	79
233.243	86
233.477	73
233.711	83
233.945	87
234.179	67
234.413	80
234.647	78
234.881	72
235.115	80
235.349	75
235.583	73
235.817	77
236.051	82
236.285	75
236.519	70
236.753	75
236.987	76
237.221	69
237.455	73
237.689	87
237.922	88
238.156	86
238.39	82
238.624	88
238.858	70
239.091	94
239.325	88
239.559	96
239.793	81
240.027	95
240.26	76
240.494	72
240.728	73
240.961	64
241.195	92
241.429	72
241.662	70
241.896	81
242.13	84
242.363	74
242.597	84
242.83	82
243.064	88
243.298	84
243.531	80
243.765	73
243.998	77
244.232	91
244.465	78
244.699	72
244.932	89
245.166	82
245.399	96
245.633	68
245.866	78
246.099	89
246.333	88
246.566	101
246.8	76
247.033	78
247.266	66
247.5	82
247.733	87
247.966	79
248.2	78
248.433	83
248.666	94
248.899	90
249.133	78
249.366	103
249.599	100
249.832	84
250.066	86
250.299	76
250.532	89
250.765	76
250.998	84
251.231	79
251.465	72
251.698	74
251.931	80
252.164	99
252.397	91
252.63	88
252.863	86
253.096	82
253.329	84
253.562	83
253.795	81
254.028	73
254.261	79
254.494	86
254.727	91
254.96	79
255.193	62
255.426	80
255.659	82
255.892	84
256.124	87
256.357	94
256.59	91
256.823	89
257.056	88
257.289	97
257.521	88
257.754	89
257.987	77
258.22	82
258.452	83
258.685	84
258.918	78
259.151	97
259.383	97
259.616	86
259.849	87
260.081	90
260.314	92
260.547	98
260.779	90
261.012	91
261.244	95
261.477	90
261.71	92
261.942	100
262.175	96
262.407	90
262.64	100
262.872	90
263.105	83
263.337	92
263.57	90
263.802	94
264.035	89
264.267	94
264.499	97
264.732	89
264.964	73
265.197	95
265.429	92
265.661	83
265.894	100
266.126	82
266.358	89
266.591	88
266.823	91
267.055	81
267.287	74
267.52	98
267.752	81
267.984	87
268.216	82
268.448	93
268.681	86
268.913	88
269.145	92
269.377	74
269.609	81
269.841	82
270.073	90
270.306	92
270.538	92
270.77	82
271.002	89
271.234	97
271.466	99
271.698	105
271.93	107
272.162	99
272.394	90
272.626	91
272.858	88
273.09	104
273.322	89
273.553	72
273.785	84
274.017	86
274.249	80
274.481	98
274.713	90
274.945	82
275.176	92
275.408	100
275.64	104
275.872	94
276.104	90
276.335	94
276.567	95
276.799	106
277.031	111
277.262	132
277.494	106
277.726	84
277.957	91
278.189	83
278.421	97
278.652	100
278.884	100
279.115	92
279.347	83
279.579	84
279.81	95
280.042	107
280.273	114
280.505	103
280.736	88
280.968	102
281.199	104
281.431	97
281.662	90
281.894	82
282.125	97
282.356	89
282.588	134
282.819	108
283.051	83
283.282	80
283.513	91
283.745	105
283.976	102
284.207	94
284.439	106
284.67	99
284.901	83
285.132	92
285.364	82
285.595	92
285.826	87
286.057	92
286.288	79
286.52	97
286.751	96
286.982	92
287.213	96
287.444	90
287.675	78
287.906	88
288.138	86
288.369	81
288.6	94
288.831	96
289.062	86
289.293	92
289.524	93
289.755	83
289.986	90
290.217	92
290.448	88
290.679	95
290.91	79
291.141	96
291.371	86
291.602	81
291.833	78
292.064	82
292.295	83
292.526	91
292.757	79
292.987	99
293.218	94
293.449	101
293.68	89
293.91	86
294.141	96
294.372	92
294.603	87
294.833	91
295.064	102
295.295	86
295.525	103
295.756	92
295.987	98
296.217	121
296.448	112
296.679	83
296.909	88
297.14	105
297.37	107
297.601	95
297.831	100
298.062	99
298.292	99
298.523	94
298.753	80
298.984	92
299.214	85
299.445	103
299.675	75
299.905	96
300.136	95
300.366	89
300.597	88
300.827	101
301.057	94
301.288	110
301.518	99
301.748	83
301.979	99
302.209	102
302.439	93
302.669	94
302.9	86
303.13	83
303.36	110
303.59	111
303.82	112
304.051	89
304.281	82
304.511	89
304.741	89
304.971	92
305.201	98
305.431	98
305.661	86
305.891	97
306.121	98
306.352	87
306.582	108
306.812	96
307.042	99
307.272	104
307.502	127
307.731	129
307.961	111
308.191	97
308.421	98
308.651	102
308.881	93
309.111	90
309.341	98
309.571	105
309.8	103
310.03	84
310.26	104
310.49	102
310.72	102
310.949	102
311.179	88
311.409	90
311.639	86
311.868	100
312.098	101
312.328	102
312.557	99
312.787	98
313.017	95
313.246	94
313.476	98
313.706	94
313.935	96
314.165	80
314.394	89
314.624	92
314.853	81
315.083	95
315.312	92
315.542	89
315.771	101
316.001	82
316.23	86
316.46	89
316.689	84
316.919	90
317.148	93
317.377	97
317.607	84
317.836	99
318.065	83
318.295	92
318.524	96
318.753	90
318.983	109
319.212	99
319.441	109
319.67	98
319.9	97
320.129	100
320.358	89
320.587	100
320.816	111
321.046	91
321.275	97
321.504	105
321.733	92
321.962	95
322.191	101
322.42	111
322.649	100
322.878	105
323.108	113
323.337	110
323.566	119
323.795	118
324.024	163
324.253	294
324.482	614
324.71	1248
324.939	1619
325.168	640
325.397	200
325.626	134
325.855	116
326.084	102
326.313	123
326.542	138
326.77	194
326.999	359
327.228	712
327.457	1310
327.686	1044
327.914	328
328.143	239
328.372	262
328.6	186
328.829	117
329.058	132
329.287	125
329.515	125
329.744	151
329.972	216
330.201	356
330.43	478
330.658	238
330.887	153
331.115	112
331.344	93
331.572	105
331.801	114
332.03	103
332.258	91
332.486	91
332.715	91
332.943	103
333.172	103
333.4	93
333.629	107
333.857	141
334.085	199
334.314	338
334.542	597
334.771	583
334.999	193
335.227	114
335.455	115
335.684	99
335.912	107
336.14	98
336.369	108
336.597	87
336.825	101
337.053	96
337.281	101
337.51	86
337.738	95
337.966	98
338.194	95
338.422	90
338.65	96
338.878	101
339.106	99
339.334	89
339.562	92
339.79	83
340.018	93
340.246	101
340.474	94
340.702	95
340.93	91
341.158	85
341.386	99
341.614	101
341.842	94
342.07	100
342.298	99
342.526	96
342.754	87
342.981	102
343.209	90
343.437	102
343.665	100
343.893	97
344.12	101
344.348	91
344.576	105
344.804	96
345.031	119
345.259	99
345.487	87
345.714	88
345.942	94
346.17	83
346.397	92
346.625	121
346.853	102
347.08	95
347.308	89
347.535	105
347.763	106
347.99	81
348.218	96
348.445	94
348.673	89
348.9	86
349.128	92
349.355	95
349.583	98
349.81	106
350.037	97
350.265	78
350.492	89
350.72	94
350.947	94
351.174	97
351.402	100
351.629	98
351.856	109
352.083	93
352.311	95
352.538	89
352.765	95
352.992	118
353.22	96
353.447	109
353.674	96
353.901	95
354.128	103
354.355	99
354.583	94
354.81	99
355.037	104
355.264	105
355.491	108
355.718	98
355.945	84
356.172	99
356.399	98
356.626	94
356.853	87
357.08	112
357.307	102
357.534	97
357.761	98
357.988	86
358.215	96
358.441	101
358.668	90
358.895	91
359.122	90
359.349	90
359.576	101
359.802	83
360.029	108
360.256	98
360.483	83
360.709	88
360.936	92
361.163	90
361.39	102
361.616	98
361.843	92
362.07	97
362.296	98
362.523	102
362.749	89
362.976	102
363.203	96
363.429	101
363.656	106
363.882	104
364.109	91
364.335	96
364.562	92
364.788	108
365.015	93
365.241	100
365.468	92
365.694	99
365.92	98
366.147	98
366.373	102
366.599	82
366.826	85
367.052	89
367.278	81
367.505	92
367.731	102
367.957	102
368.184	87
368.41	112
368.636	112
368.862	97
369.089	102
369.315	91
369.541	74
369.767	98
369.993	92
370.219	85
370.445	85
370.672	95
370.898	88
371.124	91
371.35	88
371.576	99
371.802	105
372.028	81
372.254	82
372.48	102
372.706	94
372.932	94
373.158	84
373.384	92
373.61	85
373.835	86
374.061	85
374.287	99
374.513	108
374.739	92
374.965	99
375.191	86
375.416	93
375.642	93
375.868	92
376.094	99
376.319	86
376.545	78
376.771	97
376.997	100
377.222	101
377.448	108
377.674	89
377.899	90
378.125	95
378.35	86
378.576	97
378.802	87
379.027	100
379.253	92
379.478	90
379.704	94
379.929	92
380.155	88
380.38	89
380.606	88
380.831	96
381.057	98
381.282	104
381.507	106
381.733	114
381.958	94
382.184	82
382.409	97
382.634	117
382.86	102
383.085	81
383.31	94
383.535	88
383.761	98
383.986	112
384.211	100
384.436	83
384.662	97
384.887	101
385.112	112
385.337	112
385.562	106
385.787	112
386.013	102
386.238	99
386.463	112
386.688	115
386.913	123
387.138	100
387.363	102
387.588	103
387.813	98
388.038	99
388.263	114
388.488	123
388.713	105
388.938	96
389.163	103
389.387	108
389.612	103
389.837	92
390.062	88
390.287	86
390.512	94
390.736	83
390.961	86
391.186	94
391.411	98
391.636	93
391.86	98
392.085	75
392.31	85
392.534	80
392.759	88
392.984	87
393.208	85
393.433	92
393.658	104
393.882	96
394.107	102
394.331	84
394.556	91
394.78	98
395.005	106
395.229	99
395.454	88
395.678	76
395.903	80
396.127	84
396.352	87
396.576	73
396.801	85
397.025	82
397.249	83
397.474	74
397.698	82
397.922	92
398.147	96
398.371	90
398.595	91
398.82	89
399.044	95
399.268	85
399.492	98
399.717	96
399.941	106
400.165	94
400.389	96
400.613	101
400.837	93
401.062	91
401.286	92
401.51	101
401.734	87
401.958	95
402.182	118
402.406	133
402.63	100
402.854	84
403.078	96
403.302	92
403.526	97
403.75	81
403.974	81
404.198	81
404.422	86
404.645	89
404.869	100
405.093	102
405.317	114
405.541	104
405.765	89
405.988	115
406.212	147
406.436	188
406.66	113
406.883	90
407.107	91
407.331	94
407.555	100
407.778	97
408.002	100
408.226	89
408.449	75
408.673	98
408.896	88
409.12	89
409.344	95
409.567	86
409.791	99
410.014	99
410.238	104
410.461	104
410.685	87
410.908	98
411.132	104
411.355	107
411.578	102
411.802	86
412.025	89
412.249	103
412.472	106
412.695	106
412.919	104
413.142	106
413.365	87
413.589	74
413.812	90
414.035	94
414.258	93
414.482	101
414.705	86
414.928	91
415.151	96
415.374	93
415.597	96
415.821	95
416.044	75
416.267	89
416.49	94
416.713	94
416.936	98
417.159	101
417.382	87
417.605	79
417.828	92
418.051	97
418.274	98
418.497	87
418.72	91
418.943	82
419.166	76
419.389	89
419.611	99
419.834	94
420.057	101
420.28	83
420.503	91
420.726	80
420.948	92
421.171	101
421.394	81
421.617	97
421.839	83
422.062	94
422.285	90
422.507	103
422.73	92
422.953	100
423.175	92
423.398	85
423.621	102
423.843	94
424.066	92
424.288	93
424.511	84
424.733	99
424.956	109
425.178	96
425.401	82
425.623	97
425.846	100
426.068	93
426.291	100
426.513	93
426.735	102
426.958	95
427.18	111
427.402	123
427.625	145
427.847	167
428.069	136
428.292	103
428.514	84
428.736	87
428.958	80
429.181	86
429.403	92
429.625	75
429.847	97
430.069	97
430.292	95
430.514	90
430.736	96
430.958	90
431.18	97
431.402	82
431.624	90
431.846	95
432.068	75
432.29	89
432.512	98
432.734	90
432.956	99
433.178	113
433.4	88
433.622	88
433.844	95
434.066	87
434.287	93
434.509	93
434.731	85
434.953	88
435.175	105
435.397	95
435.618	108
435.84	94
436.062	110
436.284	93
436.505	90
436.727	94
436.949	95
437.17	89
437.392	92
437.614	84
437.835	89
438.057	113
438.278	91
438.5	96
438.721	105
438.943	93
439.165	95
439.386	86
439.608	92
439.829	107
440.05	111
440.272	126
440.493	103
440.715	90
440.936	83
441.158	84
441.379	91
441.6	88
441.822	96
442.043	98
442.264	99
442.486	84
442.707	84
442.928	114
443.149	119
443.371	107
443.592	100
443.813	103
444.034	107
444.255	100
444.476	83
444.698	84
444.919	94
445.14	153
445.361	126
445.582	102
445.803	117
446.024	124
446.245	113
446.466	117
446.687	91
446.908	94
447.129	91
447.35	91
447.571	88
447.792	91
448.013	82
448.234	106
448.455	94
448.675	117
448.896	94
449.117	106
449.338	112
449.559	124
449.779	116
450	96
450.221	92
450.442	94
450.662	102
450.883	111
451.104	95
451.324	99
451.545	89
451.766	83
451.986	95
452.207	93
452.428	99
452.648	97
452.869	103
453.089	108
453.31	101
453.53	97
453.751	94
453.971	94
454.192	104
454.412	91
454.633	95
454.853	89
455.073	88
455.294	91
455.514	81
455.734	94
455.955	79
456.175	98
456.395	86
456.616	90
456.836	93
457.056	91
457.276	82
457.497	85
457.717	82
457.937	93
458.157	82
458.377	95
458.598	111
458.818	138
459.038	128
459.258	92
459.478	94
459.698	101
459.918	90
460.138	92
460.358	80
460.578	88
460.798	89
461.018	96
461.238	94
461.458	92
461.678	86
461.898	86
462.118	92
462.338	92
462.558	91
462.777	82
462.997	95
463.217	99
463.437	87
463.657	87
463.876	92
464.096	82
464.316	85
464.536	88
464.755	83
464.975	103
465.195	126
465.414	138
465.634	99
465.854	83
466.073	91
466.293	93
466.512	94
466.732	87
466.951	94
467.171	78
467.391	94
467.61	121
467.829	125
468.049	248
468.268	304
468.488	124
468.707	80
468.927	91
469.146	93
469.365	100
469.585	92
469.804	85
470.023	106
470.243	66
470.462	88
470.681	106
470.901	108
471.12	83
471.339	100
471.558	96
471.777	107
471.997	169
472.216	445
472.435	867
472.654	242
472.873	114
473.092	104
473.311	94
473.53	88
473.749	86
473.968	86
474.187	86
474.406	101
474.625	90
474.844	92
475.063	107
475.282	90
475.501	89
475.72	97
475.939	98
476.158	87
476.377	90
476.596	108
476.814	103
477.033	106
477.252	89
477.471	88
477.69	82
477.908	83
478.127	107
478.346	91
478.564	99
478.783	103
479.002	93
479.22	100
479.439	97
479.658	98
479.876	94
480.095	109
480.313	118
480.532	118
480.751	164
480.969	421
481.188	1545
481.406	889
481.624	176
481.843	108
482.061	91
482.28	91
482.498	91
482.717	101
482.935	99
483.153	94
483.372	85
483.59	88
483.808	103
484.027	94
484.245	93
484.463	90
484.681	91
484.9	92
485.118	94
485.336	86
485.554	92
485.772	90
485.99	107
486.209	115
486.427	118
486.645	117
486.863	104
487.081	90
487.299	97
487.517	76
487.735	95
487.953	96
488.171	100
488.389	112
488.607	99
488.825	102
489.043	78
489.261	92
489.479	97
489.696	89
489.914	84
490.132	85
490.35	96
490.568	92
490.786	95
491.003	80
491.221	79
491.439	98
491.657	88
491.874	100
492.092	101
492.31	97
492.527	87
492.745	78
492.963	97
493.18	84
493.398	100
493.615	103
493.833	100
494.05	96
494.268	99
494.485	99
494.703	96
494.92	75
495.138	93
495.355	91
495.573	88
495.79	80
496.008	92
496.225	90
496.442	82
496.66	84
496.877	106
497.094	102
497.312	92
497.529	90
497.746	86
497.963	98
498.181	92
498.398	71
498.615	104
498.832	101
499.049	101
499.267	98
499.484	88
499.701	97
499.918	97
500.135	90
500.352	93
500.569	94
500.786	93
501.003	87
501.22	90
501.437	103
501.654	83
501.871	95
502.088	87
502.305	88
502.522	88
502.739	81
502.956	94
503.172	89
503.389	102
503.606	83
503.823	90
504.04	106
504.256	99
504.473	75
504.69	82
504.907	96
505.123	96
505.34	99
505.557	89
505.773	97
505.99	91
506.207	83
506.423	84
506.64	98
506.856	90
507.073	84
507.289	87
507.506	93
507.722	98
507.939	117
508.155	100
508.372	95
508.588	99
508.805	96
509.021	109
509.238	88
509.454	79
509.67	98
509.887	108
510.103	119
510.319	176
510.536	543
510.752	1601
510.968	471
511.184	136
511.401	108
511.617	104
511.833	91
512.049	82
512.265	97
512.481	91
512.698	95
512.914	93
513.13	97
513.346	87
513.562	98
513.778	96
513.994	104
514.21	108
514.426	123
514.642	111
514.858	113
515.074	145
515.29	340
515.506	974
515.721	364
515.937	126
516.153	102
516.369	100
516.585	97
516.801	106
517.016	96
517.232	103
517.448	110
517.664	74
517.879	87
518.095	88
518.311	90
518.527	90
518.742	92
518.958	98
519.173	78
519.389	80
519.605	97
519.82	99
520.036	93
520.251	117
520.467	100
520.682	99
520.898	96
521.113	109
521.329	127
521.544	171
521.76	391
521.975	1561
522.19	932
522.406	230
522.621	118
522.836	99
523.052	94
523.267	82
523.482	89
523.698	92
523.913	113
524.128	110
524.343	98
524.559	97
524.774	72
524.989	91
525.204	92
525.419	93
525.634	81
525.849	100
526.064	92
526.28	103
526.495	92
526.71	85
526.925	72
527.14	82
527.355	91
527.57	95
527.785	99
527.999	79
528.214	92
528.429	88
528.644	93
528.859	96
529.074	80
529.289	113
529.503	159
529.718	100
529.933	96
530.148	87
530.363	99
530.577	89
530.792	94
531.007	91
531.221	85
531.436	91
531.651	81
531.865	91
532.08	88
532.295	95
532.509	87
532.724	100
532.938	93
533.153	94
533.367	86
533.582	97
533.796	108
534.011	82
534.225	96
534.44	102
534.654	100
534.868	95
535.083	103
535.297	101
535.511	100
535.726	88
535.94	93
536.154	89
536.369	87
536.583	77
536.797	102
537.011	86
537.225	84
537.44	86
537.654	105
537.868	97
538.082	97
538.296	82
538.51	92
538.724	102
538.938	96
539.153	94
539.367	90
539.581	96
539.795	91
540.009	89
540.222	100
540.436	101
540.65	94
540.864	97
541.078	90
541.292	92
541.506	93
541.72	90
541.934	91
542.147	80
542.361	88
542.575	83
542.789	90
543.002	86
543.216	85
543.43	98
543.644	110
543.857	80
544.071	92
544.285	84
544.498	86
544.712	84
544.925	96
545.139	95
545.352	94
545.566	84
545.779	93
545.993	85
546.206	81
546.42	95
546.633	89
546.847	104
547.06	74
547.274	82
547.487	102
547.7	90
547.914	99
548.127	106
548.34	86
548.554	97
548.767	97
548.98	96
549.193	104
549.407	82
549.62	92
549.833	75
550.046	95
550.259	99
550.473	91
550.686	92
550.899	105
551.112	92
551.325	89
551.538	107
551.751	97
551.964	106
552.177	92
552.39	82
552.603	74
552.816	92
553.029	90
553.242	86
553.455	105
553.667	98
553.88	82
554.093	97
554.306	95
554.519	113
554.732	96
554.944	92
555.157	95
555.37	96
555.583	100
555.795	94
556.008	91
556.221	92
556.433	104
556.646	107
556.859	84
557.071	98
557.284	96
557.496	96
557.709	88
557.921	94
558.134	83
558.346	91
558.559	94
558.771	84
558.984	85
559.196	87
559.409	89
559.621	99
559.833	84
560.046	87
560.258	99
560.47	90
560.683	93
560.895	92
561.107	86
561.32	97
561.532	75
561.744	98
561.956	103
562.168	83
562.381	96
562.593	92
562.805	98
563.017	90
563.229	86
563.441	100
563.653	99
563.865	86
564.077	80
564.289	106
564.501	82
564.713	93
564.925	82
565.137	89
565.349	83
565.561	80
565.773	87
565.985	75
566.197	80
566.408	91
566.62	76
566.832	87
567.044	84
567.255	88
567.467	91
567.679	81
567.891	90
568.102	95
568.314	84
568.526	79
568.737	94
568.949	91
569.161	73
569.372	97
569.584	95
569.795	91
570.007	106
570.218	195
570.43	113
570.641	87
570.853	94
571.064	85
571.276	96
571.487	89
571.698	95
571.91	95
572.121	89
572.333	91
572.544	95
572.755	84
572.966	84
573.178	94
573.389	84
573.6	91
573.811	81
574.023	82
574.234	96
574.445	110
574.656	84
574.867	96
575.078	88
575.289	71
575.501	103
575.712	85
575.923	78
576.134	86
576.345	76
576.556	80
576.767	105
576.978	91
577.188	87
577.399	83
577.61	89
577.821	92
578.032	97
578.243	189
578.454	504
578.665	172
578.875	108
579.086	96
579.297	100
579.508	73
579.718	88
579.929	87
580.14	88
580.35	76
580.561	99
580.772	93
580.982	90
581.193	90
581.403	87
581.614	81
581.825	89
582.035	94
582.246	84
582.456	97
582.667	82
582.877	97
583.087	69
583.298	106
583.508	90
