Data from Circ_1989_H10_HRD10591_00021.txt Node
Date: Wed Jan 03 12:01:25 EST 2024
User: Yrep
Spectrometer: HR+D1059
Trigger mode: 1
Integration Time (sec): 1.000000E-1
Scans to average: 1
Electric dark correction enabled: true
Nonlinearity correction enabled: false
Boxcar width: 0
XAxis mode: Wavelengths
Number of Pixels in Spectrum: 2048
>>>>>Begin Spectral Data<<<<<
223.165	-20.25
223.4	-20.25
223.635	-20.25
223.869	-22.25
224.104	-9.25
224.338	-20.25
224.573	-17.25
224.808	-21.25
225.042	-5.25
225.277	-7.25
225.511	4.75
225.746	-0.25
225.98	9.75
226.215	13.75
226.449	19.75
226.683	16.75
226.918	17.75
227.152	40.75
227.387	36.75
227.621	33.75
227.856	37.75
228.09	55.75
228.324	46.75
228.559	59.75
228.793	50.75
229.027	62.75
229.262	61.75
229.496	77.75
229.73	93.75
229.964	74.75
230.199	80.75
230.433	85.75
230.667	73.75
230.901	81.75
231.136	85.75
231.37	70.75
231.604	76.75
231.838	85.75
232.072	80.75
232.306	88.75
232.541	71.75
232.775	69.75
233.009	81.75
233.243	74.75
233.477	83.75
233.711	81.75
233.945	66.75
234.179	82.75
234.413	74.75
234.647	76.75
234.881	77.75
235.115	72.75
235.349	65.75
235.583	90.75
235.817	87.75
236.051	83.75
236.285	76.75
236.519	77.75
236.753	58.75
236.987	75.75
237.221	84.75
237.455	82.75
237.689	78.75
237.922	78.75
238.156	77.75
238.39	69.75
238.624	63.75
238.858	61.75
239.091	55.75
239.325	73.75
239.559	67.75
239.793	69.75
240.027	83.75
240.26	77.75
240.494	78.75
240.728	75.75
240.961	66.75
241.195	73.75
241.429	76.75
241.662	82.75
241.896	93.75
242.13	68.75
242.363	79.75
242.597	65.75
242.83	75.75
243.064	83.75
243.298	79.75
243.531	76.75
243.765	81.75
243.998	89.75
244.232	89.75
244.465	74.75
244.699	75.75
244.932	74.75
245.166	74.75
245.399	81.75
245.633	86.75
245.866	86.75
246.099	76.75
246.333	83.75
246.566	73.75
246.8	75.75
247.033	80.75
247.266	78.75
247.5	68.75
247.733	78.75
247.966	86.75
248.2	80.75
248.433	86.75
248.666	72.75
248.899	89.75
249.133	79.75
249.366	80.75
249.599	89.75
249.832	86.75
250.066	70.75
250.299	87.75
250.532	87.75
250.765	76.75
250.998	86.75
251.231	81.75
251.465	82.75
251.698	83.75
251.931	71.75
252.164	75.75
252.397	90.75
252.63	82.75
252.863	79.75
253.096	80.75
253.329	82.75
253.562	74.75
253.795	65.75
254.028	70.75
254.261	83.75
254.494	77.75
254.727	83.75
254.96	70.75
255.193	87.75
255.426	67.75
255.659	79.75
255.892	81.75
256.124	90.75
256.357	69.75
256.59	98.75
256.823	86.75
257.056	85.75
257.289	80.75
257.521	80.75
257.754	78.75
257.987	76.75
258.22	81.75
258.452	75.75
258.685	80.75
258.918	85.75
259.151	75.75
259.383	94.75
259.616	86.75
259.849	89.75
260.081	91.75
260.314	85.75
260.547	76.75
260.779	68.75
261.012	92.75
261.244	62.75
261.477	88.75
261.71	93.75
261.942	106.75
262.175	101.75
262.407	93.75
262.64	79.75
262.872	83.75
263.105	76.75
263.337	85.75
263.57	86.75
263.802	81.75
264.035	74.75
264.267	82.75
264.499	74.75
264.732	84.75
264.964	70.75
265.197	78.75
265.429	77.75
265.661	95.75
265.894	87.75
266.126	81.75
266.358	79.75
266.591	78.75
266.823	86.75
267.055	87.75
267.287	79.75
267.52	70.75
267.752	76.75
267.984	84.75
268.216	90.75
268.448	86.75
268.681	94.75
268.913	86.75
269.145	61.75
269.377	77.75
269.609	77.75
269.841	78.75
270.073	90.75
270.306	81.75
270.538	83.75
270.77	77.75
271.002	74.75
271.234	85.75
271.466	85.75
271.698	95.75
271.93	92.75
272.162	87.75
272.394	94.75
272.626	81.75
272.858	86.75
273.09	79.75
273.322	76.75
273.553	89.75
273.785	84.75
274.017	68.75
274.249	69.75
274.481	66.75
274.713	79.75
274.945	85.75
275.176	82.75
275.408	93.75
275.64	86.75
275.872	95.75
276.104	88.75
276.335	97.75
276.567	79.75
276.799	108.75
277.031	108.75
277.262	100.75
277.494	97.75
277.726	75.75
277.957	88.75
278.189	77.75
278.421	87.75
278.652	79.75
278.884	92.75
279.115	73.75
279.347	93.75
279.579	91.75
279.81	83.75
280.042	105.75
280.273	133.75
280.505	80.75
280.736	88.75
280.968	81.75
281.199	89.75
281.431	91.75
281.662	91.75
281.894	82.75
282.125	91.75
282.356	116.75
282.588	113.75
282.819	109.75
283.051	85.75
283.282	89.75
283.513	79.75
283.745	91.75
283.976	70.75
284.207	81.75
284.439	79.75
284.67	75.75
284.901	86.75
285.132	86.75
285.364	76.75
285.595	97.75
285.826	87.75
286.057	85.75
286.288	78.75
286.52	77.75
286.751	79.75
286.982	82.75
287.213	81.75
287.444	88.75
287.675	61.75
287.906	77.75
288.138	77.75
288.369	86.75
288.6	90.75
288.831	87.75
289.062	83.75
289.293	89.75
289.524	86.75
289.755	77.75
289.986	79.75
290.217	81.75
290.448	63.75
290.679	87.75
290.91	73.75
291.141	86.75
291.371	94.75
291.602	82.75
291.833	85.75
292.064	75.75
292.295	80.75
292.526	93.75
292.757	81.75
292.987	97.75
293.218	90.75
293.449	96.75
293.68	89.75
293.91	95.75
294.141	87.75
294.372	79.75
294.603	81.75
294.833	93.75
295.064	86.75
295.295	83.75
295.525	84.75
295.756	97.75
295.987	119.75
296.217	119.75
296.448	122.75
296.679	84.75
296.909	83.75
297.14	86.75
297.37	85.75
297.601	83.75
297.831	80.75
298.062	98.75
298.292	86.75
298.523	82.75
298.753	91.75
298.984	97.75
299.214	78.75
299.445	92.75
299.675	104.75
299.905	88.75
300.136	88.75
300.366	90.75
300.597	84.75
300.827	67.75
301.057	75.75
301.288	108.75
301.518	104.75
301.748	88.75
301.979	111.75
302.209	89.75
302.439	65.75
302.669	82.75
302.9	87.75
303.13	89.75
303.36	91.75
303.59	93.75
303.82	102.75
304.051	95.75
304.281	91.75
304.511	89.75
304.741	82.75
304.971	89.75
305.201	97.75
305.431	89.75
305.661	91.75
305.891	86.75
306.121	83.75
306.352	105.75
306.582	102.75
306.812	94.75
307.042	107.75
307.272	104.75
307.502	122.75
307.731	131.75
307.961	93.75
308.191	104.75
308.421	93.75
308.651	86.75
308.881	97.75
309.111	99.75
309.341	91.75
309.571	90.75
309.8	90.75
310.03	84.75
310.26	106.75
310.49	87.75
310.72	102.75
310.949	98.75
311.179	105.75
311.409	79.75
311.639	80.75
311.868	106.75
312.098	81.75
312.328	102.75
312.557	109.75
312.787	102.75
313.017	93.75
313.246	95.75
313.476	91.75
313.706	89.75
313.935	85.75
314.165	88.75
314.394	102.75
314.624	90.75
314.853	96.75
315.083	93.75
315.312	96.75
315.542	88.75
315.771	103.75
316.001	92.75
316.23	89.75
316.46	89.75
316.689	79.75
316.919	71.75
317.148	87.75
317.377	93.75
317.607	97.75
317.836	90.75
318.065	92.75
318.295	89.75
318.524	84.75
318.753	105.75
318.983	92.75
319.212	110.75
319.441	100.75
319.67	97.75
319.9	93.75
320.129	89.75
320.358	94.75
320.587	99.75
320.816	96.75
321.046	87.75
321.275	89.75
321.504	95.75
321.733	80.75
321.962	100.75
322.191	106.75
322.42	101.75
322.649	101.75
322.878	102.75
323.108	107.75
323.337	114.75
323.566	121.75
323.795	130.75
324.024	195.75
324.253	341.75
324.482	669.75
324.71	1431.75
324.939	1881.75
325.168	691.75
325.397	211.75
325.626	136.75
325.855	129.75
326.084	120.75
326.313	120.75
326.542	139.75
326.77	207.75
326.999	398.75
327.228	804.75
327.457	1474.75
327.686	1173.75
327.914	347.75
328.143	251.75
328.372	265.75
328.6	174.75
328.829	131.75
329.058	125.75
329.287	115.75
329.515	129.75
329.744	153.75
329.972	220.75
330.201	346.75
330.43	483.75
330.658	257.75
330.887	174.75
331.115	124.75
331.344	99.75
331.572	91.75
331.801	97.75
332.03	102.75
332.258	94.75
332.486	97.75
332.715	98.75
332.943	88.75
333.172	95.75
333.4	100.75
333.629	111.75
333.857	142.75
334.085	211.75
334.314	324.75
334.542	589.75
334.771	534.75
334.999	161.75
335.227	100.75
335.455	95.75
335.684	101.75
335.912	104.75
336.14	95.75
336.369	97.75
336.597	106.75
336.825	95.75
337.053	97.75
337.281	83.75
337.51	74.75
337.738	92.75
337.966	86.75
338.194	98.75
338.422	110.75
338.65	80.75
338.878	85.75
339.106	72.75
339.334	87.75
339.562	89.75
339.79	88.75
340.018	98.75
340.246	79.75
340.474	88.75
340.702	92.75
340.93	100.75
341.158	79.75
341.386	97.75
341.614	86.75
341.842	94.75
342.07	77.75
342.298	77.75
342.526	90.75
342.754	91.75
342.981	79.75
343.209	79.75
343.437	83.75
343.665	84.75
343.893	99.75
344.12	89.75
344.348	79.75
344.576	88.75
344.804	89.75
345.031	99.75
345.259	97.75
345.487	83.75
345.714	102.75
345.942	108.75
346.17	83.75
346.397	89.75
346.625	78.75
346.853	88.75
347.08	89.75
347.308	98.75
347.535	94.75
347.763	103.75
347.99	92.75
348.218	90.75
348.445	99.75
348.673	88.75
348.9	96.75
349.128	95.75
349.355	94.75
349.583	80.75
349.81	82.75
350.037	103.75
350.265	97.75
350.492	86.75
350.72	103.75
350.947	96.75
351.174	97.75
351.402	109.75
351.629	97.75
351.856	107.75
352.083	88.75
352.311	96.75
352.538	113.75
352.765	94.75
352.992	93.75
353.22	108.75
353.447	91.75
353.674	90.75
353.901	96.75
354.128	97.75
354.355	86.75
354.583	91.75
354.81	90.75
355.037	94.75
355.264	97.75
355.491	97.75
355.718	89.75
355.945	103.75
356.172	111.75
356.399	102.75
356.626	97.75
356.853	89.75
357.08	78.75
357.307	92.75
357.534	89.75
357.761	101.75
357.988	99.75
358.215	83.75
358.441	95.75
358.668	95.75
358.895	84.75
359.122	84.75
359.349	88.75
359.576	88.75
359.802	94.75
360.029	113.75
360.256	100.75
360.483	90.75
360.709	82.75
360.936	91.75
361.163	87.75
361.39	106.75
361.616	85.75
361.843	91.75
362.07	100.75
362.296	100.75
362.523	97.75
362.749	92.75
362.976	94.75
363.203	91.75
363.429	90.75
363.656	85.75
363.882	81.75
364.109	90.75
364.335	102.75
364.562	96.75
364.788	89.75
365.015	97.75
365.241	83.75
365.468	103.75
365.694	113.75
365.92	87.75
366.147	85.75
366.373	75.75
366.599	73.75
366.826	84.75
367.052	89.75
367.278	92.75
367.505	92.75
367.731	100.75
367.957	108.75
368.184	90.75
368.41	99.75
368.636	92.75
368.862	123.75
369.089	107.75
369.315	103.75
369.541	85.75
369.767	106.75
369.993	97.75
370.219	82.75
370.445	86.75
370.672	79.75
370.898	91.75
371.124	76.75
371.35	85.75
371.576	84.75
371.802	81.75
372.028	96.75
372.254	93.75
372.48	97.75
372.706	86.75
372.932	102.75
373.158	94.75
373.384	98.75
373.61	93.75
373.835	99.75
374.061	87.75
374.287	91.75
374.513	90.75
374.739	84.75
374.965	77.75
375.191	81.75
375.416	84.75
375.642	86.75
375.868	93.75
376.094	98.75
376.319	89.75
376.545	89.75
376.771	77.75
376.997	90.75
377.222	93.75
377.448	80.75
377.674	91.75
377.899	84.75
378.125	100.75
378.35	98.75
378.576	91.75
378.802	93.75
379.027	90.75
379.253	83.75
379.478	83.75
379.704	96.75
379.929	94.75
380.155	84.75
380.38	89.75
380.606	90.75
380.831	94.75
381.057	91.75
381.282	100.75
381.507	100.75
381.733	92.75
381.958	92.75
382.184	99.75
382.409	99.75
382.634	92.75
382.86	102.75
383.085	116.75
383.31	105.75
383.535	97.75
383.761	94.75
383.986	114.75
384.211	109.75
384.436	97.75
384.662	99.75
384.887	108.75
385.112	112.75
385.337	108.75
385.562	115.75
385.787	109.75
386.013	113.75
386.238	103.75
386.463	114.75
386.688	127.75
386.913	115.75
387.138	121.75
387.363	102.75
387.588	93.75
387.813	114.75
388.038	101.75
388.263	116.75
388.488	108.75
388.713	108.75
388.938	93.75
389.163	91.75
389.387	89.75
389.612	90.75
389.837	97.75
390.062	98.75
390.287	87.75
390.512	77.75
390.736	72.75
390.961	75.75
391.186	83.75
391.411	84.75
391.636	85.75
391.86	89.75
392.085	93.75
392.31	85.75
392.534	89.75
392.759	74.75
392.984	81.75
393.208	81.75
393.433	102.75
393.658	93.75
393.882	96.75
394.107	78.75
394.331	101.75
394.556	89.75
394.78	71.75
395.005	84.75
395.229	90.75
395.454	79.75
395.678	83.75
395.903	86.75
396.127	89.75
396.352	95.75
396.576	85.75
396.801	81.75
397.025	86.75
397.249	100.75
397.474	85.75
397.698	76.75
397.922	80.75
398.147	76.75
398.371	88.75
398.595	87.75
398.82	89.75
399.044	77.75
399.268	86.75
399.492	96.75
399.717	81.75
399.941	85.75
400.165	86.75
400.389	73.75
400.613	95.75
400.837	84.75
401.062	108.75
401.286	94.75
401.51	83.75
401.734	87.75
401.958	98.75
402.182	112.75
402.406	139.75
402.63	109.75
402.854	83.75
403.078	67.75
403.302	90.75
403.526	81.75
403.75	81.75
403.974	84.75
404.198	86.75
404.422	88.75
404.645	77.75
404.869	83.75
405.093	101.75
405.317	103.75
405.541	106.75
405.765	107.75
405.988	99.75
406.212	138.75
406.436	189.75
406.66	135.75
406.883	94.75
407.107	93.75
407.331	95.75
407.555	93.75
407.778	97.75
408.002	82.75
408.226	84.75
408.449	77.75
408.673	89.75
408.896	89.75
409.12	93.75
409.344	80.75
409.567	89.75
409.791	84.75
410.014	98.75
410.238	103.75
410.461	85.75
410.685	99.75
410.908	93.75
411.132	102.75
411.355	101.75
411.578	85.75
411.802	84.75
412.025	92.75
412.249	97.75
412.472	93.75
412.695	112.75
412.919	94.75
413.142	85.75
413.365	86.75
413.589	86.75
413.812	87.75
414.035	89.75
414.258	81.75
414.482	98.75
414.705	85.75
414.928	95.75
415.151	92.75
415.374	110.75
415.597	94.75
415.821	89.75
416.044	101.75
416.267	100.75
416.49	97.75
416.713	83.75
416.936	73.75
417.159	85.75
417.382	80.75
417.605	79.75
417.828	83.75
418.051	85.75
418.274	83.75
418.497	76.75
418.72	70.75
418.943	74.75
419.166	86.75
419.389	101.75
419.611	93.75
419.834	84.75
420.057	84.75
420.28	78.75
420.503	82.75
420.726	78.75
420.948	87.75
421.171	92.75
421.394	89.75
421.617	87.75
421.839	80.75
422.062	91.75
422.285	78.75
422.507	96.75
422.73	99.75
422.953	102.75
423.175	90.75
423.398	79.75
423.621	73.75
423.843	84.75
424.066	68.75
424.288	75.75
424.511	89.75
424.733	101.75
424.956	103.75
425.178	97.75
425.401	99.75
425.623	100.75
425.846	89.75
426.068	99.75
426.291	73.75
426.513	81.75
426.735	83.75
426.958	90.75
427.18	98.75
427.402	129.75
427.625	173.75
427.847	150.75
428.069	132.75
428.292	97.75
428.514	94.75
428.736	73.75
428.958	79.75
429.181	85.75
429.403	87.75
429.625	81.75
429.847	93.75
430.069	99.75
430.292	78.75
430.514	79.75
430.736	89.75
430.958	83.75
431.18	81.75
431.402	75.75
431.624	91.75
431.846	87.75
432.068	72.75
432.29	75.75
432.512	95.75
432.734	81.75
432.956	63.75
433.178	82.75
433.4	87.75
433.622	87.75
433.844	80.75
434.066	90.75
434.287	77.75
434.509	77.75
434.731	85.75
434.953	81.75
435.175	88.75
435.397	93.75
435.618	97.75
435.84	96.75
436.062	107.75
436.284	115.75
436.505	89.75
436.727	100.75
436.949	89.75
437.17	87.75
437.392	76.75
437.614	89.75
437.835	91.75
438.057	107.75
438.278	92.75
438.5	92.75
438.721	116.75
438.943	98.75
439.165	95.75
439.386	98.75
439.608	93.75
439.829	89.75
440.05	112.75
440.272	129.75
440.493	84.75
440.715	89.75
440.936	81.75
441.158	85.75
441.379	68.75
441.6	86.75
441.822	91.75
442.043	77.75
442.264	92.75
442.486	103.75
442.707	89.75
442.928	102.75
443.149	118.75
443.371	115.75
443.592	107.75
443.813	116.75
444.034	109.75
444.255	83.75
444.476	92.75
444.698	97.75
444.919	91.75
445.14	134.75
445.361	103.75
445.582	101.75
445.803	124.75
446.024	135.75
446.245	131.75
446.466	98.75
446.687	86.75
446.908	92.75
447.129	86.75
447.35	77.75
447.571	95.75
447.792	98.75
448.013	88.75
448.234	95.75
448.455	87.75
448.675	119.75
448.896	110.75
449.117	98.75
449.338	108.75
449.559	95.75
449.779	118.75
450	98.75
450.221	90.75
450.442	85.75
450.662	86.75
450.883	105.75
451.104	105.75
451.324	99.75
451.545	89.75
451.766	68.75
451.986	97.75
452.207	79.75
452.428	82.75
452.648	89.75
452.869	107.75
453.089	115.75
453.31	119.75
453.53	106.75
453.751	68.75
453.971	92.75
454.192	96.75
454.412	87.75
454.633	97.75
454.853	73.75
455.073	79.75
455.294	79.75
455.514	108.75
455.734	79.75
455.955	76.75
456.175	76.75
456.395	84.75
456.616	83.75
456.836	82.75
457.056	91.75
457.276	77.75
457.497	86.75
457.717	86.75
457.937	79.75
458.157	100.75
458.377	77.75
458.598	93.75
458.818	129.75
459.038	149.75
459.258	103.75
459.478	79.75
459.698	82.75
459.918	85.75
460.138	78.75
460.358	71.75
460.578	81.75
460.798	84.75
461.018	93.75
461.238	87.75
461.458	77.75
461.678	84.75
461.898	80.75
462.118	84.75
462.338	93.75
462.558	91.75
462.777	89.75
462.997	75.75
463.217	87.75
463.437	88.75
463.657	82.75
463.876	81.75
464.096	97.75
464.316	82.75
464.536	95.75
464.755	84.75
464.975	92.75
465.195	160.75
465.414	155.75
465.634	110.75
465.854	85.75
466.073	96.75
466.293	85.75
466.512	88.75
466.732	95.75
466.951	88.75
467.171	87.75
467.391	100.75
467.61	106.75
467.829	120.75
468.049	220.75
468.268	300.75
468.488	124.75
468.707	83.75
468.927	73.75
469.146	97.75
469.365	88.75
469.585	99.75
469.804	80.75
470.023	90.75
470.243	86.75
470.462	90.75
470.681	108.75
470.901	81.75
471.12	73.75
471.339	77.75
471.558	84.75
471.777	107.75
471.997	155.75
472.216	429.75
472.435	805.75
472.654	234.75
472.873	101.75
473.092	89.75
473.311	84.75
473.53	73.75
473.749	93.75
473.968	101.75
474.187	101.75
474.406	94.75
474.625	81.75
474.844	65.75
475.063	85.75
475.282	87.75
475.501	87.75
475.72	89.75
475.939	90.75
476.158	79.75
476.377	93.75
476.596	93.75
476.814	90.75
477.033	78.75
477.252	87.75
477.471	79.75
477.69	64.75
477.908	82.75
478.127	93.75
478.346	86.75
478.564	94.75
478.783	92.75
479.002	94.75
479.22	99.75
479.439	102.75
479.658	90.75
479.876	111.75
480.095	103.75
480.313	106.75
480.532	105.75
480.751	141.75
480.969	409.75
481.188	1412.75
481.406	827.75
481.624	176.75
481.843	85.75
482.061	73.75
482.28	92.75
482.498	83.75
482.717	71.75
482.935	86.75
483.153	78.75
483.372	93.75
483.59	85.75
483.808	97.75
484.027	87.75
484.245	88.75
484.463	93.75
484.681	89.75
484.9	98.75
485.118	88.75
485.336	93.75
485.554	106.75
485.772	106.75
485.99	100.75
486.209	99.75
486.427	94.75
486.645	103.75
486.863	99.75
487.081	95.75
487.299	100.75
487.517	84.75
487.735	70.75
487.953	74.75
488.171	80.75
488.389	86.75
488.607	87.75
488.825	82.75
489.043	94.75
489.261	104.75
489.479	78.75
489.696	86.75
489.914	78.75
490.132	84.75
490.35	83.75
490.568	84.75
490.786	80.75
491.003	84.75
491.221	94.75
491.439	90.75
491.657	91.75
491.874	105.75
492.092	98.75
492.31	83.75
492.527	86.75
492.745	92.75
492.963	79.75
493.18	95.75
493.398	76.75
493.615	87.75
493.833	73.75
494.05	71.75
494.268	81.75
494.485	69.75
494.703	87.75
494.92	85.75
495.138	89.75
495.355	94.75
495.573	91.75
495.79	90.75
496.008	96.75
496.225	77.75
496.442	82.75
496.66	87.75
496.877	90.75
497.094	93.75
497.312	94.75
497.529	96.75
497.746	90.75
497.963	106.75
498.181	87.75
498.398	86.75
498.615	94.75
498.832	91.75
499.049	96.75
499.267	97.75
499.484	85.75
499.701	98.75
499.918	85.75
500.135	101.75
500.352	85.75
500.569	93.75
500.786	90.75
501.003	87.75
501.22	94.75
501.437	90.75
501.654	92.75
501.871	97.75
502.088	95.75
502.305	95.75
502.522	92.75
502.739	92.75
502.956	82.75
503.172	94.75
503.389	102.75
503.606	98.75
503.823	86.75
504.04	92.75
504.256	82.75
504.473	75.75
504.69	75.75
504.907	92.75
505.123	81.75
505.34	91.75
505.557	81.75
505.773	70.75
505.99	84.75
506.207	103.75
506.423	80.75
506.64	82.75
506.856	82.75
507.073	78.75
507.289	86.75
507.506	103.75
507.722	99.75
507.939	96.75
508.155	102.75
508.372	89.75
508.588	80.75
508.805	94.75
509.021	94.75
509.238	92.75
509.454	94.75
509.67	97.75
509.887	116.75
510.103	107.75
510.319	186.75
510.536	627.75
510.752	1945.75
510.968	548.75
511.184	130.75
511.401	112.75
511.617	101.75
511.833	89.75
512.049	92.75
512.265	85.75
512.481	85.75
512.698	93.75
512.914	82.75
513.13	91.75
513.346	89.75
513.562	97.75
513.778	86.75
513.994	96.75
514.21	100.75
514.426	110.75
514.642	115.75
514.858	134.75
515.074	143.75
515.29	382.75
515.506	1242.75
515.721	468.75
515.937	129.75
516.153	104.75
