Data from Circ_1989_H10_HRD10591_00087.txt Node
Date: Wed Jan 03 12:01:39 EST 2024
User: Yrep
Spectrometer: HR+D1059
Trigger mode: 1
Integration Time (sec): 1.000000E-1
Scans to average: 1
Electric dark correction enabled: true
Nonlinearity correction enabled: false
Boxcar width: 0
XAxis mode: Wavelengths
Number of Pixels in Spectrum: 2048
>>>>>Begin Spectral Data<<<<<
223.165	-14.62
223.4	-14.62
223.635	-14.62
223.869	-12.62
224.104	-15.62
224.338	-24.62
224.573	-22.62
224.808	-13.62
225.042	-3.62
225.277	-6.62
225.511	0.38
225.746	-0.62
225.98	5.38
226.215	11.38
226.449	16.38
226.683	18.38
226.918	24.38
227.152	38.38
227.387	36.38
227.621	39.38
227.856	52.38
228.09	46.38
228.324	56.38
228.559	54.38
228.793	58.38
229.027	71.38
229.262	57.38
229.496	90.38
229.73	96.38
229.964	86.38
230.199	82.38
230.433	75.38
230.667	88.38
230.901	85.38
231.136	60.38
231.37	84.38
231.604	79.38
231.838	87.38
232.072	78.38
232.306	80.38
232.541	74.38
232.775	82.38
233.009	91.38
233.243	95.38
233.477	78.38
233.711	80.38
233.945	87.38
234.179	91.38
234.413	91.38
234.647	80.38
234.881	91.38
235.115	80.38
235.349	72.38
235.583	78.38
235.817	86.38
236.051	69.38
236.285	83.38
236.519	81.38
236.753	79.38
236.987	80.38
237.221	84.38
237.455	78.38
237.689	58.38
237.922	89.38
238.156	74.38
238.39	83.38
238.624	84.38
238.858	72.38
239.091	95.38
239.325	82.38
239.559	68.38
239.793	83.38
240.027	93.38
240.26	82.38
240.494	81.38
240.728	84.38
240.961	79.38
241.195	79.38
241.429	82.38
241.662	85.38
241.896	76.38
242.13	82.38
242.363	80.38
242.597	78.38
242.83	91.38
243.064	83.38
243.298	73.38
243.531	81.38
243.765	68.38
243.998	84.38
244.232	79.38
244.465	90.38
244.699	78.38
244.932	76.38
245.166	85.38
245.399	79.38
245.633	78.38
245.866	89.38
246.099	70.38
246.333	88.38
246.566	74.38
246.8	81.38
247.033	78.38
247.266	79.38
247.5	79.38
247.733	84.38
247.966	96.38
248.2	82.38
248.433	62.38
248.666	76.38
248.899	78.38
249.133	96.38
249.366	97.38
249.599	104.38
249.832	87.38
250.066	81.38
250.299	74.38
250.532	84.38
250.765	83.38
250.998	72.38
251.231	89.38
251.465	88.38
251.698	91.38
251.931	92.38
252.164	87.38
252.397	82.38
252.63	78.38
252.863	100.38
253.096	76.38
253.329	80.38
253.562	96.38
253.795	72.38
254.028	79.38
254.261	82.38
254.494	80.38
254.727	91.38
254.96	94.38
255.193	72.38
255.426	83.38
255.659	88.38
255.892	93.38
256.124	102.38
256.357	102.38
256.59	83.38
256.823	90.38
257.056	84.38
257.289	89.38
257.521	80.38
257.754	88.38
257.987	68.38
258.22	92.38
258.452	102.38
258.685	97.38
258.918	100.38
259.151	99.38
259.383	87.38
259.616	87.38
259.849	84.38
260.081	83.38
260.314	82.38
260.547	88.38
260.779	101.38
261.012	110.38
261.244	106.38
261.477	97.38
261.71	100.38
261.942	136.38
262.175	114.38
262.407	95.38
262.64	81.38
262.872	87.38
263.105	91.38
263.337	90.38
263.57	75.38
263.802	78.38
264.035	81.38
264.267	80.38
264.499	74.38
264.732	87.38
264.964	99.38
265.197	85.38
265.429	86.38
265.661	70.38
265.894	79.38
266.126	86.38
266.358	89.38
266.591	83.38
266.823	88.38
267.055	85.38
267.287	88.38
267.52	88.38
267.752	76.38
267.984	83.38
268.216	74.38
268.448	96.38
268.681	87.38
268.913	87.38
269.145	100.38
269.377	82.38
269.609	109.38
269.841	90.38
270.073	84.38
270.306	80.38
270.538	103.38
270.77	90.38
271.002	80.38
271.234	95.38
271.466	104.38
271.698	90.38
271.93	88.38
272.162	84.38
272.394	89.38
272.626	94.38
272.858	85.38
273.09	84.38
273.322	86.38
273.553	87.38
273.785	97.38
274.017	91.38
274.249	73.38
274.481	88.38
274.713	82.38
274.945	88.38
275.176	102.38
275.408	102.38
275.64	108.38
275.872	113.38
276.104	94.38
276.335	95.38
276.567	118.38
276.799	142.38
277.031	151.38
277.262	182.38
277.494	115.38
277.726	110.38
277.957	89.38
278.189	88.38
278.421	73.38
278.652	96.38
278.884	86.38
279.115	88.38
279.347	91.38
279.579	111.38
279.81	115.38
280.042	176.38
280.273	206.38
280.505	143.38
280.736	107.38
280.968	104.38
281.199	99.38
281.431	93.38
281.662	83.38
281.894	94.38
282.125	102.38
282.356	115.38
282.588	139.38
282.819	110.38
283.051	84.38
283.282	84.38
283.513	83.38
283.745	86.38
283.976	89.38
284.207	85.38
284.439	98.38
284.67	90.38
284.901	100.38
285.132	88.38
285.364	90.38
285.595	88.38
285.826	90.38
286.057	88.38
286.288	94.38
286.52	85.38
286.751	92.38
286.982	88.38
287.213	78.38
287.444	84.38
287.675	86.38
287.906	88.38
288.138	91.38
288.369	88.38
288.6	90.38
288.831	84.38
289.062	89.38
289.293	103.38
289.524	83.38
289.755	98.38
289.986	88.38
290.217	89.38
290.448	87.38
290.679	84.38
290.91	90.38
291.141	96.38
291.371	98.38
291.602	86.38
291.833	83.38
292.064	100.38
292.295	88.38
292.526	87.38
292.757	106.38
292.987	89.38
293.218	94.38
293.449	95.38
293.68	99.38
293.91	89.38
294.141	100.38
294.372	101.38
294.603	83.38
294.833	89.38
295.064	89.38
295.295	82.38
295.525	102.38
295.756	99.38
295.987	124.38
296.217	165.38
296.448	124.38
296.679	96.38
296.909	103.38
297.14	80.38
297.37	82.38
297.601	94.38
297.831	105.38
298.062	91.38
298.292	101.38
298.523	76.38
298.753	70.38
298.984	86.38
299.214	97.38
299.445	99.38
299.675	91.38
299.905	110.38
300.136	105.38
300.366	93.38
300.597	100.38
300.827	96.38
301.057	98.38
301.288	113.38
301.518	91.38
301.748	90.38
301.979	98.38
302.209	94.38
302.439	97.38
302.669	98.38
302.9	83.38
303.13	104.38
303.36	108.38
303.59	131.38
303.82	136.38
304.051	102.38
304.281	101.38
304.511	91.38
304.741	92.38
304.971	84.38
305.201	89.38
305.431	97.38
305.661	100.38
305.891	100.38
306.121	104.38
306.352	122.38
306.582	111.38
306.812	107.38
307.042	112.38
307.272	132.38
307.502	146.38
307.731	150.38
307.961	110.38
308.191	93.38
308.421	104.38
308.651	87.38
308.881	87.38
309.111	96.38
309.341	84.38
309.571	108.38
309.8	99.38
310.03	91.38
310.26	101.38
310.49	97.38
310.72	87.38
310.949	123.38
311.179	105.38
311.409	95.38
311.639	105.38
311.868	104.38
312.098	95.38
312.328	109.38
312.557	113.38
312.787	117.38
313.017	122.38
313.246	89.38
313.476	94.38
313.706	87.38
313.935	102.38
314.165	101.38
314.394	98.38
314.624	113.38
314.853	103.38
315.083	106.38
315.312	92.38
315.542	70.38
315.771	118.38
316.001	95.38
316.23	102.38
316.46	88.38
316.689	90.38
316.919	85.38
317.148	103.38
317.377	106.38
317.607	102.38
317.836	93.38
318.065	96.38
318.295	91.38
318.524	93.38
318.753	102.38
318.983	96.38
319.212	98.38
319.441	107.38
319.67	102.38
319.9	105.38
320.129	108.38
320.358	89.38
320.587	101.38
320.816	102.38
321.046	109.38
321.275	112.38
321.504	97.38
321.733	104.38
321.962	118.38
322.191	119.38
322.42	110.38
322.649	117.38
322.878	117.38
323.108	114.38
323.337	131.38
323.566	148.38
323.795	170.38
324.024	244.38
324.253	449.38
324.482	963.38
324.71	2006.38
324.939	2727.38
325.168	982.38
325.397	275.38
325.626	187.38
325.855	125.38
326.084	151.38
326.313	155.38
326.542	168.38
326.77	259.38
326.999	512.38
327.228	1069.38
327.457	2002.38
327.686	1689.38
327.914	504.38
328.143	420.38
328.372	530.38
328.6	311.38
328.829	179.38
329.058	187.38
329.287	193.38
329.515	170.38
329.744	218.38
329.972	374.38
330.201	738.38
330.43	1114.38
330.658	507.38
330.887	246.38
331.115	176.38
331.344	115.38
331.572	121.38
331.801	120.38
332.03	128.38
332.258	111.38
332.486	94.38
332.715	95.38
332.943	110.38
333.172	112.38
333.4	117.38
333.629	146.38
333.857	199.38
334.085	359.38
334.314	689.38
334.542	1327.38
334.771	1275.38
334.999	329.38
335.227	150.38
335.455	115.38
335.684	110.38
335.912	108.38
336.14	127.38
336.369	96.38
336.597	103.38
336.825	107.38
337.053	101.38
337.281	97.38
337.51	96.38
337.738	98.38
337.966	108.38
338.194	111.38
338.422	120.38
338.65	110.38
338.878	100.38
339.106	101.38
339.334	100.38
339.562	103.38
339.79	91.38
340.018	92.38
340.246	106.38
340.474	105.38
340.702	100.38
340.93	88.38
341.158	95.38
341.386	96.38
341.614	99.38
341.842	110.38
342.07	91.38
342.298	91.38
342.526	86.38
342.754	89.38
342.981	88.38
343.209	100.38
343.437	102.38
343.665	99.38
343.893	105.38
344.12	99.38
344.348	103.38
344.576	94.38
344.804	95.38
345.031	109.38
345.259	107.38
345.487	94.38
345.714	107.38
345.942	93.38
346.17	105.38
346.397	94.38
346.625	100.38
346.853	97.38
347.08	102.38
347.308	98.38
347.535	104.38
347.763	113.38
347.99	114.38
348.218	109.38
348.445	102.38
348.673	116.38
348.9	90.38
349.128	98.38
349.355	90.38
349.583	94.38
349.81	96.38
350.037	98.38
350.265	69.38
350.492	93.38
350.72	95.38
350.947	112.38
351.174	120.38
351.402	123.38
351.629	114.38
351.856	129.38
352.083	106.38
352.311	117.38
352.538	123.38
352.765	119.38
352.992	109.38
353.22	106.38
353.447	106.38
353.674	96.38
353.901	106.38
354.128	91.38
354.355	86.38
354.583	100.38
354.81	108.38
355.037	89.38
355.264	90.38
355.491	99.38
355.718	87.38
355.945	99.38
356.172	92.38
356.399	102.38
356.626	108.38
356.853	95.38
357.08	88.38
357.307	94.38
357.534	102.38
357.761	92.38
357.988	93.38
358.215	96.38
358.441	104.38
358.668	93.38
358.895	87.38
359.122	89.38
359.349	99.38
359.576	98.38
359.802	112.38
360.029	117.38
360.256	133.38
360.483	96.38
360.709	87.38
360.936	99.38
361.163	90.38
361.39	103.38
361.616	98.38
361.843	96.38
362.07	111.38
362.296	103.38
362.523	94.38
362.749	90.38
362.976	101.38
363.203	88.38
363.429	103.38
363.656	98.38
363.882	108.38
364.109	103.38
364.335	100.38
364.562	99.38
364.788	97.38
365.015	95.38
365.241	100.38
365.468	106.38
365.694	100.38
365.92	98.38
366.147	95.38
366.373	100.38
366.599	94.38
366.826	88.38
367.052	95.38
367.278	97.38
367.505	90.38
367.731	90.38
367.957	103.38
368.184	104.38
368.41	122.38
368.636	114.38
368.862	125.38
369.089	116.38
369.315	108.38
369.541	106.38
369.767	99.38
369.993	114.38
370.219	112.38
370.445	97.38
370.672	89.38
370.898	91.38
371.124	103.38
371.35	83.38
371.576	82.38
371.802	89.38
372.028	101.38
372.254	103.38
372.48	82.38
372.706	94.38
372.932	97.38
373.158	98.38
373.384	99.38
373.61	82.38
373.835	87.38
374.061	87.38
374.287	92.38
374.513	90.38
374.739	81.38
374.965	75.38
375.191	75.38
375.416	88.38
375.642	108.38
375.868	97.38
376.094	99.38
376.319	85.38
376.545	86.38
376.771	104.38
376.997	98.38
377.222	84.38
377.448	90.38
377.674	96.38
377.899	90.38
378.125	87.38
378.35	92.38
378.576	89.38
378.802	84.38
379.027	99.38
379.253	89.38
379.478	98.38
379.704	103.38
379.929	102.38
380.155	91.38
380.38	82.38
380.606	94.38
380.831	101.38
381.057	92.38
381.282	96.38
381.507	87.38
381.733	93.38
381.958	99.38
382.184	98.38
382.409	99.38
382.634	103.38
382.86	106.38
383.085	93.38
383.31	99.38
383.535	86.38
383.761	82.38
383.986	106.38
384.211	111.38
384.436	102.38
384.662	98.38
384.887	86.38
385.112	103.38
385.337	103.38
385.562	94.38
385.787	104.38
386.013	118.38
386.238	118.38
386.463	108.38
386.688	104.38
386.913	100.38
387.138	106.38
387.363	112.38
387.588	105.38
387.813	120.38
388.038	115.38
388.263	107.38
388.488	99.38
388.713	97.38
388.938	105.38
389.163	84.38
389.387	99.38
389.612	99.38
389.837	110.38
390.062	99.38
390.287	111.38
390.512	85.38
390.736	99.38
390.961	98.38
391.186	97.38
391.411	105.38
391.636	107.38
391.86	103.38
392.085	98.38
392.31	91.38
392.534	87.38
392.759	83.38
392.984	79.38
393.208	95.38
393.433	89.38
393.658	88.38
393.882	87.38
394.107	83.38
394.331	102.38
394.556	80.38
394.78	94.38
395.005	104.38
395.229	102.38
395.454	98.38
395.678	81.38
395.903	92.38
396.127	97.38
396.352	82.38
396.576	89.38
396.801	78.38
397.025	79.38
397.249	90.38
397.474	93.38
397.698	103.38
397.922	102.38
398.147	97.38
398.371	92.38
398.595	99.38
398.82	91.38
399.044	82.38
399.268	96.38
399.492	97.38
399.717	104.38
399.941	95.38
400.165	99.38
400.389	102.38
400.613	81.38
400.837	99.38
401.062	88.38
401.286	86.38
401.51	96.38
401.734	107.38
401.958	115.38
402.182	131.38
402.406	172.38
402.63	125.38
402.854	102.38
403.078	103.38
403.302	101.38
403.526	83.38
403.75	104.38
403.974	112.38
404.198	90.38
404.422	87.38
404.645	96.38
404.869	109.38
405.093	118.38
405.317	132.38
405.541	119.38
405.765	100.38
405.988	125.38
406.212	181.38
406.436	250.38
406.66	177.38
406.883	113.38
407.107	93.38
407.331	110.38
407.555	113.38
407.778	115.38
408.002	108.38
408.226	86.38
408.449	95.38
408.673	84.38
408.896	114.38
409.12	98.38
409.344	93.38
409.567	103.38
409.791	111.38
410.014	106.38
410.238	84.38
410.461	70.38
410.685	86.38
410.908	93.38
411.132	105.38
411.355	105.38
411.578	92.38
411.802	80.38
412.025	107.38
412.249	107.38
412.472	121.38
412.695	132.38
412.919	109.38
413.142	88.38
413.365	100.38
413.589	106.38
413.812	92.38
414.035	97.38
414.258	90.38
414.482	98.38
414.705	86.38
414.928	98.38
415.151	106.38
415.374	92.38
415.597	90.38
415.821	90.38
416.044	81.38
416.267	79.38
416.49	89.38
416.713	91.38
416.936	84.38
417.159	91.38
417.382	95.38
417.605	95.38
417.828	110.38
418.051	102.38
418.274	101.38
418.497	87.38
418.72	108.38
418.943	84.38
419.166	92.38
419.389	74.38
419.611	95.38
419.834	104.38
420.057	89.38
420.28	101.38
420.503	89.38
420.726	88.38
420.948	96.38
421.171	109.38
421.394	102.38
421.617	90.38
421.839	84.38
422.062	77.38
422.285	105.38
422.507	104.38
422.73	115.38
422.953	104.38
423.175	84.38
423.398	98.38
423.621	103.38
423.843	84.38
424.066	95.38
424.288	98.38
424.511	106.38
424.733	114.38
424.956	137.38
425.178	115.38
425.401	83.38
425.623	102.38
425.846	97.38
426.068	103.38
426.291	101.38
426.513	96.38
426.735	95.38
426.958	104.38
427.18	119.38
427.402	187.38
427.625	230.38
427.847	208.38
428.069	211.38
428.292	113.38
428.514	97.38
428.736	91.38
428.958	91.38
429.181	95.38
429.403	93.38
429.625	101.38
429.847	100.38
430.069	104.38
430.292	103.38
430.514	89.38
430.736	89.38
430.958	94.38
431.18	80.38
431.402	101.38
431.624	102.38
431.846	87.38
432.068	73.38
432.29	92.38
432.512	95.38
432.734	105.38
432.956	92.38
433.178	119.38
433.4	107.38
433.622	84.38
433.844	105.38
434.066	97.38
434.287	91.38
434.509	99.38
434.731	93.38
434.953	87.38
435.175	111.38
435.397	108.38
435.618	104.38
435.84	100.38
436.062	131.38
436.284	112.38
436.505	105.38
436.727	102.38
436.949	90.38
437.17	91.38
437.392	95.38
437.614	103.38
437.835	138.38
438.057	139.38
438.278	108.38
438.5	126.38
438.721	137.38
438.943	95.38
439.165	91.38
439.386	73.38
439.608	92.38
439.829	108.38
440.05	148.38
440.272	170.38
440.493	117.38
440.715	85.38
440.936	86.38
441.158	97.38
441.379	82.38
441.6	89.38
441.822	89.38
442.043	99.38
442.264	120.38
442.486	97.38
442.707	101.38
442.928	127.38
443.149	170.38
443.371	156.38
443.592	126.38
443.813	125.38
444.034	130.38
444.255	98.38
444.476	106.38
444.698	105.38
444.919	104.38
445.14	128.38
445.361	125.38
445.582	121.38
445.803	177.38
446.024	151.38
446.245	167.38
446.466	130.38
446.687	98.38
446.908	87.38
447.129	87.38
447.35	92.38
447.571	84.38
447.792	94.38
448.013	100.38
448.234	110.38
448.455	119.38
448.675	118.38
448.896	147.38
449.117	106.38
449.338	108.38
449.559	120.38
449.779	150.38
450	96.38
450.221	90.38
450.442	86.38
450.662	93.38
450.883	121.38
451.104	136.38
451.324	91.38
451.545	102.38
451.766	72.38
451.986	76.38
452.207	83.38
452.428	98.38
452.648	111.38
452.869	116.38
453.089	124.38
453.31	138.38
453.53	92.38
453.751	99.38
453.971	113.38
454.192	135.38
454.412	93.38
454.633	88.38
454.853	90.38
455.073	93.38
455.294	83.38
455.514	100.38
455.734	93.38
455.955	95.38
456.175	98.38
456.395	82.38
456.616	78.38
456.836	86.38
457.056	90.38
457.276	94.38
457.497	86.38
457.717	86.38
457.937	84.38
458.157	87.38
458.377	109.38
458.598	122.38
458.818	181.38
459.038	193.38
459.258	137.38
459.478	107.38
459.698	86.38
459.918	112.38
460.138	85.38
460.358	78.38
460.578	86.38
460.798	98.38
461.018	82.38
461.238	90.38
461.458	81.38
461.678	87.38
461.898	77.38
462.118	90.38
462.338	101.38
462.558	96.38
462.777	96.38
462.997	82.38
463.217	83.38
463.437	107.38
463.657	98.38
463.876	86.38
464.096	98.38
464.316	83.38
464.536	84.38
464.755	94.38
464.975	104.38
465.195	206.38
465.414	217.38
465.634	111.38
465.854	105.38
466.073	86.38
466.293	96.38
466.512	101.38
466.732	83.38
466.951	99.38
467.171	105.38
467.391	106.38
467.61	127.38
467.829	174.38
468.049	410.38
468.268	610.38
468.488	180.38
468.707	110.38
468.927	87.38
469.146	92.38
469.365	84.38
469.585	84.38
469.804	109.38
470.023	114.38
470.243	115.38
470.462	122.38
470.681	124.38
470.901	101.38
471.12	95.38
471.339	105.38
471.558	108.38
471.777	135.38
471.997	243.38
472.216	796.38
472.435	1900.38
472.654	477.38
472.873	150.38
473.092	111.38
473.311	90.38
473.53	92.38
473.749	85.38
473.968	96.38
474.187	113.38
474.406	114.38
474.625	89.38
474.844	96.38
475.063	84.38
475.282	76.38
475.501	79.38
475.72	86.38
475.939	87.38
476.158	83.38
476.377	85.38
476.596	78.38
476.814	104.38
477.033	118.38
477.252	91.38
477.471	71.38
477.69	80.38
477.908	90.38
478.127	84.38
478.346	88.38
478.564	100.38
478.783	93.38
479.002	91.38
479.22	104.38
479.439	122.38
479.658	119.38
479.876	104.38
480.095	119.38
480.313	118.38
480.532	138.38
480.751	245.38
480.969	789.38
481.188	3279.38
481.406	1896.38
481.624	287.38
481.843	119.38
482.061	97.38
482.28	84.38
482.498	80.38
482.717	99.38
482.935	82.38
483.153	91.38
483.372	95.38
483.59	88.38
483.808	95.38
484.027	92.38
484.245	91.38
484.463	91.38
484.681	106.38
484.9	105.38
485.118	109.38
485.336	85.38
485.554	99.38
485.772	102.38
485.99	98.38
486.209	99.38
486.427	108.38
486.645	117.38
486.863	124.38
487.081	118.38
487.299	90.38
487.517	102.38
487.735	92.38
487.953	91.38
488.171	90.38
488.389	112.38
488.607	107.38
488.825	104.38
489.043	87.38
489.261	96.38
489.479	81.38
489.696	82.38
489.914	91.38
490.132	95.38
490.35	97.38
490.568	87.38
490.786	91.38
491.003	80.38
491.221	85.38
491.439	103.38
491.657	96.38
491.874	96.38
492.092	92.38
492.31	105.38
492.527	102.38
492.745	92.38
492.963	92.38
493.18	89.38
493.398	83.38
493.615	97.38
493.833	96.38
494.05	85.38
494.268	92.38
494.485	106.38
494.703	78.38
494.92	104.38
495.138	99.38
495.355	97.38
495.573	88.38
495.79	96.38
496.008	96.38
496.225	97.38
496.442	83.38
496.66	109.38
496.877	99.38
497.094	104.38
497.312	91.38
497.529	94.38
497.746	94.38
497.963	82.38
498.181	81.38
498.398	89.38
498.615	117.38
498.832	96.38
499.049	108.38
499.267	91.38
499.484	92.38
499.701	92.38
499.918	94.38
500.135	79.38
500.352	93.38
500.569	99.38
500.786	95.38
501.003	89.38
501.22	99.38
501.437	108.38
501.654	100.38
501.871	122.38
502.088	112.38
502.305	111.38
502.522	97.38
502.739	89.38
502.956	94.38
503.172	80.38
503.389	98.38
503.606	98.38
503.823	90.38
504.04	97.38
504.256	95.38
504.473	106.38
504.69	87.38
504.907	98.38
505.123	101.38
505.34	86.38
505.557	82.38
505.773	86.38
505.99	81.38
506.207	94.38
506.423	106.38
506.64	87.38
506.856	93.38
507.073	95.38
507.289	83.38
507.506	110.38
507.722	129.38
507.939	122.38
508.155	106.38
508.372	106.38
508.588	108.38
508.805	104.38
509.021	89.38
509.238	115.38
509.454	100.38
509.67	111.38
509.887	117.38
510.103	149.38
510.319	203.38
510.536	739.38
510.752	2471.38
510.968	688.38
511.184	164.38
511.401	132.38
511.617	105.38
511.833	100.38
512.049	102.38
512.265	95.38
512.481	84.38
512.698	81.38
