Data from Circ_1989_H10_HRD10591_00017.txt Node
Date: Wed Jan 03 12:01:25 EST 2024
User: Yrep
Spectrometer: HR+D1059
Trigger mode: 1
Integration Time (sec): 1.000000E-1
Scans to average: 1
Electric dark correction enabled: true
Nonlinearity correction enabled: false
Boxcar width: 0
XAxis mode: Wavelengths
Number of Pixels in Spectrum: 2048
>>>>>Begin Spectral Data<<<<<
223.165	-9.38
223.4	-9.38
223.635	-9.38
223.869	-16.38
224.104	-7.38
224.338	-19.38
224.573	-8.38
224.808	-13.38
225.042	-18.38
225.277	-11.38
225.511	-1.38
225.746	3.62
225.98	8.62
226.215	14.62
226.449	2.62
226.683	23.62
226.918	22.62
227.152	29.62
227.387	27.62
227.621	32.62
227.856	46.62
228.09	48.62
228.324	57.62
228.559	55.62
228.793	59.62
229.027	59.62
229.262	58.62
229.496	83.62
229.73	85.62
229.964	85.62
230.199	63.62
230.433	67.62
230.667	80.62
230.901	52.62
231.136	85.62
231.37	84.62
231.604	81.62
231.838	79.62
232.072	69.62
232.306	78.62
232.541	78.62
232.775	67.62
233.009	75.62
233.243	84.62
233.477	76.62
233.711	86.62
233.945	81.62
234.179	80.62
234.413	77.62
234.647	83.62
234.881	73.62
235.115	81.62
235.349	71.62
235.583	75.62
235.817	68.62
236.051	82.62
236.285	88.62
236.519	92.62
236.753	88.62
236.987	90.62
237.221	76.62
237.455	71.62
237.689	68.62
237.922	73.62
238.156	87.62
238.39	70.62
238.624	63.62
238.858	81.62
239.091	86.62
239.325	58.62
239.559	60.62
239.793	77.62
240.027	91.62
240.26	75.62
240.494	68.62
240.728	71.62
240.961	75.62
241.195	73.62
241.429	76.62
241.662	75.62
241.896	73.62
242.13	66.62
242.363	78.62
242.597	77.62
242.83	88.62
243.064	72.62
243.298	77.62
243.531	77.62
243.765	59.62
243.998	71.62
244.232	77.62
244.465	77.62
244.699	76.62
244.932	88.62
245.166	77.62
245.399	72.62
245.633	75.62
245.866	89.62
246.099	67.62
246.333	87.62
246.566	75.62
246.8	88.62
247.033	65.62
247.266	69.62
247.5	61.62
247.733	72.62
247.966	91.62
248.2	85.62
248.433	72.62
248.666	63.62
248.899	93.62
249.133	91.62
249.366	95.62
249.599	105.62
249.832	86.62
250.066	79.62
250.299	83.62
250.532	80.62
250.765	76.62
250.998	89.62
251.231	69.62
251.465	81.62
251.698	76.62
251.931	79.62
252.164	81.62
252.397	76.62
252.63	70.62
252.863	72.62
253.096	78.62
253.329	64.62
253.562	77.62
253.795	75.62
254.028	74.62
254.261	83.62
254.494	87.62
254.727	93.62
254.96	90.62
255.193	79.62
255.426	59.62
255.659	67.62
255.892	78.62
256.124	80.62
256.357	77.62
256.59	76.62
256.823	67.62
257.056	65.62
257.289	75.62
257.521	69.62
257.754	69.62
257.987	66.62
258.22	76.62
258.452	90.62
258.685	84.62
258.918	88.62
259.151	88.62
259.383	76.62
259.616	80.62
259.849	78.62
260.081	72.62
260.314	77.62
260.547	87.62
260.779	77.62
261.012	95.62
261.244	73.62
261.477	75.62
261.71	84.62
261.942	97.62
262.175	93.62
262.407	93.62
262.64	78.62
262.872	71.62
263.105	89.62
263.337	80.62
263.57	82.62
263.802	79.62
264.035	88.62
264.267	77.62
264.499	83.62
264.732	91.62
264.964	93.62
265.197	68.62
265.429	85.62
265.661	88.62
265.894	76.62
266.126	61.62
266.358	79.62
266.591	68.62
266.823	94.62
267.055	95.62
267.287	70.62
267.52	87.62
267.752	85.62
267.984	92.62
268.216	93.62
268.448	93.62
268.681	62.62
268.913	91.62
269.145	73.62
269.377	82.62
269.609	89.62
269.841	70.62
270.073	87.62
270.306	77.62
270.538	89.62
270.77	89.62
271.002	83.62
271.234	69.62
271.466	92.62
271.698	86.62
271.93	69.62
272.162	87.62
272.394	87.62
272.626	79.62
272.858	79.62
273.09	72.62
273.322	72.62
273.553	86.62
273.785	85.62
274.017	62.62
274.249	77.62
274.481	81.62
274.713	74.62
274.945	99.62
275.176	72.62
275.408	83.62
275.64	95.62
275.872	102.62
276.104	77.62
276.335	93.62
276.567	98.62
276.799	86.62
277.031	96.62
277.262	93.62
277.494	83.62
277.726	83.62
277.957	81.62
278.189	79.62
278.421	72.62
278.652	82.62
278.884	84.62
279.115	80.62
279.347	98.62
279.579	83.62
279.81	90.62
280.042	110.62
280.273	105.62
280.505	103.62
280.736	87.62
280.968	81.62
281.199	82.62
281.431	91.62
281.662	79.62
281.894	85.62
282.125	95.62
282.356	102.62
282.588	124.62
282.819	109.62
283.051	100.62
283.282	92.62
283.513	81.62
283.745	77.62
283.976	89.62
284.207	93.62
284.439	86.62
284.67	93.62
284.901	85.62
285.132	86.62
285.364	75.62
285.595	87.62
285.826	98.62
286.057	84.62
286.288	87.62
286.52	65.62
286.751	78.62
286.982	69.62
287.213	85.62
287.444	89.62
287.675	94.62
287.906	93.62
288.138	79.62
288.369	61.62
288.6	87.62
288.831	83.62
289.062	100.62
289.293	93.62
289.524	82.62
289.755	86.62
289.986	85.62
290.217	91.62
290.448	76.62
290.679	91.62
290.91	83.62
291.141	96.62
291.371	84.62
291.602	87.62
291.833	88.62
292.064	85.62
292.295	90.62
292.526	93.62
292.757	104.62
292.987	84.62
293.218	87.62
293.449	85.62
293.68	88.62
293.91	97.62
294.141	91.62
294.372	91.62
294.603	77.62
294.833	90.62
295.064	99.62
295.295	95.62
295.525	78.62
295.756	97.62
295.987	94.62
296.217	120.62
296.448	102.62
296.679	84.62
296.909	83.62
297.14	87.62
297.37	95.62
297.601	83.62
297.831	86.62
298.062	91.62
298.292	81.62
298.523	73.62
298.753	84.62
298.984	86.62
299.214	86.62
299.445	78.62
299.675	74.62
299.905	92.62
300.136	73.62
300.366	94.62
300.597	84.62
300.827	74.62
301.057	79.62
301.288	102.62
301.518	77.62
301.748	82.62
301.979	92.62
302.209	100.62
302.439	94.62
302.669	94.62
302.9	87.62
303.13	88.62
303.36	78.62
303.59	86.62
303.82	99.62
304.051	91.62
304.281	79.62
304.511	88.62
304.741	79.62
304.971	77.62
305.201	88.62
305.431	77.62
305.661	95.62
305.891	93.62
306.121	89.62
306.352	90.62
306.582	107.62
306.812	96.62
307.042	96.62
307.272	97.62
307.502	108.62
307.731	125.62
307.961	104.62
308.191	97.62
308.421	95.62
308.651	103.62
308.881	89.62
309.111	84.62
309.341	97.62
309.571	86.62
309.8	86.62
310.03	91.62
310.26	92.62
310.49	91.62
310.72	93.62
310.949	104.62
311.179	102.62
311.409	110.62
311.639	88.62
311.868	84.62
312.098	85.62
312.328	105.62
312.557	90.62
312.787	89.62
313.017	92.62
313.246	83.62
313.476	93.62
313.706	108.62
313.935	91.62
314.165	93.62
314.394	100.62
314.624	71.62
314.853	87.62
315.083	92.62
315.312	96.62
315.542	95.62
315.771	94.62
316.001	84.62
316.23	87.62
316.46	85.62
316.689	91.62
316.919	93.62
317.148	83.62
317.377	84.62
317.607	77.62
317.836	90.62
318.065	95.62
318.295	76.62
318.524	99.62
318.753	94.62
318.983	91.62
319.212	105.62
319.441	89.62
319.67	103.62
319.9	91.62
320.129	89.62
320.358	101.62
320.587	101.62
320.816	87.62
321.046	92.62
321.275	94.62
321.504	95.62
321.733	89.62
321.962	99.62
322.191	106.62
322.42	102.62
322.649	96.62
322.878	98.62
323.108	104.62
323.337	110.62
323.566	110.62
323.795	128.62
324.024	175.62
324.253	293.62
324.482	576.62
324.71	1179.62
324.939	1563.62
325.168	594.62
325.397	200.62
325.626	130.62
325.855	105.62
326.084	108.62
326.313	103.62
326.542	135.62
326.77	170.62
326.999	356.62
327.228	664.62
327.457	1203.62
327.686	987.62
327.914	301.62
328.143	205.62
328.372	200.62
328.6	147.62
328.829	111.62
329.058	118.62
329.287	129.62
329.515	122.62
329.744	119.62
329.972	154.62
330.201	254.62
330.43	334.62
330.658	182.62
330.887	134.62
331.115	102.62
331.344	106.62
331.572	101.62
331.801	99.62
332.03	105.62
332.258	97.62
332.486	79.62
332.715	87.62
332.943	97.62
333.172	98.62
333.4	96.62
333.629	106.62
333.857	118.62
334.085	159.62
334.314	244.62
334.542	430.62
334.771	383.62
334.999	180.62
335.227	103.62
335.455	102.62
335.684	94.62
335.912	97.62
336.14	104.62
336.369	88.62
336.597	108.62
336.825	83.62
337.053	96.62
337.281	96.62
337.51	84.62
337.738	97.62
337.966	94.62
338.194	88.62
338.422	95.62
338.65	99.62
338.878	89.62
339.106	93.62
339.334	100.62
339.562	95.62
339.79	87.62
340.018	94.62
340.246	84.62
340.474	78.62
340.702	104.62
340.93	93.62
341.158	95.62
341.386	96.62
341.614	105.62
341.842	85.62
342.07	94.62
342.298	87.62
342.526	84.62
342.754	83.62
342.981	88.62
343.209	99.62
343.437	96.62
343.665	92.62
343.893	95.62
344.12	83.62
344.348	75.62
344.576	100.62
344.804	93.62
345.031	79.62
345.259	110.62
345.487	86.62
345.714	90.62
345.942	89.62
346.17	82.62
346.397	93.62
346.625	92.62
346.853	86.62
347.08	82.62
347.308	100.62
347.535	95.62
347.763	96.62
347.99	99.62
348.218	89.62
348.445	107.62
348.673	100.62
348.9	92.62
349.128	96.62
349.355	98.62
349.583	95.62
349.81	92.62
350.037	100.62
350.265	86.62
350.492	93.62
350.72	88.62
350.947	98.62
351.174	104.62
351.402	109.62
351.629	93.62
351.856	103.62
352.083	90.62
352.311	107.62
352.538	119.62
352.765	97.62
352.992	92.62
353.22	105.62
353.447	107.62
353.674	92.62
353.901	86.62
354.128	91.62
354.355	80.62
354.583	91.62
354.81	87.62
355.037	89.62
355.264	96.62
355.491	87.62
355.718	88.62
355.945	101.62
356.172	92.62
356.399	96.62
356.626	99.62
356.853	89.62
357.08	99.62
357.307	97.62
357.534	70.62
357.761	85.62
357.988	99.62
358.215	95.62
358.441	94.62
358.668	83.62
358.895	90.62
359.122	97.62
359.349	84.62
359.576	90.62
359.802	100.62
360.029	96.62
360.256	94.62
360.483	99.62
360.709	82.62
360.936	88.62
361.163	92.62
361.39	99.62
361.616	93.62
361.843	85.62
362.07	83.62
362.296	85.62
362.523	95.62
362.749	86.62
362.976	75.62
363.203	95.62
363.429	87.62
363.656	95.62
363.882	101.62
364.109	88.62
364.335	80.62
364.562	86.62
364.788	85.62
365.015	95.62
365.241	95.62
365.468	105.62
365.694	102.62
365.92	92.62
366.147	100.62
366.373	78.62
366.599	83.62
366.826	106.62
367.052	92.62
367.278	83.62
367.505	115.62
367.731	95.62
367.957	86.62
368.184	93.62
368.41	83.62
368.636	93.62
368.862	110.62
369.089	112.62
369.315	88.62
369.541	95.62
369.767	88.62
369.993	75.62
370.219	83.62
370.445	89.62
370.672	87.62
370.898	84.62
371.124	79.62
371.35	94.62
371.576	83.62
371.802	88.62
372.028	96.62
372.254	87.62
372.48	88.62
372.706	93.62
372.932	85.62
373.158	101.62
373.384	92.62
373.61	102.62
373.835	101.62
374.061	83.62
374.287	91.62
374.513	79.62
374.739	88.62
374.965	87.62
375.191	96.62
375.416	89.62
375.642	85.62
375.868	92.62
376.094	89.62
376.319	85.62
376.545	111.62
376.771	96.62
376.997	91.62
377.222	93.62
377.448	78.62
377.674	88.62
377.899	93.62
378.125	89.62
378.35	87.62
378.576	95.62
378.802	97.62
379.027	72.62
379.253	102.62
379.478	94.62
379.704	105.62
379.929	94.62
380.155	99.62
380.38	87.62
380.606	86.62
380.831	98.62
381.057	99.62
381.282	102.62
381.507	92.62
381.733	101.62
381.958	88.62
382.184	99.62
382.409	112.62
382.634	112.62
382.86	94.62
383.085	116.62
383.31	106.62
383.535	116.62
383.761	100.62
383.986	100.62
384.211	94.62
384.436	109.62
384.662	107.62
384.887	105.62
385.112	115.62
385.337	120.62
385.562	109.62
385.787	112.62
386.013	97.62
386.238	130.62
386.463	109.62
386.688	100.62
386.913	101.62
387.138	118.62
387.363	103.62
387.588	96.62
387.813	105.62
388.038	116.62
388.263	123.62
388.488	125.62
388.713	113.62
388.938	85.62
389.163	91.62
389.387	99.62
389.612	101.62
389.837	98.62
390.062	108.62
390.287	86.62
390.512	73.62
390.736	89.62
390.961	88.62
391.186	101.62
391.411	86.62
391.636	101.62
391.86	82.62
392.085	91.62
392.31	83.62
392.534	84.62
392.759	81.62
392.984	94.62
393.208	94.62
393.433	113.62
393.658	104.62
393.882	88.62
394.107	87.62
394.331	89.62
394.556	93.62
394.78	93.62
395.005	91.62
395.229	68.62
395.454	85.62
395.678	90.62
395.903	89.62
396.127	77.62
396.352	90.62
396.576	92.62
396.801	110.62
397.025	89.62
397.249	94.62
397.474	81.62
397.698	92.62
397.922	89.62
398.147	94.62
398.371	88.62
398.595	88.62
398.82	94.62
399.044	83.62
399.268	96.62
399.492	91.62
399.717	97.62
399.941	98.62
400.165	85.62
400.389	88.62
400.613	75.62
400.837	93.62
401.062	86.62
401.286	83.62
401.51	99.62
401.734	96.62
401.958	81.62
402.182	106.62
402.406	138.62
402.63	99.62
402.854	95.62
403.078	98.62
403.302	78.62
403.526	85.62
403.75	78.62
403.974	88.62
404.198	81.62
404.422	80.62
404.645	94.62
404.869	96.62
405.093	102.62
405.317	104.62
405.541	99.62
405.765	85.62
405.988	110.62
406.212	154.62
406.436	165.62
406.66	118.62
406.883	101.62
407.107	97.62
407.331	97.62
407.555	96.62
407.778	94.62
408.002	87.62
408.226	77.62
408.449	92.62
408.673	79.62
408.896	83.62
409.12	103.62
409.344	96.62
409.567	79.62
409.791	94.62
410.014	109.62
410.238	93.62
410.461	90.62
410.685	83.62
410.908	95.62
411.132	103.62
411.355	89.62
411.578	94.62
411.802	93.62
412.025	87.62
412.249	70.62
412.472	100.62
412.695	96.62
412.919	109.62
413.142	80.62
413.365	66.62
413.589	91.62
413.812	89.62
414.035	95.62
414.258	93.62
414.482	92.62
414.705	103.62
414.928	88.62
415.151	99.62
415.374	88.62
415.597	88.62
415.821	92.62
416.044	96.62
416.267	95.62
416.49	96.62
416.713	82.62
416.936	85.62
417.159	79.62
417.382	88.62
417.605	82.62
417.828	97.62
418.051	79.62
418.274	85.62
418.497	80.62
418.72	78.62
418.943	88.62
419.166	87.62
419.389	86.62
419.611	97.62
419.834	77.62
420.057	90.62
420.28	91.62
420.503	90.62
420.726	89.62
420.948	83.62
421.171	101.62
421.394	109.62
421.617	87.62
421.839	84.62
422.062	77.62
422.285	99.62
422.507	98.62
422.73	107.62
422.953	95.62
423.175	96.62
423.398	97.62
423.621	95.62
423.843	99.62
424.066	92.62
424.288	95.62
424.511	84.62
424.733	86.62
424.956	98.62
425.178	89.62
425.401	100.62
425.623	92.62
425.846	90.62
426.068	99.62
426.291	79.62
426.513	98.62
426.735	93.62
426.958	93.62
427.18	104.62
427.402	125.62
427.625	143.62
427.847	149.62
428.069	120.62
428.292	107.62
428.514	87.62
428.736	81.62
428.958	93.62
429.181	106.62
429.403	83.62
429.625	85.62
429.847	66.62
430.069	104.62
430.292	82.62
430.514	97.62
430.736	98.62
430.958	80.62
431.18	85.62
431.402	81.62
431.624	87.62
431.846	70.62
432.068	87.62
432.29	78.62
432.512	88.62
432.734	101.62
432.956	80.62
433.178	111.62
433.4	102.62
433.622	84.62
433.844	80.62
434.066	87.62
434.287	94.62
434.509	94.62
434.731	79.62
434.953	91.62
435.175	85.62
435.397	91.62
435.618	87.62
435.84	94.62
436.062	101.62
436.284	104.62
436.505	99.62
436.727	85.62
436.949	71.62
437.17	81.62
437.392	83.62
437.614	93.62
437.835	93.62
438.057	85.62
438.278	102.62
438.5	98.62
438.721	96.62
438.943	95.62
439.165	82.62
439.386	85.62
439.608	91.62
439.829	105.62
440.05	114.62
440.272	117.62
440.493	94.62
440.715	93.62
440.936	84.62
441.158	83.62
441.379	85.62
441.6	99.62
441.822	88.62
442.043	84.62
442.264	100.62
442.486	97.62
442.707	91.62
442.928	102.62
443.149	103.62
443.371	95.62
443.592	95.62
443.813	104.62
444.034	113.62
444.255	89.62
444.476	95.62
444.698	91.62
444.919	85.62
445.14	123.62
445.361	101.62
445.582	104.62
445.803	126.62
446.024	118.62
446.245	105.62
446.466	112.62
446.687	86.62
446.908	89.62
447.129	89.62
447.35	83.62
447.571	93.62
447.792	92.62
448.013	90.62
448.234	97.62
448.455	99.62
448.675	113.62
448.896	108.62
449.117	94.62
449.338	97.62
449.559	115.62
449.779	112.62
450	92.62
450.221	73.62
450.442	94.62
450.662	102.62
450.883	89.62
451.104	96.62
451.324	93.62
451.545	87.62
451.766	87.62
451.986	94.62
452.207	87.62
452.428	81.62
452.648	89.62
452.869	93.62
453.089	96.62
453.31	87.62
453.53	93.62
453.751	93.62
453.971	84.62
454.192	101.62
454.412	91.62
454.633	84.62
454.853	85.62
455.073	77.62
455.294	77.62
455.514	73.62
455.734	85.62
455.955	75.62
456.175	76.62
456.395	82.62
456.616	82.62
456.836	100.62
457.056	95.62
457.276	85.62
457.497	66.62
457.717	83.62
457.937	93.62
458.157	81.62
458.377	97.62
458.598	100.62
458.818	123.62
459.038	130.62
459.258	97.62
459.478	98.62
459.698	81.62
459.918	83.62
460.138	84.62
460.358	106.62
460.578	81.62
460.798	72.62
461.018	88.62
461.238	82.62
461.458	83.62
461.678	96.62
461.898	91.62
462.118	72.62
462.338	82.62
462.558	82.62
462.777	84.62
462.997	82.62
463.217	89.62
463.437	88.62
463.657	80.62
463.876	85.62
464.096	99.62
464.316	92.62
464.536	91.62
464.755	86.62
464.975	104.62
465.195	144.62
465.414	134.62
465.634	107.62
465.854	86.62
466.073	88.62
466.293	86.62
466.512	88.62
466.732	79.62
466.951	96.62
467.171	99.62
467.391	88.62
467.61	100.62
467.829	108.62
468.049	179.62
468.268	219.62
468.488	109.62
468.707	83.62
468.927	85.62
469.146	80.62
469.365	84.62
469.585	96.62
469.804	101.62
470.023	84.62
470.243	72.62
470.462	86.62
470.681	92.62
470.901	93.62
471.12	98.62
471.339	81.62
471.558	104.62
471.777	96.62
471.997	141.62
472.216	287.62
472.435	554.62
472.654	180.62
472.873	99.62
473.092	83.62
473.311	84.62
473.53	78.62
473.749	87.62
473.968	87.62
474.187	93.62
474.406	88.62
474.625	87.62
474.844	89.62
475.063	80.62
475.282	83.62
475.501	63.62
475.72	77.62
475.939	92.62
476.158	70.62
476.377	84.62
476.596	88.62
476.814	84.62
477.033	87.62
477.252	81.62
477.471	82.62
477.69	80.62
477.908	84.62
478.127	86.62
478.346	90.62
478.564	87.62
478.783	96.62
479.002	104.62
479.22	95.62
479.439	98.62
479.658	108.62
479.876	102.62
480.095	79.62
480.313	101.62
480.532	99.62
480.751	135.62
480.969	290.62
481.188	999.62
481.406	578.62
481.624	124.62
481.843	88.62
482.061	83.62
482.28	79.62
482.498	80.62
482.717	79.62
482.935	88.62
483.153	77.62
483.372	84.62
483.59	100.62
483.808	93.62
484.027	99.62
484.245	71.62
484.463	95.62
484.681	86.62
484.9	86.62
485.118	94.62
485.336	96.62
485.554	93.62
485.772	104.62
485.99	110.62
486.209	104.62
486.427	115.62
486.645	120.62
486.863	122.62
487.081	98.62
487.299	92.62
487.517	95.62
487.735	91.62
487.953	92.62
488.171	98.62
488.389	92.62
488.607	77.62
488.825	87.62
489.043	94.62
489.261	86.62
489.479	78.62
489.696	95.62
489.914	90.62
490.132	77.62
490.35	79.62
490.568	84.62
490.786	83.62
491.003	83.62
491.221	88.62
491.439	90.62
491.657	82.62
491.874	81.62
492.092	79.62
492.31	88.62
492.527	83.62
492.745	75.62
492.963	89.62
493.18	84.62
493.398	86.62
493.615	84.62
493.833	90.62
494.05	95.62
494.268	98.62
494.485	81.62
494.703	91.62
494.92	87.62
495.138	82.62
495.355	86.62
495.573	99.62
495.79	96.62
496.008	97.62
496.225	96.62
496.442	83.62
496.66	95.62
496.877	93.62
497.094	97.62
497.312	86.62
497.529	95.62
497.746	91.62
497.963	92.62
498.181	102.62
498.398	92.62
498.615	110.62
498.832	95.62
499.049	102.62
499.267	88.62
499.484	96.62
499.701	82.62
499.918	89.62
500.135	88.62
500.352	93.62
500.569	90.62
500.786	93.62
501.003	91.62
501.22	90.62
501.437	92.62
501.654	97.62
501.871	109.62
502.088	89.62
502.305	88.62
502.522	103.62
502.739	82.62
502.956	95.62
503.172	93.62
503.389	89.62
503.606	105.62
503.823	99.62
504.04	91.62
504.256	92.62
504.473	97.62
504.69	98.62
504.907	91.62
505.123	82.62
505.34	71.62
505.557	85.62
505.773	91.62
505.99	90.62
506.207	98.62
506.423	77.62
506.64	98.62
506.856	67.62
507.073	84.62
507.289	88.62
507.506	89.62
507.722	108.62
507.939	108.62
508.155	114.62
508.372	85.62
508.588	100.62
508.805	108.62
509.021	87.62
509.238	82.62
509.454	104.62
509.67	106.62
509.887	109.62
510.103	114.62
510.319	189.62
510.536	569.62
510.752	1669.62
510.968	495.62
511.184	122.62
511.401	107.62
511.617	100.62
511.833	97.62
512.049	90.62
512.265	93.62
512.481	85.62
512.698	75.62
512.914	87.62
513.13	103.62
513.346	83.62
513.562	81.62
513.778	84.62
513.994	89.62
514.21	99.62
514.426	120.62
514.642	116.62
514.858	117.62
515.074	142.62
515.29	329.62
515.506	997.62
515.721	380.62
515.937	126.62
516.153	96.62
516.369	97.62
