Data from Circ_1989_H10_HRD10591_00067.txt Node
Date: Wed Jan 03 12:01:35 EST 2024
User: Yrep
Spectrometer: HR+D1059
Trigger mode: 1
Integration Time (sec): 1.000000E-1
Scans to average: 1
Electric dark correction enabled: true
Nonlinearity correction enabled: false
Boxcar width: 0
XAxis mode: Wavelengths
Number of Pixels in Spectrum: 2048
>>>>>Begin Spectral Data<<<<<
223.165	-17.62
223.4	-17.62
223.635	-17.62
223.869	-18.62
224.104	-15.62
224.338	-14.62
224.573	-35.62
224.808	-7.62
225.042	-1.62
225.277	-10.62
225.511	-11.62
225.746	-0.62
225.98	22.38
226.215	16.38
226.449	6.38
226.683	26.38
226.918	31.38
227.152	31.38
227.387	28.38
227.621	32.38
227.856	47.38
228.09	48.38
228.324	50.38
228.559	54.38
228.793	51.38
229.027	64.38
229.262	72.38
229.496	79.38
229.73	71.38
229.964	84.38
230.199	80.38
230.433	82.38
230.667	95.38
230.901	81.38
231.136	89.38
231.37	75.38
231.604	81.38
231.838	98.38
232.072	89.38
232.306	86.38
232.541	89.38
232.775	79.38
233.009	91.38
233.243	88.38
233.477	66.38
233.711	78.38
233.945	88.38
234.179	85.38
234.413	95.38
234.647	80.38
234.881	65.38
235.115	81.38
235.349	82.38
235.583	83.38
235.817	92.38
236.051	79.38
236.285	81.38
236.519	84.38
236.753	95.38
236.987	90.38
237.221	92.38
237.455	81.38
237.689	81.38
237.922	84.38
238.156	68.38
238.39	62.38
238.624	63.38
238.858	79.38
239.091	82.38
239.325	88.38
239.559	81.38
239.793	94.38
240.027	82.38
240.26	85.38
240.494	81.38
240.728	84.38
240.961	65.38
241.195	79.38
241.429	64.38
241.662	85.38
241.896	72.38
242.13	88.38
242.363	89.38
242.597	83.38
242.83	59.38
243.064	64.38
243.298	76.38
243.531	70.38
243.765	79.38
243.998	79.38
244.232	84.38
244.465	83.38
244.699	94.38
244.932	93.38
245.166	86.38
245.399	76.38
245.633	78.38
245.866	75.38
246.099	73.38
246.333	88.38
246.566	73.38
246.8	66.38
247.033	71.38
247.266	76.38
247.5	79.38
247.733	70.38
247.966	77.38
248.2	97.38
248.433	90.38
248.666	85.38
248.899	82.38
249.133	104.38
249.366	86.38
249.599	84.38
249.832	80.38
250.066	94.38
250.299	79.38
250.532	80.38
250.765	77.38
250.998	87.38
251.231	71.38
251.465	88.38
251.698	95.38
251.931	73.38
252.164	89.38
252.397	74.38
252.63	92.38
252.863	74.38
253.096	79.38
253.329	78.38
253.562	81.38
253.795	83.38
254.028	88.38
254.261	81.38
254.494	82.38
254.727	75.38
254.96	97.38
255.193	97.38
255.426	92.38
255.659	82.38
255.892	96.38
256.124	84.38
256.357	84.38
256.59	78.38
256.823	78.38
257.056	94.38
257.289	72.38
257.521	85.38
257.754	85.38
257.987	80.38
258.22	91.38
258.452	71.38
258.685	84.38
258.918	88.38
259.151	83.38
259.383	91.38
259.616	89.38
259.849	78.38
260.081	93.38
260.314	86.38
260.547	89.38
260.779	90.38
261.012	100.38
261.244	87.38
261.477	79.38
261.71	93.38
261.942	96.38
262.175	96.38
262.407	102.38
262.64	74.38
262.872	91.38
263.105	89.38
263.337	103.38
263.57	83.38
263.802	98.38
264.035	79.38
264.267	87.38
264.499	89.38
264.732	84.38
264.964	97.38
265.197	92.38
265.429	89.38
265.661	90.38
265.894	90.38
266.126	98.38
266.358	80.38
266.591	76.38
266.823	81.38
267.055	88.38
267.287	85.38
267.52	85.38
267.752	80.38
267.984	70.38
268.216	83.38
268.448	107.38
268.681	80.38
268.913	82.38
269.145	84.38
269.377	90.38
269.609	83.38
269.841	102.38
270.073	70.38
270.306	112.38
270.538	95.38
270.77	96.38
271.002	102.38
271.234	85.38
271.466	85.38
271.698	85.38
271.93	84.38
272.162	77.38
272.394	75.38
272.626	88.38
272.858	91.38
273.09	87.38
273.322	92.38
273.553	83.38
273.785	89.38
274.017	99.38
274.249	99.38
274.481	88.38
274.713	86.38
274.945	91.38
275.176	94.38
275.408	98.38
275.64	90.38
275.872	98.38
276.104	88.38
276.335	86.38
276.567	95.38
276.799	104.38
277.031	121.38
277.262	116.38
277.494	84.38
277.726	99.38
277.957	94.38
278.189	90.38
278.421	82.38
278.652	87.38
278.884	86.38
279.115	84.38
279.347	99.38
279.579	83.38
279.81	88.38
280.042	132.38
280.273	136.38
280.505	112.38
280.736	94.38
280.968	97.38
281.199	91.38
281.431	89.38
281.662	92.38
281.894	87.38
282.125	88.38
282.356	107.38
282.588	103.38
282.819	95.38
283.051	91.38
283.282	90.38
283.513	100.38
283.745	92.38
283.976	88.38
284.207	91.38
284.439	84.38
284.67	87.38
284.901	89.38
285.132	85.38
285.364	73.38
285.595	86.38
285.826	86.38
286.057	83.38
286.288	84.38
286.52	82.38
286.751	81.38
286.982	87.38
287.213	90.38
287.444	90.38
287.675	86.38
287.906	94.38
288.138	86.38
288.369	71.38
288.6	94.38
288.831	89.38
289.062	95.38
289.293	81.38
289.524	78.38
289.755	93.38
289.986	98.38
290.217	78.38
290.448	73.38
290.679	91.38
290.91	90.38
291.141	95.38
291.371	90.38
291.602	71.38
291.833	90.38
292.064	91.38
292.295	78.38
292.526	78.38
292.757	88.38
292.987	101.38
293.218	81.38
293.449	96.38
293.68	93.38
293.91	94.38
294.141	82.38
294.372	87.38
294.603	93.38
294.833	88.38
295.064	84.38
295.295	85.38
295.525	89.38
295.756	90.38
295.987	106.38
296.217	131.38
296.448	131.38
296.679	90.38
296.909	98.38
297.14	78.38
297.37	86.38
297.601	89.38
297.831	98.38
298.062	98.38
298.292	87.38
298.523	79.38
298.753	95.38
298.984	87.38
299.214	99.38
299.445	98.38
299.675	102.38
299.905	92.38
300.136	78.38
300.366	90.38
300.597	75.38
300.827	95.38
301.057	92.38
301.288	111.38
301.518	94.38
301.748	90.38
301.979	90.38
302.209	94.38
302.439	90.38
302.669	79.38
302.9	91.38
303.13	97.38
303.36	89.38
303.59	95.38
303.82	100.38
304.051	97.38
304.281	86.38
304.511	89.38
304.741	84.38
304.971	83.38
305.201	85.38
305.431	90.38
305.661	98.38
305.891	92.38
306.121	94.38
306.352	91.38
306.582	95.38
306.812	91.38
307.042	86.38
307.272	112.38
307.502	127.38
307.731	121.38
307.961	117.38
308.191	95.38
308.421	96.38
308.651	101.38
308.881	92.38
309.111	95.38
309.341	89.38
309.571	99.38
309.8	102.38
310.03	82.38
310.26	101.38
310.49	92.38
310.72	92.38
310.949	80.38
311.179	83.38
311.409	99.38
311.639	93.38
311.868	84.38
312.098	93.38
312.328	97.38
312.557	90.38
312.787	100.38
313.017	99.38
313.246	103.38
313.476	97.38
313.706	92.38
313.935	84.38
314.165	110.38
314.394	102.38
314.624	100.38
314.853	91.38
315.083	110.38
315.312	82.38
315.542	105.38
315.771	93.38
316.001	84.38
316.23	91.38
316.46	83.38
316.689	96.38
316.919	96.38
317.148	99.38
317.377	89.38
317.607	82.38
317.836	99.38
318.065	101.38
318.295	91.38
318.524	98.38
318.753	81.38
318.983	87.38
319.212	96.38
319.441	102.38
319.67	106.38
319.9	95.38
320.129	94.38
320.358	96.38
320.587	105.38
320.816	105.38
321.046	100.38
321.275	102.38
321.504	103.38
321.733	84.38
321.962	83.38
322.191	97.38
322.42	105.38
322.649	98.38
322.878	110.38
323.108	121.38
323.337	112.38
323.566	137.38
323.795	147.38
324.024	185.38
324.253	283.38
324.482	575.38
324.71	1151.38
324.939	1587.38
325.168	597.38
325.397	211.38
325.626	127.38
325.855	118.38
326.084	130.38
326.313	111.38
326.542	142.38
326.77	190.38
326.999	352.38
327.228	663.38
327.457	1227.38
327.686	1021.38
327.914	315.38
328.143	246.38
328.372	264.38
328.6	177.38
328.829	129.38
329.058	115.38
329.287	131.38
329.515	128.38
329.744	142.38
329.972	214.38
330.201	348.38
330.43	449.38
330.658	244.38
330.887	160.38
331.115	122.38
331.344	108.38
331.572	115.38
331.801	105.38
332.03	114.38
332.258	95.38
332.486	100.38
332.715	101.38
332.943	88.38
333.172	111.38
333.4	113.38
333.629	111.38
333.857	150.38
334.085	203.38
334.314	335.38
334.542	592.38
334.771	536.38
334.999	191.38
335.227	124.38
335.455	124.38
335.684	100.38
335.912	94.38
336.14	97.38
336.369	104.38
336.597	105.38
336.825	104.38
337.053	104.38
337.281	100.38
337.51	96.38
337.738	102.38
337.966	89.38
338.194	107.38
338.422	91.38
338.65	99.38
338.878	78.38
339.106	92.38
339.334	104.38
339.562	94.38
339.79	102.38
340.018	101.38
340.246	98.38
340.474	97.38
340.702	80.38
340.93	85.38
341.158	74.38
341.386	95.38
341.614	102.38
341.842	86.38
342.07	74.38
342.298	94.38
342.526	92.38
342.754	101.38
342.981	84.38
343.209	98.38
343.437	102.38
343.665	88.38
343.893	95.38
344.12	97.38
344.348	83.38
344.576	89.38
344.804	83.38
345.031	94.38
345.259	106.38
345.487	99.38
345.714	93.38
345.942	94.38
346.17	104.38
346.397	86.38
346.625	98.38
346.853	83.38
347.08	85.38
347.308	89.38
347.535	98.38
347.763	100.38
347.99	108.38
348.218	95.38
348.445	101.38
348.673	92.38
348.9	88.38
349.128	81.38
349.355	84.38
349.583	84.38
349.81	99.38
350.037	106.38
350.265	100.38
350.492	105.38
350.72	97.38
350.947	100.38
351.174	103.38
351.402	99.38
351.629	99.38
351.856	98.38
352.083	99.38
352.311	107.38
352.538	100.38
352.765	105.38
352.992	115.38
353.22	107.38
353.447	104.38
353.674	102.38
353.901	108.38
354.128	83.38
354.355	94.38
354.583	105.38
354.81	97.38
355.037	94.38
355.264	90.38
355.491	79.38
355.718	103.38
355.945	108.38
356.172	107.38
356.399	96.38
356.626	100.38
356.853	95.38
357.08	91.38
357.307	102.38
357.534	105.38
357.761	91.38
357.988	105.38
358.215	96.38
358.441	93.38
358.668	93.38
358.895	88.38
359.122	74.38
359.349	91.38
359.576	90.38
359.802	102.38
360.029	101.38
360.256	107.38
360.483	74.38
360.709	93.38
360.936	104.38
361.163	101.38
361.39	103.38
361.616	91.38
361.843	83.38
362.07	85.38
362.296	87.38
362.523	97.38
362.749	78.38
362.976	82.38
363.203	95.38
363.429	85.38
363.656	86.38
363.882	94.38
364.109	87.38
364.335	99.38
364.562	89.38
364.788	103.38
365.015	100.38
365.241	105.38
365.468	105.38
365.694	103.38
365.92	100.38
366.147	88.38
366.373	91.38
366.599	86.38
366.826	80.38
367.052	84.38
367.278	95.38
367.505	82.38
367.731	96.38
367.957	98.38
368.184	96.38
368.41	102.38
368.636	94.38
368.862	97.38
369.089	107.38
369.315	95.38
369.541	90.38
369.767	92.38
369.993	100.38
370.219	107.38
370.445	95.38
370.672	82.38
370.898	81.38
371.124	90.38
371.35	102.38
371.576	98.38
371.802	100.38
372.028	84.38
372.254	100.38
372.48	84.38
372.706	102.38
372.932	84.38
373.158	81.38
373.384	101.38
373.61	101.38
373.835	91.38
374.061	100.38
374.287	76.38
374.513	95.38
374.739	104.38
374.965	80.38
375.191	93.38
375.416	95.38
375.642	88.38
375.868	97.38
376.094	96.38
376.319	101.38
376.545	90.38
376.771	97.38
376.997	80.38
377.222	83.38
377.448	100.38
377.674	102.38
377.899	82.38
378.125	82.38
378.35	87.38
378.576	82.38
378.802	95.38
379.027	84.38
379.253	95.38
379.478	101.38
379.704	103.38
379.929	78.38
380.155	90.38
380.38	88.38
380.606	99.38
380.831	104.38
381.057	80.38
381.282	95.38
381.507	104.38
381.733	92.38
381.958	91.38
382.184	100.38
382.409	92.38
382.634	98.38
382.86	92.38
383.085	114.38
383.31	107.38
383.535	107.38
383.761	101.38
383.986	89.38
384.211	94.38
384.436	113.38
384.662	100.38
384.887	103.38
385.112	116.38
385.337	105.38
385.562	95.38
385.787	107.38
386.013	108.38
386.238	100.38
386.463	100.38
386.688	106.38
386.913	90.38
387.138	104.38
387.363	99.38
387.588	91.38
387.813	93.38
388.038	94.38
388.263	106.38
388.488	112.38
388.713	88.38
388.938	89.38
389.163	89.38
389.387	85.38
389.612	97.38
389.837	102.38
390.062	76.38
390.287	92.38
390.512	86.38
390.736	96.38
390.961	104.38
391.186	100.38
391.411	92.38
391.636	85.38
391.86	94.38
392.085	93.38
392.31	80.38
392.534	92.38
392.759	91.38
392.984	90.38
393.208	102.38
393.433	92.38
393.658	103.38
393.882	88.38
394.107	90.38
394.331	79.38
394.556	82.38
394.78	85.38
395.005	96.38
395.229	83.38
395.454	95.38
395.678	96.38
395.903	85.38
396.127	80.38
396.352	89.38
396.576	83.38
396.801	95.38
397.025	101.38
397.249	88.38
397.474	90.38
397.698	82.38
397.922	88.38
398.147	95.38
398.371	88.38
398.595	85.38
398.82	78.38
399.044	76.38
399.268	89.38
399.492	84.38
399.717	84.38
399.941	94.38
400.165	86.38
400.389	88.38
400.613	94.38
400.837	98.38
401.062	78.38
401.286	85.38
401.51	88.38
401.734	96.38
401.958	101.38
402.182	109.38
402.406	128.38
402.63	112.38
402.854	88.38
403.078	81.38
403.302	89.38
403.526	88.38
403.75	82.38
403.974	94.38
404.198	75.38
404.422	86.38
404.645	69.38
404.869	80.38
405.093	90.38
405.317	110.38
405.541	102.38
405.765	104.38
405.988	103.38
406.212	145.38
406.436	166.38
406.66	127.38
406.883	94.38
407.107	89.38
407.331	106.38
407.555	100.38
407.778	95.38
408.002	95.38
408.226	83.38
408.449	92.38
408.673	94.38
408.896	100.38
409.12	91.38
409.344	105.38
409.567	103.38
409.791	94.38
410.014	100.38
410.238	84.38
410.461	85.38
410.685	95.38
410.908	94.38
411.132	102.38
411.355	99.38
411.578	92.38
411.802	105.38
412.025	96.38
412.249	93.38
412.472	97.38
412.695	110.38
412.919	88.38
413.142	87.38
413.365	95.38
413.589	94.38
413.812	82.38
414.035	97.38
414.258	93.38
414.482	97.38
414.705	79.38
414.928	116.38
415.151	96.38
415.374	96.38
415.597	98.38
415.821	98.38
416.044	100.38
416.267	99.38
416.49	104.38
416.713	91.38
416.936	94.38
417.159	97.38
417.382	92.38
417.605	98.38
417.828	88.38
418.051	94.38
418.274	94.38
418.497	96.38
418.72	94.38
418.943	96.38
419.166	90.38
419.389	91.38
419.611	78.38
419.834	89.38
420.057	91.38
420.28	80.38
420.503	82.38
420.726	90.38
420.948	99.38
421.171	89.38
421.394	87.38
421.617	94.38
421.839	92.38
422.062	92.38
422.285	89.38
422.507	88.38
422.73	87.38
422.953	85.38
423.175	99.38
423.398	90.38
423.621	102.38
423.843	91.38
424.066	79.38
424.288	82.38
424.511	86.38
424.733	85.38
424.956	108.38
425.178	91.38
425.401	80.38
425.623	91.38
425.846	70.38
426.068	99.38
426.291	98.38
426.513	97.38
426.735	86.38
426.958	100.38
427.18	97.38
427.402	114.38
427.625	161.38
427.847	147.38
428.069	148.38
428.292	102.38
428.514	106.38
428.736	99.38
428.958	83.38
429.181	95.38
429.403	82.38
429.625	86.38
429.847	95.38
430.069	96.38
430.292	86.38
430.514	79.38
430.736	77.38
430.958	88.38
431.18	83.38
431.402	82.38
431.624	92.38
431.846	76.38
432.068	84.38
432.29	94.38
432.512	86.38
432.734	90.38
432.956	86.38
433.178	96.38
433.4	110.38
433.622	91.38
433.844	105.38
434.066	98.38
434.287	88.38
434.509	99.38
434.731	98.38
434.953	76.38
435.175	93.38
435.397	90.38
435.618	97.38
435.84	95.38
436.062	116.38
436.284	88.38
436.505	98.38
436.727	112.38
436.949	100.38
437.17	94.38
437.392	82.38
437.614	88.38
437.835	83.38
438.057	111.38
438.278	111.38
438.5	98.38
438.721	115.38
438.943	92.38
439.165	75.38
439.386	78.38
439.608	105.38
439.829	90.38
440.05	107.38
440.272	125.38
440.493	95.38
440.715	71.38
440.936	79.38
441.158	100.38
441.379	69.38
441.6	73.38
441.822	81.38
442.043	94.38
442.264	97.38
442.486	105.38
442.707	99.38
442.928	114.38
443.149	117.38
443.371	108.38
443.592	106.38
443.813	102.38
444.034	104.38
444.255	95.38
444.476	108.38
444.698	90.38
444.919	92.38
445.14	111.38
445.361	116.38
445.582	122.38
445.803	121.38
446.024	116.38
446.245	133.38
446.466	91.38
446.687	99.38
446.908	80.38
447.129	86.38
447.35	90.38
447.571	96.38
447.792	86.38
448.013	76.38
448.234	88.38
448.455	93.38
448.675	89.38
448.896	103.38
449.117	84.38
449.338	90.38
449.559	122.38
449.779	116.38
450	93.38
450.221	86.38
450.442	91.38
450.662	82.38
450.883	111.38
451.104	104.38
451.324	110.38
451.545	98.38
451.766	87.38
451.986	83.38
452.207	92.38
452.428	102.38
452.648	95.38
452.869	98.38
453.089	98.38
453.31	90.38
453.53	105.38
453.751	88.38
453.971	102.38
454.192	104.38
454.412	95.38
454.633	79.38
454.853	91.38
455.073	93.38
455.294	90.38
455.514	112.38
455.734	86.38
455.955	84.38
456.175	82.38
456.395	73.38
456.616	80.38
456.836	82.38
457.056	94.38
457.276	86.38
457.497	81.38
457.717	84.38
457.937	86.38
458.157	113.38
458.377	93.38
458.598	98.38
458.818	119.38
459.038	112.38
459.258	113.38
459.478	81.38
459.698	86.38
459.918	83.38
460.138	91.38
460.358	92.38
460.578	84.38
460.798	89.38
461.018	94.38
461.238	91.38
461.458	85.38
461.678	84.38
461.898	91.38
462.118	80.38
462.338	81.38
462.558	99.38
462.777	81.38
462.997	93.38
463.217	104.38
463.437	96.38
463.657	90.38
463.876	90.38
464.096	88.38
464.316	81.38
464.536	109.38
464.755	90.38
464.975	99.38
465.195	143.38
465.414	137.38
465.634	103.38
465.854	91.38
466.073	75.38
466.293	100.38
466.512	93.38
466.732	92.38
466.951	85.38
467.171	91.38
467.391	96.38
467.61	98.38
467.829	115.38
468.049	231.38
468.268	304.38
468.488	137.38
468.707	106.38
468.927	97.38
469.146	91.38
469.365	86.38
469.585	91.38
469.804	94.38
470.023	91.38
470.243	98.38
470.462	92.38
470.681	102.38
470.901	87.38
471.12	92.38
471.339	88.38
471.558	94.38
471.777	114.38
471.997	160.38
472.216	419.38
472.435	858.38
472.654	243.38
472.873	108.38
473.092	90.38
473.311	110.38
473.53	101.38
473.749	90.38
473.968	85.38
474.187	94.38
474.406	106.38
474.625	89.38
474.844	73.38
475.063	83.38
475.282	75.38
475.501	85.38
475.72	86.38
475.939	102.38
476.158	93.38
476.377	88.38
476.596	93.38
476.814	93.38
477.033	94.38
477.252	95.38
477.471	90.38
477.69	87.38
477.908	98.38
478.127	98.38
478.346	94.38
478.564	97.38
478.783	100.38
479.002	93.38
479.22	96.38
479.439	110.38
479.658	106.38
479.876	103.38
480.095	93.38
480.313	103.38
480.532	119.38
480.751	163.38
480.969	430.38
481.188	1508.38
481.406	843.38
481.624	178.38
481.843	130.38
482.061	102.38
482.28	75.38
482.498	95.38
482.717	94.38
482.935	87.38
483.153	93.38
483.372	89.38
483.59	92.38
483.808	106.38
484.027	72.38
484.245	99.38
484.463	82.38
484.681	116.38
484.9	97.38
485.118	111.38
485.336	96.38
485.554	102.38
485.772	101.38
485.99	108.38
486.209	111.38
486.427	96.38
486.645	120.38
486.863	105.38
487.081	101.38
487.299	102.38
487.517	96.38
487.735	90.38
487.953	96.38
488.171	104.38
488.389	91.38
488.607	83.38
488.825	84.38
489.043	94.38
489.261	101.38
489.479	100.38
489.696	91.38
489.914	100.38
490.132	95.38
490.35	99.38
490.568	86.38
490.786	94.38
491.003	100.38
491.221	91.38
491.439	79.38
491.657	85.38
491.874	79.38
492.092	102.38
492.31	93.38
492.527	89.38
492.745	85.38
492.963	91.38
493.18	105.38
493.398	99.38
493.615	90.38
493.833	93.38
494.05	107.38
494.268	84.38
494.485	99.38
494.703	93.38
494.92	96.38
495.138	86.38
495.355	76.38
495.573	104.38
495.79	92.38
496.008	100.38
496.225	96.38
496.442	88.38
496.66	89.38
496.877	85.38
497.094	95.38
497.312	88.38
497.529	90.38
497.746	99.38
497.963	100.38
498.181	74.38
498.398	96.38
498.615	105.38
498.832	100.38
499.049	84.38
499.267	92.38
499.484	91.38
499.701	99.38
499.918	89.38
500.135	100.38
500.352	102.38
500.569	105.38
500.786	87.38
501.003	88.38
501.22	83.38
501.437	86.38
501.654	89.38
501.871	87.38
502.088	96.38
502.305	107.38
502.522	79.38
502.739	89.38
502.956	96.38
503.172	90.38
503.389	102.38
503.606	103.38
503.823	97.38
504.04	85.38
504.256	96.38
504.473	86.38
504.69	91.38
504.907	81.38
505.123	99.38
505.34	85.38
505.557	86.38
505.773	92.38
505.99	87.38
506.207	92.38
506.423	73.38
506.64	91.38
506.856	84.38
507.073	103.38
507.289	88.38
507.506	105.38
507.722	104.38
507.939	95.38
508.155	85.38
508.372	91.38
508.588	81.38
508.805	73.38
509.021	95.38
509.238	90.38
509.454	99.38
509.67	97.38
509.887	95.38
510.103	115.38
510.319	160.38
510.536	521.38
510.752	1623.38
510.968	484.38
511.184	137.38
511.401	88.38
511.617	118.38
511.833	108.38
512.049	101.38
512.265	92.38
512.481	101.38
512.698	88.38
512.914	92.38
513.13	102.38
513.346	97.38
513.562	88.38
513.778	103.38
513.994	83.38
514.21	98.38
514.426	102.38
514.642	116.38
514.858	102.38
515.074	154.38
