Data from Circ_1989_H10_HRD10591_00069.txt Node
Date: Wed Jan 03 12:01:35 EST 2024
User: Yrep
Spectrometer: HR+D1059
Trigger mode: 1
Integration Time (sec): 1.000000E-1
Scans to average: 1
Electric dark correction enabled: true
Nonlinearity correction enabled: false
Boxcar width: 0
XAxis mode: Wavelengths
Number of Pixels in Spectrum: 2048
>>>>>Begin Spectral Data<<<<<
223.165	-26.81
223.4	-26.81
223.635	-26.81
223.869	-15.81
224.104	-12.81
224.338	-18.81
224.573	-10.81
224.808	-3.81
225.042	-8.81
225.277	-9.81
225.511	5.19
225.746	-0.81
225.98	1.19
226.215	14.19
226.449	26.19
226.683	20.19
226.918	16.19
227.152	25.19
227.387	30.19
227.621	31.19
227.856	39.19
228.09	45.19
228.324	56.19
228.559	45.19
228.793	154.19
229.027	452.19
229.262	496.19
229.496	607.19
229.73	841.19
229.964	836.19
230.199	577.19
230.433	494.19
230.667	469.19
230.901	486.19
231.136	472.19
231.37	478.19
231.604	473.19
231.838	488.19
232.072	488.19
232.306	494.19
232.541	486.19
232.775	490.19
233.009	489.19
233.243	517.19
233.477	533.19
233.711	519.19
233.945	542.19
234.179	532.19
234.413	546.19
234.647	540.19
234.881	525.19
235.115	572.19
235.349	580.19
235.583	596.19
235.817	632.19
236.051	662.19
236.285	633.19
236.519	665.19
236.753	741.19
236.987	948.19
237.221	1385.19
237.455	1530.19
237.689	906.19
237.922	784.19
238.156	777.19
238.39	724.19
238.624	692.19
238.858	688.19
239.091	723.19
239.325	717.19
239.559	713.19
239.793	732.19
240.027	824.19
240.26	960.19
240.494	1041.19
240.728	997.19
240.961	931.19
241.195	847.19
241.429	859.19
241.662	836.19
241.896	845.19
242.13	839.19
242.363	868.19
242.597	878.19
242.83	921.19
243.064	899.19
243.298	924.19
243.531	914.19
243.765	915.19
243.998	952.19
244.232	960.19
244.465	975.19
244.699	974.19
244.932	954.19
245.166	990.19
245.399	993.19
245.633	982.19
245.866	993.19
246.099	1006.19
246.333	1019.19
246.566	1058.19
246.8	1055.19
247.033	1121.19
247.266	1135.19
247.5	1209.19
247.733	1252.19
247.966	1264.19
248.2	1246.19
248.433	1269.19
248.666	1359.19
248.899	1490.19
249.133	1596.19
249.366	1646.19
249.599	1556.19
249.832	1545.19
250.066	1704.19
250.299	2267.19
250.532	2926.19
250.765	2802.19
250.998	2397.19
251.231	2034.19
251.465	1791.19
251.698	1686.19
251.931	1594.19
252.164	1571.19
252.397	1600.19
252.63	1612.19
252.863	1683.19
253.096	1813.19
253.329	1859.19
253.562	1761.19
253.795	1684.19
254.028	1718.19
254.261	1795.19
254.494	2012.19
254.727	2376.19
254.96	2369.19
255.193	2249.19
255.426	2306.19
255.659	2719.19
255.892	3902.19
256.124	5182.19
256.357	4329.19
256.59	3114.19
256.823	2526.19
257.056	2294.19
257.289	2105.19
257.521	2042.19
257.754	1937.19
257.987	1884.19
258.22	1852.19
258.452	1842.19
258.685	1840.19
258.918	1826.19
259.151	1806.19
259.383	1876.19
259.616	1849.19
259.849	1983.19
260.081	2082.19
260.314	2230.19
260.547	2129.19
260.779	1984.19
261.012	1910.19
261.244	1870.19
261.477	1874.19
261.71	1869.19
261.942	1877.19
262.175	1938.19
262.407	1877.19
262.64	1776.19
262.872	1805.19
263.105	1817.19
263.337	1808.19
263.57	1826.19
263.802	1823.19
264.035	1842.19
264.267	1830.19
264.499	1808.19
264.732	1854.19
264.964	1870.19
265.197	1809.19
265.429	1856.19
265.661	1850.19
265.894	1912.19
266.126	1916.19
266.358	1930.19
266.591	1934.19
266.823	2029.19
267.055	2020.19
267.287	2041.19
267.52	2000.19
267.752	1984.19
267.984	2021.19
268.216	2073.19
268.448	2111.19
268.681	2135.19
268.913	2247.19
269.145	2442.19
269.377	2460.19
269.609	2361.19
269.841	2340.19
270.073	2456.19
270.306	2701.19
270.538	2841.19
270.77	2690.19
271.002	2566.19
271.234	2565.19
271.466	2748.19
271.698	2844.19
271.93	2799.19
272.162	2842.19
272.394	2772.19
272.626	2597.19
272.858	2496.19
273.09	2489.19
273.322	2406.19
273.553	2415.19
273.785	2425.19
274.017	2439.19
274.249	2479.19
274.481	2493.19
274.713	2490.19
274.945	2570.19
275.176	2551.19
275.408	2549.19
275.64	2596.19
275.872	2616.19
276.104	2684.19
276.335	2698.19
276.567	2793.19
276.799	3027.19
277.031	3368.19
277.262	3532.19
277.494	3288.19
277.726	3012.19
277.957	2875.19
278.189	2866.19
278.421	2776.19
278.652	2750.19
278.884	2732.19
279.115	2718.19
279.347	2766.19
279.579	2737.19
279.81	2909.19
280.042	3100.19
280.273	3282.19
280.505	3183.19
280.736	2977.19
280.968	2880.19
281.199	2847.19
281.431	2812.19
281.662	2819.19
281.894	2799.19
282.125	2816.19
282.356	2952.19
282.588	3174.19
282.819	2908.19
283.051	2823.19
283.282	2752.19
283.513	2780.19
283.745	2840.19
283.976	2886.19
284.207	2907.19
284.439	2840.19
284.67	2853.19
284.901	2833.19
285.132	2819.19
285.364	2873.19
285.595	2869.19
285.826	2926.19
286.057	2923.19
286.288	2954.19
286.52	2940.19
286.751	2951.19
286.982	2930.19
287.213	2939.19
287.444	2961.19
287.675	3039.19
287.906	3090.19
288.138	3139.19
288.369	3135.19
288.6	3038.19
288.831	3132.19
289.062	3078.19
289.293	3036.19
289.524	3015.19
289.755	2963.19
289.986	3059.19
290.217	3057.19
290.448	3004.19
290.679	3075.19
290.91	3009.19
291.141	3021.19
291.371	2981.19
291.602	3027.19
291.833	2999.19
292.064	3043.19
292.295	3022.19
292.526	3007.19
292.757	2954.19
292.987	2982.19
293.218	2991.19
293.449	3022.19
293.68	3004.19
293.91	3018.19
294.141	3029.19
294.372	2975.19
294.603	3018.19
294.833	3065.19
295.064	3069.19
295.295	3071.19
295.525	3076.19
295.756	3071.19
295.987	3182.19
296.217	3413.19
296.448	3285.19
296.679	3177.19
296.909	3150.19
297.14	3175.19
297.37	3175.19
297.601	3252.19
297.831	3228.19
298.062	3221.19
298.292	3253.19
298.523	3292.19
298.753	3312.19
298.984	3298.19
299.214	3278.19
299.445	3291.19
299.675	3274.19
299.905	3393.19
300.136	3358.19
300.366	3362.19
300.597	3374.19
300.827	3462.19
301.057	3532.19
301.288	3536.19
301.518	3498.19
301.748	3525.19
301.979	3628.19
302.209	3636.19
302.439	3572.19
302.669	3546.19
302.9	3511.19
303.13	3554.19
303.36	3585.19
303.59	3654.19
303.82	3741.19
304.051	3644.19
304.281	3558.19
304.511	3443.19
304.741	3499.19
304.971	3458.19
305.201	3441.19
305.431	3418.19
305.661	3428.19
305.891	3406.19
306.121	3460.19
306.352	3491.19
306.582	3491.19
306.812	3475.19
307.042	3606.19
307.272	3711.19
307.502	3790.19
307.731	3734.19
307.961	3624.19
308.191	3578.19
308.421	3486.19
308.651	3570.19
308.881	3543.19
309.111	3652.19
309.341	3552.19
309.571	3677.19
309.8	3774.19
310.03	3874.19
310.26	3880.19
310.49	3875.19
310.72	3997.19
310.949	4005.19
311.179	4031.19
311.409	3848.19
311.639	3861.19
311.868	3896.19
312.098	3919.19
312.328	3996.19
312.557	4176.19
312.787	4233.19
313.017	4116.19
313.246	4060.19
313.476	3974.19
313.706	4034.19
313.935	4013.19
314.165	4185.19
314.394	4220.19
314.624	4103.19
314.853	4068.19
315.083	3916.19
315.312	3943.19
315.542	3946.19
315.771	3917.19
316.001	3854.19
316.23	3869.19
316.46	3906.19
316.689	4012.19
316.919	4066.19
317.148	4060.19
317.377	4087.19
317.607	4008.19
317.836	3917.19
318.065	3990.19
318.295	3912.19
318.524	3951.19
318.753	3960.19
318.983	3943.19
319.212	3936.19
319.441	4032.19
319.67	4048.19
319.9	3983.19
320.129	4017.19
320.358	4015.19
320.587	4068.19
320.816	4164.19
321.046	4208.19
321.275	4129.19
321.504	4138.19
321.733	4189.19
321.962	4329.19
322.191	4416.19
322.42	4447.19
322.649	4662.19
322.878	4651.19
323.108	4760.19
323.337	5028.19
323.566	5200.19
323.795	5601.19
324.024	6221.19
324.253	8084.19
324.482	12195.19
324.71	15626.19
324.939	15626.19
325.168	13866.19
325.397	7228.19
325.626	5802.19
325.855	5506.19
326.084	5356.19
326.313	5483.19
326.542	5754.19
326.77	6451.19
326.999	8165.19
327.228	11873.19
327.457	15512.19
327.686	15024.19
327.914	9734.19
328.143	9420.19
328.372	9804.19
328.6	8242.19
328.829	7177.19
329.058	7246.19
329.287	7458.19
329.515	7511.19
329.744	8271.19
329.972	10464.19
330.201	13425.19
330.43	14459.19
330.658	11104.19
330.887	8815.19
331.115	7446.19
331.344	6638.19
331.572	6343.19
331.801	6385.19
332.03	6339.19
332.258	6260.19
332.486	6275.19
332.715	6501.19
332.943	6707.19
333.172	7108.19
333.4	7648.19
333.629	8250.19
333.857	9599.19
334.085	11772.19
334.314	14526.19
334.542	15626.19
334.771	15626.19
334.999	10738.19
335.227	8371.19
335.455	7262.19
335.684	6620.19
335.912	6371.19
336.14	6040.19
336.369	5908.19
336.597	5933.19
336.825	5759.19
337.053	5518.19
337.281	5415.19
337.51	5255.19
337.738	5225.19
337.966	5306.19
338.194	5245.19
338.422	5092.19
338.65	4960.19
338.878	4995.19
339.106	4900.19
339.334	4843.19
339.562	4853.19
339.79	4783.19
340.018	4710.19
340.246	4794.19
340.474	4778.19
340.702	4723.19
340.93	4700.19
341.158	4704.19
341.386	4671.19
341.614	4772.19
341.842	4709.19
342.07	4660.19
342.298	4557.19
342.526	4530.19
342.754	4502.19
342.981	4515.19
343.209	4574.19
343.437	4916.19
343.665	5102.19
343.893	5288.19
344.12	5302.19
344.348	5132.19
344.576	4984.19
344.804	4942.19
345.031	4876.19
345.259	4849.19
345.487	4754.19
345.714	4605.19
345.942	4490.19
346.17	4474.19
346.397	4442.19
346.625	4456.19
346.853	4418.19
347.08	4294.19
347.308	4425.19
347.535	4541.19
347.763	4624.19
347.99	4480.19
348.218	4527.19
348.445	4642.19
348.673	4556.19
348.9	4400.19
349.128	4324.19
349.355	4338.19
349.583	4242.19
349.81	4275.19
350.037	4231.19
350.265	4279.19
350.492	4273.19
350.72	4280.19
350.947	4311.19
351.174	4430.19
351.402	4508.19
351.629	4421.19
351.856	4437.19
352.083	4550.19
352.311	4545.19
352.538	4523.19
352.765	4472.19
352.992	4398.19
353.22	4308.19
353.447	4316.19
353.674	4250.19
353.901	4182.19
354.128	4236.19
354.355	4155.19
354.583	4194.19
354.81	4197.19
355.037	4186.19
355.264	4100.19
355.491	4142.19
355.718	4088.19
355.945	4114.19
356.172	4108.19
356.399	4126.19
356.626	4217.19
356.853	4138.19
357.08	4075.19
357.307	4144.19
357.534	4154.19
357.761	4123.19
357.988	4115.19
358.215	4146.19
358.441	4160.19
358.668	4137.19
358.895	4200.19
359.122	4258.19
359.349	4369.19
359.576	4417.19
359.802	4706.19
360.029	4912.19
360.256	4842.19
360.483	4611.19
360.709	4416.19
360.936	4392.19
361.163	4401.19
361.39	4424.19
361.616	4422.19
361.843	4316.19
362.07	4445.19
362.296	4458.19
362.523	4402.19
362.749	4356.19
362.976	4306.19
363.203	4288.19
363.429	4267.19
363.656	4313.19
363.882	4234.19
364.109	4184.19
364.335	4243.19
364.562	4192.19
364.788	4211.19
365.015	4213.19
365.241	4263.19
365.468	4286.19
365.694	4367.19
365.92	4292.19
366.147	4193.19
366.373	4240.19
366.599	4242.19
366.826	4269.19
367.052	4161.19
367.278	4225.19
367.505	4205.19
367.731	4277.19
367.957	4218.19
368.184	4271.19
368.41	4382.19
368.636	4454.19
368.862	4454.19
369.089	4428.19
369.315	4317.19
369.541	4309.19
369.767	4341.19
369.993	4336.19
370.219	4378.19
370.445	4424.19
370.672	4421.19
370.898	4415.19
371.124	4435.19
371.35	4428.19
371.576	4440.19
371.802	4432.19
372.028	4468.19
372.254	4467.19
372.48	4520.19
372.706	4601.19
372.932	4563.19
373.158	4537.19
373.384	4500.19
373.61	4428.19
373.835	4489.19
374.061	4462.19
374.287	4572.19
374.513	4624.19
374.739	4777.19
374.965	4791.19
375.191	4834.19
375.416	4738.19
375.642	4644.19
375.868	4625.19
376.094	4567.19
376.319	4481.19
376.545	4528.19
376.771	4486.19
376.997	4454.19
377.222	4470.19
377.448	4450.19
377.674	4369.19
377.899	4332.19
378.125	4354.19
378.35	4373.19
378.576	4352.19
378.802	4453.19
379.027	4379.19
379.253	4390.19
379.478	4408.19
379.704	4385.19
379.929	4436.19
380.155	4405.19
380.38	4389.19
380.606	4480.19
380.831	4444.19
381.057	4453.19
381.282	4441.19
381.507	4440.19
381.733	4516.19
381.958	4499.19
382.184	4614.19
382.409	4633.19
382.634	4671.19
382.86	4681.19
383.085	4790.19
383.31	4849.19
383.535	4810.19
383.761	4849.19
383.986	4946.19
384.211	5080.19
384.436	5068.19
384.662	5210.19
384.887	5270.19
385.112	5208.19
385.337	5325.19
385.562	5340.19
385.787	5347.19
386.013	5404.19
386.238	5402.19
386.463	5420.19
386.688	5308.19
386.913	5258.19
387.138	5319.19
387.363	5288.19
387.588	5185.19
387.813	5236.19
388.038	5250.19
388.263	5295.19
388.488	5218.19
388.713	5239.19
388.938	5251.19
389.163	5278.19
389.387	5247.19
389.612	5193.19
389.837	5171.19
390.062	5123.19
390.287	5220.19
390.512	5110.19
390.736	5255.19
390.961	5378.19
391.186	5379.19
391.411	5609.19
391.636	5584.19
391.86	5745.19
392.085	5900.19
392.31	5781.19
392.534	5639.19
392.759	5560.19
392.984	5446.19
393.208	5463.19
393.433	5472.19
393.658	5405.19
393.882	5428.19
394.107	5440.19
394.331	5592.19
394.556	5486.19
394.78	5582.19
395.005	5696.19
395.229	5620.19
395.454	5831.19
395.678	5925.19
395.903	5942.19
396.127	6052.19
396.352	5843.19
396.576	5634.19
396.801	5583.19
397.025	5702.19
397.249	5853.19
397.474	5882.19
397.698	5887.19
397.922	6068.19
398.147	6215.19
398.371	6211.19
398.595	6406.19
398.82	6774.19
399.044	7241.19
399.268	7881.19
399.492	8937.19
399.717	9530.19
399.941	9401.19
400.165	8868.19
400.389	8199.19
400.613	7368.19
400.837	7002.19
401.062	6792.19
401.286	6706.19
401.51	6642.19
401.734	6680.19
401.958	6709.19
402.182	6852.19
402.406	7005.19
402.63	7015.19
402.854	7124.19
403.078	7238.19
403.302	7431.19
403.526	7436.19
403.75	7600.19
403.974	7651.19
404.198	7595.19
404.422	7837.19
404.645	8016.19
404.869	8295.19
405.093	9009.19
405.317	9600.19
405.541	9393.19
405.765	8358.19
405.988	7922.19
406.212	7956.19
406.436	7935.19
406.66	8079.19
406.883	7960.19
407.107	8552.19
407.331	9124.19
407.555	9577.19
407.778	9234.19
408.002	8492.19
408.226	8095.19
408.449	7920.19
408.673	7806.19
408.896	8017.19
409.12	8215.19
409.344	7645.19
409.567	7384.19
409.791	7345.19
410.014	7230.19
410.238	7086.19
410.461	7212.19
410.685	7259.19
410.908	7388.19
411.132	7675.19
411.355	7588.19
411.578	7335.19
411.802	7257.19
412.025	7425.19
412.249	8066.19
412.472	8740.19
412.695	9423.19
412.919	8667.19
413.142	8032.19
413.365	7567.19
413.589	7305.19
413.812	6979.19
414.035	6900.19
414.258	6909.19
414.482	6915.19
414.705	6794.19
414.928	6810.19
415.151	6766.19
415.374	6657.19
415.597	6680.19
415.821	6571.19
416.044	6632.19
416.267	6534.19
416.49	6501.19
416.713	6467.19
416.936	6600.19
417.159	6606.19
417.382	6839.19
417.605	6983.19
417.828	7114.19
418.051	6945.19
418.274	6765.19
418.497	6685.19
418.72	6810.19
418.943	6736.19
419.166	7241.19
419.389	7606.19
419.611	7648.19
419.834	7728.19
420.057	7919.19
420.28	8184.19
420.503	7956.19
420.726	7609.19
420.948	7476.19
421.171	7716.19
421.394	7525.19
421.617	6912.19
421.839	6869.19
422.062	6910.19
422.285	7017.19
422.507	7619.19
422.73	8208.19
422.953	7560.19
423.175	7152.19
423.398	7169.19
423.621	7180.19
423.843	7360.19
424.066	7311.19
424.288	7225.19
424.511	7439.19
424.733	8006.19
424.956	8472.19
425.178	7868.19
425.401	8059.19
425.623	7954.19
425.846	6956.19
426.068	6778.19
426.291	6733.19
426.513	6748.19
426.735	6856.19
426.958	7337.19
427.18	8204.19
427.402	9648.19
427.625	10068.19
427.847	9542.19
428.069	9211.19
428.292	7635.19
428.514	6661.19
428.736	6418.19
428.958	6310.19
429.181	6079.19
429.403	5992.19
429.625	6209.19
429.847	6479.19
430.069	7099.19
430.292	6558.19
430.514	5978.19
430.736	5971.19
430.958	5915.19
431.18	5825.19
431.402	5820.19
431.624	5733.19
431.846	5875.19
432.068	5881.19
432.29	5983.19
432.512	5854.19
432.734	5924.19
432.956	5965.19
433.178	5976.19
433.4	5985.19
433.622	5884.19
433.844	5906.19
434.066	5957.19
434.287	6036.19
434.509	6206.19
434.731	6441.19
434.953	6633.19
435.175	6694.19
435.397	6807.19
435.618	6710.19
435.84	7161.19
436.062	8050.19
436.284	8013.19
436.505	6736.19
436.727	6359.19
436.949	6096.19
437.17	5952.19
437.392	5899.19
437.614	6112.19
437.835	6561.19
438.057	7613.19
438.278	8250.19
438.5	8011.19
438.721	9070.19
438.943	7672.19
439.165	6400.19
439.386	6352.19
439.608	6375.19
439.829	6565.19
440.05	7018.19
440.272	7316.19
440.493	6626.19
440.715	6188.19
440.936	6223.19
441.158	6225.19
441.379	6350.19
441.6	6640.19
441.822	6982.19
442.043	7426.19
442.264	8271.19
442.486	7906.19
442.707	6942.19
442.928	6775.19
443.149	7102.19
443.371	7320.19
443.592	7822.19
443.813	8894.19
444.034	8737.19
444.255	7559.19
444.476	7314.19
444.698	7520.19
444.919	7576.19
445.14	7512.19
445.361	7416.19
445.582	7703.19
445.803	8462.19
446.024	9096.19
446.245	8723.19
446.466	7666.19
446.687	6621.19
446.908	6178.19
447.129	5959.19
447.35	5880.19
447.571	5783.19
447.792	5698.19
448.013	5726.19
448.234	5961.19
448.455	6663.19
448.675	7937.19
448.896	8426.19
449.117	6844.19
449.338	7145.19
449.559	8564.19
449.779	8782.19
450	6617.19
450.221	5796.19
450.442	5582.19
450.662	5568.19
450.883	5682.19
451.104	5801.19
451.324	5664.19
451.545	5509.19
451.766	5382.19
451.986	5199.19
452.207	5214.19
452.428	5112.19
452.648	5210.19
452.869	5273.19
453.089	5327.19
453.31	5400.19
453.53	5204.19
453.751	5145.19
453.971	5230.19
454.192	5381.19
454.412	5091.19
454.633	5068.19
454.853	5024.19
455.073	5088.19
455.294	5551.19
455.514	6060.19
455.734	5523.19
455.955	4903.19
456.175	4866.19
456.395	4770.19
456.616	4850.19
456.836	4778.19
457.056	4781.19
457.276	4780.19
457.497	4911.19
457.717	4887.19
457.937	5009.19
458.157	4982.19
458.377	5153.19
458.598	5553.19
458.818	6256.19
459.038	7141.19
459.258	6902.19
459.478	6098.19
459.698	5980.19
459.918	5982.19
460.138	6163.19
460.358	6437.19
460.578	6472.19
460.798	6505.19
461.018	6540.19
461.238	6384.19
461.458	6320.19
461.678	6310.19
461.898	6476.19
462.118	6473.19
462.338	6804.19
462.558	6947.19
462.777	7229.19
462.997	7779.19
463.217	8186.19
463.437	7965.19
463.657	7482.19
463.876	7351.19
464.096	7270.19
464.316	7336.19
464.536	7402.19
464.755	7169.19
464.975	7076.19
465.195	7405.19
465.414	7468.19
465.634	6504.19
465.854	6124.19
466.073	5892.19
466.293	5761.19
466.512	5547.19
466.732	5460.19
466.951	5492.19
467.171	5480.19
467.391	5640.19
467.61	5734.19
467.829	5968.19
468.049	7024.19
468.268	8330.19
468.488	6646.19
468.707	5932.19
468.927	5615.19
469.146	5507.19
469.365	5606.19
469.585	5520.19
469.804	5638.19
470.023	5812.19
470.243	5748.19
470.462	5882.19
470.681	6037.19
470.901	5893.19
471.12	5784.19
471.339	5796.19
471.558	5828.19
471.777	6037.19
471.997	6606.19
472.216	9264.19
472.435	13729.19
472.654	10212.19
472.873	7554.19
473.092	6726.19
473.311	6261.19
473.53	6017.19
473.749	5994.19
473.968	6501.19
474.187	7510.19
474.406	6865.19
474.625	5853.19
474.844	5650.19
475.063	5504.19
475.282	5499.19
475.501	5552.19
475.72	5505.19
475.939	5564.19
476.158	5661.19
476.377	5581.19
476.596	5659.19
476.814	5737.19
477.033	5806.19
477.252	5899.19
477.471	5962.19
477.69	6157.19
477.908	6146.19
478.127	6372.19
478.346	6435.19
478.564	6519.19
478.783	6599.19
479.002	6835.19
479.22	6860.19
479.439	6905.19
479.658	7169.19
479.876	7228.19
480.095	7555.19
480.313	8095.19
480.532	8161.19
480.751	8731.19
480.969	11406.19
481.188	15626.19
481.406	15626.19
481.624	13284.19
481.843	9840.19
482.061	8736.19
482.28	8043.19
482.498	7656.19
482.717	7358.19
482.935	7151.19
483.153	7061.19
483.372	6874.19
483.59	6718.19
483.808	6738.19
484.027	6677.19
484.245	6752.19
484.463	6756.19
484.681	6783.19
484.9	6818.19
485.118	6812.19
485.336	6860.19
485.554	6959.19
485.772	6899.19
485.99	6896.19
486.209	7039.19
486.427	6974.19
486.645	6937.19
486.863	7252.19
487.081	7126.19
487.299	7109.19
487.517	7083.19
