Data from Circ_1989_H10_HRD10591_00010.txt Node
Date: Wed Jan 03 12:01:23 EST 2024
User: Yrep
Spectrometer: HR+D1059
Trigger mode: 1
Integration Time (sec): 1.000000E-1
Scans to average: 1
Electric dark correction enabled: true
Nonlinearity correction enabled: false
Boxcar width: 0
XAxis mode: Wavelengths
Number of Pixels in Spectrum: 2048
>>>>>Begin Spectral Data<<<<<
223.165	-22.31
223.4	-22.31
223.635	-22.31
223.869	-27.31
224.104	-21.31
224.338	-12.31
224.573	-7.31
224.808	-7.31
225.042	-14.31
225.277	-8.31
225.511	-7.31
225.746	2.69
225.98	18.69
226.215	11.69
226.449	15.69
226.683	30.69
226.918	24.69
227.152	23.69
227.387	35.69
227.621	36.69
227.856	42.69
228.09	38.69
228.324	50.69
228.559	49.69
228.793	69.69
229.027	59.69
229.262	58.69
229.496	56.69
229.73	72.69
229.964	78.69
230.199	71.69
230.433	77.69
230.667	87.69
230.901	87.69
231.136	91.69
231.37	92.69
231.604	77.69
231.838	79.69
232.072	78.69
232.306	84.69
232.541	83.69
232.775	83.69
233.009	80.69
233.243	83.69
233.477	71.69
233.711	89.69
233.945	96.69
234.179	84.69
234.413	91.69
234.647	80.69
234.881	74.69
235.115	70.69
235.349	85.69
235.583	75.69
235.817	79.69
236.051	76.69
236.285	81.69
236.519	66.69
236.753	87.69
236.987	83.69
237.221	78.69
237.455	76.69
237.689	64.69
237.922	56.69
238.156	72.69
238.39	69.69
238.624	75.69
238.858	79.69
239.091	69.69
239.325	52.69
239.559	66.69
239.793	96.69
240.027	75.69
240.26	78.69
240.494	77.69
240.728	67.69
240.961	82.69
241.195	88.69
241.429	68.69
241.662	76.69
241.896	69.69
242.13	72.69
242.363	73.69
242.597	79.69
242.83	72.69
243.064	81.69
243.298	75.69
243.531	63.69
243.765	76.69
243.998	81.69
244.232	98.69
244.465	91.69
244.699	79.69
244.932	70.69
245.166	79.69
245.399	81.69
245.633	80.69
245.866	75.69
246.099	77.69
246.333	69.69
246.566	81.69
246.8	85.69
247.033	82.69
247.266	71.69
247.5	87.69
247.733	78.69
247.966	69.69
248.2	71.69
248.433	79.69
248.666	71.69
248.899	74.69
249.133	80.69
249.366	105.69
249.599	88.69
249.832	70.69
250.066	75.69
250.299	83.69
250.532	72.69
250.765	70.69
250.998	80.69
251.231	69.69
251.465	91.69
251.698	86.69
251.931	77.69
252.164	67.69
252.397	71.69
252.63	85.69
252.863	75.69
253.096	80.69
253.329	90.69
253.562	77.69
253.795	96.69
254.028	84.69
254.261	81.69
254.494	95.69
254.727	78.69
254.96	85.69
255.193	85.69
255.426	86.69
255.659	79.69
255.892	80.69
256.124	86.69
256.357	72.69
256.59	84.69
256.823	88.69
257.056	85.69
257.289	83.69
257.521	98.69
257.754	70.69
257.987	80.69
258.22	78.69
258.452	69.69
258.685	77.69
258.918	79.69
259.151	78.69
259.383	84.69
259.616	81.69
259.849	82.69
260.081	86.69
260.314	84.69
260.547	98.69
260.779	82.69
261.012	80.69
261.244	67.69
261.477	92.69
261.71	79.69
261.942	95.69
262.175	117.69
262.407	73.69
262.64	87.69
262.872	91.69
263.105	103.69
263.337	80.69
263.57	96.69
263.802	85.69
264.035	84.69
264.267	78.69
264.499	85.69
264.732	72.69
264.964	83.69
265.197	81.69
265.429	76.69
265.661	87.69
265.894	89.69
266.126	82.69
266.358	80.69
266.591	96.69
266.823	71.69
267.055	76.69
267.287	82.69
267.52	80.69
267.752	90.69
267.984	94.69
268.216	83.69
268.448	68.69
268.681	96.69
268.913	92.69
269.145	79.69
269.377	93.69
269.609	80.69
269.841	75.69
270.073	75.69
270.306	88.69
270.538	92.69
270.77	95.69
271.002	72.69
271.234	79.69
271.466	91.69
271.698	70.69
271.93	80.69
272.162	79.69
272.394	72.69
272.626	79.69
272.858	78.69
273.09	96.69
273.322	90.69
273.553	87.69
273.785	75.69
274.017	91.69
274.249	96.69
274.481	75.69
274.713	79.69
274.945	87.69
275.176	91.69
275.408	83.69
275.64	78.69
275.872	93.69
276.104	85.69
276.335	81.69
276.567	82.69
276.799	94.69
277.031	116.69
277.262	99.69
277.494	76.69
277.726	100.69
277.957	96.69
278.189	81.69
278.421	87.69
278.652	82.69
278.884	83.69
279.115	80.69
279.347	77.69
279.579	93.69
279.81	83.69
280.042	110.69
280.273	103.69
280.505	103.69
280.736	96.69
280.968	80.69
281.199	75.69
281.431	91.69
281.662	83.69
281.894	85.69
282.125	92.69
282.356	107.69
282.588	128.69
282.819	108.69
283.051	80.69
283.282	85.69
283.513	83.69
283.745	93.69
283.976	89.69
284.207	85.69
284.439	84.69
284.67	84.69
284.901	70.69
285.132	94.69
285.364	74.69
285.595	85.69
285.826	92.69
286.057	76.69
286.288	80.69
286.52	102.69
286.751	92.69
286.982	88.69
287.213	86.69
287.444	73.69
287.675	95.69
287.906	97.69
288.138	97.69
288.369	75.69
288.6	95.69
288.831	86.69
289.062	100.69
289.293	84.69
289.524	99.69
289.755	93.69
289.986	91.69
290.217	96.69
290.448	91.69
290.679	85.69
290.91	85.69
291.141	88.69
291.371	98.69
291.602	82.69
291.833	100.69
292.064	89.69
292.295	101.69
292.526	88.69
292.757	92.69
292.987	95.69
293.218	85.69
293.449	84.69
293.68	87.69
293.91	82.69
294.141	88.69
294.372	81.69
294.603	100.69
294.833	89.69
295.064	89.69
295.295	72.69
295.525	93.69
295.756	90.69
295.987	129.69
296.217	132.69
296.448	112.69
296.679	93.69
296.909	75.69
297.14	84.69
297.37	97.69
297.601	91.69
297.831	101.69
298.062	104.69
298.292	91.69
298.523	85.69
298.753	92.69
298.984	81.69
299.214	91.69
299.445	83.69
299.675	97.69
299.905	90.69
300.136	93.69
300.366	82.69
300.597	81.69
300.827	87.69
301.057	93.69
301.288	93.69
301.518	77.69
301.748	100.69
301.979	98.69
302.209	84.69
302.439	89.69
302.669	87.69
302.9	79.69
303.13	88.69
303.36	88.69
303.59	101.69
303.82	106.69
304.051	99.69
304.281	92.69
304.511	98.69
304.741	84.69
304.971	84.69
305.201	87.69
305.431	89.69
305.661	99.69
305.891	91.69
306.121	87.69
306.352	110.69
306.582	95.69
306.812	104.69
307.042	101.69
307.272	97.69
307.502	101.69
307.731	103.69
307.961	114.69
308.191	105.69
308.421	83.69
308.651	93.69
308.881	95.69
309.111	105.69
309.341	93.69
309.571	91.69
309.8	93.69
310.03	96.69
310.26	88.69
310.49	94.69
310.72	96.69
310.949	93.69
311.179	88.69
311.409	90.69
311.639	85.69
311.868	86.69
312.098	96.69
312.328	92.69
312.557	104.69
312.787	109.69
313.017	94.69
313.246	96.69
313.476	91.69
313.706	90.69
313.935	78.69
314.165	89.69
314.394	93.69
314.624	91.69
314.853	99.69
315.083	93.69
315.312	97.69
315.542	97.69
315.771	93.69
316.001	87.69
316.23	97.69
316.46	78.69
316.689	82.69
316.919	86.69
317.148	100.69
317.377	85.69
317.607	84.69
317.836	82.69
318.065	101.69
318.295	88.69
318.524	88.69
318.753	84.69
318.983	99.69
319.212	93.69
319.441	109.69
319.67	108.69
319.9	94.69
320.129	96.69
320.358	108.69
320.587	105.69
320.816	96.69
321.046	102.69
321.275	94.69
321.504	92.69
321.733	71.69
321.962	91.69
322.191	111.69
322.42	99.69
322.649	101.69
322.878	106.69
323.108	97.69
323.337	118.69
323.566	113.69
323.795	132.69
324.024	179.69
324.253	321.69
324.482	617.69
324.71	1237.69
324.939	1611.69
325.168	628.69
325.397	216.69
325.626	140.69
325.855	133.69
326.084	107.69
326.313	120.69
326.542	142.69
326.77	196.69
326.999	359.69
327.228	717.69
327.457	1250.69
327.686	1053.69
327.914	320.69
328.143	217.69
328.372	193.69
328.6	165.69
328.829	108.69
329.058	118.69
329.287	119.69
329.515	117.69
329.744	127.69
329.972	159.69
330.201	262.69
330.43	335.69
330.658	196.69
330.887	128.69
331.115	115.69
331.344	113.69
331.572	108.69
331.801	100.69
332.03	107.69
332.258	98.69
332.486	98.69
332.715	90.69
332.943	91.69
333.172	104.69
333.4	103.69
333.629	117.69
333.857	136.69
334.085	160.69
334.314	258.69
334.542	423.69
334.771	376.69
334.999	135.69
335.227	112.69
335.455	101.69
335.684	98.69
335.912	103.69
336.14	99.69
336.369	100.69
336.597	104.69
336.825	97.69
337.053	107.69
337.281	98.69
337.51	93.69
337.738	98.69
337.966	95.69
338.194	87.69
338.422	87.69
338.65	83.69
338.878	79.69
339.106	91.69
339.334	94.69
339.562	97.69
339.79	84.69
340.018	73.69
340.246	97.69
340.474	103.69
340.702	83.69
340.93	86.69
341.158	100.69
341.386	94.69
341.614	99.69
341.842	95.69
342.07	84.69
342.298	86.69
342.526	90.69
342.754	105.69
342.981	79.69
343.209	102.69
343.437	96.69
343.665	94.69
343.893	91.69
344.12	96.69
344.348	87.69
344.576	84.69
344.804	73.69
345.031	93.69
345.259	95.69
345.487	83.69
345.714	97.69
345.942	98.69
346.17	99.69
346.397	90.69
346.625	78.69
346.853	88.69
347.08	96.69
347.308	86.69
347.535	111.69
347.763	100.69
347.99	83.69
348.218	101.69
348.445	101.69
348.673	85.69
348.9	88.69
349.128	91.69
349.355	71.69
349.583	94.69
349.81	96.69
350.037	95.69
350.265	80.69
350.492	97.69
350.72	106.69
350.947	100.69
351.174	102.69
351.402	102.69
351.629	94.69
351.856	98.69
352.083	99.69
352.311	105.69
352.538	104.69
352.765	88.69
352.992	110.69
353.22	112.69
353.447	99.69
353.674	88.69
353.901	83.69
354.128	85.69
354.355	80.69
354.583	93.69
354.81	93.69
355.037	88.69
355.264	97.69
355.491	81.69
355.718	93.69
355.945	97.69
356.172	101.69
356.399	109.69
356.626	93.69
356.853	86.69
357.08	86.69
357.307	91.69
357.534	85.69
357.761	100.69
357.988	105.69
358.215	95.69
358.441	97.69
358.668	89.69
358.895	97.69
359.122	94.69
359.349	91.69
359.576	102.69
359.802	99.69
360.029	100.69
360.256	93.69
360.483	94.69
360.709	94.69
360.936	95.69
361.163	90.69
361.39	103.69
361.616	89.69
361.843	92.69
362.07	96.69
362.296	101.69
362.523	81.69
362.749	94.69
362.976	95.69
363.203	88.69
363.429	96.69
363.656	80.69
363.882	83.69
364.109	96.69
364.335	98.69
364.562	96.69
364.788	85.69
365.015	99.69
365.241	100.69
365.468	107.69
365.694	96.69
365.92	86.69
366.147	90.69
366.373	93.69
366.599	84.69
366.826	96.69
367.052	97.69
367.278	79.69
367.505	93.69
367.731	89.69
367.957	91.69
368.184	94.69
368.41	94.69
368.636	107.69
368.862	94.69
369.089	98.69
369.315	98.69
369.541	103.69
369.767	86.69
369.993	97.69
370.219	88.69
370.445	91.69
370.672	71.69
370.898	91.69
371.124	87.69
371.35	88.69
371.576	94.69
371.802	90.69
372.028	93.69
372.254	102.69
372.48	93.69
372.706	83.69
372.932	84.69
373.158	86.69
373.384	86.69
373.61	87.69
373.835	95.69
374.061	92.69
374.287	86.69
374.513	86.69
374.739	72.69
374.965	95.69
375.191	85.69
375.416	87.69
375.642	92.69
375.868	94.69
376.094	94.69
376.319	103.69
376.545	82.69
376.771	95.69
376.997	87.69
377.222	94.69
377.448	90.69
377.674	98.69
377.899	80.69
378.125	103.69
378.35	96.69
378.576	91.69
378.802	96.69
379.027	90.69
379.253	94.69
379.478	92.69
379.704	94.69
379.929	106.69
380.155	95.69
380.38	91.69
380.606	91.69
380.831	101.69
381.057	99.69
381.282	106.69
381.507	96.69
381.733	91.69
381.958	96.69
382.184	99.69
382.409	97.69
382.634	113.69
382.86	116.69
383.085	107.69
383.31	100.69
383.535	103.69
383.761	109.69
383.986	99.69
384.211	111.69
384.436	118.69
384.662	121.69
384.887	110.69
385.112	143.69
385.337	123.69
385.562	112.69
385.787	119.69
386.013	127.69
386.238	134.69
386.463	96.69
386.688	124.69
386.913	134.69
387.138	143.69
387.363	108.69
387.588	107.69
387.813	108.69
388.038	122.69
388.263	142.69
388.488	133.69
388.713	88.69
388.938	98.69
389.163	96.69
389.387	92.69
389.612	86.69
389.837	98.69
390.062	99.69
390.287	99.69
390.512	92.69
390.736	90.69
390.961	90.69
391.186	100.69
391.411	101.69
391.636	88.69
391.86	83.69
392.085	88.69
392.31	84.69
392.534	76.69
392.759	80.69
392.984	93.69
393.208	101.69
393.433	109.69
393.658	111.69
393.882	93.69
394.107	86.69
394.331	83.69
394.556	93.69
394.78	92.69
395.005	91.69
395.229	85.69
395.454	83.69
395.678	90.69
395.903	92.69
396.127	95.69
396.352	88.69
396.576	85.69
396.801	107.69
397.025	95.69
397.249	95.69
397.474	91.69
397.698	93.69
397.922	86.69
398.147	89.69
398.371	69.69
398.595	78.69
398.82	75.69
399.044	78.69
399.268	95.69
399.492	85.69
399.717	93.69
399.941	108.69
400.165	89.69
400.389	84.69
400.613	74.69
400.837	89.69
401.062	85.69
401.286	82.69
401.51	93.69
401.734	89.69
401.958	99.69
402.182	110.69
402.406	130.69
402.63	104.69
402.854	100.69
403.078	96.69
403.302	80.69
403.526	87.69
403.75	83.69
403.974	101.69
404.198	91.69
404.422	93.69
404.645	87.69
404.869	82.69
405.093	104.69
405.317	80.69
405.541	114.69
405.765	109.69
405.988	110.69
406.212	157.69
406.436	198.69
406.66	137.69
406.883	105.69
407.107	81.69
407.331	101.69
407.555	82.69
407.778	87.69
408.002	86.69
408.226	84.69
408.449	98.69
408.673	79.69
408.896	77.69
409.12	92.69
409.344	98.69
409.567	87.69
409.791	89.69
410.014	94.69
410.238	86.69
410.461	93.69
410.685	93.69
410.908	97.69
411.132	87.69
411.355	94.69
411.578	100.69
411.802	92.69
412.025	101.69
412.249	88.69
412.472	91.69
412.695	103.69
412.919	95.69
413.142	77.69
413.365	88.69
413.589	91.69
413.812	83.69
414.035	88.69
414.258	85.69
414.482	90.69
414.705	86.69
414.928	99.69
415.151	88.69
415.374	94.69
415.597	81.69
415.821	94.69
416.044	81.69
416.267	84.69
416.49	97.69
416.713	87.69
416.936	88.69
417.159	81.69
417.382	87.69
417.605	80.69
417.828	99.69
418.051	86.69
418.274	80.69
418.497	90.69
418.72	89.69
418.943	79.69
419.166	97.69
419.389	93.69
419.611	93.69
419.834	91.69
420.057	91.69
420.28	88.69
420.503	93.69
420.726	97.69
420.948	96.69
421.171	95.69
421.394	88.69
421.617	91.69
421.839	81.69
422.062	90.69
422.285	94.69
422.507	97.69
422.73	104.69
422.953	97.69
423.175	92.69
423.398	96.69
423.621	80.69
423.843	88.69
424.066	83.69
424.288	93.69
424.511	85.69
424.733	85.69
424.956	93.69
425.178	100.69
425.401	108.69
425.623	79.69
425.846	97.69
426.068	79.69
426.291	88.69
426.513	85.69
426.735	83.69
426.958	95.69
427.18	92.69
427.402	121.69
427.625	132.69
427.847	139.69
428.069	127.69
428.292	88.69
428.514	104.69
428.736	90.69
428.958	87.69
429.181	81.69
429.403	78.69
429.625	90.69
429.847	85.69
430.069	93.69
430.292	92.69
430.514	101.69
430.736	91.69
430.958	92.69
431.18	83.69
431.402	83.69
431.624	72.69
431.846	79.69
432.068	83.69
432.29	89.69
432.512	95.69
432.734	86.69
432.956	99.69
433.178	89.69
433.4	90.69
433.622	100.69
433.844	86.69
434.066	102.69
434.287	98.69
434.509	79.69
434.731	88.69
434.953	107.69
435.175	87.69
435.397	93.69
435.618	76.69
435.84	93.69
436.062	107.69
436.284	101.69
436.505	102.69
436.727	91.69
436.949	91.69
437.17	92.69
437.392	94.69
437.614	88.69
437.835	93.69
438.057	106.69
438.278	99.69
438.5	91.69
438.721	113.69
438.943	93.69
439.165	91.69
439.386	86.69
439.608	88.69
439.829	85.69
440.05	116.69
440.272	110.69
440.493	93.69
440.715	85.69
440.936	62.69
441.158	88.69
441.379	83.69
441.6	103.69
441.822	94.69
442.043	102.69
442.264	80.69
442.486	100.69
442.707	87.69
442.928	92.69
443.149	98.69
443.371	114.69
443.592	100.69
443.813	102.69
444.034	106.69
444.255	99.69
444.476	100.69
444.698	89.69
444.919	74.69
445.14	129.69
445.361	102.69
445.582	109.69
445.803	127.69
446.024	128.69
446.245	111.69
446.466	98.69
446.687	92.69
446.908	86.69
447.129	85.69
447.35	90.69
447.571	79.69
447.792	88.69
448.013	78.69
448.234	99.69
448.455	88.69
448.675	98.69
448.896	90.69
449.117	99.69
449.338	89.69
449.559	111.69
449.779	119.69
450	102.69
450.221	90.69
450.442	96.69
450.662	93.69
450.883	99.69
451.104	106.69
451.324	102.69
451.545	83.69
451.766	102.69
451.986	91.69
452.207	86.69
452.428	88.69
452.648	99.69
452.869	112.69
453.089	115.69
453.31	111.69
453.53	86.69
453.751	84.69
453.971	80.69
454.192	103.69
454.412	84.69
454.633	81.69
454.853	88.69
455.073	88.69
455.294	80.69
455.514	107.69
455.734	77.69
455.955	76.69
456.175	91.69
456.395	88.69
456.616	92.69
456.836	78.69
457.056	96.69
457.276	82.69
457.497	79.69
457.717	72.69
457.937	87.69
458.157	89.69
458.377	100.69
458.598	113.69
458.818	115.69
459.038	143.69
459.258	102.69
459.478	79.69
459.698	95.69
459.918	89.69
460.138	90.69
460.358	103.69
460.578	84.69
460.798	97.69
461.018	89.69
461.238	77.69
461.458	85.69
461.678	84.69
461.898	100.69
462.118	96.69
462.338	82.69
462.558	67.69
462.777	75.69
462.997	65.69
463.217	95.69
463.437	91.69
463.657	85.69
463.876	79.69
464.096	79.69
464.316	87.69
464.536	86.69
464.755	93.69
464.975	96.69
465.195	131.69
465.414	135.69
465.634	85.69
465.854	84.69
466.073	91.69
466.293	92.69
466.512	93.69
466.732	76.69
466.951	83.69
467.171	98.69
467.391	94.69
467.61	124.69
467.829	109.69
468.049	180.69
468.268	220.69
468.488	100.69
468.707	86.69
468.927	83.69
469.146	92.69
469.365	87.69
469.585	96.69
469.804	105.69
470.023	101.69
470.243	84.69
470.462	93.69
470.681	96.69
470.901	81.69
471.12	82.69
471.339	96.69
471.558	96.69
471.777	90.69
471.997	126.69
472.216	297.69
472.435	577.69
472.654	195.69
472.873	106.69
473.092	100.69
473.311	79.69
473.53	98.69
473.749	91.69
473.968	88.69
474.187	91.69
474.406	87.69
474.625	91.69
474.844	102.69
475.063	77.69
475.282	83.69
475.501	85.69
475.72	97.69
475.939	83.69
476.158	83.69
476.377	83.69
476.596	85.69
476.814	96.69
477.033	93.69
477.252	87.69
477.471	87.69
477.69	95.69
477.908	102.69
478.127	77.69
478.346	93.69
478.564	95.69
478.783	87.69
479.002	100.69
479.22	94.69
479.439	102.69
479.658	95.69
479.876	95.69
480.095	83.69
480.313	83.69
480.532	103.69
480.751	132.69
480.969	304.69
481.188	971.69
481.406	572.69
481.624	128.69
481.843	101.69
482.061	88.69
482.28	95.69
482.498	98.69
482.717	100.69
482.935	78.69
483.153	93.69
483.372	88.69
483.59	83.69
483.808	79.69
484.027	93.69
484.245	83.69
484.463	89.69
484.681	107.69
484.9	87.69
485.118	96.69
485.336	93.69
485.554	95.69
485.772	93.69
485.99	101.69
486.209	107.69
486.427	111.69
486.645	100.69
486.863	115.69
487.081	111.69
487.299	101.69
487.517	96.69
487.735	81.69
487.953	75.69
488.171	91.69
488.389	96.69
488.607	91.69
488.825	99.69
489.043	80.69
489.261	91.69
489.479	96.69
489.696	77.69
489.914	83.69
490.132	85.69
490.35	88.69
490.568	93.69
490.786	92.69
491.003	91.69
491.221	87.69
491.439	83.69
491.657	99.69
491.874	92.69
492.092	87.69
492.31	102.69
492.527	109.69
492.745	98.69
492.963	100.69
493.18	78.69
493.398	85.69
493.615	87.69
493.833	81.69
494.05	89.69
494.268	81.69
494.485	81.69
494.703	81.69
494.92	71.69
495.138	91.69
495.355	75.69
495.573	97.69
495.79	95.69
496.008	85.69
496.225	89.69
496.442	103.69
496.66	92.69
496.877	102.69
497.094	84.69
497.312	84.69
497.529	103.69
497.746	98.69
497.963	101.69
498.181	96.69
498.398	91.69
498.615	95.69
498.832	100.69
499.049	91.69
499.267	92.69
499.484	88.69
499.701	95.69
499.918	89.69
500.135	88.69
500.352	79.69
500.569	95.69
500.786	97.69
501.003	85.69
501.22	77.69
501.437	92.69
501.654	94.69
501.871	93.69
502.088	92.69
502.305	95.69
502.522	78.69
502.739	69.69
502.956	83.69
503.172	86.69
503.389	101.69
503.606	95.69
503.823	94.69
504.04	91.69
504.256	97.69
504.473	77.69
504.69	87.69
504.907	66.69
505.123	82.69
505.34	89.69
505.557	91.69
505.773	86.69
505.99	87.69
506.207	96.69
506.423	75.69
506.64	87.69
506.856	79.69
507.073	86.69
507.289	87.69
507.506	97.69
507.722	102.69
507.939	112.69
508.155	96.69
508.372	99.69
508.588	90.69
508.805	85.69
509.021	75.69
509.238	84.69
509.454	94.69
509.67	101.69
509.887	113.69
510.103	109.69
510.319	175.69
510.536	594.69
510.752	1827.69
510.968	534.69
511.184	153.69
511.401	105.69
511.617	95.69
511.833	85.69
512.049	86.69
512.265	102.69
512.481	96.69
512.698	79.69
512.914	89.69
513.13	88.69
513.346	79.69
513.562	96.69
513.778	99.69
513.994	87.69
514.21	80.69
514.426	112.69
514.642	109.69
514.858	117.69
515.074	150.69
515.29	364.69
515.506	1079.69
515.721	415.69
515.937	130.69
