Data from Circ_1989_H10_HRD10591_00047.txt Node
Date: Wed Jan 03 12:01:31 EST 2024
User: Yrep
Spectrometer: HR+D1059
Trigger mode: 1
Integration Time (sec): 1.000000E-1
Scans to average: 1
Electric dark correction enabled: true
Nonlinearity correction enabled: false
Boxcar width: 0
XAxis mode: Wavelengths
Number of Pixels in Spectrum: 2048
>>>>>Begin Spectral Data<<<<<
223.165	-15.88
223.4	-15.88
223.635	-15.88
223.869	-18.88
224.104	-20.88
224.338	-5.88
224.573	-6.88
224.808	-2.88
225.042	-20.88
225.277	-3.88
225.511	1.12
225.746	-3.88
225.98	0.12
226.215	9.12
226.449	20.12
226.683	6.12
226.918	36.12
227.152	27.12
227.387	36.12
227.621	32.12
227.856	39.12
228.09	37.12
228.324	51.12
228.559	70.12
228.793	68.12
229.027	72.12
229.262	65.12
229.496	73.12
229.73	72.12
229.964	81.12
230.199	82.12
230.433	91.12
230.667	87.12
230.901	67.12
231.136	74.12
231.37	71.12
231.604	80.12
231.838	83.12
232.072	76.12
232.306	72.12
232.541	78.12
232.775	86.12
233.009	88.12
233.243	81.12
233.477	91.12
233.711	85.12
233.945	75.12
234.179	72.12
234.413	86.12
234.647	91.12
234.881	101.12
235.115	88.12
235.349	77.12
235.583	70.12
235.817	72.12
236.051	85.12
236.285	87.12
236.519	79.12
236.753	90.12
236.987	75.12
237.221	73.12
237.455	82.12
237.689	70.12
237.922	64.12
238.156	84.12
238.39	68.12
238.624	74.12
238.858	76.12
239.091	83.12
239.325	76.12
239.559	94.12
239.793	60.12
240.027	86.12
240.26	76.12
240.494	92.12
240.728	68.12
240.961	75.12
241.195	80.12
241.429	84.12
241.662	74.12
241.896	78.12
242.13	80.12
242.363	80.12
242.597	87.12
242.83	84.12
243.064	91.12
243.298	86.12
243.531	81.12
243.765	76.12
243.998	75.12
244.232	84.12
244.465	75.12
244.699	88.12
244.932	80.12
245.166	84.12
245.399	83.12
245.633	83.12
245.866	83.12
246.099	95.12
246.333	80.12
246.566	88.12
246.8	74.12
247.033	80.12
247.266	79.12
247.5	85.12
247.733	73.12
247.966	85.12
248.2	63.12
248.433	83.12
248.666	86.12
248.899	87.12
249.133	88.12
249.366	79.12
249.599	97.12
249.832	86.12
250.066	83.12
250.299	73.12
250.532	75.12
250.765	76.12
250.998	98.12
251.231	86.12
251.465	75.12
251.698	64.12
251.931	88.12
252.164	84.12
252.397	81.12
252.63	94.12
252.863	80.12
253.096	91.12
253.329	97.12
253.562	85.12
253.795	94.12
254.028	96.12
254.261	81.12
254.494	85.12
254.727	69.12
254.96	89.12
255.193	86.12
255.426	84.12
255.659	84.12
255.892	78.12
256.124	84.12
256.357	87.12
256.59	91.12
256.823	89.12
257.056	82.12
257.289	83.12
257.521	80.12
257.754	79.12
257.987	83.12
258.22	81.12
258.452	73.12
258.685	88.12
258.918	88.12
259.151	69.12
259.383	85.12
259.616	94.12
259.849	81.12
260.081	80.12
260.314	82.12
260.547	87.12
260.779	88.12
261.012	88.12
261.244	89.12
261.477	94.12
261.71	109.12
261.942	111.12
262.175	104.12
262.407	103.12
262.64	92.12
262.872	78.12
263.105	79.12
263.337	88.12
263.57	96.12
263.802	74.12
264.035	81.12
264.267	87.12
264.499	83.12
264.732	78.12
264.964	83.12
265.197	76.12
265.429	79.12
265.661	94.12
265.894	100.12
266.126	87.12
266.358	84.12
266.591	76.12
266.823	83.12
267.055	88.12
267.287	67.12
267.52	81.12
267.752	73.12
267.984	90.12
268.216	87.12
268.448	80.12
268.681	83.12
268.913	92.12
269.145	87.12
269.377	83.12
269.609	97.12
269.841	82.12
270.073	88.12
270.306	85.12
270.538	98.12
270.77	79.12
271.002	86.12
271.234	95.12
271.466	86.12
271.698	85.12
271.93	93.12
272.162	88.12
272.394	102.12
272.626	81.12
272.858	85.12
273.09	74.12
273.322	81.12
273.553	80.12
273.785	102.12
274.017	88.12
274.249	94.12
274.481	75.12
274.713	86.12
274.945	82.12
275.176	86.12
275.408	87.12
275.64	101.12
275.872	95.12
276.104	103.12
276.335	87.12
276.567	97.12
276.799	101.12
277.031	105.12
277.262	112.12
277.494	97.12
277.726	90.12
277.957	81.12
278.189	93.12
278.421	88.12
278.652	97.12
278.884	94.12
279.115	79.12
279.347	91.12
279.579	82.12
279.81	90.12
280.042	101.12
280.273	130.12
280.505	97.12
280.736	113.12
280.968	97.12
281.199	84.12
281.431	98.12
281.662	91.12
281.894	102.12
282.125	92.12
282.356	115.12
282.588	117.12
282.819	113.12
283.051	95.12
283.282	84.12
283.513	81.12
283.745	80.12
283.976	79.12
284.207	79.12
284.439	92.12
284.67	94.12
284.901	82.12
285.132	79.12
285.364	103.12
285.595	96.12
285.826	96.12
286.057	89.12
286.288	75.12
286.52	93.12
286.751	79.12
286.982	80.12
287.213	87.12
287.444	90.12
287.675	87.12
287.906	97.12
288.138	87.12
288.369	97.12
288.6	98.12
288.831	87.12
289.062	87.12
289.293	94.12
289.524	86.12
289.755	87.12
289.986	67.12
290.217	98.12
290.448	107.12
290.679	106.12
290.91	98.12
291.141	90.12
291.371	94.12
291.602	93.12
291.833	80.12
292.064	86.12
292.295	93.12
292.526	83.12
292.757	82.12
292.987	90.12
293.218	92.12
293.449	103.12
293.68	93.12
293.91	97.12
294.141	82.12
294.372	105.12
294.603	91.12
294.833	81.12
295.064	87.12
295.295	87.12
295.525	97.12
295.756	88.12
295.987	114.12
296.217	114.12
296.448	114.12
296.679	90.12
296.909	94.12
297.14	94.12
297.37	86.12
297.601	96.12
297.831	88.12
298.062	90.12
298.292	108.12
298.523	91.12
298.753	78.12
298.984	78.12
299.214	67.12
299.445	114.12
299.675	101.12
299.905	104.12
300.136	81.12
300.366	79.12
300.597	106.12
300.827	91.12
301.057	86.12
301.288	89.12
301.518	85.12
301.748	89.12
301.979	98.12
302.209	98.12
302.439	85.12
302.669	98.12
302.9	92.12
303.13	86.12
303.36	102.12
303.59	101.12
303.82	102.12
304.051	91.12
304.281	82.12
304.511	85.12
304.741	92.12
304.971	102.12
305.201	96.12
305.431	95.12
305.661	94.12
305.891	76.12
306.121	109.12
306.352	106.12
306.582	111.12
306.812	99.12
307.042	102.12
307.272	118.12
307.502	122.12
307.731	115.12
307.961	110.12
308.191	110.12
308.421	98.12
308.651	98.12
308.881	93.12
309.111	93.12
309.341	86.12
309.571	87.12
309.8	96.12
310.03	105.12
310.26	115.12
310.49	100.12
310.72	105.12
310.949	107.12
311.179	95.12
311.409	79.12
311.639	90.12
311.868	86.12
312.098	89.12
312.328	106.12
312.557	96.12
312.787	106.12
313.017	107.12
313.246	89.12
313.476	106.12
313.706	102.12
313.935	95.12
314.165	87.12
314.394	97.12
314.624	95.12
314.853	99.12
315.083	102.12
315.312	100.12
315.542	96.12
315.771	92.12
316.001	76.12
316.23	99.12
316.46	90.12
316.689	81.12
316.919	85.12
317.148	98.12
317.377	91.12
317.607	86.12
317.836	97.12
318.065	82.12
318.295	81.12
318.524	82.12
318.753	86.12
318.983	93.12
319.212	103.12
319.441	103.12
319.67	95.12
319.9	100.12
320.129	113.12
320.358	98.12
320.587	99.12
320.816	95.12
321.046	101.12
321.275	94.12
321.504	100.12
321.733	103.12
321.962	96.12
322.191	112.12
322.42	86.12
322.649	108.12
322.878	104.12
323.108	113.12
323.337	101.12
323.566	129.12
323.795	124.12
324.024	161.12
324.253	297.12
324.482	590.12
324.71	1174.12
324.939	1578.12
325.168	601.12
325.397	193.12
325.626	133.12
325.855	139.12
326.084	117.12
326.313	116.12
326.542	118.12
326.77	189.12
326.999	342.12
327.228	685.12
327.457	1227.12
327.686	1012.12
327.914	320.12
328.143	235.12
328.372	244.12
328.6	163.12
328.829	116.12
329.058	111.12
329.287	119.12
329.515	136.12
329.744	142.12
329.972	200.12
330.201	334.12
330.43	452.12
330.658	241.12
330.887	132.12
331.115	133.12
331.344	113.12
331.572	108.12
331.801	110.12
332.03	105.12
332.258	91.12
332.486	96.12
332.715	99.12
332.943	100.12
333.172	104.12
333.4	118.12
333.629	114.12
333.857	142.12
334.085	188.12
334.314	322.12
334.542	580.12
334.771	520.12
334.999	188.12
335.227	134.12
335.455	99.12
335.684	105.12
335.912	97.12
336.14	90.12
336.369	98.12
336.597	94.12
336.825	112.12
337.053	98.12
337.281	99.12
337.51	90.12
337.738	90.12
337.966	93.12
338.194	94.12
338.422	91.12
338.65	102.12
338.878	91.12
339.106	83.12
339.334	99.12
339.562	108.12
339.79	103.12
340.018	94.12
340.246	95.12
340.474	104.12
340.702	106.12
340.93	87.12
341.158	89.12
341.386	81.12
341.614	90.12
341.842	91.12
342.07	88.12
342.298	100.12
342.526	85.12
342.754	86.12
342.981	86.12
343.209	90.12
343.437	91.12
343.665	106.12
343.893	85.12
344.12	92.12
344.348	94.12
344.576	82.12
344.804	100.12
345.031	95.12
345.259	96.12
345.487	99.12
345.714	92.12
345.942	95.12
346.17	91.12
346.397	88.12
346.625	88.12
346.853	81.12
347.08	96.12
347.308	99.12
347.535	100.12
347.763	97.12
347.99	92.12
348.218	104.12
348.445	113.12
348.673	89.12
348.9	82.12
349.128	104.12
349.355	89.12
349.583	98.12
349.81	82.12
350.037	109.12
350.265	106.12
350.492	103.12
350.72	92.12
350.947	101.12
351.174	112.12
351.402	100.12
351.629	102.12
351.856	104.12
352.083	98.12
352.311	89.12
352.538	90.12
352.765	113.12
352.992	96.12
353.22	98.12
353.447	93.12
353.674	101.12
353.901	103.12
354.128	101.12
354.355	88.12
354.583	104.12
354.81	90.12
355.037	96.12
355.264	94.12
355.491	92.12
355.718	96.12
355.945	96.12
356.172	91.12
356.399	96.12
356.626	95.12
356.853	95.12
357.08	84.12
357.307	98.12
357.534	91.12
357.761	94.12
357.988	95.12
358.215	101.12
358.441	89.12
358.668	97.12
358.895	95.12
359.122	82.12
359.349	101.12
359.576	90.12
359.802	91.12
360.029	96.12
360.256	94.12
360.483	96.12
360.709	85.12
360.936	95.12
361.163	87.12
361.39	102.12
361.616	91.12
361.843	78.12
362.07	87.12
362.296	90.12
362.523	88.12
362.749	87.12
362.976	107.12
363.203	94.12
363.429	83.12
363.656	82.12
363.882	82.12
364.109	84.12
364.335	97.12
364.562	86.12
364.788	85.12
365.015	96.12
365.241	90.12
365.468	98.12
365.694	101.12
365.92	92.12
366.147	97.12
366.373	90.12
366.599	85.12
366.826	89.12
367.052	90.12
367.278	92.12
367.505	89.12
367.731	94.12
367.957	82.12
368.184	82.12
368.41	88.12
368.636	96.12
368.862	111.12
369.089	92.12
369.315	94.12
369.541	92.12
369.767	94.12
369.993	103.12
370.219	89.12
370.445	81.12
370.672	91.12
370.898	85.12
371.124	82.12
371.35	86.12
371.576	96.12
371.802	84.12
372.028	81.12
372.254	73.12
372.48	94.12
372.706	96.12
372.932	96.12
373.158	88.12
373.384	90.12
373.61	86.12
373.835	95.12
374.061	83.12
374.287	87.12
374.513	98.12
374.739	95.12
374.965	91.12
375.191	91.12
375.416	86.12
375.642	89.12
375.868	81.12
376.094	95.12
376.319	93.12
376.545	90.12
376.771	84.12
376.997	90.12
377.222	94.12
377.448	95.12
377.674	96.12
377.899	90.12
378.125	88.12
378.35	89.12
378.576	87.12
378.802	95.12
379.027	90.12
379.253	103.12
379.478	98.12
379.704	99.12
379.929	91.12
380.155	93.12
380.38	82.12
380.606	97.12
380.831	89.12
381.057	112.12
381.282	102.12
381.507	97.12
381.733	99.12
381.958	104.12
382.184	98.12
382.409	105.12
382.634	111.12
382.86	100.12
383.085	103.12
383.31	94.12
383.535	98.12
383.761	92.12
383.986	101.12
384.211	95.12
384.436	94.12
384.662	110.12
384.887	117.12
385.112	98.12
385.337	101.12
385.562	107.12
385.787	94.12
386.013	107.12
386.238	94.12
386.463	93.12
386.688	107.12
386.913	112.12
387.138	99.12
387.363	97.12
387.588	99.12
387.813	94.12
388.038	87.12
388.263	96.12
388.488	103.12
388.713	95.12
388.938	88.12
389.163	111.12
389.387	90.12
389.612	101.12
389.837	101.12
390.062	108.12
390.287	98.12
390.512	83.12
390.736	97.12
390.961	100.12
391.186	112.12
391.411	98.12
391.636	86.12
391.86	82.12
392.085	99.12
392.31	82.12
392.534	73.12
392.759	89.12
392.984	106.12
393.208	87.12
393.433	100.12
393.658	85.12
393.882	91.12
394.107	86.12
394.331	99.12
394.556	92.12
394.78	99.12
395.005	96.12
395.229	90.12
395.454	72.12
395.678	85.12
395.903	74.12
396.127	91.12
396.352	87.12
396.576	90.12
396.801	93.12
397.025	82.12
397.249	103.12
397.474	101.12
397.698	90.12
397.922	96.12
398.147	78.12
398.371	90.12
398.595	91.12
398.82	91.12
399.044	88.12
399.268	95.12
399.492	99.12
399.717	101.12
399.941	88.12
400.165	87.12
400.389	75.12
400.613	70.12
400.837	82.12
401.062	90.12
401.286	97.12
401.51	87.12
401.734	90.12
401.958	97.12
402.182	101.12
402.406	127.12
402.63	107.12
402.854	87.12
403.078	92.12
403.302	99.12
403.526	85.12
403.75	88.12
403.974	94.12
404.198	88.12
404.422	90.12
404.645	88.12
404.869	93.12
405.093	100.12
405.317	105.12
405.541	111.12
405.765	98.12
405.988	118.12
406.212	132.12
406.436	185.12
406.66	134.12
406.883	90.12
407.107	99.12
407.331	96.12
407.555	102.12
407.778	101.12
408.002	85.12
408.226	94.12
408.449	97.12
408.673	97.12
408.896	95.12
409.12	89.12
409.344	85.12
409.567	84.12
409.791	93.12
410.014	105.12
410.238	99.12
410.461	85.12
410.685	99.12
410.908	95.12
411.132	104.12
411.355	102.12
411.578	77.12
411.802	93.12
412.025	101.12
412.249	95.12
412.472	90.12
412.695	114.12
412.919	104.12
413.142	87.12
413.365	85.12
413.589	84.12
413.812	87.12
414.035	103.12
414.258	97.12
414.482	86.12
414.705	82.12
414.928	90.12
415.151	108.12
415.374	79.12
415.597	94.12
415.821	93.12
416.044	80.12
416.267	87.12
416.49	87.12
416.713	103.12
416.936	88.12
417.159	92.12
417.382	86.12
417.605	115.12
417.828	87.12
418.051	87.12
418.274	102.12
418.497	81.12
418.72	77.12
418.943	97.12
419.166	82.12
419.389	82.12
419.611	87.12
419.834	82.12
420.057	83.12
420.28	66.12
420.503	94.12
420.726	104.12
420.948	90.12
421.171	86.12
421.394	88.12
421.617	95.12
421.839	90.12
422.062	89.12
422.285	87.12
422.507	93.12
422.73	95.12
422.953	94.12
423.175	80.12
423.398	82.12
423.621	83.12
423.843	92.12
424.066	89.12
424.288	81.12
424.511	95.12
424.733	106.12
424.956	107.12
425.178	86.12
425.401	100.12
425.623	93.12
425.846	95.12
426.068	105.12
426.291	90.12
426.513	80.12
426.735	79.12
426.958	93.12
427.18	108.12
427.402	131.12
427.625	141.12
427.847	137.12
428.069	142.12
428.292	101.12
428.514	95.12
428.736	98.12
428.958	82.12
429.181	87.12
429.403	82.12
429.625	91.12
429.847	84.12
430.069	96.12
430.292	96.12
430.514	84.12
430.736	79.12
430.958	85.12
431.18	91.12
431.402	79.12
431.624	85.12
431.846	80.12
432.068	89.12
432.29	86.12
432.512	95.12
432.734	84.12
432.956	94.12
433.178	100.12
433.4	88.12
433.622	80.12
433.844	92.12
434.066	89.12
434.287	96.12
434.509	87.12
434.731	75.12
434.953	88.12
435.175	80.12
435.397	79.12
435.618	107.12
435.84	100.12
436.062	99.12
436.284	91.12
436.505	112.12
436.727	94.12
436.949	82.12
437.17	89.12
437.392	79.12
437.614	84.12
437.835	87.12
438.057	102.12
438.278	99.12
438.5	101.12
438.721	104.12
438.943	90.12
439.165	98.12
439.386	97.12
439.608	74.12
439.829	100.12
440.05	99.12
440.272	123.12
440.493	96.12
440.715	81.12
440.936	88.12
441.158	96.12
441.379	86.12
441.6	92.12
441.822	101.12
442.043	84.12
442.264	87.12
442.486	107.12
442.707	83.12
442.928	96.12
443.149	117.12
443.371	116.12
443.592	93.12
443.813	119.12
444.034	92.12
444.255	87.12
444.476	89.12
444.698	105.12
444.919	96.12
445.14	129.12
445.361	118.12
445.582	110.12
445.803	112.12
446.024	111.12
446.245	117.12
446.466	120.12
446.687	89.12
446.908	103.12
447.129	86.12
447.35	85.12
447.571	86.12
447.792	100.12
448.013	93.12
448.234	90.12
448.455	104.12
448.675	111.12
448.896	108.12
449.117	98.12
449.338	102.12
449.559	116.12
449.779	115.12
450	99.12
450.221	78.12
450.442	78.12
450.662	92.12
450.883	117.12
451.104	95.12
451.324	94.12
451.545	85.12
451.766	89.12
451.986	94.12
452.207	84.12
452.428	82.12
452.648	95.12
452.869	95.12
453.089	94.12
453.31	119.12
453.53	78.12
453.751	84.12
453.971	85.12
454.192	110.12
454.412	87.12
454.633	97.12
454.853	91.12
455.073	92.12
455.294	88.12
455.514	96.12
455.734	91.12
455.955	93.12
456.175	80.12
456.395	103.12
456.616	88.12
456.836	91.12
457.056	89.12
457.276	91.12
457.497	82.12
457.717	87.12
457.937	101.12
458.157	96.12
458.377	83.12
458.598	100.12
458.818	120.12
459.038	114.12
459.258	88.12
459.478	102.12
459.698	92.12
459.918	90.12
460.138	74.12
460.358	89.12
460.578	100.12
460.798	82.12
461.018	88.12
461.238	98.12
461.458	82.12
461.678	72.12
461.898	86.12
462.118	91.12
462.338	90.12
462.558	89.12
462.777	100.12
462.997	102.12
463.217	97.12
463.437	85.12
463.657	91.12
463.876	103.12
464.096	86.12
464.316	83.12
464.536	104.12
464.755	96.12
464.975	96.12
465.195	145.12
465.414	124.12
465.634	89.12
465.854	103.12
466.073	82.12
466.293	79.12
466.512	83.12
466.732	95.12
466.951	89.12
467.171	102.12
467.391	88.12
467.61	95.12
467.829	116.12
468.049	225.12
468.268	300.12
468.488	134.12
468.707	108.12
468.927	88.12
469.146	100.12
469.365	87.12
469.585	100.12
469.804	95.12
470.023	97.12
470.243	81.12
470.462	106.12
470.681	115.12
470.901	90.12
471.12	85.12
471.339	91.12
471.558	93.12
471.777	106.12
471.997	162.12
472.216	395.12
472.435	763.12
472.654	232.12
472.873	102.12
473.092	93.12
473.311	101.12
473.53	85.12
473.749	89.12
473.968	91.12
474.187	80.12
474.406	110.12
474.625	89.12
474.844	76.12
475.063	89.12
475.282	95.12
475.501	81.12
475.72	89.12
475.939	89.12
476.158	95.12
476.377	84.12
476.596	88.12
476.814	75.12
477.033	111.12
477.252	79.12
477.471	72.12
477.69	84.12
477.908	94.12
478.127	71.12
478.346	88.12
478.564	87.12
478.783	106.12
479.002	88.12
479.22	96.12
479.439	94.12
479.658	102.12
479.876	101.12
480.095	97.12
480.313	107.12
480.532	114.12
480.751	149.12
480.969	390.12
481.188	1419.12
481.406	783.12
481.624	180.12
481.843	99.12
482.061	102.12
482.28	94.12
482.498	96.12
482.717	93.12
482.935	99.12
483.153	86.12
483.372	94.12
483.59	92.12
483.808	92.12
484.027	90.12
484.245	88.12
484.463	93.12
484.681	98.12
484.9	108.12
485.118	97.12
485.336	89.12
485.554	97.12
485.772	101.12
485.99	98.12
486.209	107.12
486.427	114.12
486.645	109.12
486.863	102.12
487.081	102.12
487.299	91.12
487.517	78.12
487.735	96.12
487.953	95.12
488.171	87.12
488.389	96.12
488.607	102.12
488.825	90.12
489.043	91.12
489.261	102.12
489.479	70.12
489.696	85.12
489.914	96.12
490.132	99.12
490.35	103.12
490.568	86.12
490.786	84.12
491.003	89.12
491.221	87.12
491.439	91.12
491.657	97.12
491.874	85.12
492.092	90.12
492.31	99.12
492.527	90.12
492.745	88.12
492.963	90.12
493.18	80.12
493.398	89.12
493.615	91.12
493.833	97.12
494.05	98.12
494.268	92.12
494.485	96.12
494.703	94.12
494.92	101.12
495.138	87.12
495.355	94.12
495.573	89.12
495.79	87.12
496.008	86.12
496.225	88.12
496.442	84.12
496.66	81.12
496.877	86.12
497.094	83.12
497.312	83.12
497.529	111.12
497.746	89.12
497.963	78.12
498.181	98.12
498.398	108.12
498.615	96.12
498.832	109.12
499.049	86.12
499.267	103.12
499.484	78.12
499.701	101.12
499.918	94.12
500.135	90.12
500.352	96.12
500.569	100.12
500.786	87.12
501.003	90.12
501.22	89.12
501.437	94.12
501.654	82.12
501.871	100.12
502.088	94.12
502.305	84.12
502.522	86.12
502.739	94.12
502.956	91.12
503.172	94.12
503.389	73.12
503.606	96.12
503.823	92.12
504.04	113.12
504.256	96.12
504.473	100.12
504.69	92.12
504.907	87.12
505.123	94.12
505.34	86.12
505.557	102.12
505.773	91.12
505.99	75.12
506.207	86.12
506.423	91.12
506.64	69.12
506.856	90.12
507.073	90.12
507.289	108.12
507.506	92.12
507.722	108.12
507.939	95.12
508.155	90.12
508.372	84.12
508.588	80.12
508.805	91.12
509.021	95.12
509.238	100.12
509.454	103.12
509.67	98.12
509.887	113.12
510.103	112.12
510.319	186.12
510.536	497.12
510.752	1624.12
510.968	474.12
511.184	129.12
511.401	102.12
511.617	85.12
511.833	80.12
512.049	103.12
512.265	96.12
512.481	90.12
512.698	98.12
512.914	105.12
513.13	82.12
513.346	84.12
513.562	90.12
513.778	96.12
513.994	91.12
514.21	109.12
514.426	93.12
514.642	107.12
514.858	117.12
515.074	131.12
515.29	312.12
