Data from Circ_1989_H10_HRD10591_00071.txt Node
Date: Wed Jan 03 12:01:35 EST 2024
User: Yrep
Spectrometer: HR+D1059
Trigger mode: 1
Integration Time (sec): 1.000000E-1
Scans to average: 1
Electric dark correction enabled: true
Nonlinearity correction enabled: false
Boxcar width: 0
XAxis mode: Wavelengths
Number of Pixels in Spectrum: 2048
>>>>>Begin Spectral Data<<<<<
223.165	-29.19
223.4	-29.19
223.635	-29.19
223.869	-13.19
224.104	-25.19
224.338	-22.19
224.573	-11.19
224.808	-9.19
225.042	-19.19
225.277	-9.19
225.511	20.81
225.746	4.81
225.98	8.81
226.215	18.81
226.449	15.81
226.683	19.81
226.918	11.81
227.152	37.81
227.387	31.81
227.621	32.81
227.856	42.81
228.09	51.81
228.324	35.81
228.559	53.81
228.793	64.81
229.027	63.81
229.262	63.81
229.496	64.81
229.73	79.81
229.964	87.81
230.199	75.81
230.433	67.81
230.667	79.81
230.901	56.81
231.136	77.81
231.37	69.81
231.604	70.81
231.838	96.81
232.072	83.81
232.306	80.81
232.541	86.81
232.775	74.81
233.009	58.81
233.243	87.81
233.477	68.81
233.711	80.81
233.945	79.81
234.179	72.81
234.413	95.81
234.647	72.81
234.881	85.81
235.115	72.81
235.349	72.81
235.583	76.81
235.817	70.81
236.051	53.81
236.285	68.81
236.519	88.81
236.753	85.81
236.987	76.81
237.221	79.81
237.455	81.81
237.689	80.81
237.922	75.81
238.156	78.81
238.39	85.81
238.624	73.81
238.858	70.81
239.091	83.81
239.325	68.81
239.559	94.81
239.793	84.81
240.027	63.81
240.26	77.81
240.494	70.81
240.728	63.81
240.961	69.81
241.195	63.81
241.429	82.81
241.662	77.81
241.896	66.81
242.13	81.81
242.363	72.81
242.597	79.81
242.83	71.81
243.064	70.81
243.298	94.81
243.531	84.81
243.765	71.81
243.998	85.81
244.232	81.81
244.465	72.81
244.699	79.81
244.932	71.81
245.166	87.81
245.399	74.81
245.633	76.81
245.866	73.81
246.099	74.81
246.333	72.81
246.566	79.81
246.8	84.81
247.033	90.81
247.266	86.81
247.5	68.81
247.733	66.81
247.966	83.81
248.2	71.81
248.433	80.81
248.666	73.81
248.899	93.81
249.133	95.81
249.366	98.81
249.599	104.81
249.832	83.81
250.066	95.81
250.299	84.81
250.532	84.81
250.765	78.81
250.998	79.81
251.231	89.81
251.465	73.81
251.698	79.81
251.931	70.81
252.164	68.81
252.397	75.81
252.63	95.81
252.863	82.81
253.096	93.81
253.329	77.81
253.562	87.81
253.795	80.81
254.028	68.81
254.261	93.81
254.494	98.81
254.727	85.81
254.96	79.81
255.193	98.81
255.426	78.81
255.659	85.81
255.892	87.81
256.124	83.81
256.357	82.81
256.59	85.81
256.823	86.81
257.056	76.81
257.289	85.81
257.521	81.81
257.754	82.81
257.987	87.81
258.22	81.81
258.452	87.81
258.685	85.81
258.918	86.81
259.151	72.81
259.383	70.81
259.616	85.81
259.849	78.81
260.081	90.81
260.314	97.81
260.547	85.81
260.779	73.81
261.012	91.81
261.244	86.81
261.477	81.81
261.71	81.81
261.942	98.81
262.175	94.81
262.407	99.81
262.64	80.81
262.872	93.81
263.105	83.81
263.337	70.81
263.57	83.81
263.802	68.81
264.035	91.81
264.267	77.81
264.499	83.81
264.732	78.81
264.964	79.81
265.197	84.81
265.429	83.81
265.661	89.81
265.894	85.81
266.126	92.81
266.358	88.81
266.591	85.81
266.823	93.81
267.055	89.81
267.287	89.81
267.52	77.81
267.752	82.81
267.984	77.81
268.216	78.81
268.448	86.81
268.681	98.81
268.913	93.81
269.145	83.81
269.377	79.81
269.609	79.81
269.841	81.81
270.073	83.81
270.306	83.81
270.538	90.81
270.77	88.81
271.002	98.81
271.234	99.81
271.466	102.81
271.698	71.81
271.93	92.81
272.162	81.81
272.394	83.81
272.626	85.81
272.858	81.81
273.09	81.81
273.322	91.81
273.553	73.81
273.785	80.81
274.017	88.81
274.249	80.81
274.481	69.81
274.713	96.81
274.945	110.81
275.176	88.81
275.408	97.81
275.64	100.81
275.872	69.81
276.104	91.81
276.335	92.81
276.567	89.81
276.799	107.81
277.031	108.81
277.262	115.81
277.494	97.81
277.726	87.81
277.957	83.81
278.189	102.81
278.421	84.81
278.652	77.81
278.884	98.81
279.115	90.81
279.347	93.81
279.579	79.81
279.81	82.81
280.042	115.81
280.273	112.81
280.505	106.81
280.736	84.81
280.968	77.81
281.199	87.81
281.431	89.81
281.662	91.81
281.894	93.81
282.125	84.81
282.356	104.81
282.588	132.81
282.819	109.81
283.051	96.81
283.282	80.81
283.513	70.81
283.745	75.81
283.976	73.81
284.207	97.81
284.439	91.81
284.67	89.81
284.901	80.81
285.132	87.81
285.364	90.81
285.595	81.81
285.826	79.81
286.057	81.81
286.288	91.81
286.52	73.81
286.751	100.81
286.982	95.81
287.213	92.81
287.444	85.81
287.675	87.81
287.906	89.81
288.138	81.81
288.369	97.81
288.6	97.81
288.831	93.81
289.062	93.81
289.293	95.81
289.524	80.81
289.755	88.81
289.986	96.81
290.217	96.81
290.448	91.81
290.679	77.81
290.91	94.81
291.141	90.81
291.371	80.81
291.602	75.81
291.833	98.81
292.064	85.81
292.295	92.81
292.526	96.81
292.757	81.81
292.987	91.81
293.218	79.81
293.449	102.81
293.68	103.81
293.91	86.81
294.141	83.81
294.372	98.81
294.603	79.81
294.833	74.81
295.064	82.81
295.295	96.81
295.525	97.81
295.756	104.81
295.987	104.81
296.217	100.81
296.448	116.81
296.679	92.81
296.909	109.81
297.14	92.81
297.37	100.81
297.601	80.81
297.831	84.81
298.062	100.81
298.292	101.81
298.523	79.81
298.753	86.81
298.984	99.81
299.214	101.81
299.445	95.81
299.675	90.81
299.905	94.81
300.136	83.81
300.366	84.81
300.597	87.81
300.827	105.81
301.057	79.81
301.288	93.81
301.518	89.81
301.748	99.81
301.979	113.81
302.209	87.81
302.439	91.81
302.669	80.81
302.9	88.81
303.13	105.81
303.36	87.81
303.59	107.81
303.82	98.81
304.051	86.81
304.281	88.81
304.511	95.81
304.741	81.81
304.971	104.81
305.201	98.81
305.431	93.81
305.661	87.81
305.891	93.81
306.121	84.81
306.352	83.81
306.582	96.81
306.812	89.81
307.042	91.81
307.272	98.81
307.502	119.81
307.731	118.81
307.961	96.81
308.191	86.81
308.421	88.81
308.651	82.81
308.881	82.81
309.111	111.81
309.341	101.81
309.571	100.81
309.8	97.81
310.03	101.81
310.26	96.81
310.49	94.81
310.72	100.81
310.949	84.81
311.179	104.81
311.409	94.81
311.639	85.81
311.868	98.81
312.098	98.81
312.328	95.81
312.557	91.81
312.787	94.81
313.017	88.81
313.246	87.81
313.476	99.81
313.706	105.81
313.935	79.81
314.165	99.81
314.394	96.81
314.624	81.81
314.853	88.81
315.083	89.81
315.312	86.81
315.542	87.81
315.771	83.81
316.001	79.81
316.23	96.81
316.46	101.81
316.689	99.81
316.919	108.81
317.148	97.81
317.377	84.81
317.607	88.81
317.836	94.81
318.065	85.81
318.295	88.81
318.524	104.81
318.753	82.81
318.983	88.81
319.212	97.81
319.441	92.81
319.67	87.81
319.9	104.81
320.129	92.81
320.358	87.81
320.587	88.81
320.816	83.81
321.046	100.81
321.275	103.81
321.504	83.81
321.733	92.81
321.962	89.81
322.191	74.81
322.42	96.81
322.649	103.81
322.878	93.81
323.108	127.81
323.337	111.81
323.566	123.81
323.795	134.81
324.024	170.81
324.253	301.81
324.482	611.81
324.71	1267.81
324.939	1654.81
325.168	622.81
325.397	195.81
325.626	130.81
325.855	130.81
326.084	105.81
326.313	126.81
326.542	127.81
326.77	209.81
326.999	362.81
327.228	727.81
327.457	1295.81
327.686	1039.81
327.914	354.81
328.143	256.81
328.372	257.81
328.6	192.81
328.829	123.81
329.058	111.81
329.287	111.81
329.515	120.81
329.744	143.81
329.972	203.81
330.201	379.81
330.43	500.81
330.658	260.81
330.887	145.81
331.115	112.81
331.344	112.81
331.572	88.81
331.801	99.81
332.03	99.81
332.258	92.81
332.486	80.81
332.715	92.81
332.943	96.81
333.172	103.81
333.4	100.81
333.629	100.81
333.857	127.81
334.085	207.81
334.314	376.81
334.542	653.81
334.771	611.81
334.999	219.81
335.227	128.81
335.455	104.81
335.684	108.81
335.912	112.81
336.14	100.81
336.369	103.81
336.597	94.81
336.825	95.81
337.053	80.81
337.281	94.81
337.51	88.81
337.738	92.81
337.966	100.81
338.194	91.81
338.422	100.81
338.65	97.81
338.878	87.81
339.106	90.81
339.334	82.81
339.562	89.81
339.79	77.81
340.018	85.81
340.246	79.81
340.474	68.81
340.702	102.81
340.93	95.81
341.158	89.81
341.386	95.81
341.614	96.81
341.842	91.81
342.07	98.81
342.298	87.81
342.526	101.81
342.754	91.81
342.981	81.81
343.209	87.81
343.437	108.81
343.665	95.81
343.893	92.81
344.12	97.81
344.348	85.81
344.576	87.81
344.804	81.81
345.031	101.81
345.259	100.81
345.487	94.81
345.714	83.81
345.942	97.81
346.17	90.81
346.397	92.81
346.625	83.81
346.853	92.81
347.08	84.81
347.308	89.81
347.535	104.81
347.763	88.81
347.99	79.81
348.218	99.81
348.445	97.81
348.673	96.81
348.9	95.81
349.128	84.81
349.355	87.81
349.583	88.81
349.81	92.81
350.037	91.81
350.265	98.81
350.492	93.81
350.72	84.81
350.947	94.81
351.174	115.81
351.402	100.81
351.629	103.81
351.856	83.81
352.083	104.81
352.311	116.81
352.538	104.81
352.765	105.81
352.992	98.81
353.22	95.81
353.447	96.81
353.674	89.81
353.901	100.81
354.128	94.81
354.355	96.81
354.583	86.81
354.81	98.81
355.037	94.81
355.264	93.81
355.491	94.81
355.718	91.81
355.945	91.81
356.172	92.81
356.399	96.81
356.626	103.81
356.853	76.81
357.08	89.81
357.307	95.81
357.534	93.81
357.761	96.81
357.988	102.81
358.215	95.81
358.441	99.81
358.668	87.81
358.895	84.81
359.122	94.81
359.349	76.81
359.576	85.81
359.802	100.81
360.029	80.81
360.256	89.81
360.483	79.81
360.709	88.81
360.936	87.81
361.163	96.81
361.39	95.81
361.616	91.81
361.843	80.81
362.07	89.81
362.296	83.81
362.523	86.81
362.749	82.81
362.976	83.81
363.203	85.81
363.429	81.81
363.656	95.81
363.882	91.81
364.109	99.81
364.335	97.81
364.562	93.81
364.788	114.81
365.015	87.81
365.241	81.81
365.468	104.81
365.694	99.81
365.92	86.81
366.147	77.81
366.373	75.81
366.599	86.81
366.826	80.81
367.052	83.81
367.278	86.81
367.505	95.81
367.731	113.81
367.957	80.81
368.184	97.81
368.41	100.81
368.636	103.81
368.862	116.81
369.089	95.81
369.315	86.81
369.541	83.81
369.767	91.81
369.993	89.81
370.219	81.81
370.445	99.81
370.672	82.81
370.898	90.81
371.124	95.81
371.35	93.81
371.576	104.81
371.802	84.81
372.028	83.81
372.254	92.81
372.48	89.81
372.706	75.81
372.932	97.81
373.158	79.81
373.384	95.81
373.61	72.81
373.835	95.81
374.061	80.81
374.287	85.81
374.513	93.81
374.739	78.81
374.965	78.81
375.191	82.81
375.416	84.81
375.642	86.81
375.868	90.81
376.094	80.81
376.319	90.81
376.545	95.81
376.771	72.81
376.997	83.81
377.222	93.81
377.448	86.81
377.674	101.81
377.899	90.81
378.125	95.81
378.35	87.81
378.576	84.81
378.802	81.81
379.027	93.81
379.253	101.81
379.478	106.81
379.704	89.81
379.929	95.81
380.155	87.81
380.38	78.81
380.606	91.81
380.831	98.81
381.057	94.81
381.282	92.81
381.507	79.81
381.733	91.81
381.958	94.81
382.184	91.81
382.409	83.81
382.634	96.81
382.86	101.81
383.085	97.81
383.31	99.81
383.535	97.81
383.761	99.81
383.986	86.81
384.211	85.81
384.436	84.81
384.662	90.81
384.887	92.81
385.112	101.81
385.337	97.81
385.562	85.81
385.787	102.81
386.013	100.81
386.238	108.81
386.463	91.81
386.688	100.81
386.913	103.81
387.138	95.81
387.363	97.81
387.588	102.81
387.813	106.81
388.038	111.81
388.263	109.81
388.488	87.81
388.713	91.81
388.938	87.81
389.163	84.81
389.387	107.81
389.612	82.81
389.837	82.81
390.062	106.81
390.287	90.81
390.512	87.81
390.736	81.81
390.961	88.81
391.186	78.81
391.411	80.81
391.636	84.81
391.86	85.81
392.085	86.81
392.31	85.81
392.534	97.81
392.759	91.81
392.984	78.81
393.208	90.81
393.433	90.81
393.658	86.81
393.882	73.81
394.107	88.81
394.331	74.81
394.556	85.81
394.78	96.81
395.005	98.81
395.229	92.81
395.454	90.81
395.678	94.81
395.903	86.81
396.127	71.81
396.352	100.81
396.576	83.81
396.801	94.81
397.025	82.81
397.249	95.81
397.474	95.81
397.698	69.81
397.922	83.81
398.147	85.81
398.371	83.81
398.595	102.81
398.82	81.81
399.044	85.81
399.268	84.81
399.492	80.81
399.717	93.81
399.941	85.81
400.165	94.81
400.389	98.81
400.613	95.81
400.837	88.81
401.062	94.81
401.286	101.81
401.51	79.81
401.734	86.81
401.958	89.81
402.182	111.81
402.406	139.81
402.63	111.81
402.854	72.81
403.078	96.81
403.302	95.81
403.526	99.81
403.75	82.81
403.974	79.81
404.198	92.81
404.422	94.81
404.645	111.81
404.869	79.81
405.093	100.81
405.317	102.81
405.541	103.81
405.765	95.81
405.988	105.81
406.212	151.81
406.436	174.81
406.66	126.81
406.883	87.81
407.107	98.81
407.331	95.81
407.555	112.81
407.778	92.81
408.002	83.81
408.226	107.81
408.449	83.81
408.673	97.81
408.896	85.81
409.12	89.81
409.344	81.81
409.567	72.81
409.791	85.81
410.014	94.81
410.238	87.81
410.461	86.81
410.685	80.81
410.908	96.81
411.132	102.81
411.355	87.81
411.578	93.81
411.802	86.81
412.025	85.81
412.249	97.81
412.472	86.81
412.695	95.81
412.919	80.81
413.142	82.81
413.365	86.81
413.589	81.81
413.812	91.81
414.035	101.81
414.258	72.81
414.482	84.81
414.705	94.81
414.928	94.81
415.151	92.81
415.374	80.81
415.597	80.81
415.821	98.81
416.044	81.81
416.267	79.81
416.49	81.81
416.713	103.81
416.936	84.81
417.159	87.81
417.382	101.81
417.605	86.81
417.828	98.81
418.051	83.81
418.274	89.81
418.497	81.81
418.72	84.81
418.943	87.81
419.166	78.81
419.389	85.81
419.611	93.81
419.834	80.81
420.057	93.81
420.28	91.81
420.503	91.81
420.726	98.81
420.948	82.81
421.171	89.81
421.394	85.81
421.617	84.81
421.839	100.81
422.062	74.81
422.285	91.81
422.507	95.81
422.73	116.81
422.953	86.81
423.175	77.81
423.398	87.81
423.621	96.81
423.843	83.81
424.066	97.81
424.288	97.81
424.511	87.81
424.733	95.81
424.956	88.81
425.178	87.81
425.401	95.81
425.623	96.81
425.846	101.81
426.068	96.81
426.291	90.81
426.513	99.81
426.735	108.81
426.958	77.81
427.18	101.81
427.402	113.81
427.625	135.81
427.847	146.81
428.069	138.81
428.292	103.81
428.514	86.81
428.736	90.81
428.958	89.81
429.181	82.81
429.403	86.81
429.625	85.81
429.847	104.81
430.069	105.81
430.292	98.81
430.514	86.81
430.736	80.81
430.958	89.81
431.18	75.81
431.402	79.81
431.624	101.81
431.846	98.81
432.068	106.81
432.29	88.81
432.512	104.81
432.734	71.81
432.956	91.81
433.178	103.81
433.4	102.81
433.622	79.81
433.844	92.81
434.066	92.81
434.287	80.81
434.509	77.81
434.731	85.81
434.953	77.81
435.175	87.81
435.397	94.81
435.618	96.81
435.84	99.81
436.062	114.81
436.284	99.81
436.505	107.81
436.727	103.81
436.949	95.81
437.17	83.81
437.392	82.81
437.614	86.81
437.835	107.81
438.057	118.81
438.278	87.81
438.5	89.81
438.721	102.81
438.943	81.81
439.165	95.81
439.386	96.81
439.608	88.81
439.829	102.81
440.05	119.81
440.272	123.81
440.493	100.81
440.715	98.81
440.936	89.81
441.158	84.81
441.379	83.81
441.6	80.81
441.822	87.81
442.043	99.81
442.264	105.81
442.486	105.81
442.707	89.81
442.928	99.81
443.149	115.81
443.371	111.81
443.592	79.81
443.813	94.81
444.034	115.81
444.255	85.81
444.476	85.81
444.698	77.81
444.919	93.81
445.14	135.81
445.361	110.81
445.582	99.81
445.803	120.81
446.024	122.81
446.245	118.81
446.466	97.81
446.687	87.81
446.908	87.81
447.129	78.81
447.35	92.81
447.571	87.81
447.792	91.81
448.013	89.81
448.234	117.81
448.455	95.81
448.675	92.81
448.896	109.81
449.117	98.81
449.338	104.81
449.559	103.81
449.779	114.81
450	93.81
450.221	99.81
450.442	97.81
450.662	100.81
450.883	102.81
451.104	98.81
451.324	91.81
451.545	96.81
451.766	78.81
451.986	78.81
452.207	79.81
452.428	88.81
452.648	97.81
452.869	112.81
453.089	108.81
453.31	105.81
453.53	83.81
453.751	83.81
453.971	112.81
454.192	101.81
454.412	89.81
454.633	75.81
454.853	95.81
455.073	88.81
455.294	92.81
455.514	99.81
455.734	81.81
455.955	81.81
456.175	89.81
456.395	86.81
456.616	77.81
456.836	97.81
457.056	81.81
457.276	76.81
457.497	79.81
457.717	81.81
457.937	96.81
458.157	93.81
458.377	101.81
458.598	93.81
458.818	115.81
459.038	114.81
459.258	104.81
459.478	88.81
459.698	86.81
459.918	82.81
460.138	84.81
460.358	77.81
460.578	101.81
460.798	91.81
461.018	101.81
461.238	81.81
461.458	71.81
461.678	84.81
461.898	80.81
462.118	85.81
462.338	85.81
462.558	87.81
462.777	79.81
462.997	88.81
463.217	110.81
463.437	95.81
463.657	84.81
463.876	95.81
464.096	90.81
464.316	91.81
464.536	83.81
464.755	85.81
464.975	95.81
465.195	136.81
465.414	127.81
465.634	105.81
465.854	75.81
466.073	75.81
466.293	83.81
466.512	90.81
466.732	100.81
466.951	78.81
467.171	95.81
467.391	96.81
467.61	120.81
467.829	128.81
468.049	257.81
468.268	352.81
468.488	128.81
468.707	79.81
468.927	91.81
469.146	84.81
469.365	92.81
469.585	72.81
469.804	82.81
470.023	87.81
470.243	87.81
470.462	101.81
470.681	105.81
470.901	82.81
471.12	84.81
471.339	102.81
471.558	89.81
471.777	107.81
471.997	149.81
472.216	453.81
472.435	912.81
472.654	255.81
472.873	128.81
473.092	91.81
473.311	78.81
473.53	87.81
473.749	69.81
473.968	92.81
474.187	106.81
474.406	86.81
474.625	80.81
474.844	98.81
475.063	87.81
475.282	90.81
475.501	83.81
475.72	82.81
475.939	77.81
476.158	84.81
476.377	103.81
476.596	93.81
476.814	87.81
477.033	95.81
477.252	93.81
477.471	89.81
477.69	86.81
477.908	88.81
478.127	91.81
478.346	93.81
478.564	81.81
478.783	101.81
479.002	92.81
479.22	82.81
479.439	92.81
479.658	102.81
479.876	88.81
480.095	99.81
480.313	94.81
480.532	116.81
480.751	162.81
480.969	456.81
481.188	1640.81
481.406	933.81
481.624	187.81
481.843	120.81
482.061	101.81
482.28	86.81
482.498	103.81
482.717	91.81
482.935	102.81
483.153	94.81
483.372	89.81
483.59	82.81
483.808	99.81
484.027	94.81
484.245	95.81
484.463	93.81
484.681	99.81
484.9	87.81
485.118	89.81
485.336	86.81
485.554	105.81
485.772	91.81
485.99	108.81
486.209	101.81
486.427	84.81
486.645	110.81
486.863	102.81
487.081	109.81
487.299	100.81
487.517	95.81
487.735	87.81
487.953	85.81
488.171	109.81
488.389	98.81
488.607	94.81
488.825	96.81
489.043	86.81
489.261	81.81
489.479	85.81
489.696	81.81
489.914	73.81
490.132	93.81
490.35	94.81
490.568	78.81
490.786	95.81
491.003	95.81
491.221	91.81
491.439	98.81
491.657	93.81
491.874	94.81
492.092	82.81
492.31	90.81
492.527	74.81
492.745	91.81
492.963	87.81
493.18	76.81
493.398	83.81
493.615	87.81
493.833	81.81
494.05	79.81
494.268	86.81
494.485	104.81
494.703	93.81
494.92	91.81
495.138	81.81
495.355	87.81
495.573	92.81
495.79	94.81
496.008	93.81
496.225	82.81
496.442	96.81
496.66	80.81
496.877	93.81
497.094	88.81
497.312	83.81
497.529	87.81
497.746	86.81
497.963	88.81
498.181	83.81
498.398	95.81
498.615	97.81
498.832	105.81
499.049	83.81
499.267	80.81
499.484	91.81
499.701	77.81
499.918	93.81
500.135	93.81
500.352	91.81
500.569	89.81
500.786	103.81
501.003	83.81
501.22	85.81
501.437	100.81
501.654	86.81
501.871	95.81
502.088	92.81
502.305	95.81
502.522	81.81
502.739	92.81
502.956	96.81
503.172	87.81
503.389	91.81
503.606	91.81
503.823	85.81
504.04	86.81
504.256	85.81
504.473	89.81
504.69	86.81
504.907	92.81
505.123	83.81
505.34	87.81
505.557	90.81
505.773	80.81
505.99	95.81
506.207	85.81
506.423	89.81
506.64	89.81
506.856	81.81
507.073	88.81
507.289	82.81
507.506	101.81
507.722	101.81
507.939	91.81
508.155	81.81
508.372	88.81
508.588	76.81
508.805	99.81
509.021	103.81
509.238	93.81
509.454	90.81
509.67	87.81
509.887	101.81
510.103	110.81
510.319	157.81
510.536	522.81
510.752	1656.81
510.968	481.81
511.184	135.81
511.401	107.81
511.617	103.81
511.833	92.81
512.049	94.81
512.265	84.81
512.481	96.81
512.698	91.81
512.914	81.81
513.13	95.81
513.346	100.81
513.562	93.81
513.778	96.81
513.994	93.81
514.21	88.81
514.426	104.81
514.642	109.81
514.858	107.81
515.074	150.81
515.29	334.81
515.506	1018.81
515.721	401.81
515.937	136.81
