Data from Circ_1989_H10_HRD10591_00059.txt Node
Date: Wed Jan 03 12:01:33 EST 2024
User: Yrep
Spectrometer: HR+D1059
Trigger mode: 1
Integration Time (sec): 1.000000E-1
Scans to average: 1
Electric dark correction enabled: true
Nonlinearity correction enabled: false
Boxcar width: 0
XAxis mode: Wavelengths
Number of Pixels in Spectrum: 2048
>>>>>Begin Spectral Data<<<<<
223.165	-22.88
223.4	-22.88
223.635	-22.88
223.869	-10.88
224.104	-20.88
224.338	-11.88
224.573	-22.88
224.808	-8.88
225.042	-4.88
225.277	1.12
225.511	-8.88
225.746	2.12
225.98	-1.88
226.215	9.12
226.449	14.12
226.683	24.12
226.918	21.12
227.152	42.12
227.387	41.12
227.621	37.12
227.856	42.12
228.09	44.12
228.324	50.12
228.559	77.12
228.793	75.12
229.027	66.12
229.262	43.12
229.496	77.12
229.73	75.12
229.964	65.12
230.199	70.12
230.433	87.12
230.667	69.12
230.901	90.12
231.136	79.12
231.37	77.12
231.604	91.12
231.838	83.12
232.072	84.12
232.306	87.12
232.541	73.12
232.775	82.12
233.009	96.12
233.243	87.12
233.477	92.12
233.711	67.12
233.945	87.12
234.179	78.12
234.413	75.12
234.647	69.12
234.881	83.12
235.115	79.12
235.349	86.12
235.583	87.12
235.817	78.12
236.051	85.12
236.285	83.12
236.519	70.12
236.753	73.12
236.987	79.12
237.221	86.12
237.455	90.12
237.689	70.12
237.922	88.12
238.156	64.12
238.39	83.12
238.624	74.12
238.858	75.12
239.091	86.12
239.325	83.12
239.559	84.12
239.793	72.12
240.027	79.12
240.26	83.12
240.494	69.12
240.728	83.12
240.961	85.12
241.195	88.12
241.429	66.12
241.662	77.12
241.896	68.12
242.13	87.12
242.363	74.12
242.597	82.12
242.83	69.12
243.064	74.12
243.298	94.12
243.531	85.12
243.765	79.12
243.998	81.12
244.232	86.12
244.465	92.12
244.699	80.12
244.932	87.12
245.166	83.12
245.399	87.12
245.633	72.12
245.866	91.12
246.099	85.12
246.333	77.12
246.566	71.12
246.8	92.12
247.033	82.12
247.266	76.12
247.5	70.12
247.733	88.12
247.966	83.12
248.2	83.12
248.433	67.12
248.666	73.12
248.899	70.12
249.133	95.12
249.366	97.12
249.599	82.12
249.832	86.12
250.066	78.12
250.299	91.12
250.532	91.12
250.765	86.12
250.998	82.12
251.231	74.12
251.465	89.12
251.698	86.12
251.931	75.12
252.164	74.12
252.397	83.12
252.63	68.12
252.863	72.12
253.096	81.12
253.329	88.12
253.562	94.12
253.795	95.12
254.028	87.12
254.261	87.12
254.494	78.12
254.727	85.12
254.96	87.12
255.193	92.12
255.426	85.12
255.659	79.12
255.892	87.12
256.124	100.12
256.357	84.12
256.59	92.12
256.823	77.12
257.056	90.12
257.289	73.12
257.521	90.12
257.754	91.12
257.987	88.12
258.22	83.12
258.452	101.12
258.685	84.12
258.918	78.12
259.151	77.12
259.383	85.12
259.616	79.12
259.849	74.12
260.081	85.12
260.314	88.12
260.547	90.12
260.779	86.12
261.012	94.12
261.244	101.12
261.477	91.12
261.71	90.12
261.942	116.12
262.175	120.12
262.407	81.12
262.64	90.12
262.872	85.12
263.105	88.12
263.337	99.12
263.57	95.12
263.802	81.12
264.035	79.12
264.267	93.12
264.499	83.12
264.732	98.12
264.964	97.12
265.197	83.12
265.429	85.12
265.661	100.12
265.894	87.12
266.126	86.12
266.358	79.12
266.591	81.12
266.823	81.12
267.055	71.12
267.287	61.12
267.52	70.12
267.752	82.12
267.984	87.12
268.216	79.12
268.448	91.12
268.681	103.12
268.913	87.12
269.145	96.12
269.377	82.12
269.609	88.12
269.841	83.12
270.073	91.12
270.306	95.12
270.538	104.12
270.77	83.12
271.002	80.12
271.234	79.12
271.466	81.12
271.698	85.12
271.93	89.12
272.162	85.12
272.394	80.12
272.626	69.12
272.858	96.12
273.09	83.12
273.322	96.12
273.553	88.12
273.785	88.12
274.017	83.12
274.249	101.12
274.481	87.12
274.713	92.12
274.945	90.12
275.176	77.12
275.408	89.12
275.64	89.12
275.872	89.12
276.104	100.12
276.335	101.12
276.567	98.12
276.799	121.12
277.031	115.12
277.262	116.12
277.494	104.12
277.726	71.12
277.957	97.12
278.189	87.12
278.421	89.12
278.652	78.12
278.884	82.12
279.115	75.12
279.347	96.12
279.579	95.12
279.81	100.12
280.042	133.12
280.273	145.12
280.505	114.12
280.736	97.12
280.968	94.12
281.199	89.12
281.431	88.12
281.662	98.12
281.894	104.12
282.125	91.12
282.356	112.12
282.588	145.12
282.819	103.12
283.051	91.12
283.282	88.12
283.513	74.12
283.745	81.12
283.976	89.12
284.207	101.12
284.439	87.12
284.67	93.12
284.901	93.12
285.132	78.12
285.364	83.12
285.595	89.12
285.826	93.12
286.057	82.12
286.288	97.12
286.52	95.12
286.751	80.12
286.982	89.12
287.213	79.12
287.444	85.12
287.675	88.12
287.906	95.12
288.138	102.12
288.369	88.12
288.6	95.12
288.831	93.12
289.062	94.12
289.293	81.12
289.524	98.12
289.755	87.12
289.986	90.12
290.217	99.12
290.448	94.12
290.679	85.12
290.91	87.12
291.141	85.12
291.371	90.12
291.602	90.12
291.833	96.12
292.064	85.12
292.295	90.12
292.526	86.12
292.757	98.12
292.987	100.12
293.218	102.12
293.449	94.12
293.68	98.12
293.91	98.12
294.141	93.12
294.372	88.12
294.603	96.12
294.833	87.12
295.064	77.12
295.295	69.12
295.525	93.12
295.756	111.12
295.987	124.12
296.217	133.12
296.448	126.12
296.679	89.12
296.909	94.12
297.14	83.12
297.37	103.12
297.601	88.12
297.831	94.12
298.062	85.12
298.292	99.12
298.523	94.12
298.753	90.12
298.984	96.12
299.214	95.12
299.445	98.12
299.675	94.12
299.905	91.12
300.136	97.12
300.366	95.12
300.597	95.12
300.827	93.12
301.057	86.12
301.288	94.12
301.518	90.12
301.748	85.12
301.979	105.12
302.209	109.12
302.439	97.12
302.669	87.12
302.9	90.12
303.13	102.12
303.36	97.12
303.59	111.12
303.82	108.12
304.051	117.12
304.281	94.12
304.511	90.12
304.741	89.12
304.971	89.12
305.201	91.12
305.431	101.12
305.661	89.12
305.891	97.12
306.121	99.12
306.352	113.12
306.582	101.12
306.812	92.12
307.042	93.12
307.272	125.12
307.502	125.12
307.731	135.12
307.961	116.12
308.191	106.12
308.421	94.12
308.651	84.12
308.881	85.12
309.111	103.12
309.341	85.12
309.571	94.12
309.8	91.12
310.03	98.12
310.26	99.12
310.49	93.12
310.72	92.12
310.949	101.12
311.179	104.12
311.409	88.12
311.639	86.12
311.868	87.12
312.098	96.12
312.328	86.12
312.557	107.12
312.787	103.12
313.017	104.12
313.246	78.12
313.476	111.12
313.706	93.12
313.935	104.12
314.165	107.12
314.394	113.12
314.624	96.12
314.853	102.12
315.083	97.12
315.312	86.12
315.542	87.12
315.771	92.12
316.001	91.12
316.23	98.12
316.46	95.12
316.689	82.12
316.919	100.12
317.148	86.12
317.377	97.12
317.607	100.12
317.836	89.12
318.065	94.12
318.295	100.12
318.524	80.12
318.753	85.12
318.983	111.12
319.212	101.12
319.441	101.12
319.67	109.12
319.9	95.12
320.129	96.12
320.358	91.12
320.587	113.12
320.816	103.12
321.046	100.12
321.275	102.12
321.504	110.12
321.733	93.12
321.962	97.12
322.191	105.12
322.42	108.12
322.649	95.12
322.878	104.12
323.108	124.12
323.337	126.12
323.566	127.12
323.795	133.12
324.024	197.12
324.253	353.12
324.482	721.12
324.71	1454.12
324.939	2014.12
325.168	752.12
325.397	247.12
325.626	131.12
325.855	119.12
326.084	130.12
326.313	120.12
326.542	148.12
326.77	197.12
326.999	397.12
327.228	789.12
327.457	1513.12
327.686	1271.12
327.914	399.12
328.143	295.12
328.372	313.12
328.6	192.12
328.829	146.12
329.058	152.12
329.287	123.12
329.515	127.12
329.744	156.12
329.972	248.12
330.201	452.12
330.43	650.12
330.658	303.12
330.887	181.12
331.115	133.12
331.344	107.12
331.572	107.12
331.801	97.12
332.03	113.12
332.258	92.12
332.486	89.12
332.715	86.12
332.943	110.12
333.172	111.12
333.4	119.12
333.629	130.12
333.857	160.12
334.085	248.12
334.314	447.12
334.542	794.12
334.771	753.12
334.999	234.12
335.227	118.12
335.455	104.12
335.684	115.12
335.912	103.12
336.14	98.12
336.369	94.12
336.597	92.12
336.825	105.12
337.053	100.12
337.281	102.12
337.51	100.12
337.738	96.12
337.966	99.12
338.194	106.12
338.422	105.12
338.65	106.12
338.878	87.12
339.106	104.12
339.334	89.12
339.562	97.12
339.79	95.12
340.018	98.12
340.246	98.12
340.474	97.12
340.702	89.12
340.93	100.12
341.158	88.12
341.386	87.12
341.614	96.12
341.842	104.12
342.07	98.12
342.298	100.12
342.526	91.12
342.754	90.12
342.981	80.12
343.209	88.12
343.437	94.12
343.665	83.12
343.893	86.12
344.12	76.12
344.348	86.12
344.576	85.12
344.804	92.12
345.031	97.12
345.259	108.12
345.487	102.12
345.714	94.12
345.942	97.12
346.17	87.12
346.397	81.12
346.625	98.12
346.853	106.12
347.08	88.12
347.308	86.12
347.535	84.12
347.763	101.12
347.99	90.12
348.218	86.12
348.445	104.12
348.673	107.12
348.9	90.12
349.128	98.12
349.355	90.12
349.583	100.12
349.81	97.12
350.037	108.12
350.265	102.12
350.492	99.12
350.72	105.12
350.947	108.12
351.174	127.12
351.402	115.12
351.629	99.12
351.856	106.12
352.083	97.12
352.311	97.12
352.538	105.12
352.765	103.12
352.992	115.12
353.22	103.12
353.447	94.12
353.674	90.12
353.901	93.12
354.128	82.12
354.355	115.12
354.583	93.12
354.81	90.12
355.037	95.12
355.264	92.12
355.491	89.12
355.718	95.12
355.945	96.12
356.172	103.12
356.399	97.12
356.626	87.12
356.853	96.12
357.08	85.12
357.307	91.12
357.534	82.12
357.761	86.12
357.988	89.12
358.215	108.12
358.441	97.12
358.668	98.12
358.895	106.12
359.122	93.12
359.349	87.12
359.576	97.12
359.802	110.12
360.029	101.12
360.256	112.12
360.483	99.12
360.709	101.12
360.936	95.12
361.163	94.12
361.39	90.12
361.616	96.12
361.843	87.12
362.07	83.12
362.296	104.12
362.523	87.12
362.749	93.12
362.976	98.12
363.203	81.12
363.429	94.12
363.656	91.12
363.882	81.12
364.109	88.12
364.335	91.12
364.562	97.12
364.788	90.12
365.015	102.12
365.241	97.12
365.468	94.12
365.694	102.12
365.92	89.12
366.147	93.12
366.373	99.12
366.599	96.12
366.826	88.12
367.052	84.12
367.278	83.12
367.505	104.12
367.731	93.12
367.957	97.12
368.184	99.12
368.41	93.12
368.636	112.12
368.862	116.12
369.089	98.12
369.315	90.12
369.541	92.12
369.767	87.12
369.993	81.12
370.219	96.12
370.445	87.12
370.672	91.12
370.898	89.12
371.124	94.12
371.35	95.12
371.576	99.12
371.802	86.12
372.028	91.12
372.254	91.12
372.48	90.12
372.706	90.12
372.932	90.12
373.158	79.12
373.384	97.12
373.61	87.12
373.835	90.12
374.061	93.12
374.287	98.12
374.513	85.12
374.739	87.12
374.965	94.12
375.191	79.12
375.416	83.12
375.642	98.12
375.868	88.12
376.094	91.12
376.319	105.12
376.545	92.12
376.771	85.12
376.997	77.12
377.222	101.12
377.448	80.12
377.674	92.12
377.899	88.12
378.125	83.12
378.35	87.12
378.576	84.12
378.802	99.12
379.027	87.12
379.253	95.12
379.478	89.12
379.704	93.12
379.929	88.12
380.155	96.12
380.38	82.12
380.606	89.12
380.831	103.12
381.057	111.12
381.282	102.12
381.507	92.12
381.733	90.12
381.958	86.12
382.184	101.12
382.409	98.12
382.634	85.12
382.86	100.12
383.085	98.12
383.31	107.12
383.535	80.12
383.761	83.12
383.986	94.12
384.211	105.12
384.436	86.12
384.662	105.12
384.887	95.12
385.112	108.12
385.337	106.12
385.562	106.12
385.787	98.12
386.013	107.12
386.238	120.12
386.463	103.12
386.688	107.12
386.913	109.12
387.138	113.12
387.363	86.12
387.588	84.12
387.813	91.12
388.038	92.12
388.263	104.12
388.488	104.12
388.713	104.12
388.938	91.12
389.163	91.12
389.387	98.12
389.612	84.12
389.837	96.12
390.062	94.12
390.287	95.12
390.512	83.12
390.736	79.12
390.961	111.12
391.186	95.12
391.411	100.12
391.636	104.12
391.86	91.12
392.085	86.12
392.31	79.12
392.534	90.12
392.759	85.12
392.984	87.12
393.208	86.12
393.433	88.12
393.658	82.12
393.882	95.12
394.107	88.12
394.331	80.12
394.556	96.12
394.78	94.12
395.005	82.12
395.229	83.12
395.454	99.12
395.678	83.12
395.903	86.12
396.127	90.12
396.352	83.12
396.576	83.12
396.801	85.12
397.025	83.12
397.249	79.12
397.474	83.12
397.698	84.12
397.922	84.12
398.147	83.12
398.371	85.12
398.595	90.12
398.82	105.12
399.044	99.12
399.268	86.12
399.492	84.12
399.717	84.12
399.941	91.12
400.165	97.12
400.389	95.12
400.613	93.12
400.837	94.12
401.062	94.12
401.286	78.12
401.51	69.12
401.734	78.12
401.958	88.12
402.182	119.12
402.406	143.12
402.63	113.12
402.854	97.12
403.078	90.12
403.302	87.12
403.526	95.12
403.75	85.12
403.974	94.12
404.198	86.12
404.422	93.12
404.645	100.12
404.869	95.12
405.093	95.12
405.317	115.12
405.541	113.12
405.765	108.12
405.988	117.12
406.212	159.12
406.436	216.12
406.66	134.12
406.883	93.12
407.107	90.12
407.331	95.12
407.555	104.12
407.778	100.12
408.002	95.12
408.226	89.12
408.449	85.12
408.673	93.12
408.896	88.12
409.12	100.12
409.344	98.12
409.567	93.12
409.791	86.12
410.014	94.12
410.238	86.12
410.461	89.12
410.685	91.12
410.908	101.12
411.132	99.12
411.355	85.12
411.578	106.12
411.802	93.12
412.025	84.12
412.249	102.12
412.472	97.12
412.695	104.12
412.919	104.12
413.142	96.12
413.365	83.12
413.589	100.12
413.812	97.12
414.035	98.12
414.258	89.12
414.482	89.12
414.705	85.12
414.928	105.12
415.151	87.12
415.374	98.12
415.597	81.12
415.821	89.12
416.044	90.12
416.267	89.12
416.49	94.12
416.713	87.12
416.936	87.12
417.159	86.12
417.382	90.12
417.605	97.12
417.828	99.12
418.051	91.12
418.274	96.12
418.497	90.12
418.72	87.12
418.943	87.12
419.166	81.12
419.389	103.12
419.611	82.12
419.834	84.12
420.057	102.12
420.28	81.12
420.503	86.12
420.726	90.12
420.948	95.12
421.171	98.12
421.394	103.12
421.617	100.12
421.839	91.12
422.062	86.12
422.285	94.12
422.507	81.12
422.73	104.12
422.953	89.12
423.175	90.12
423.398	90.12
423.621	72.12
423.843	90.12
424.066	94.12
424.288	85.12
424.511	101.12
424.733	109.12
424.956	91.12
425.178	110.12
425.401	101.12
425.623	85.12
425.846	91.12
426.068	85.12
426.291	99.12
426.513	94.12
426.735	93.12
426.958	98.12
427.18	91.12
427.402	134.12
427.625	180.12
427.847	181.12
428.069	169.12
428.292	123.12
428.514	97.12
428.736	101.12
428.958	94.12
429.181	89.12
429.403	79.12
429.625	83.12
429.847	74.12
430.069	90.12
430.292	98.12
430.514	89.12
430.736	83.12
430.958	74.12
431.18	72.12
431.402	82.12
431.624	87.12
431.846	92.12
432.068	88.12
432.29	89.12
432.512	84.12
432.734	87.12
432.956	92.12
433.178	102.12
433.4	94.12
433.622	95.12
433.844	85.12
434.066	89.12
434.287	90.12
434.509	87.12
434.731	99.12
434.953	98.12
435.175	98.12
435.397	94.12
435.618	88.12
435.84	103.12
436.062	130.12
436.284	114.12
436.505	98.12
436.727	98.12
436.949	91.12
437.17	87.12
437.392	87.12
437.614	95.12
437.835	105.12
438.057	121.12
438.278	111.12
438.5	102.12
438.721	128.12
438.943	96.12
439.165	98.12
439.386	88.12
439.608	84.12
439.829	103.12
440.05	113.12
440.272	144.12
440.493	83.12
440.715	95.12
440.936	88.12
441.158	90.12
441.379	90.12
441.6	95.12
441.822	78.12
442.043	94.12
442.264	91.12
442.486	98.12
442.707	98.12
442.928	112.12
443.149	117.12
443.371	121.12
443.592	113.12
443.813	109.12
444.034	104.12
444.255	93.12
444.476	75.12
444.698	90.12
444.919	91.12
445.14	130.12
445.361	123.12
445.582	114.12
445.803	134.12
446.024	122.12
446.245	120.12
446.466	96.12
446.687	85.12
446.908	86.12
447.129	107.12
447.35	94.12
447.571	90.12
447.792	85.12
448.013	109.12
448.234	105.12
448.455	99.12
448.675	107.12
448.896	119.12
449.117	87.12
449.338	103.12
449.559	129.12
449.779	126.12
450	99.12
450.221	90.12
450.442	97.12
450.662	92.12
450.883	102.12
451.104	108.12
451.324	98.12
451.545	90.12
451.766	83.12
451.986	95.12
452.207	91.12
452.428	95.12
452.648	97.12
452.869	105.12
453.089	112.12
453.31	113.12
453.53	105.12
453.751	90.12
453.971	104.12
454.192	114.12
454.412	106.12
454.633	101.12
454.853	85.12
455.073	81.12
455.294	87.12
455.514	100.12
455.734	71.12
455.955	106.12
456.175	95.12
456.395	77.12
456.616	77.12
456.836	87.12
457.056	81.12
457.276	79.12
457.497	96.12
457.717	88.12
457.937	82.12
458.157	69.12
458.377	99.12
458.598	99.12
458.818	130.12
459.038	158.12
459.258	110.12
459.478	94.12
459.698	85.12
459.918	89.12
460.138	99.12
460.358	96.12
460.578	93.12
460.798	88.12
461.018	98.12
461.238	79.12
461.458	91.12
461.678	98.12
461.898	85.12
462.118	98.12
462.338	90.12
462.558	82.12
462.777	101.12
462.997	95.12
463.217	93.12
463.437	90.12
463.657	74.12
463.876	90.12
464.096	84.12
464.316	94.12
464.536	99.12
464.755	106.12
464.975	98.12
465.195	155.12
465.414	145.12
465.634	114.12
465.854	100.12
466.073	94.12
466.293	103.12
466.512	83.12
466.732	84.12
466.951	102.12
467.171	98.12
467.391	90.12
467.61	113.12
467.829	128.12
468.049	287.12
468.268	413.12
468.488	142.12
468.707	94.12
468.927	92.12
469.146	78.12
469.365	80.12
469.585	93.12
469.804	93.12
470.023	86.12
470.243	79.12
470.462	98.12
470.681	112.12
470.901	95.12
471.12	83.12
471.339	96.12
471.558	109.12
471.777	113.12
471.997	177.12
472.216	552.12
472.435	1160.12
472.654	303.12
472.873	125.12
473.092	93.12
473.311	104.12
473.53	90.12
473.749	83.12
473.968	94.12
474.187	114.12
474.406	88.12
474.625	111.12
474.844	79.12
475.063	79.12
475.282	86.12
475.501	93.12
475.72	82.12
475.939	87.12
476.158	107.12
476.377	98.12
476.596	83.12
476.814	101.12
477.033	93.12
477.252	94.12
477.471	84.12
477.69	88.12
477.908	88.12
478.127	97.12
478.346	89.12
478.564	99.12
478.783	90.12
479.002	100.12
479.22	97.12
479.439	101.12
479.658	91.12
479.876	97.12
480.095	103.12
480.313	120.12
480.532	125.12
480.751	181.12
480.969	511.12
481.188	1977.12
481.406	1181.12
481.624	202.12
481.843	113.12
482.061	90.12
482.28	94.12
482.498	100.12
482.717	80.12
482.935	87.12
483.153	91.12
483.372	106.12
483.59	97.12
483.808	83.12
484.027	99.12
484.245	93.12
484.463	85.12
484.681	107.12
484.9	96.12
485.118	103.12
485.336	73.12
485.554	103.12
485.772	107.12
485.99	111.12
486.209	104.12
486.427	113.12
486.645	101.12
486.863	107.12
487.081	91.12
487.299	103.12
487.517	104.12
487.735	78.12
487.953	84.12
488.171	93.12
488.389	99.12
488.607	101.12
488.825	100.12
489.043	90.12
489.261	102.12
489.479	96.12
489.696	99.12
489.914	99.12
490.132	90.12
490.35	83.12
490.568	87.12
490.786	84.12
491.003	98.12
491.221	84.12
491.439	87.12
491.657	102.12
491.874	98.12
492.092	83.12
492.31	89.12
492.527	94.12
492.745	93.12
492.963	102.12
493.18	85.12
493.398	77.12
493.615	75.12
493.833	93.12
494.05	86.12
494.268	82.12
494.485	71.12
494.703	94.12
494.92	97.12
495.138	98.12
495.355	81.12
495.573	89.12
495.79	94.12
496.008	95.12
496.225	85.12
496.442	81.12
496.66	95.12
496.877	84.12
497.094	105.12
497.312	90.12
497.529	104.12
497.746	97.12
497.963	82.12
498.181	98.12
498.398	86.12
498.615	99.12
498.832	92.12
499.049	103.12
499.267	96.12
499.484	97.12
499.701	85.12
499.918	95.12
500.135	78.12
500.352	86.12
500.569	103.12
500.786	90.12
501.003	101.12
501.22	81.12
501.437	104.12
501.654	92.12
501.871	96.12
502.088	95.12
502.305	80.12
502.522	96.12
502.739	85.12
502.956	103.12
503.172	79.12
503.389	97.12
503.606	111.12
503.823	103.12
504.04	90.12
504.256	89.12
504.473	89.12
504.69	91.12
504.907	102.12
505.123	81.12
505.34	86.12
505.557	97.12
505.773	84.12
505.99	79.12
506.207	97.12
506.423	87.12
506.64	98.12
506.856	92.12
507.073	89.12
507.289	93.12
507.506	85.12
507.722	119.12
507.939	105.12
508.155	93.12
508.372	94.12
508.588	94.12
508.805	84.12
509.021	94.12
509.238	95.12
509.454	106.12
509.67	100.12
509.887	118.12
510.103	125.12
510.319	192.12
510.536	624.12
510.752	2013.12
510.968	567.12
511.184	146.12
511.401	118.12
511.617	97.12
511.833	101.12
512.049	86.12
512.265	99.12
512.481	97.12
512.698	96.12
512.914	87.12
513.13	95.12
513.346	102.12
513.562	90.12
513.778	102.12
513.994	90.12
514.21	98.12
514.426	109.12
514.642	138.12
514.858	113.12
