Data from Circ_1989_H10_HRD10591_00064.txt Node
Date: Wed Jan 03 12:01:34 EST 2024
User: Yrep
Spectrometer: HR+D1059
Trigger mode: 1
Integration Time (sec): 1.000000E-1
Scans to average: 1
Electric dark correction enabled: true
Nonlinearity correction enabled: false
Boxcar width: 0
XAxis mode: Wavelengths
Number of Pixels in Spectrum: 2048
>>>>>Begin Spectral Data<<<<<
223.165	-13.06
223.4	-13.06
223.635	-13.06
223.869	-33.06
224.104	-22.06
224.338	-19.06
224.573	-25.06
224.808	-6.06
225.042	-11.06
225.277	-22.06
225.511	5.94
225.746	10.94
225.98	0.94
226.215	20.94
226.449	21.94
226.683	18.94
226.918	32.94
227.152	38.94
227.387	29.94
227.621	37.94
227.856	36.94
228.09	42.94
228.324	58.94
228.559	74.94
228.793	61.94
229.027	64.94
229.262	57.94
229.496	58.94
229.73	72.94
229.964	65.94
230.199	69.94
230.433	82.94
230.667	67.94
230.901	69.94
231.136	69.94
231.37	54.94
231.604	65.94
231.838	77.94
232.072	76.94
232.306	68.94
232.541	85.94
232.775	79.94
233.009	82.94
233.243	82.94
233.477	77.94
233.711	66.94
233.945	76.94
234.179	78.94
234.413	96.94
234.647	85.94
234.881	75.94
235.115	78.94
235.349	75.94
235.583	84.94
235.817	67.94
236.051	90.94
236.285	80.94
236.519	78.94
236.753	80.94
236.987	88.94
237.221	78.94
237.455	69.94
237.689	79.94
237.922	69.94
238.156	63.94
238.39	80.94
238.624	65.94
238.858	72.94
239.091	73.94
239.325	66.94
239.559	73.94
239.793	58.94
240.027	91.94
240.26	73.94
240.494	72.94
240.728	56.94
240.961	60.94
241.195	68.94
241.429	73.94
241.662	78.94
241.896	73.94
242.13	69.94
242.363	77.94
242.597	69.94
242.83	73.94
243.064	79.94
243.298	76.94
243.531	84.94
243.765	67.94
243.998	89.94
244.232	74.94
244.465	87.94
244.699	86.94
244.932	77.94
245.166	83.94
245.399	77.94
245.633	66.94
245.866	72.94
246.099	78.94
246.333	88.94
246.566	67.94
246.8	82.94
247.033	76.94
247.266	76.94
247.5	66.94
247.733	63.94
247.966	85.94
248.2	68.94
248.433	54.94
248.666	61.94
248.899	78.94
249.133	80.94
249.366	86.94
249.599	106.94
249.832	72.94
250.066	88.94
250.299	84.94
250.532	84.94
250.765	78.94
250.998	80.94
251.231	78.94
251.465	68.94
251.698	72.94
251.931	80.94
252.164	73.94
252.397	83.94
252.63	62.94
252.863	79.94
253.096	82.94
253.329	73.94
253.562	79.94
253.795	78.94
254.028	88.94
254.261	84.94
254.494	84.94
254.727	83.94
254.96	67.94
255.193	84.94
255.426	82.94
255.659	75.94
255.892	91.94
256.124	72.94
256.357	62.94
256.59	74.94
256.823	61.94
257.056	74.94
257.289	63.94
257.521	78.94
257.754	65.94
257.987	93.94
258.22	99.94
258.452	100.94
258.685	77.94
258.918	76.94
259.151	80.94
259.383	84.94
259.616	82.94
259.849	83.94
260.081	92.94
260.314	79.94
260.547	72.94
260.779	69.94
261.012	94.94
261.244	81.94
261.477	86.94
261.71	99.94
261.942	95.94
262.175	107.94
262.407	90.94
262.64	85.94
262.872	85.94
263.105	85.94
263.337	75.94
263.57	83.94
263.802	77.94
264.035	70.94
264.267	80.94
264.499	77.94
264.732	89.94
264.964	91.94
265.197	66.94
265.429	89.94
265.661	67.94
265.894	87.94
266.126	75.94
266.358	84.94
266.591	88.94
266.823	78.94
267.055	78.94
267.287	75.94
267.52	85.94
267.752	81.94
267.984	96.94
268.216	85.94
268.448	82.94
268.681	85.94
268.913	84.94
269.145	81.94
269.377	82.94
269.609	83.94
269.841	85.94
270.073	75.94
270.306	93.94
270.538	61.94
270.77	77.94
271.002	67.94
271.234	73.94
271.466	79.94
271.698	77.94
271.93	72.94
272.162	83.94
272.394	86.94
272.626	91.94
272.858	80.94
273.09	88.94
273.322	69.94
273.553	76.94
273.785	80.94
274.017	82.94
274.249	81.94
274.481	81.94
274.713	60.94
274.945	85.94
275.176	93.94
275.408	90.94
275.64	92.94
275.872	98.94
276.104	85.94
276.335	89.94
276.567	96.94
276.799	96.94
277.031	101.94
277.262	122.94
277.494	105.94
277.726	94.94
277.957	95.94
278.189	85.94
278.421	85.94
278.652	92.94
278.884	89.94
279.115	90.94
279.347	89.94
279.579	91.94
279.81	96.94
280.042	120.94
280.273	129.94
280.505	101.94
280.736	89.94
280.968	93.94
281.199	92.94
281.431	85.94
281.662	93.94
281.894	66.94
282.125	77.94
282.356	98.94
282.588	115.94
282.819	106.94
283.051	84.94
283.282	89.94
283.513	74.94
283.745	84.94
283.976	77.94
284.207	85.94
284.439	81.94
284.67	81.94
284.901	82.94
285.132	69.94
285.364	82.94
285.595	90.94
285.826	91.94
286.057	96.94
286.288	74.94
286.52	92.94
286.751	84.94
286.982	73.94
287.213	66.94
287.444	89.94
287.675	99.94
287.906	84.94
288.138	87.94
288.369	70.94
288.6	88.94
288.831	79.94
289.062	95.94
289.293	90.94
289.524	75.94
289.755	85.94
289.986	89.94
290.217	82.94
290.448	86.94
290.679	79.94
290.91	81.94
291.141	84.94
291.371	100.94
291.602	83.94
291.833	86.94
292.064	96.94
292.295	95.94
292.526	90.94
292.757	91.94
292.987	77.94
293.218	82.94
293.449	91.94
293.68	93.94
293.91	96.94
294.141	97.94
294.372	75.94
294.603	80.94
294.833	71.94
295.064	77.94
295.295	95.94
295.525	101.94
295.756	96.94
295.987	104.94
296.217	121.94
296.448	98.94
296.679	84.94
296.909	78.94
297.14	82.94
297.37	78.94
297.601	79.94
297.831	82.94
298.062	81.94
298.292	85.94
298.523	84.94
298.753	86.94
298.984	85.94
299.214	97.94
299.445	90.94
299.675	94.94
299.905	86.94
300.136	79.94
300.366	82.94
300.597	74.94
300.827	85.94
301.057	90.94
301.288	92.94
301.518	87.94
301.748	86.94
301.979	98.94
302.209	89.94
302.439	92.94
302.669	92.94
302.9	76.94
303.13	90.94
303.36	86.94
303.59	90.94
303.82	99.94
304.051	88.94
304.281	78.94
304.511	87.94
304.741	88.94
304.971	81.94
305.201	97.94
305.431	82.94
305.661	81.94
305.891	95.94
306.121	104.94
306.352	88.94
306.582	90.94
306.812	88.94
307.042	103.94
307.272	104.94
307.502	116.94
307.731	111.94
307.961	105.94
308.191	98.94
308.421	86.94
308.651	95.94
308.881	86.94
309.111	100.94
309.341	96.94
309.571	91.94
309.8	96.94
310.03	105.94
310.26	89.94
310.49	81.94
310.72	91.94
310.949	96.94
311.179	86.94
311.409	91.94
311.639	84.94
311.868	93.94
312.098	85.94
312.328	76.94
312.557	104.94
312.787	92.94
313.017	89.94
313.246	81.94
313.476	97.94
313.706	86.94
313.935	89.94
314.165	83.94
314.394	92.94
314.624	78.94
314.853	95.94
315.083	92.94
315.312	69.94
315.542	79.94
315.771	80.94
316.001	83.94
316.23	86.94
316.46	77.94
316.689	85.94
316.919	93.94
317.148	100.94
317.377	81.94
317.607	93.94
317.836	84.94
318.065	88.94
318.295	84.94
318.524	74.94
318.753	83.94
318.983	93.94
319.212	103.94
319.441	96.94
319.67	107.94
319.9	98.94
320.129	105.94
320.358	91.94
320.587	88.94
320.816	84.94
321.046	78.94
321.275	90.94
321.504	76.94
321.733	91.94
321.962	82.94
322.191	79.94
322.42	90.94
322.649	101.94
322.878	102.94
323.108	113.94
323.337	113.94
323.566	102.94
323.795	130.94
324.024	170.94
324.253	315.94
324.482	691.94
324.71	1427.94
324.939	1912.94
325.168	709.94
325.397	211.94
325.626	146.94
325.855	115.94
326.084	111.94
326.313	124.94
326.542	141.94
326.77	212.94
326.999	380.94
327.228	824.94
327.457	1508.94
327.686	1218.94
327.914	361.94
328.143	276.94
328.372	299.94
328.6	187.94
328.829	126.94
329.058	113.94
329.287	119.94
329.515	125.94
329.744	155.94
329.972	236.94
330.201	406.94
330.43	555.94
330.658	293.94
330.887	171.94
331.115	110.94
331.344	100.94
331.572	117.94
331.801	112.94
332.03	91.94
332.258	93.94
332.486	96.94
332.715	93.94
332.943	86.94
333.172	101.94
333.4	88.94
333.629	102.94
333.857	139.94
334.085	190.94
334.314	386.94
334.542	686.94
334.771	648.94
334.999	206.94
335.227	116.94
335.455	93.94
335.684	85.94
335.912	102.94
336.14	103.94
336.369	103.94
336.597	91.94
336.825	86.94
337.053	82.94
337.281	88.94
337.51	97.94
337.738	84.94
337.966	87.94
338.194	96.94
338.422	81.94
338.65	106.94
338.878	86.94
339.106	89.94
339.334	100.94
339.562	84.94
339.79	89.94
340.018	83.94
340.246	102.94
340.474	83.94
340.702	79.94
340.93	77.94
341.158	97.94
341.386	96.94
341.614	72.94
341.842	96.94
342.07	94.94
342.298	93.94
342.526	89.94
342.754	83.94
342.981	97.94
343.209	80.94
343.437	95.94
343.665	84.94
343.893	75.94
344.12	89.94
344.348	88.94
344.576	80.94
344.804	95.94
345.031	95.94
345.259	100.94
345.487	72.94
345.714	76.94
345.942	95.94
346.17	93.94
346.397	100.94
346.625	100.94
346.853	74.94
347.08	79.94
347.308	81.94
347.535	88.94
347.763	86.94
347.99	99.94
348.218	89.94
348.445	105.94
348.673	92.94
348.9	92.94
349.128	81.94
349.355	86.94
349.583	86.94
349.81	90.94
350.037	92.94
350.265	92.94
350.492	83.94
350.72	89.94
350.947	104.94
351.174	88.94
351.402	96.94
351.629	99.94
351.856	94.94
352.083	112.94
352.311	101.94
352.538	99.94
352.765	106.94
352.992	94.94
353.22	112.94
353.447	98.94
353.674	90.94
353.901	91.94
354.128	88.94
354.355	74.94
354.583	92.94
354.81	114.94
355.037	96.94
355.264	85.94
355.491	80.94
355.718	69.94
355.945	94.94
356.172	76.94
356.399	84.94
356.626	85.94
356.853	93.94
357.08	94.94
357.307	98.94
357.534	95.94
357.761	92.94
357.988	105.94
358.215	91.94
358.441	101.94
358.668	79.94
358.895	93.94
359.122	73.94
359.349	83.94
359.576	88.94
359.802	81.94
360.029	113.94
360.256	100.94
360.483	104.94
360.709	81.94
360.936	88.94
361.163	94.94
361.39	86.94
361.616	96.94
361.843	84.94
362.07	82.94
362.296	75.94
362.523	86.94
362.749	88.94
362.976	108.94
363.203	91.94
363.429	82.94
363.656	84.94
363.882	80.94
364.109	77.94
364.335	89.94
364.562	95.94
364.788	88.94
365.015	86.94
365.241	83.94
365.468	110.94
365.694	101.94
365.92	113.94
366.147	95.94
366.373	85.94
366.599	83.94
366.826	85.94
367.052	101.94
367.278	90.94
367.505	91.94
367.731	81.94
367.957	81.94
368.184	86.94
368.41	99.94
368.636	83.94
368.862	124.94
369.089	99.94
369.315	69.94
369.541	92.94
369.767	97.94
369.993	90.94
370.219	93.94
370.445	107.94
370.672	89.94
370.898	78.94
371.124	84.94
371.35	84.94
371.576	90.94
371.802	74.94
372.028	85.94
372.254	72.94
372.48	85.94
372.706	87.94
372.932	86.94
373.158	84.94
373.384	84.94
373.61	92.94
373.835	84.94
374.061	75.94
374.287	78.94
374.513	94.94
374.739	82.94
374.965	81.94
375.191	93.94
375.416	78.94
375.642	90.94
375.868	96.94
376.094	86.94
376.319	81.94
376.545	93.94
376.771	84.94
376.997	83.94
377.222	95.94
377.448	89.94
377.674	89.94
377.899	68.94
378.125	81.94
378.35	82.94
378.576	89.94
378.802	81.94
379.027	91.94
379.253	84.94
379.478	83.94
379.704	94.94
379.929	87.94
380.155	87.94
380.38	75.94
380.606	90.94
380.831	91.94
381.057	81.94
381.282	88.94
381.507	88.94
381.733	94.94
381.958	84.94
382.184	92.94
382.409	91.94
382.634	85.94
382.86	82.94
383.085	88.94
383.31	88.94
383.535	94.94
383.761	88.94
383.986	92.94
384.211	100.94
384.436	83.94
384.662	84.94
384.887	107.94
385.112	92.94
385.337	91.94
385.562	82.94
385.787	98.94
386.013	94.94
386.238	100.94
386.463	92.94
386.688	90.94
386.913	86.94
387.138	96.94
387.363	112.94
387.588	96.94
387.813	93.94
388.038	102.94
388.263	109.94
388.488	91.94
388.713	87.94
388.938	86.94
389.163	93.94
389.387	85.94
389.612	95.94
389.837	89.94
390.062	76.94
390.287	88.94
390.512	79.94
390.736	80.94
390.961	77.94
391.186	92.94
391.411	88.94
391.636	75.94
391.86	69.94
392.085	84.94
392.31	76.94
392.534	77.94
392.759	86.94
392.984	84.94
393.208	97.94
393.433	82.94
393.658	89.94
393.882	88.94
394.107	74.94
394.331	84.94
394.556	91.94
394.78	81.94
395.005	90.94
395.229	82.94
395.454	85.94
395.678	85.94
395.903	87.94
396.127	99.94
396.352	82.94
396.576	83.94
396.801	78.94
397.025	81.94
397.249	95.94
397.474	81.94
397.698	77.94
397.922	74.94
398.147	85.94
398.371	85.94
398.595	67.94
398.82	92.94
399.044	106.94
399.268	80.94
399.492	79.94
399.717	94.94
399.941	74.94
400.165	89.94
400.389	81.94
400.613	85.94
400.837	79.94
401.062	76.94
401.286	91.94
401.51	101.94
401.734	77.94
401.958	109.94
402.182	105.94
402.406	139.94
402.63	110.94
402.854	89.94
403.078	86.94
403.302	96.94
403.526	76.94
403.75	76.94
403.974	101.94
404.198	85.94
404.422	86.94
404.645	84.94
404.869	78.94
405.093	91.94
405.317	108.94
405.541	108.94
405.765	90.94
405.988	104.94
406.212	139.94
406.436	190.94
406.66	129.94
406.883	95.94
407.107	99.94
407.331	100.94
407.555	92.94
407.778	82.94
408.002	80.94
408.226	91.94
408.449	80.94
408.673	79.94
408.896	93.94
409.12	95.94
409.344	96.94
409.567	92.94
409.791	100.94
410.014	106.94
410.238	81.94
410.461	90.94
410.685	93.94
410.908	102.94
411.132	105.94
411.355	94.94
411.578	77.94
411.802	82.94
412.025	97.94
412.249	85.94
412.472	90.94
412.695	106.94
412.919	101.94
413.142	96.94
413.365	82.94
413.589	91.94
413.812	84.94
414.035	83.94
414.258	74.94
414.482	72.94
414.705	84.94
414.928	98.94
415.151	93.94
415.374	92.94
415.597	92.94
415.821	85.94
416.044	102.94
416.267	85.94
416.49	100.94
416.713	86.94
416.936	81.94
417.159	102.94
417.382	88.94
417.605	96.94
417.828	93.94
418.051	94.94
418.274	90.94
418.497	79.94
418.72	92.94
418.943	86.94
419.166	90.94
419.389	89.94
419.611	94.94
419.834	73.94
420.057	90.94
420.28	82.94
420.503	81.94
420.726	82.94
420.948	85.94
421.171	103.94
421.394	81.94
421.617	85.94
421.839	93.94
422.062	89.94
422.285	77.94
422.507	76.94
422.73	99.94
422.953	91.94
423.175	89.94
423.398	83.94
423.621	78.94
423.843	88.94
424.066	85.94
424.288	84.94
424.511	85.94
424.733	92.94
424.956	99.94
425.178	85.94
425.401	97.94
425.623	86.94
425.846	106.94
426.068	93.94
426.291	86.94
426.513	84.94
426.735	87.94
426.958	90.94
427.18	100.94
427.402	136.94
427.625	163.94
427.847	137.94
428.069	150.94
428.292	103.94
428.514	91.94
428.736	81.94
428.958	79.94
429.181	90.94
429.403	74.94
429.625	85.94
429.847	92.94
430.069	77.94
430.292	73.94
430.514	77.94
430.736	86.94
430.958	71.94
431.18	80.94
431.402	65.94
431.624	80.94
431.846	79.94
432.068	94.94
432.29	95.94
432.512	80.94
432.734	92.94
432.956	84.94
433.178	97.94
433.4	91.94
433.622	95.94
433.844	94.94
434.066	91.94
434.287	82.94
434.509	85.94
434.731	80.94
434.953	78.94
435.175	91.94
435.397	75.94
435.618	91.94
435.84	103.94
436.062	100.94
436.284	101.94
436.505	116.94
436.727	108.94
436.949	83.94
437.17	84.94
437.392	76.94
437.614	90.94
437.835	90.94
438.057	106.94
438.278	96.94
438.5	90.94
438.721	101.94
438.943	93.94
439.165	86.94
439.386	84.94
439.608	85.94
439.829	82.94
440.05	99.94
440.272	142.94
440.493	94.94
440.715	82.94
440.936	98.94
441.158	87.94
441.379	81.94
441.6	71.94
441.822	80.94
442.043	84.94
442.264	98.94
442.486	86.94
442.707	89.94
442.928	96.94
443.149	125.94
443.371	129.94
443.592	91.94
443.813	91.94
444.034	88.94
444.255	78.94
444.476	87.94
444.698	106.94
444.919	88.94
445.14	117.94
445.361	117.94
445.582	106.94
445.803	137.94
446.024	127.94
446.245	125.94
446.466	110.94
446.687	93.94
446.908	89.94
447.129	76.94
447.35	64.94
447.571	86.94
447.792	88.94
448.013	89.94
448.234	113.94
448.455	92.94
448.675	105.94
448.896	95.94
449.117	90.94
449.338	100.94
449.559	114.94
449.779	119.94
450	97.94
450.221	76.94
450.442	102.94
450.662	85.94
450.883	95.94
451.104	102.94
451.324	91.94
451.545	86.94
451.766	95.94
451.986	94.94
452.207	94.94
452.428	101.94
452.648	96.94
452.869	94.94
453.089	109.94
453.31	100.94
453.53	97.94
453.751	80.94
453.971	87.94
454.192	96.94
454.412	88.94
454.633	82.94
454.853	87.94
455.073	95.94
455.294	89.94
455.514	106.94
455.734	90.94
455.955	82.94
456.175	76.94
456.395	88.94
456.616	78.94
456.836	83.94
457.056	89.94
457.276	76.94
457.497	65.94
457.717	88.94
457.937	88.94
458.157	84.94
458.377	92.94
458.598	110.94
458.818	125.94
459.038	144.94
459.258	94.94
459.478	83.94
459.698	86.94
459.918	73.94
460.138	73.94
460.358	88.94
460.578	80.94
460.798	70.94
461.018	82.94
461.238	82.94
461.458	82.94
461.678	78.94
461.898	75.94
462.118	90.94
462.338	84.94
462.558	90.94
462.777	85.94
462.997	93.94
463.217	91.94
463.437	83.94
463.657	82.94
463.876	85.94
464.096	91.94
464.316	80.94
464.536	90.94
464.755	100.94
464.975	102.94
465.195	151.94
465.414	138.94
465.634	77.94
465.854	88.94
466.073	85.94
466.293	93.94
466.512	92.94
466.732	74.94
466.951	84.94
467.171	73.94
467.391	78.94
467.61	109.94
467.829	126.94
468.049	270.94
468.268	343.94
468.488	133.94
468.707	84.94
468.927	90.94
469.146	80.94
469.365	79.94
469.585	86.94
469.804	84.94
470.023	98.94
470.243	102.94
470.462	86.94
470.681	94.94
470.901	95.94
471.12	82.94
471.339	85.94
471.558	76.94
471.777	117.94
471.997	165.94
472.216	474.94
472.435	1012.94
472.654	265.94
472.873	102.94
473.092	69.94
473.311	85.94
473.53	84.94
473.749	99.94
473.968	105.94
474.187	95.94
474.406	93.94
474.625	94.94
474.844	85.94
475.063	84.94
475.282	73.94
475.501	89.94
475.72	87.94
475.939	100.94
476.158	85.94
476.377	89.94
476.596	94.94
476.814	97.94
477.033	85.94
477.252	88.94
477.471	77.94
477.69	83.94
477.908	76.94
478.127	82.94
478.346	85.94
478.564	75.94
478.783	92.94
479.002	102.94
479.22	105.94
479.439	105.94
479.658	89.94
479.876	93.94
480.095	97.94
480.313	104.94
480.532	116.94
480.751	176.94
480.969	464.94
481.188	1787.94
481.406	1018.94
481.624	195.94
481.843	108.94
482.061	88.94
482.28	101.94
482.498	96.94
482.717	89.94
482.935	91.94
483.153	84.94
483.372	95.94
483.59	77.94
483.808	105.94
484.027	82.94
484.245	84.94
484.463	75.94
484.681	82.94
484.9	96.94
485.118	75.94
485.336	90.94
485.554	83.94
485.772	100.94
485.99	107.94
486.209	102.94
486.427	114.94
486.645	109.94
486.863	97.94
487.081	103.94
487.299	95.94
487.517	97.94
487.735	75.94
487.953	88.94
488.171	89.94
488.389	81.94
488.607	103.94
488.825	91.94
489.043	92.94
489.261	79.94
489.479	81.94
489.696	80.94
489.914	84.94
490.132	80.94
490.35	94.94
490.568	92.94
490.786	85.94
491.003	69.94
491.221	79.94
491.439	95.94
491.657	95.94
491.874	94.94
492.092	92.94
492.31	84.94
492.527	67.94
492.745	83.94
492.963	92.94
493.18	88.94
493.398	82.94
493.615	90.94
493.833	85.94
494.05	98.94
494.268	106.94
494.485	81.94
494.703	86.94
494.92	98.94
495.138	100.94
495.355	87.94
495.573	88.94
495.79	92.94
496.008	81.94
496.225	82.94
496.442	82.94
496.66	69.94
496.877	92.94
497.094	82.94
497.312	92.94
497.529	82.94
497.746	88.94
497.963	92.94
498.181	83.94
498.398	78.94
498.615	100.94
498.832	83.94
499.049	83.94
499.267	78.94
499.484	85.94
499.701	95.94
499.918	92.94
500.135	92.94
500.352	89.94
500.569	90.94
500.786	92.94
501.003	92.94
501.22	80.94
501.437	91.94
501.654	85.94
501.871	84.94
502.088	100.94
502.305	93.94
502.522	95.94
502.739	84.94
502.956	82.94
503.172	91.94
503.389	82.94
503.606	106.94
503.823	87.94
504.04	76.94
504.256	90.94
504.473	88.94
504.69	89.94
504.907	99.94
505.123	90.94
505.34	96.94
505.557	76.94
505.773	72.94
505.99	75.94
506.207	93.94
506.423	82.94
506.64	81.94
506.856	90.94
507.073	92.94
507.289	102.94
507.506	88.94
507.722	91.94
507.939	102.94
508.155	83.94
508.372	93.94
508.588	93.94
508.805	94.94
509.021	84.94
509.238	82.94
509.454	74.94
509.67	98.94
509.887	91.94
510.103	118.94
510.319	173.94
510.536	571.94
510.752	1806.94
510.968	528.94
511.184	117.94
511.401	110.94
511.617	102.94
511.833	85.94
512.049	88.94
512.265	93.94
512.481	105.94
512.698	100.94
512.914	81.94
513.13	78.94
513.346	89.94
513.562	94.94
513.778	85.94
513.994	97.94
514.21	90.94
514.426	96.94
514.642	124.94
514.858	126.94
515.074	155.94
515.29	386.94
515.506	1184.94
515.721	447.94
515.937	124.94
516.153	107.94
516.369	93.94
516.585	98.94
