Data from Circ_1989_H10_HRD10591_00072.txt Node
Date: Wed Jan 03 12:01:36 EST 2024
User: Yrep
Spectrometer: HR+D1059
Trigger mode: 1
Integration Time (sec): 1.000000E-1
Scans to average: 1
Electric dark correction enabled: true
Nonlinearity correction enabled: false
Boxcar width: 0
XAxis mode: Wavelengths
Number of Pixels in Spectrum: 2048
>>>>>Begin Spectral Data<<<<<
223.165	-15.06
223.4	-15.06
223.635	-15.06
223.869	-7.06
224.104	-19.06
224.338	-9.06
224.573	-16.06
224.808	-14.06
225.042	-9.06
225.277	-11.06
225.511	-15.06
225.746	5.94
225.98	18.94
226.215	-2.06
226.449	24.94
226.683	20.94
226.918	18.94
227.152	27.94
227.387	26.94
227.621	30.94
227.856	48.94
228.09	42.94
228.324	56.94
228.559	47.94
228.793	162.94
229.027	436.94
229.262	527.94
229.496	620.94
229.73	798.94
229.964	812.94
230.199	547.94
230.433	506.94
230.667	497.94
230.901	492.94
231.136	477.94
231.37	454.94
231.604	454.94
231.838	467.94
232.072	472.94
232.306	485.94
232.541	472.94
232.775	495.94
233.009	510.94
233.243	477.94
233.477	518.94
233.711	512.94
233.945	513.94
234.179	562.94
234.413	505.94
234.647	536.94
234.881	556.94
235.115	550.94
235.349	555.94
235.583	579.94
235.817	624.94
236.051	680.94
236.285	632.94
236.519	629.94
236.753	744.94
236.987	926.94
237.221	1385.94
237.455	1499.94
237.689	917.94
237.922	759.94
238.156	744.94
238.39	712.94
238.624	709.94
238.858	700.94
239.091	688.94
239.325	712.94
239.559	726.94
239.793	768.94
240.027	807.94
240.26	934.94
240.494	1000.94
240.728	1003.94
240.961	920.94
241.195	877.94
241.429	816.94
241.662	811.94
241.896	846.94
242.13	833.94
242.363	854.94
242.597	873.94
242.83	899.94
243.064	881.94
243.298	877.94
243.531	918.94
243.765	914.94
243.998	919.94
244.232	941.94
244.465	956.94
244.699	1006.94
244.932	998.94
245.166	991.94
245.399	963.94
245.633	1013.94
245.866	1029.94
246.099	997.94
246.333	1047.94
246.566	1076.94
246.8	1069.94
247.033	1112.94
247.266	1128.94
247.5	1195.94
247.733	1242.94
247.966	1244.94
248.2	1256.94
248.433	1266.94
248.666	1340.94
248.899	1468.94
249.133	1534.94
249.366	1590.94
249.599	1518.94
249.832	1510.94
250.066	1699.94
250.299	2166.94
250.532	2836.94
250.765	2796.94
250.998	2430.94
251.231	2032.94
251.465	1787.94
251.698	1725.94
251.931	1617.94
252.164	1591.94
252.397	1567.94
252.63	1596.94
252.863	1712.94
253.096	1802.94
253.329	1866.94
253.562	1777.94
253.795	1687.94
254.028	1726.94
254.261	1821.94
254.494	1992.94
254.727	2297.94
254.96	2418.94
255.193	2262.94
255.426	2311.94
255.659	2700.94
255.892	3824.94
256.124	5090.94
256.357	4335.94
256.59	3124.94
256.823	2533.94
257.056	2218.94
257.289	2071.94
257.521	2016.94
257.754	1939.94
257.987	1887.94
258.22	1857.94
258.452	1839.94
258.685	1806.94
258.918	1782.94
259.151	1844.94
259.383	1866.94
259.616	1870.94
259.849	1935.94
260.081	2124.94
260.314	2191.94
260.547	2114.94
260.779	1972.94
261.012	1914.94
261.244	1897.94
261.477	1835.94
261.71	1866.94
261.942	1900.94
262.175	1957.94
262.407	1870.94
262.64	1830.94
262.872	1797.94
263.105	1816.94
263.337	1820.94
263.57	1793.94
263.802	1847.94
264.035	1829.94
264.267	1835.94
264.499	1812.94
264.732	1836.94
264.964	1838.94
265.197	1847.94
265.429	1877.94
265.661	1853.94
265.894	1900.94
266.126	1891.94
266.358	1915.94
266.591	1975.94
266.823	2007.94
267.055	2038.94
267.287	1998.94
267.52	1986.94
267.752	2037.94
267.984	2026.94
268.216	2056.94
268.448	2064.94
268.681	2162.94
268.913	2223.94
269.145	2433.94
269.377	2459.94
269.609	2350.94
269.841	2326.94
270.073	2452.94
270.306	2719.94
270.538	2840.94
270.77	2692.94
271.002	2533.94
271.234	2522.94
271.466	2716.94
271.698	2814.94
271.93	2791.94
272.162	2835.94
272.394	2741.94
272.626	2638.94
272.858	2502.94
273.09	2467.94
273.322	2450.94
273.553	2407.94
273.785	2364.94
274.017	2458.94
274.249	2490.94
274.481	2455.94
274.713	2522.94
274.945	2563.94
275.176	2531.94
275.408	2564.94
275.64	2594.94
275.872	2614.94
276.104	2627.94
276.335	2645.94
276.567	2733.94
276.799	2962.94
277.031	3373.94
277.262	3489.94
277.494	3204.94
277.726	3023.94
277.957	2869.94
278.189	2826.94
278.421	2806.94
278.652	2719.94
278.884	2753.94
279.115	2656.94
279.347	2785.94
279.579	2783.94
279.81	2892.94
280.042	3012.94
280.273	3214.94
280.505	3098.94
280.736	2923.94
280.968	2927.94
281.199	2831.94
281.431	2788.94
281.662	2782.94
281.894	2791.94
282.125	2870.94
282.356	3015.94
282.588	3111.94
282.819	2943.94
283.051	2802.94
283.282	2754.94
283.513	2831.94
283.745	2803.94
283.976	2874.94
284.207	2850.94
284.439	2857.94
284.67	2905.94
284.901	2880.94
285.132	2855.94
285.364	2863.94
285.595	2868.94
285.826	2881.94
286.057	2947.94
286.288	2948.94
286.52	2931.94
286.751	2905.94
286.982	2949.94
287.213	2960.94
287.444	2922.94
287.675	3029.94
287.906	3131.94
288.138	3119.94
288.369	3130.94
288.6	3135.94
288.831	3084.94
289.062	3060.94
289.293	3069.94
289.524	3063.94
289.755	3060.94
289.986	3107.94
290.217	3022.94
290.448	3028.94
290.679	3064.94
290.91	3043.94
291.141	3003.94
291.371	3043.94
291.602	2990.94
291.833	2988.94
292.064	3025.94
292.295	2963.94
292.526	3019.94
292.757	3000.94
292.987	2985.94
293.218	2999.94
293.449	3019.94
293.68	3054.94
293.91	3055.94
294.141	3034.94
294.372	3007.94
294.603	3061.94
294.833	3066.94
295.064	3059.94
295.295	3080.94
295.525	3039.94
295.756	3096.94
295.987	3159.94
296.217	3368.94
296.448	3332.94
296.679	3118.94
296.909	3099.94
297.14	3117.94
297.37	3227.94
297.601	3230.94
297.831	3201.94
298.062	3248.94
298.292	3245.94
298.523	3310.94
298.753	3293.94
298.984	3227.94
299.214	3322.94
299.445	3330.94
299.675	3281.94
299.905	3360.94
300.136	3329.94
300.366	3354.94
300.597	3378.94
300.827	3456.94
301.057	3505.94
301.288	3614.94
301.518	3469.94
301.748	3565.94
301.979	3656.94
302.209	3659.94
302.439	3678.94
302.669	3565.94
302.9	3453.94
303.13	3428.94
303.36	3558.94
303.59	3675.94
303.82	3738.94
304.051	3597.94
304.281	3559.94
304.511	3458.94
304.741	3463.94
304.971	3489.94
305.201	3428.94
305.431	3435.94
305.661	3474.94
305.891	3418.94
306.121	3489.94
306.352	3546.94
306.582	3524.94
306.812	3496.94
307.042	3571.94
307.272	3726.94
307.502	3781.94
307.731	3676.94
307.961	3600.94
308.191	3539.94
308.421	3483.94
308.651	3570.94
308.881	3588.94
309.111	3550.94
309.341	3583.94
309.571	3694.94
309.8	3722.94
310.03	3848.94
310.26	3799.94
310.49	3843.94
310.72	3966.94
310.949	4109.94
311.179	4005.94
311.409	3836.94
311.639	3904.94
311.868	3862.94
312.098	3921.94
312.328	4040.94
312.557	4194.94
312.787	4280.94
313.017	4148.94
313.246	3942.94
313.476	3925.94
313.706	4019.94
313.935	4102.94
314.165	4198.94
314.394	4221.94
314.624	4168.94
314.853	4012.94
315.083	3990.94
315.312	4013.94
315.542	3924.94
315.771	3910.94
316.001	3920.94
316.23	3909.94
316.46	3950.94
316.689	4046.94
316.919	4078.94
317.148	4031.94
317.377	4015.94
317.607	4037.94
317.836	3988.94
318.065	3922.94
318.295	3886.94
318.524	3955.94
318.753	3930.94
318.983	3971.94
319.212	3982.94
319.441	4021.94
319.67	4067.94
319.9	4031.94
320.129	3996.94
320.358	4004.94
320.587	4008.94
320.816	4115.94
321.046	4178.94
321.275	4157.94
321.504	4221.94
321.733	4257.94
321.962	4300.94
322.191	4364.94
322.42	4533.94
322.649	4638.94
322.878	4735.94
323.108	4808.94
323.337	5018.94
323.566	5197.94
323.795	5543.94
324.024	6168.94
324.253	8127.94
324.482	12033.94
324.71	15624.94
324.939	15624.94
325.168	13799.94
325.397	7143.94
325.626	5939.94
325.855	5477.94
326.084	5426.94
326.313	5426.94
326.542	5708.94
326.77	6471.94
326.999	8083.94
327.228	11682.94
327.457	15302.94
327.686	14742.94
327.914	9647.94
328.143	9243.94
328.372	9570.94
328.6	8138.94
328.829	7162.94
329.058	7303.94
329.287	7413.94
329.515	7511.94
329.744	8346.94
329.972	10330.94
330.201	12933.94
330.43	13924.94
330.658	10700.94
330.887	8680.94
331.115	7484.94
331.344	6684.94
331.572	6355.94
331.801	6391.94
332.03	6334.94
332.258	6237.94
332.486	6265.94
332.715	6476.94
332.943	6759.94
333.172	7043.94
333.4	7607.94
333.629	8272.94
333.857	9550.94
334.085	11602.94
334.314	14256.94
334.542	15624.94
334.771	15250.94
334.999	10588.94
335.227	8270.94
335.455	7310.94
335.684	6675.94
335.912	6331.94
336.14	6042.94
336.369	5977.94
336.597	5942.94
336.825	5766.94
337.053	5568.94
337.281	5376.94
337.51	5300.94
337.738	5297.94
337.966	5243.94
338.194	5196.94
338.422	5076.94
338.65	5037.94
338.878	4999.94
339.106	4988.94
339.334	4955.94
339.562	4810.94
339.79	4769.94
340.018	4794.94
340.246	4782.94
340.474	4742.94
340.702	4717.94
340.93	4723.94
341.158	4722.94
341.386	4714.94
341.614	4692.94
341.842	4652.94
342.07	4656.94
342.298	4637.94
342.526	4573.94
342.754	4530.94
342.981	4605.94
343.209	4632.94
343.437	4884.94
343.665	5147.94
343.893	5318.94
344.12	5423.94
344.348	5166.94
344.576	5015.94
344.804	4880.94
345.031	4896.94
345.259	4883.94
345.487	4739.94
345.714	4586.94
345.942	4452.94
346.17	4493.94
346.397	4428.94
346.625	4493.94
346.853	4418.94
347.08	4407.94
347.308	4446.94
347.535	4588.94
347.763	4547.94
347.99	4529.94
348.218	4567.94
348.445	4598.94
348.673	4524.94
348.9	4384.94
349.128	4402.94
349.355	4335.94
349.583	4250.94
349.81	4276.94
350.037	4281.94
350.265	4323.94
350.492	4287.94
350.72	4317.94
350.947	4379.94
351.174	4407.94
351.402	4535.94
351.629	4368.94
351.856	4463.94
352.083	4482.94
352.311	4494.94
352.538	4558.94
352.765	4455.94
352.992	4391.94
353.22	4365.94
353.447	4290.94
353.674	4217.94
353.901	4243.94
354.128	4185.94
354.355	4146.94
354.583	4154.94
354.81	4125.94
355.037	4183.94
355.264	4150.94
355.491	4133.94
355.718	4176.94
355.945	4188.94
356.172	4211.94
356.399	4205.94
356.626	4117.94
356.853	4123.94
357.08	4144.94
357.307	4084.94
357.534	4078.94
357.761	4158.94
357.988	4158.94
358.215	4126.94
358.441	4189.94
358.668	4256.94
358.895	4236.94
359.122	4268.94
359.349	4318.94
359.576	4490.94
359.802	4661.94
360.029	4905.94
360.256	4903.94
360.483	4638.94
360.709	4377.94
360.936	4373.94
361.163	4384.94
361.39	4478.94
361.616	4471.94
361.843	4422.94
362.07	4366.94
362.296	4386.94
362.523	4372.94
362.749	4413.94
362.976	4327.94
363.203	4294.94
363.429	4214.94
363.656	4305.94
363.882	4303.94
364.109	4258.94
364.335	4285.94
364.562	4242.94
364.788	4208.94
365.015	4227.94
365.241	4225.94
365.468	4278.94
365.694	4334.94
365.92	4282.94
366.147	4230.94
366.373	4306.94
366.599	4238.94
366.826	4237.94
367.052	4175.94
367.278	4273.94
367.505	4253.94
367.731	4251.94
367.957	4270.94
368.184	4324.94
368.41	4367.94
368.636	4473.94
368.862	4418.94
369.089	4388.94
369.315	4273.94
369.541	4359.94
369.767	4350.94
369.993	4322.94
370.219	4381.94
370.445	4368.94
370.672	4369.94
370.898	4377.94
371.124	4422.94
371.35	4496.94
371.576	4447.94
371.802	4451.94
372.028	4416.94
372.254	4529.94
372.48	4558.94
372.706	4616.94
372.932	4623.94
373.158	4584.94
373.384	4491.94
373.61	4510.94
373.835	4499.94
374.061	4508.94
374.287	4644.94
374.513	4643.94
374.739	4824.94
374.965	4867.94
375.191	4839.94
375.416	4779.94
375.642	4604.94
375.868	4632.94
376.094	4620.94
376.319	4508.94
376.545	4500.94
376.771	4425.94
376.997	4475.94
377.222	4430.94
377.448	4474.94
377.674	4432.94
377.899	4338.94
378.125	4406.94
378.35	4332.94
378.576	4422.94
378.802	4395.94
379.027	4402.94
379.253	4406.94
379.478	4399.94
379.704	4386.94
379.929	4462.94
380.155	4457.94
380.38	4470.94
380.606	4490.94
380.831	4370.94
381.057	4457.94
381.282	4416.94
381.507	4518.94
381.733	4524.94
381.958	4551.94
382.184	4563.94
382.409	4699.94
382.634	4778.94
382.86	4672.94
383.085	4720.94
383.31	4799.94
383.535	4891.94
383.761	4886.94
383.986	4937.94
384.211	5057.94
384.436	5106.94
384.662	5172.94
384.887	5241.94
385.112	5280.94
385.337	5309.94
385.562	5318.94
385.787	5290.94
386.013	5412.94
386.238	5420.94
386.463	5402.94
386.688	5388.94
386.913	5306.94
387.138	5297.94
387.363	5316.94
387.588	5227.94
387.813	5296.94
388.038	5261.94
388.263	5313.94
388.488	5298.94
388.713	5232.94
388.938	5258.94
389.163	5236.94
389.387	5251.94
389.612	5099.94
389.837	5134.94
390.062	5147.94
390.287	5194.94
390.512	5186.94
390.736	5272.94
390.961	5366.94
391.186	5454.94
391.411	5567.94
391.636	5713.94
391.86	5818.94
392.085	5967.94
392.31	5758.94
392.534	5656.94
392.759	5597.94
392.984	5469.94
393.208	5467.94
393.433	5469.94
393.658	5492.94
393.882	5403.94
394.107	5470.94
394.331	5543.94
394.556	5564.94
394.78	5551.94
395.005	5683.94
395.229	5649.94
395.454	5793.94
395.678	5900.94
395.903	5928.94
396.127	6019.94
396.352	5767.94
396.576	5538.94
396.801	5638.94
397.025	5649.94
397.249	5732.94
397.474	5928.94
397.698	5926.94
397.922	6013.94
398.147	6287.94
398.371	6332.94
398.595	6374.94
398.82	6721.94
399.044	7212.94
399.268	7957.94
399.492	8949.94
399.717	9604.94
399.941	9422.94
400.165	8906.94
400.389	8173.94
400.613	7431.94
400.837	7010.94
401.062	6895.94
401.286	6757.94
401.51	6694.94
401.734	6677.94
401.958	6813.94
402.182	6823.94
402.406	7038.94
402.63	7075.94
402.854	7175.94
403.078	7293.94
403.302	7407.94
403.526	7508.94
403.75	7596.94
403.974	7682.94
404.198	7669.94
404.422	7947.94
404.645	8088.94
404.869	8271.94
405.093	8979.94
405.317	9651.94
405.541	9392.94
405.765	8390.94
405.988	7923.94
406.212	7966.94
406.436	8034.94
406.66	8013.94
406.883	7882.94
407.107	8604.94
407.331	9013.94
407.555	9612.94
407.778	9212.94
408.002	8418.94
408.226	8130.94
408.449	8095.94
408.673	7900.94
408.896	7964.94
409.12	8150.94
409.344	7610.94
409.567	7436.94
409.791	7308.94
410.014	7228.94
410.238	7225.94
410.461	7270.94
410.685	7317.94
410.908	7328.94
411.132	7603.94
411.355	7637.94
411.578	7378.94
411.802	7183.94
412.025	7475.94
412.249	8024.94
412.472	8795.94
412.695	9312.94
412.919	8649.94
413.142	8083.94
413.365	7636.94
413.589	7342.94
413.812	6989.94
414.035	6914.94
414.258	6918.94
414.482	6903.94
414.705	6825.94
414.928	6820.94
415.151	6731.94
415.374	6661.94
415.597	6660.94
415.821	6662.94
416.044	6648.94
416.267	6640.94
416.49	6484.94
416.713	6454.94
416.936	6578.94
417.159	6619.94
417.382	6787.94
417.605	6936.94
417.828	7058.94
418.051	7025.94
418.274	6757.94
418.497	6639.94
418.72	6828.94
418.943	6782.94
419.166	7282.94
419.389	7643.94
419.611	7764.94
419.834	7661.94
420.057	7846.94
420.28	8245.94
420.503	8012.94
420.726	7623.94
420.948	7557.94
421.171	7752.94
421.394	7559.94
421.617	6994.94
421.839	6910.94
422.062	7031.94
422.285	7130.94
422.507	7699.94
422.73	8177.94
422.953	7581.94
423.175	7160.94
423.398	7190.94
423.621	7222.94
423.843	7489.94
424.066	7419.94
424.288	7224.94
424.511	7467.94
424.733	7987.94
424.956	8372.94
425.178	7951.94
425.401	8108.94
425.623	7900.94
425.846	6908.94
426.068	6888.94
426.291	6661.94
426.513	6786.94
426.735	6849.94
426.958	7345.94
427.18	8290.94
427.402	9646.94
427.625	9973.94
427.847	9248.94
428.069	9111.94
428.292	7608.94
428.514	6701.94
428.736	6359.94
428.958	6366.94
429.181	6068.94
429.403	6043.94
429.625	6273.94
429.847	6475.94
430.069	7098.94
430.292	6482.94
430.514	6033.94
430.736	5989.94
430.958	5862.94
431.18	5799.94
431.402	5841.94
431.624	5825.94
431.846	5853.94
432.068	5862.94
432.29	5999.94
432.512	5874.94
432.734	5985.94
432.956	5820.94
433.178	6040.94
433.4	6045.94
433.622	5914.94
433.844	5996.94
434.066	5981.94
434.287	6014.94
434.509	6263.94
434.731	6414.94
434.953	6558.94
435.175	6666.94
435.397	6783.94
435.618	6741.94
435.84	7166.94
436.062	8034.94
436.284	7877.94
436.505	6670.94
436.727	6308.94
436.949	6072.94
437.17	5933.94
437.392	5962.94
437.614	6115.94
437.835	6565.94
438.057	7430.94
438.278	8158.94
438.5	8052.94
438.721	8998.94
438.943	7738.94
439.165	6432.94
439.386	6318.94
439.608	6438.94
439.829	6517.94
440.05	6996.94
440.272	7237.94
440.493	6593.94
440.715	6316.94
440.936	6222.94
441.158	6290.94
441.379	6407.94
441.6	6754.94
441.822	6906.94
442.043	7438.94
442.264	8154.94
442.486	7896.94
442.707	6986.94
442.928	6830.94
443.149	7092.94
443.371	7267.94
443.592	7888.94
443.813	8829.94
444.034	8771.94
444.255	7665.94
444.476	7397.94
444.698	7567.94
444.919	7677.94
445.14	7452.94
445.361	7381.94
445.582	7581.94
445.803	8377.94
446.024	9038.94
446.245	8583.94
446.466	7597.94
446.687	6507.94
446.908	6235.94
447.129	5938.94
447.35	5850.94
447.571	5782.94
447.792	5583.94
448.013	5709.94
448.234	5969.94
448.455	6657.94
448.675	8028.94
448.896	8367.94
449.117	6759.94
449.338	7167.94
449.559	8575.94
449.779	8780.94
450	6562.94
450.221	5873.94
450.442	5602.94
450.662	5553.94
450.883	5726.94
451.104	5848.94
451.324	5629.94
451.545	5490.94
451.766	5380.94
451.986	5226.94
452.207	5176.94
452.428	5138.94
452.648	5232.94
452.869	5245.94
453.089	5202.94
453.31	5436.94
453.53	5272.94
453.751	5136.94
453.971	5235.94
454.192	5298.94
454.412	5150.94
454.633	5131.94
454.853	5032.94
455.073	5066.94
455.294	5493.94
455.514	6100.94
455.734	5512.94
455.955	4994.94
456.175	4860.94
456.395	4846.94
456.616	4814.94
456.836	4855.94
457.056	4818.94
457.276	4756.94
457.497	4965.94
457.717	4898.94
457.937	4952.94
458.157	5035.94
458.377	5083.94
458.598	5500.94
458.818	6201.94
459.038	7054.94
459.258	6874.94
459.478	6111.94
459.698	5944.94
459.918	6026.94
460.138	6202.94
460.358	6346.94
460.578	6439.94
460.798	6580.94
461.018	6541.94
461.238	6440.94
461.458	6402.94
461.678	6312.94
461.898	6511.94
462.118	6527.94
462.338	6886.94
462.558	7052.94
462.777	7245.94
462.997	7825.94
463.217	8220.94
463.437	8032.94
463.657	7484.94
463.876	7238.94
464.096	7311.94
464.316	7377.94
464.536	7347.94
464.755	7091.94
464.975	7098.94
465.195	7348.94
465.414	7402.94
465.634	6541.94
465.854	6199.94
466.073	5948.94
466.293	5725.94
466.512	5580.94
466.732	5496.94
466.951	5520.94
467.171	5607.94
467.391	5598.94
467.61	5762.94
467.829	5970.94
468.049	6928.94
468.268	7933.94
468.488	6414.94
468.707	5858.94
468.927	5717.94
469.146	5520.94
469.365	5508.94
469.585	5554.94
469.804	5689.94
470.023	5868.94
470.243	5781.94
470.462	5857.94
470.681	6016.94
470.901	5884.94
471.12	5816.94
471.339	5901.94
471.558	5918.94
471.777	6009.94
471.997	6575.94
472.216	9004.94
472.435	13167.94
472.654	9945.94
472.873	7573.94
473.092	6748.94
473.311	6326.94
473.53	6157.94
473.749	6042.94
473.968	6504.94
474.187	7493.94
474.406	6824.94
474.625	5814.94
474.844	5568.94
475.063	5538.94
475.282	5496.94
475.501	5613.94
475.72	5560.94
475.939	5612.94
476.158	5640.94
476.377	5634.94
476.596	5611.94
476.814	5730.94
477.033	5814.94
477.252	5924.94
477.471	6062.94
477.69	6125.94
477.908	6171.94
478.127	6326.94
478.346	6376.94
478.564	6459.94
478.783	6566.94
479.002	6825.94
479.22	6806.94
479.439	6964.94
479.658	7121.94
479.876	7312.94
480.095	7559.94
480.313	8114.94
480.532	8257.94
480.751	8694.94
480.969	11086.94
481.188	15624.94
481.406	15624.94
481.624	12694.94
481.843	9940.94
482.061	8766.94
482.28	8186.94
482.498	7652.94
482.717	7456.94
482.935	7197.94
483.153	7050.94
483.372	7005.94
483.59	6874.94
483.808	6808.94
484.027	6754.94
484.245	6779.94
484.463	6759.94
484.681	6790.94
484.9	6839.94
485.118	6822.94
485.336	6871.94
485.554	6938.94
485.772	6938.94
485.99	6997.94
486.209	7084.94
486.427	7038.94
486.645	7090.94
486.863	7192.94
487.081	7169.94
487.299	7219.94
487.517	7025.94
