Data from Circ_1989_H10_HRD10591_00093.txt Node
Date: Wed Jan 03 12:01:40 EST 2024
User: Yrep
Spectrometer: HR+D1059
Trigger mode: 1
Integration Time (sec): 1.000000E-1
Scans to average: 1
Electric dark correction enabled: true
Nonlinearity correction enabled: false
Boxcar width: 0
XAxis mode: Wavelengths
Number of Pixels in Spectrum: 2048
>>>>>Begin Spectral Data<<<<<
223.165	-36.12
223.4	-36.12
223.635	-36.12
223.869	-13.12
224.104	-28.12
224.338	-21.12
224.573	-2.12
224.808	-18.12
225.042	-23.12
225.277	-14.12
225.511	8.88
225.746	1.88
225.98	14.88
226.215	18.88
226.449	20.88
226.683	20.88
226.918	31.88
227.152	37.88
227.387	42.88
227.621	21.88
227.856	36.88
228.09	51.88
228.324	40.88
228.559	66.88
228.793	64.88
229.027	61.88
229.262	53.88
229.496	68.88
229.73	78.88
229.964	97.88
230.199	64.88
230.433	78.88
230.667	72.88
230.901	76.88
231.136	84.88
231.37	64.88
231.604	78.88
231.838	73.88
232.072	70.88
232.306	67.88
232.541	80.88
232.775	63.88
233.009	70.88
233.243	85.88
233.477	86.88
233.711	74.88
233.945	76.88
234.179	85.88
234.413	73.88
234.647	75.88
234.881	76.88
235.115	86.88
235.349	79.88
235.583	74.88
235.817	82.88
236.051	76.88
236.285	80.88
236.519	81.88
236.753	84.88
236.987	80.88
237.221	92.88
237.455	88.88
237.689	79.88
237.922	77.88
238.156	69.88
238.39	57.88
238.624	78.88
238.858	77.88
239.091	74.88
239.325	76.88
239.559	87.88
239.793	86.88
240.027	68.88
240.26	80.88
240.494	86.88
240.728	68.88
240.961	63.88
241.195	78.88
241.429	64.88
241.662	58.88
241.896	63.88
242.13	67.88
242.363	70.88
242.597	90.88
242.83	80.88
243.064	76.88
243.298	69.88
243.531	69.88
243.765	74.88
243.998	78.88
244.232	84.88
244.465	77.88
244.699	82.88
244.932	74.88
245.166	71.88
245.399	84.88
245.633	91.88
245.866	68.88
246.099	76.88
246.333	83.88
246.566	79.88
246.8	83.88
247.033	75.88
247.266	69.88
247.5	78.88
247.733	83.88
247.966	82.88
248.2	74.88
248.433	70.88
248.666	82.88
248.899	73.88
249.133	69.88
249.366	88.88
249.599	105.88
249.832	90.88
250.066	76.88
250.299	89.88
250.532	84.88
250.765	96.88
250.998	65.88
251.231	87.88
251.465	91.88
251.698	77.88
251.931	81.88
252.164	86.88
252.397	82.88
252.63	64.88
252.863	84.88
253.096	74.88
253.329	75.88
253.562	84.88
253.795	67.88
254.028	87.88
254.261	90.88
254.494	77.88
254.727	83.88
254.96	77.88
255.193	91.88
255.426	86.88
255.659	80.88
255.892	77.88
256.124	91.88
256.357	77.88
256.59	83.88
256.823	84.88
257.056	78.88
257.289	91.88
257.521	76.88
257.754	80.88
257.987	81.88
258.22	81.88
258.452	89.88
258.685	76.88
258.918	68.88
259.151	69.88
259.383	91.88
259.616	80.88
259.849	79.88
260.081	81.88
260.314	70.88
260.547	88.88
260.779	83.88
261.012	102.88
261.244	99.88
261.477	92.88
261.71	90.88
261.942	130.88
262.175	129.88
262.407	93.88
262.64	82.88
262.872	74.88
263.105	75.88
263.337	92.88
263.57	81.88
263.802	91.88
264.035	74.88
264.267	72.88
264.499	66.88
264.732	91.88
264.964	84.88
265.197	88.88
265.429	76.88
265.661	67.88
265.894	76.88
266.126	70.88
266.358	83.88
266.591	63.88
266.823	70.88
267.055	74.88
267.287	76.88
267.52	71.88
267.752	74.88
267.984	70.88
268.216	85.88
268.448	60.88
268.681	69.88
268.913	83.88
269.145	92.88
269.377	80.88
269.609	88.88
269.841	82.88
270.073	80.88
270.306	98.88
270.538	79.88
270.77	83.88
271.002	91.88
271.234	81.88
271.466	89.88
271.698	96.88
271.93	84.88
272.162	74.88
272.394	70.88
272.626	76.88
272.858	89.88
273.09	77.88
273.322	86.88
273.553	72.88
273.785	88.88
274.017	70.88
274.249	79.88
274.481	74.88
274.713	99.88
274.945	83.88
275.176	92.88
275.408	94.88
275.64	100.88
275.872	112.88
276.104	105.88
276.335	98.88
276.567	84.88
276.799	126.88
277.031	148.88
277.262	161.88
277.494	136.88
277.726	100.88
277.957	96.88
278.189	81.88
278.421	88.88
278.652	67.88
278.884	80.88
279.115	70.88
279.347	75.88
279.579	96.88
279.81	124.88
280.042	179.88
280.273	220.88
280.505	138.88
280.736	112.88
280.968	89.88
281.199	90.88
281.431	89.88
281.662	77.88
281.894	92.88
282.125	104.88
282.356	125.88
282.588	157.88
282.819	129.88
283.051	100.88
283.282	77.88
283.513	92.88
283.745	88.88
283.976	91.88
284.207	91.88
284.439	91.88
284.67	106.88
284.901	79.88
285.132	89.88
285.364	91.88
285.595	83.88
285.826	82.88
286.057	92.88
286.288	68.88
286.52	82.88
286.751	71.88
286.982	79.88
287.213	93.88
287.444	94.88
287.675	91.88
287.906	91.88
288.138	99.88
288.369	97.88
288.6	89.88
288.831	96.88
289.062	87.88
289.293	89.88
289.524	91.88
289.755	91.88
289.986	91.88
290.217	91.88
290.448	87.88
290.679	85.88
290.91	101.88
291.141	78.88
291.371	102.88
291.602	88.88
291.833	91.88
292.064	89.88
292.295	91.88
292.526	91.88
292.757	95.88
292.987	91.88
293.218	76.88
293.449	77.88
293.68	94.88
293.91	94.88
294.141	89.88
294.372	98.88
294.603	84.88
294.833	95.88
295.064	93.88
295.295	88.88
295.525	90.88
295.756	99.88
295.987	113.88
296.217	162.88
296.448	147.88
296.679	86.88
296.909	76.88
297.14	78.88
297.37	106.88
297.601	93.88
297.831	80.88
298.062	77.88
298.292	92.88
298.523	63.88
298.753	90.88
298.984	76.88
299.214	88.88
299.445	94.88
299.675	70.88
299.905	88.88
300.136	88.88
300.366	91.88
300.597	95.88
300.827	98.88
301.057	97.88
301.288	118.88
301.518	92.88
301.748	97.88
301.979	105.88
302.209	97.88
302.439	81.88
302.669	88.88
302.9	82.88
303.13	80.88
303.36	97.88
303.59	120.88
303.82	129.88
304.051	93.88
304.281	94.88
304.511	89.88
304.741	88.88
304.971	84.88
305.201	92.88
305.431	93.88
305.661	104.88
305.891	90.88
306.121	98.88
306.352	105.88
306.582	108.88
306.812	93.88
307.042	118.88
307.272	148.88
307.502	150.88
307.731	146.88
307.961	122.88
308.191	108.88
308.421	92.88
308.651	89.88
308.881	89.88
309.111	100.88
309.341	107.88
309.571	99.88
309.8	99.88
310.03	91.88
310.26	111.88
310.49	100.88
310.72	106.88
310.949	122.88
311.179	107.88
311.409	99.88
311.639	105.88
311.868	90.88
312.098	94.88
312.328	93.88
312.557	106.88
312.787	123.88
313.017	86.88
313.246	86.88
313.476	90.88
313.706	97.88
313.935	116.88
314.165	110.88
314.394	112.88
314.624	111.88
314.853	103.88
315.083	81.88
315.312	79.88
315.542	69.88
315.771	97.88
316.001	78.88
316.23	93.88
316.46	79.88
316.689	97.88
316.919	96.88
317.148	112.88
317.377	102.88
317.607	98.88
317.836	105.88
318.065	94.88
318.295	97.88
318.524	91.88
318.753	88.88
318.983	98.88
319.212	88.88
319.441	113.88
319.67	113.88
319.9	89.88
320.129	96.88
320.358	101.88
320.587	82.88
320.816	120.88
321.046	113.88
321.275	99.88
321.504	105.88
321.733	112.88
321.962	100.88
322.191	90.88
322.42	105.88
322.649	126.88
322.878	125.88
323.108	122.88
323.337	147.88
323.566	147.88
323.795	177.88
324.024	237.88
324.253	474.88
324.482	1077.88
324.71	2296.88
324.939	3212.88
325.168	1141.88
325.397	309.88
325.626	173.88
325.855	151.88
326.084	136.88
326.313	134.88
326.542	185.88
326.77	279.88
326.999	576.88
327.228	1224.88
327.457	2409.88
327.686	1921.88
327.914	590.88
328.143	482.88
328.372	587.88
328.6	330.88
328.829	181.88
329.058	165.88
329.287	201.88
329.515	181.88
329.744	223.88
329.972	420.88
330.201	824.88
330.43	1249.88
330.658	570.88
330.887	272.88
331.115	176.88
331.344	122.88
331.572	107.88
331.801	127.88
332.03	122.88
332.258	114.88
332.486	110.88
332.715	105.88
332.943	115.88
333.172	101.88
333.4	122.88
333.629	152.88
333.857	202.88
334.085	382.88
334.314	810.88
334.542	1591.88
334.771	1482.88
334.999	388.88
335.227	168.88
335.455	123.88
335.684	99.88
335.912	95.88
336.14	109.88
336.369	106.88
336.597	117.88
336.825	100.88
337.053	100.88
337.281	98.88
337.51	92.88
337.738	90.88
337.966	89.88
338.194	98.88
338.422	105.88
338.65	88.88
338.878	83.88
339.106	89.88
339.334	88.88
339.562	95.88
339.79	85.88
340.018	92.88
340.246	88.88
340.474	98.88
340.702	79.88
340.93	94.88
341.158	108.88
341.386	90.88
341.614	87.88
341.842	101.88
342.07	100.88
342.298	99.88
342.526	93.88
342.754	92.88
342.981	88.88
343.209	74.88
343.437	95.88
343.665	88.88
343.893	81.88
344.12	97.88
344.348	82.88
344.576	92.88
344.804	93.88
345.031	99.88
345.259	112.88
345.487	84.88
345.714	107.88
345.942	101.88
346.17	86.88
346.397	86.88
346.625	88.88
346.853	77.88
347.08	92.88
347.308	105.88
347.535	100.88
347.763	102.88
347.99	102.88
348.218	97.88
348.445	115.88
348.673	117.88
348.9	98.88
349.128	92.88
349.355	88.88
349.583	84.88
349.81	96.88
350.037	86.88
350.265	99.88
350.492	84.88
350.72	97.88
350.947	100.88
351.174	106.88
351.402	123.88
351.629	112.88
351.856	97.88
352.083	100.88
352.311	105.88
352.538	108.88
352.765	105.88
352.992	110.88
353.22	116.88
353.447	119.88
353.674	97.88
353.901	92.88
354.128	102.88
354.355	85.88
354.583	89.88
354.81	102.88
355.037	85.88
355.264	96.88
355.491	78.88
355.718	84.88
355.945	75.88
356.172	83.88
356.399	97.88
356.626	94.88
356.853	90.88
357.08	80.88
357.307	80.88
357.534	88.88
357.761	98.88
357.988	92.88
358.215	96.88
358.441	88.88
358.668	69.88
358.895	81.88
359.122	88.88
359.349	83.88
359.576	87.88
359.802	103.88
360.029	124.88
360.256	146.88
360.483	110.88
360.709	73.88
360.936	93.88
361.163	102.88
361.39	95.88
361.616	98.88
361.843	102.88
362.07	81.88
362.296	105.88
362.523	105.88
362.749	105.88
362.976	104.88
363.203	89.88
363.429	83.88
363.656	87.88
363.882	85.88
364.109	90.88
364.335	92.88
364.562	102.88
364.788	92.88
365.015	89.88
365.241	108.88
365.468	115.88
365.694	113.88
365.92	89.88
366.147	98.88
366.373	87.88
366.599	109.88
366.826	81.88
367.052	97.88
367.278	90.88
367.505	84.88
367.731	91.88
367.957	89.88
368.184	92.88
368.41	96.88
368.636	120.88
368.862	114.88
369.089	111.88
369.315	85.88
369.541	87.88
369.767	95.88
369.993	96.88
370.219	100.88
370.445	89.88
370.672	88.88
370.898	78.88
371.124	93.88
371.35	89.88
371.576	81.88
371.802	78.88
372.028	87.88
372.254	83.88
372.48	81.88
372.706	88.88
372.932	86.88
373.158	88.88
373.384	84.88
373.61	90.88
373.835	92.88
374.061	89.88
374.287	96.88
374.513	86.88
374.739	90.88
374.965	91.88
375.191	95.88
375.416	85.88
375.642	74.88
375.868	78.88
376.094	81.88
376.319	99.88
376.545	90.88
376.771	94.88
376.997	84.88
377.222	81.88
377.448	97.88
377.674	90.88
377.899	93.88
378.125	95.88
378.35	92.88
378.576	96.88
378.802	90.88
379.027	88.88
379.253	79.88
379.478	77.88
379.704	102.88
379.929	88.88
380.155	68.88
380.38	87.88
380.606	86.88
380.831	82.88
381.057	99.88
381.282	88.88
381.507	74.88
381.733	85.88
381.958	94.88
382.184	96.88
382.409	91.88
382.634	91.88
382.86	93.88
383.085	95.88
383.31	87.88
383.535	92.88
383.761	98.88
383.986	95.88
384.211	88.88
384.436	87.88
384.662	110.88
384.887	80.88
385.112	99.88
385.337	99.88
385.562	95.88
385.787	93.88
386.013	84.88
386.238	101.88
386.463	99.88
386.688	97.88
386.913	91.88
387.138	102.88
387.363	98.88
387.588	99.88
387.813	99.88
388.038	93.88
388.263	108.88
388.488	98.88
388.713	99.88
388.938	88.88
389.163	95.88
389.387	93.88
389.612	99.88
389.837	80.88
390.062	78.88
390.287	94.88
390.512	91.88
390.736	90.88
390.961	76.88
391.186	88.88
391.411	84.88
391.636	86.88
391.86	85.88
392.085	95.88
392.31	79.88
392.534	81.88
392.759	76.88
392.984	82.88
393.208	93.88
393.433	88.88
393.658	85.88
393.882	78.88
394.107	74.88
394.331	78.88
394.556	65.88
394.78	86.88
395.005	72.88
395.229	83.88
395.454	83.88
395.678	69.88
395.903	64.88
396.127	87.88
396.352	74.88
396.576	65.88
396.801	84.88
397.025	97.88
397.249	80.88
397.474	68.88
397.698	81.88
397.922	85.88
398.147	82.88
398.371	84.88
398.595	92.88
398.82	82.88
399.044	49.88
399.268	80.88
399.492	85.88
399.717	84.88
399.941	74.88
400.165	88.88
400.389	100.88
400.613	86.88
400.837	83.88
401.062	94.88
401.286	85.88
401.51	93.88
401.734	82.88
401.958	100.88
402.182	118.88
402.406	176.88
402.63	125.88
402.854	100.88
403.078	91.88
403.302	98.88
403.526	97.88
403.75	81.88
403.974	76.88
404.198	74.88
404.422	81.88
404.645	83.88
404.869	102.88
405.093	113.88
405.317	145.88
405.541	120.88
405.765	108.88
405.988	124.88
406.212	175.88
406.436	270.88
406.66	186.88
406.883	118.88
407.107	79.88
407.331	101.88
407.555	99.88
407.778	99.88
408.002	92.88
408.226	83.88
408.449	79.88
408.673	65.88
408.896	93.88
409.12	91.88
409.344	89.88
409.567	93.88
409.791	97.88
410.014	96.88
410.238	90.88
410.461	87.88
410.685	73.88
410.908	92.88
411.132	106.88
411.355	112.88
411.578	96.88
411.802	81.88
412.025	95.88
412.249	101.88
412.472	102.88
412.695	119.88
412.919	101.88
413.142	94.88
413.365	95.88
413.589	89.88
413.812	104.88
414.035	97.88
414.258	77.88
414.482	90.88
414.705	69.88
414.928	86.88
415.151	95.88
415.374	76.88
415.597	95.88
415.821	92.88
416.044	97.88
416.267	101.88
416.49	83.88
416.713	88.88
416.936	92.88
417.159	90.88
417.382	98.88
417.605	100.88
417.828	102.88
418.051	88.88
418.274	88.88
418.497	85.88
418.72	76.88
418.943	91.88
419.166	78.88
419.389	87.88
419.611	92.88
419.834	96.88
420.057	89.88
420.28	86.88
420.503	79.88
420.726	84.88
420.948	84.88
421.171	94.88
421.394	100.88
421.617	94.88
421.839	84.88
422.062	99.88
422.285	99.88
422.507	97.88
422.73	109.88
422.953	84.88
423.175	85.88
423.398	89.88
423.621	93.88
423.843	82.88
424.066	89.88
424.288	80.88
424.511	86.88
424.733	109.88
424.956	121.88
425.178	107.88
425.401	105.88
425.623	108.88
425.846	90.88
426.068	91.88
426.291	96.88
426.513	84.88
426.735	95.88
426.958	97.88
427.18	112.88
427.402	165.88
427.625	234.88
427.847	237.88
428.069	230.88
428.292	120.88
428.514	90.88
428.736	79.88
428.958	87.88
429.181	83.88
429.403	94.88
429.625	83.88
429.847	100.88
430.069	97.88
430.292	92.88
430.514	85.88
430.736	68.88
430.958	70.88
431.18	78.88
431.402	76.88
431.624	82.88
431.846	95.88
432.068	87.88
432.29	89.88
432.512	90.88
432.734	93.88
432.956	84.88
433.178	102.88
433.4	100.88
433.622	99.88
433.844	99.88
434.066	87.88
434.287	84.88
434.509	90.88
434.731	82.88
434.953	78.88
435.175	85.88
435.397	106.88
435.618	81.88
435.84	113.88
436.062	129.88
436.284	137.88
436.505	108.88
436.727	110.88
436.949	99.88
437.17	100.88
437.392	85.88
437.614	101.88
437.835	110.88
438.057	144.88
438.278	105.88
438.5	106.88
438.721	139.88
438.943	90.88
439.165	89.88
439.386	94.88
439.608	94.88
439.829	116.88
440.05	161.88
440.272	184.88
440.493	91.88
440.715	83.88
440.936	96.88
441.158	93.88
441.379	96.88
441.6	93.88
441.822	84.88
442.043	107.88
442.264	122.88
442.486	111.88
442.707	102.88
442.928	132.88
443.149	166.88
443.371	160.88
443.592	133.88
443.813	129.88
444.034	122.88
444.255	89.88
444.476	87.88
444.698	68.88
444.919	88.88
445.14	123.88
445.361	140.88
445.582	141.88
445.803	193.88
446.024	190.88
446.245	178.88
446.466	125.88
446.687	93.88
446.908	81.88
447.129	82.88
447.35	88.88
447.571	91.88
447.792	77.88
448.013	93.88
448.234	109.88
448.455	114.88
448.675	145.88
448.896	127.88
449.117	100.88
449.338	105.88
449.559	146.88
449.779	160.88
450	107.88
450.221	76.88
450.442	84.88
450.662	96.88
450.883	106.88
451.104	124.88
451.324	108.88
451.545	86.88
451.766	77.88
451.986	76.88
452.207	84.88
452.428	99.88
452.648	94.88
452.869	118.88
453.089	123.88
453.31	121.88
453.53	93.88
453.751	82.88
453.971	97.88
454.192	114.88
454.412	104.88
454.633	80.88
454.853	85.88
455.073	83.88
455.294	97.88
455.514	113.88
455.734	73.88
455.955	89.88
456.175	88.88
456.395	81.88
456.616	66.88
456.836	85.88
457.056	83.88
457.276	85.88
457.497	80.88
457.717	86.88
457.937	86.88
458.157	106.88
458.377	96.88
458.598	122.88
458.818	204.88
459.038	220.88
459.258	147.88
459.478	82.88
459.698	86.88
459.918	82.88
460.138	82.88
460.358	89.88
460.578	98.88
460.798	77.88
461.018	77.88
461.238	83.88
461.458	89.88
461.678	70.88
461.898	83.88
462.118	88.88
462.338	93.88
462.558	86.88
462.777	80.88
462.997	91.88
463.217	102.88
463.437	100.88
463.657	74.88
463.876	83.88
464.096	77.88
464.316	97.88
464.536	108.88
464.755	107.88
464.975	109.88
465.195	208.88
465.414	196.88
465.634	110.88
465.854	76.88
466.073	85.88
466.293	79.88
466.512	90.88
466.732	90.88
466.951	81.88
467.171	94.88
467.391	104.88
467.61	130.88
467.829	201.88
468.049	501.88
468.268	708.88
468.488	185.88
468.707	101.88
468.927	77.88
469.146	81.88
469.365	88.88
469.585	86.88
469.804	102.88
470.023	111.88
470.243	113.88
470.462	98.88
470.681	125.88
470.901	104.88
471.12	83.88
471.339	90.88
471.558	116.88
471.777	156.88
471.997	268.88
472.216	952.88
472.435	2173.88
472.654	514.88
472.873	140.88
473.092	109.88
473.311	112.88
473.53	86.88
473.749	88.88
473.968	99.88
474.187	118.88
474.406	111.88
474.625	83.88
474.844	89.88
475.063	78.88
475.282	82.88
475.501	80.88
475.72	94.88
475.939	90.88
476.158	82.88
476.377	86.88
476.596	76.88
476.814	107.88
477.033	103.88
477.252	83.88
477.471	103.88
477.69	90.88
477.908	92.88
478.127	98.88
478.346	83.88
478.564	84.88
478.783	100.88
479.002	86.88
479.22	101.88
479.439	111.88
479.658	120.88
479.876	119.88
480.095	115.88
480.313	123.88
480.532	147.88
480.751	256.88
480.969	866.88
481.188	3724.88
481.406	2178.88
481.624	327.88
481.843	136.88
482.061	116.88
482.28	92.88
482.498	90.88
482.717	82.88
482.935	102.88
483.153	82.88
483.372	95.88
483.59	84.88
483.808	98.88
484.027	87.88
484.245	86.88
484.463	91.88
484.681	103.88
484.9	98.88
485.118	90.88
485.336	99.88
485.554	107.88
485.772	106.88
485.99	89.88
486.209	94.88
486.427	105.88
486.645	116.88
486.863	114.88
487.081	95.88
487.299	91.88
487.517	96.88
487.735	83.88
487.953	89.88
488.171	102.88
488.389	99.88
488.607	97.88
488.825	97.88
489.043	90.88
489.261	67.88
489.479	78.88
489.696	87.88
489.914	90.88
490.132	77.88
490.35	90.88
490.568	88.88
490.786	92.88
491.003	92.88
491.221	83.88
491.439	79.88
491.657	102.88
491.874	95.88
492.092	80.88
492.31	101.88
492.527	104.88
492.745	83.88
492.963	108.88
493.18	94.88
493.398	86.88
493.615	95.88
493.833	76.88
494.05	82.88
494.268	88.88
494.485	95.88
494.703	93.88
494.92	78.88
495.138	86.88
495.355	97.88
495.573	95.88
495.79	89.88
496.008	88.88
496.225	89.88
496.442	80.88
496.66	91.88
496.877	82.88
497.094	90.88
497.312	91.88
497.529	77.88
497.746	77.88
497.963	101.88
498.181	92.88
498.398	102.88
498.615	112.88
498.832	108.88
499.049	84.88
499.267	93.88
499.484	96.88
499.701	76.88
499.918	98.88
500.135	73.88
500.352	81.88
500.569	94.88
500.786	92.88
501.003	89.88
501.22	85.88
501.437	91.88
501.654	93.88
501.871	113.88
502.088	102.88
502.305	93.88
502.522	76.88
502.739	93.88
502.956	95.88
503.172	92.88
503.389	95.88
503.606	116.88
503.823	92.88
504.04	100.88
504.256	96.88
504.473	93.88
504.69	88.88
504.907	97.88
505.123	85.88
505.34	96.88
505.557	88.88
505.773	83.88
505.99	85.88
506.207	90.88
506.423	88.88
506.64	99.88
506.856	91.88
507.073	85.88
507.289	96.88
507.506	108.88
507.722	131.88
507.939	122.88
508.155	96.88
508.372	87.88
508.588	87.88
508.805	83.88
509.021	91.88
509.238	91.88
509.454	96.88
509.67	117.88
509.887	108.88
510.103	124.88
510.319	220.88
510.536	712.88
510.752	2579.88
510.968	700.88
511.184	164.88
511.401	101.88
511.617	93.88
511.833	89.88
512.049	98.88
512.265	99.88
512.481	104.88
512.698	88.88
512.914	100.88
513.13	85.88
513.346	89.88
513.562	95.88
513.778	93.88
513.994	103.88
514.21	105.88
514.426	131.88
514.642	154.88
