Data from Circ_1989_H10_HRD10591_00055.txt Node
Date: Wed Jan 03 12:01:32 EST 2024
User: Yrep
Spectrometer: HR+D1059
Trigger mode: 1
Integration Time (sec): 1.000000E-1
Scans to average: 1
Electric dark correction enabled: true
Nonlinearity correction enabled: false
Boxcar width: 0
XAxis mode: Wavelengths
Number of Pixels in Spectrum: 2048
>>>>>Begin Spectral Data<<<<<
223.165	-27.44
223.4	-27.44
223.635	-27.44
223.869	-27.44
224.104	-27.44
224.338	-19.44
224.573	-0.44
224.808	-9.44
225.042	-20.44
225.277	-9.44
225.511	4.56
225.746	-3.44
225.98	7.56
226.215	21.56
226.449	16.56
226.683	20.56
226.918	35.56
227.152	38.56
227.387	32.56
227.621	50.56
227.856	48.56
228.09	47.56
228.324	57.56
228.559	46.56
228.793	57.56
229.027	59.56
229.262	66.56
229.496	65.56
229.73	67.56
229.964	70.56
230.199	68.56
230.433	58.56
230.667	86.56
230.901	67.56
231.136	91.56
231.37	73.56
231.604	72.56
231.838	82.56
232.072	83.56
232.306	88.56
232.541	72.56
232.775	78.56
233.009	93.56
233.243	88.56
233.477	75.56
233.711	84.56
233.945	79.56
234.179	71.56
234.413	77.56
234.647	78.56
234.881	81.56
235.115	85.56
235.349	84.56
235.583	71.56
235.817	83.56
236.051	82.56
236.285	70.56
236.519	67.56
236.753	77.56
236.987	85.56
237.221	91.56
237.455	77.56
237.689	75.56
237.922	81.56
238.156	71.56
238.39	78.56
238.624	70.56
238.858	77.56
239.091	80.56
239.325	76.56
239.559	73.56
239.793	71.56
240.027	69.56
240.26	65.56
240.494	87.56
240.728	77.56
240.961	78.56
241.195	65.56
241.429	80.56
241.662	69.56
241.896	81.56
242.13	77.56
242.363	62.56
242.597	79.56
242.83	80.56
243.064	77.56
243.298	77.56
243.531	76.56
243.765	71.56
243.998	75.56
244.232	68.56
244.465	89.56
244.699	90.56
244.932	72.56
245.166	78.56
245.399	68.56
245.633	79.56
245.866	73.56
246.099	83.56
246.333	72.56
246.566	79.56
246.8	70.56
247.033	84.56
247.266	77.56
247.5	75.56
247.733	80.56
247.966	79.56
248.2	76.56
248.433	67.56
248.666	72.56
248.899	87.56
249.133	83.56
249.366	80.56
249.599	81.56
249.832	76.56
250.066	66.56
250.299	95.56
250.532	89.56
250.765	77.56
250.998	86.56
251.231	87.56
251.465	77.56
251.698	69.56
251.931	90.56
252.164	66.56
252.397	69.56
252.63	66.56
252.863	86.56
253.096	74.56
253.329	94.56
253.562	84.56
253.795	80.56
254.028	85.56
254.261	81.56
254.494	70.56
254.727	73.56
254.96	77.56
255.193	81.56
255.426	73.56
255.659	79.56
255.892	83.56
256.124	79.56
256.357	84.56
256.59	84.56
256.823	87.56
257.056	79.56
257.289	84.56
257.521	99.56
257.754	80.56
257.987	63.56
258.22	80.56
258.452	83.56
258.685	81.56
258.918	82.56
259.151	85.56
259.383	73.56
259.616	89.56
259.849	86.56
260.081	78.56
260.314	68.56
260.547	75.56
260.779	78.56
261.012	83.56
261.244	102.56
261.477	80.56
261.71	91.56
261.942	104.56
262.175	89.56
262.407	90.56
262.64	87.56
262.872	89.56
263.105	80.56
263.337	80.56
263.57	75.56
263.802	83.56
264.035	68.56
264.267	63.56
264.499	75.56
264.732	94.56
264.964	76.56
265.197	71.56
265.429	92.56
265.661	81.56
265.894	78.56
266.126	79.56
266.358	70.56
266.591	85.56
266.823	81.56
267.055	76.56
267.287	80.56
267.52	80.56
267.752	74.56
267.984	75.56
268.216	76.56
268.448	77.56
268.681	84.56
268.913	77.56
269.145	81.56
269.377	86.56
269.609	84.56
269.841	72.56
270.073	71.56
270.306	88.56
270.538	98.56
270.77	74.56
271.002	88.56
271.234	86.56
271.466	96.56
271.698	103.56
271.93	91.56
272.162	79.56
272.394	89.56
272.626	79.56
272.858	83.56
273.09	70.56
273.322	71.56
273.553	78.56
273.785	87.56
274.017	89.56
274.249	80.56
274.481	86.56
274.713	70.56
274.945	93.56
275.176	84.56
275.408	94.56
275.64	95.56
275.872	97.56
276.104	69.56
276.335	73.56
276.567	95.56
276.799	95.56
277.031	110.56
277.262	113.56
277.494	100.56
277.726	95.56
277.957	94.56
278.189	87.56
278.421	84.56
278.652	83.56
278.884	87.56
279.115	81.56
279.347	78.56
279.579	90.56
279.81	101.56
280.042	105.56
280.273	128.56
280.505	94.56
280.736	75.56
280.968	85.56
281.199	92.56
281.431	91.56
281.662	77.56
281.894	82.56
282.125	97.56
282.356	95.56
282.588	119.56
282.819	103.56
283.051	91.56
283.282	80.56
283.513	92.56
283.745	96.56
283.976	72.56
284.207	83.56
284.439	90.56
284.67	72.56
284.901	81.56
285.132	80.56
285.364	94.56
285.595	90.56
285.826	68.56
286.057	100.56
286.288	87.56
286.52	87.56
286.751	100.56
286.982	87.56
287.213	72.56
287.444	97.56
287.675	94.56
287.906	101.56
288.138	91.56
288.369	90.56
288.6	86.56
288.831	92.56
289.062	75.56
289.293	77.56
289.524	78.56
289.755	78.56
289.986	87.56
290.217	73.56
290.448	77.56
290.679	88.56
290.91	105.56
291.141	85.56
291.371	89.56
291.602	78.56
291.833	91.56
292.064	102.56
292.295	85.56
292.526	92.56
292.757	88.56
292.987	82.56
293.218	78.56
293.449	79.56
293.68	93.56
293.91	85.56
294.141	84.56
294.372	87.56
294.603	79.56
294.833	98.56
295.064	93.56
295.295	82.56
295.525	95.56
295.756	86.56
295.987	79.56
296.217	123.56
296.448	110.56
296.679	92.56
296.909	81.56
297.14	92.56
297.37	87.56
297.601	87.56
297.831	93.56
298.062	95.56
298.292	92.56
298.523	86.56
298.753	77.56
298.984	90.56
299.214	92.56
299.445	99.56
299.675	94.56
299.905	104.56
300.136	86.56
300.366	92.56
300.597	93.56
300.827	98.56
301.057	92.56
301.288	80.56
301.518	91.56
301.748	92.56
301.979	107.56
302.209	114.56
302.439	88.56
302.669	91.56
302.9	84.56
303.13	84.56
303.36	102.56
303.59	104.56
303.82	117.56
304.051	102.56
304.281	79.56
304.511	91.56
304.741	83.56
304.971	93.56
305.201	92.56
305.431	97.56
305.661	101.56
305.891	80.56
306.121	92.56
306.352	95.56
306.582	87.56
306.812	107.56
307.042	100.56
307.272	92.56
307.502	111.56
307.731	107.56
307.961	95.56
308.191	90.56
308.421	87.56
308.651	76.56
308.881	92.56
309.111	91.56
309.341	72.56
309.571	100.56
309.8	93.56
310.03	98.56
310.26	86.56
310.49	97.56
310.72	95.56
310.949	106.56
311.179	83.56
311.409	85.56
311.639	95.56
311.868	92.56
312.098	104.56
312.328	108.56
312.557	90.56
312.787	99.56
313.017	87.56
313.246	88.56
313.476	78.56
313.706	90.56
313.935	86.56
314.165	99.56
314.394	103.56
314.624	93.56
314.853	99.56
315.083	94.56
315.312	82.56
315.542	96.56
315.771	86.56
316.001	96.56
316.23	88.56
316.46	92.56
316.689	83.56
316.919	83.56
317.148	94.56
317.377	92.56
317.607	94.56
317.836	97.56
318.065	94.56
318.295	91.56
318.524	92.56
318.753	80.56
318.983	98.56
319.212	107.56
319.441	114.56
319.67	102.56
319.9	85.56
320.129	99.56
320.358	96.56
320.587	85.56
320.816	88.56
321.046	102.56
321.275	111.56
321.504	95.56
321.733	90.56
321.962	115.56
322.191	94.56
322.42	103.56
322.649	107.56
322.878	107.56
323.108	97.56
323.337	115.56
323.566	122.56
323.795	118.56
324.024	187.56
324.253	319.56
324.482	655.56
324.71	1293.56
324.939	1768.56
325.168	630.56
325.397	199.56
325.626	145.56
325.855	116.56
326.084	118.56
326.313	118.56
326.542	131.56
326.77	201.56
326.999	374.56
327.228	744.56
327.457	1374.56
327.686	1089.56
327.914	353.56
328.143	264.56
328.372	270.56
328.6	164.56
328.829	116.56
329.058	115.56
329.287	117.56
329.515	116.56
329.744	149.56
329.972	223.56
330.201	392.56
330.43	513.56
330.658	273.56
330.887	162.56
331.115	133.56
331.344	98.56
331.572	100.56
331.801	106.56
332.03	91.56
332.258	88.56
332.486	89.56
332.715	94.56
332.943	91.56
333.172	106.56
333.4	112.56
333.629	115.56
333.857	145.56
334.085	203.56
334.314	389.56
334.542	661.56
334.771	609.56
334.999	186.56
335.227	104.56
335.455	98.56
335.684	95.56
335.912	106.56
336.14	108.56
336.369	97.56
336.597	97.56
336.825	105.56
337.053	91.56
337.281	91.56
337.51	80.56
337.738	97.56
337.966	84.56
338.194	93.56
338.422	93.56
338.65	89.56
338.878	101.56
339.106	70.56
339.334	91.56
339.562	97.56
339.79	80.56
340.018	91.56
340.246	89.56
340.474	88.56
340.702	83.56
340.93	81.56
341.158	91.56
341.386	79.56
341.614	96.56
341.842	100.56
342.07	104.56
342.298	86.56
342.526	84.56
342.754	80.56
342.981	83.56
343.209	80.56
343.437	96.56
343.665	98.56
343.893	94.56
344.12	84.56
344.348	79.56
344.576	101.56
344.804	86.56
345.031	100.56
345.259	86.56
345.487	91.56
345.714	79.56
345.942	83.56
346.17	82.56
346.397	94.56
346.625	96.56
346.853	88.56
347.08	86.56
347.308	100.56
347.535	84.56
347.763	100.56
347.99	94.56
348.218	104.56
348.445	87.56
348.673	108.56
348.9	87.56
349.128	83.56
349.355	93.56
349.583	100.56
349.81	96.56
350.037	88.56
350.265	96.56
350.492	97.56
350.72	95.56
350.947	89.56
351.174	99.56
351.402	89.56
351.629	86.56
351.856	94.56
352.083	97.56
352.311	98.56
352.538	94.56
352.765	87.56
352.992	87.56
353.22	104.56
353.447	102.56
353.674	95.56
353.901	92.56
354.128	87.56
354.355	100.56
354.583	97.56
354.81	83.56
355.037	95.56
355.264	93.56
355.491	79.56
355.718	96.56
355.945	100.56
356.172	98.56
356.399	85.56
356.626	83.56
356.853	92.56
357.08	100.56
357.307	97.56
357.534	91.56
357.761	99.56
357.988	76.56
358.215	86.56
358.441	83.56
358.668	88.56
358.895	96.56
359.122	82.56
359.349	96.56
359.576	87.56
359.802	87.56
360.029	99.56
360.256	103.56
360.483	96.56
360.709	86.56
360.936	90.56
361.163	93.56
361.39	84.56
361.616	100.56
361.843	84.56
362.07	101.56
362.296	100.56
362.523	83.56
362.749	85.56
362.976	82.56
363.203	81.56
363.429	71.56
363.656	85.56
363.882	89.56
364.109	89.56
364.335	110.56
364.562	81.56
364.788	96.56
365.015	78.56
365.241	80.56
365.468	103.56
365.694	103.56
365.92	96.56
366.147	94.56
366.373	95.56
366.599	86.56
366.826	93.56
367.052	65.56
367.278	98.56
367.505	85.56
367.731	99.56
367.957	102.56
368.184	84.56
368.41	91.56
368.636	108.56
368.862	101.56
369.089	95.56
369.315	95.56
369.541	79.56
369.767	82.56
369.993	93.56
370.219	99.56
370.445	90.56
370.672	91.56
370.898	67.56
371.124	80.56
371.35	83.56
371.576	80.56
371.802	86.56
372.028	87.56
372.254	91.56
372.48	89.56
372.706	81.56
372.932	77.56
373.158	93.56
373.384	81.56
373.61	99.56
373.835	98.56
374.061	94.56
374.287	97.56
374.513	85.56
374.739	83.56
374.965	83.56
375.191	89.56
375.416	90.56
375.642	83.56
375.868	84.56
376.094	95.56
376.319	81.56
376.545	78.56
376.771	81.56
376.997	72.56
377.222	93.56
377.448	93.56
377.674	100.56
377.899	83.56
378.125	86.56
378.35	88.56
378.576	83.56
378.802	86.56
379.027	87.56
379.253	77.56
379.478	86.56
379.704	95.56
379.929	92.56
380.155	78.56
380.38	89.56
380.606	80.56
380.831	83.56
381.057	87.56
381.282	96.56
381.507	95.56
381.733	92.56
381.958	95.56
382.184	104.56
382.409	86.56
382.634	93.56
382.86	98.56
383.085	89.56
383.31	97.56
383.535	103.56
383.761	101.56
383.986	91.56
384.211	93.56
384.436	97.56
384.662	92.56
384.887	109.56
385.112	95.56
385.337	88.56
385.562	97.56
385.787	103.56
386.013	106.56
386.238	112.56
386.463	109.56
386.688	119.56
386.913	99.56
387.138	99.56
387.363	95.56
387.588	91.56
387.813	97.56
388.038	94.56
388.263	120.56
388.488	111.56
388.713	93.56
388.938	96.56
389.163	93.56
389.387	85.56
389.612	90.56
389.837	84.56
390.062	93.56
390.287	89.56
390.512	102.56
390.736	98.56
390.961	77.56
391.186	102.56
391.411	84.56
391.636	84.56
391.86	84.56
392.085	91.56
392.31	86.56
392.534	85.56
392.759	96.56
392.984	89.56
393.208	86.56
393.433	89.56
393.658	86.56
393.882	83.56
394.107	75.56
394.331	82.56
394.556	87.56
394.78	94.56
395.005	88.56
395.229	84.56
395.454	78.56
395.678	93.56
395.903	91.56
396.127	83.56
396.352	84.56
396.576	90.56
396.801	103.56
397.025	90.56
397.249	102.56
397.474	80.56
397.698	97.56
397.922	82.56
398.147	84.56
398.371	77.56
398.595	97.56
398.82	74.56
399.044	77.56
399.268	70.56
399.492	92.56
399.717	86.56
399.941	89.56
400.165	84.56
400.389	84.56
400.613	81.56
400.837	75.56
401.062	77.56
401.286	92.56
401.51	86.56
401.734	75.56
401.958	94.56
402.182	118.56
402.406	133.56
402.63	111.56
402.854	89.56
403.078	91.56
403.302	93.56
403.526	73.56
403.75	76.56
403.974	85.56
404.198	92.56
404.422	85.56
404.645	84.56
404.869	92.56
405.093	83.56
405.317	102.56
405.541	107.56
405.765	102.56
405.988	81.56
406.212	147.56
406.436	166.56
406.66	118.56
406.883	84.56
407.107	89.56
407.331	89.56
407.555	88.56
407.778	94.56
408.002	73.56
408.226	89.56
408.449	79.56
408.673	71.56
408.896	90.56
409.12	91.56
409.344	97.56
409.567	88.56
409.791	92.56
410.014	89.56
410.238	72.56
410.461	80.56
410.685	86.56
410.908	95.56
411.132	98.56
411.355	87.56
411.578	81.56
411.802	83.56
412.025	72.56
412.249	96.56
412.472	105.56
412.695	99.56
412.919	89.56
413.142	91.56
413.365	91.56
413.589	72.56
413.812	86.56
414.035	82.56
414.258	94.56
414.482	95.56
414.705	94.56
414.928	90.56
415.151	84.56
415.374	86.56
415.597	88.56
415.821	94.56
416.044	77.56
416.267	81.56
416.49	101.56
416.713	87.56
416.936	79.56
417.159	84.56
417.382	76.56
417.605	96.56
417.828	108.56
418.051	92.56
418.274	87.56
418.497	79.56
418.72	87.56
418.943	87.56
419.166	84.56
419.389	84.56
419.611	89.56
419.834	86.56
420.057	92.56
420.28	83.56
420.503	87.56
420.726	79.56
420.948	90.56
421.171	91.56
421.394	95.56
421.617	81.56
421.839	78.56
422.062	88.56
422.285	88.56
422.507	86.56
422.73	79.56
422.953	87.56
423.175	93.56
423.398	95.56
423.621	85.56
423.843	80.56
424.066	81.56
424.288	89.56
424.511	91.56
424.733	89.56
424.956	97.56
425.178	95.56
425.401	100.56
425.623	97.56
425.846	106.56
426.068	93.56
426.291	83.56
426.513	78.56
426.735	76.56
426.958	95.56
427.18	99.56
427.402	121.56
427.625	143.56
427.847	160.56
428.069	148.56
428.292	105.56
428.514	88.56
428.736	86.56
428.958	97.56
429.181	90.56
429.403	81.56
429.625	80.56
429.847	88.56
430.069	97.56
430.292	94.56
430.514	109.56
430.736	101.56
430.958	94.56
431.18	93.56
431.402	76.56
431.624	85.56
431.846	91.56
432.068	80.56
432.29	73.56
432.512	83.56
432.734	88.56
432.956	105.56
433.178	100.56
433.4	87.56
433.622	78.56
433.844	72.56
434.066	99.56
434.287	87.56
434.509	83.56
434.731	95.56
434.953	101.56
435.175	84.56
435.397	102.56
435.618	75.56
435.84	96.56
436.062	102.56
436.284	103.56
436.505	96.56
436.727	77.56
436.949	93.56
437.17	101.56
437.392	89.56
437.614	87.56
437.835	102.56
438.057	103.56
438.278	100.56
438.5	115.56
438.721	111.56
438.943	86.56
439.165	96.56
439.386	86.56
439.608	79.56
439.829	88.56
440.05	112.56
440.272	124.56
440.493	105.56
440.715	89.56
440.936	77.56
441.158	91.56
441.379	85.56
441.6	84.56
441.822	88.56
442.043	75.56
442.264	91.56
442.486	104.56
442.707	84.56
442.928	90.56
443.149	129.56
443.371	112.56
443.592	89.56
443.813	108.56
444.034	98.56
444.255	82.56
444.476	91.56
444.698	82.56
444.919	83.56
445.14	112.56
445.361	115.56
445.582	99.56
445.803	143.56
446.024	117.56
446.245	105.56
446.466	117.56
446.687	89.56
446.908	89.56
447.129	100.56
447.35	90.56
447.571	83.56
447.792	88.56
448.013	99.56
448.234	101.56
448.455	95.56
448.675	102.56
448.896	102.56
449.117	106.56
449.338	99.56
449.559	113.56
449.779	110.56
450	89.56
450.221	95.56
450.442	101.56
450.662	86.56
450.883	113.56
451.104	106.56
451.324	86.56
451.545	78.56
451.766	72.56
451.986	86.56
452.207	88.56
452.428	95.56
452.648	96.56
452.869	112.56
453.089	94.56
453.31	101.56
453.53	96.56
453.751	105.56
453.971	109.56
454.192	104.56
454.412	89.56
454.633	88.56
454.853	100.56
455.073	90.56
455.294	93.56
455.514	92.56
455.734	104.56
455.955	94.56
456.175	83.56
456.395	81.56
456.616	75.56
456.836	89.56
457.056	88.56
457.276	81.56
457.497	99.56
457.717	76.56
457.937	88.56
458.157	86.56
458.377	92.56
458.598	106.56
458.818	129.56
459.038	128.56
459.258	105.56
459.478	84.56
459.698	86.56
459.918	75.56
460.138	83.56
460.358	72.56
460.578	82.56
460.798	91.56
461.018	80.56
461.238	86.56
461.458	88.56
461.678	88.56
461.898	85.56
462.118	94.56
462.338	94.56
462.558	80.56
462.777	80.56
462.997	76.56
463.217	91.56
463.437	95.56
463.657	99.56
463.876	88.56
464.096	93.56
464.316	79.56
464.536	95.56
464.755	101.56
464.975	99.56
465.195	131.56
465.414	133.56
465.634	100.56
465.854	87.56
466.073	81.56
466.293	77.56
466.512	92.56
466.732	84.56
466.951	77.56
467.171	101.56
467.391	91.56
467.61	99.56
467.829	123.56
468.049	239.56
468.268	328.56
468.488	131.56
468.707	89.56
468.927	78.56
469.146	99.56
469.365	94.56
469.585	81.56
469.804	88.56
470.023	97.56
470.243	98.56
470.462	104.56
470.681	109.56
470.901	85.56
471.12	83.56
471.339	92.56
471.558	96.56
471.777	112.56
471.997	173.56
472.216	468.56
472.435	905.56
472.654	254.56
472.873	107.56
473.092	96.56
473.311	94.56
473.53	89.56
473.749	87.56
473.968	97.56
474.187	94.56
474.406	99.56
474.625	98.56
474.844	92.56
475.063	104.56
475.282	93.56
475.501	85.56
475.72	82.56
475.939	106.56
476.158	92.56
476.377	72.56
476.596	87.56
476.814	78.56
477.033	104.56
477.252	96.56
477.471	89.56
477.69	94.56
477.908	85.56
478.127	87.56
478.346	89.56
478.564	91.56
478.783	100.56
479.002	98.56
479.22	103.56
479.439	87.56
479.658	97.56
479.876	102.56
480.095	102.56
480.313	89.56
480.532	115.56
480.751	151.56
480.969	457.56
481.188	1683.56
481.406	966.56
481.624	179.56
481.843	107.56
482.061	90.56
482.28	86.56
482.498	95.56
482.717	88.56
482.935	70.56
483.153	77.56
483.372	61.56
483.59	83.56
483.808	82.56
484.027	79.56
484.245	96.56
484.463	99.56
484.681	85.56
484.9	92.56
485.118	95.56
485.336	83.56
485.554	103.56
485.772	98.56
485.99	106.56
486.209	95.56
486.427	111.56
486.645	111.56
486.863	99.56
487.081	103.56
487.299	87.56
487.517	99.56
487.735	89.56
487.953	87.56
488.171	88.56
488.389	96.56
488.607	89.56
488.825	101.56
489.043	76.56
489.261	92.56
489.479	90.56
489.696	92.56
489.914	90.56
490.132	89.56
490.35	92.56
490.568	93.56
490.786	86.56
491.003	100.56
491.221	92.56
491.439	87.56
491.657	94.56
491.874	76.56
492.092	102.56
492.31	105.56
492.527	95.56
492.745	96.56
492.963	86.56
493.18	85.56
493.398	81.56
493.615	88.56
493.833	70.56
494.05	83.56
494.268	92.56
494.485	89.56
494.703	99.56
494.92	90.56
495.138	90.56
495.355	99.56
495.573	91.56
495.79	83.56
496.008	84.56
496.225	88.56
496.442	85.56
496.66	92.56
496.877	86.56
497.094	92.56
497.312	80.56
497.529	70.56
497.746	71.56
497.963	102.56
498.181	88.56
498.398	84.56
498.615	103.56
498.832	96.56
499.049	94.56
499.267	91.56
499.484	70.56
499.701	80.56
499.918	87.56
500.135	92.56
500.352	77.56
500.569	96.56
500.786	94.56
501.003	85.56
501.22	84.56
501.437	77.56
501.654	95.56
501.871	95.56
502.088	85.56
502.305	91.56
502.522	86.56
502.739	91.56
502.956	95.56
503.172	101.56
503.389	87.56
503.606	112.56
503.823	90.56
504.04	100.56
504.256	91.56
504.473	99.56
504.69	78.56
504.907	92.56
505.123	94.56
505.34	81.56
505.557	86.56
505.773	88.56
505.99	91.56
506.207	91.56
506.423	98.56
506.64	93.56
506.856	75.56
507.073	93.56
507.289	77.56
507.506	87.56
507.722	94.56
507.939	104.56
508.155	84.56
508.372	78.56
508.588	97.56
508.805	99.56
509.021	93.56
509.238	99.56
509.454	84.56
509.67	98.56
509.887	99.56
510.103	116.56
510.319	163.56
510.536	541.56
510.752	1647.56
510.968	481.56
511.184	130.56
511.401	108.56
511.617	94.56
511.833	82.56
512.049	96.56
512.265	99.56
512.481	75.56
512.698	83.56
512.914	82.56
513.13	84.56
513.346	92.56
513.562	97.56
513.778	103.56
513.994	84.56
514.21	100.56
514.426	89.56
514.642	103.56
514.858	109.56
515.074	139.56
515.29	317.56
515.506	997.56
515.721	392.56
515.937	120.56
516.153	111.56
516.369	104.56
