Data from Circ_1989_H10_HRD10591_00029.txt Node
Date: Wed Jan 03 12:01:27 EST 2024
User: Yrep
Spectrometer: HR+D1059
Trigger mode: 1
Integration Time (sec): 1.000000E-1
Scans to average: 1
Electric dark correction enabled: true
Nonlinearity correction enabled: false
Boxcar width: 0
XAxis mode: Wavelengths
Number of Pixels in Spectrum: 2048
>>>>>Begin Spectral Data<<<<<
223.165	-11.5
223.4	-11.5
223.635	-11.5
223.869	-23.5
224.104	-11.5
224.338	-11.5
224.573	-14.5
224.808	-13.5
225.042	-14.5
225.277	-3.5
225.511	-12.5
225.746	2.5
225.98	5.5
226.215	9.5
226.449	7.5
226.683	31.5
226.918	31.5
227.152	28.5
227.387	36.5
227.621	37.5
227.856	37.5
228.09	52.5
228.324	46.5
228.559	61.5
228.793	64.5
229.027	59.5
229.262	65.5
229.496	68.5
229.73	92.5
229.964	79.5
230.199	82.5
230.433	73.5
230.667	77.5
230.901	86.5
231.136	73.5
231.37	79.5
231.604	86.5
231.838	82.5
232.072	85.5
232.306	78.5
232.541	80.5
232.775	80.5
233.009	81.5
233.243	81.5
233.477	78.5
233.711	80.5
233.945	85.5
234.179	82.5
234.413	92.5
234.647	78.5
234.881	75.5
235.115	69.5
235.349	87.5
235.583	77.5
235.817	89.5
236.051	84.5
236.285	78.5
236.519	82.5
236.753	67.5
236.987	84.5
237.221	79.5
237.455	59.5
237.689	74.5
237.922	73.5
238.156	79.5
238.39	78.5
238.624	76.5
238.858	80.5
239.091	65.5
239.325	82.5
239.559	96.5
239.793	71.5
240.027	80.5
240.26	86.5
240.494	81.5
240.728	78.5
240.961	71.5
241.195	97.5
241.429	79.5
241.662	81.5
241.896	57.5
242.13	76.5
242.363	78.5
242.597	90.5
242.83	72.5
243.064	84.5
243.298	72.5
243.531	78.5
243.765	74.5
243.998	88.5
244.232	80.5
244.465	94.5
244.699	73.5
244.932	63.5
245.166	74.5
245.399	84.5
245.633	73.5
245.866	73.5
246.099	79.5
246.333	74.5
246.566	66.5
246.8	92.5
247.033	80.5
247.266	78.5
247.5	79.5
247.733	65.5
247.966	71.5
248.2	69.5
248.433	82.5
248.666	83.5
248.899	84.5
249.133	90.5
249.366	100.5
249.599	105.5
249.832	80.5
250.066	83.5
250.299	82.5
250.532	82.5
250.765	98.5
250.998	85.5
251.231	93.5
251.465	72.5
251.698	94.5
251.931	66.5
252.164	80.5
252.397	87.5
252.63	89.5
252.863	80.5
253.096	83.5
253.329	90.5
253.562	80.5
253.795	79.5
254.028	67.5
254.261	73.5
254.494	78.5
254.727	69.5
254.96	85.5
255.193	78.5
255.426	77.5
255.659	78.5
255.892	85.5
256.124	95.5
256.357	91.5
256.59	92.5
256.823	78.5
257.056	79.5
257.289	85.5
257.521	81.5
257.754	86.5
257.987	75.5
258.22	73.5
258.452	87.5
258.685	106.5
258.918	77.5
259.151	80.5
259.383	73.5
259.616	72.5
259.849	78.5
260.081	81.5
260.314	78.5
260.547	98.5
260.779	97.5
261.012	102.5
261.244	92.5
261.477	97.5
261.71	102.5
261.942	125.5
262.175	117.5
262.407	94.5
262.64	85.5
262.872	78.5
263.105	77.5
263.337	86.5
263.57	81.5
263.802	86.5
264.035	78.5
264.267	73.5
264.499	92.5
264.732	83.5
264.964	98.5
265.197	91.5
265.429	82.5
265.661	84.5
265.894	78.5
266.126	81.5
266.358	65.5
266.591	73.5
266.823	82.5
267.055	82.5
267.287	77.5
267.52	95.5
267.752	93.5
267.984	74.5
268.216	73.5
268.448	96.5
268.681	77.5
268.913	81.5
269.145	88.5
269.377	89.5
269.609	90.5
269.841	87.5
270.073	82.5
270.306	81.5
270.538	86.5
270.77	85.5
271.002	85.5
271.234	94.5
271.466	94.5
271.698	79.5
271.93	87.5
272.162	82.5
272.394	94.5
272.626	79.5
272.858	80.5
273.09	95.5
273.322	77.5
273.553	94.5
273.785	86.5
274.017	104.5
274.249	90.5
274.481	77.5
274.713	88.5
274.945	86.5
275.176	78.5
275.408	88.5
275.64	105.5
275.872	100.5
276.104	97.5
276.335	113.5
276.567	111.5
276.799	129.5
277.031	135.5
277.262	118.5
277.494	111.5
277.726	92.5
277.957	84.5
278.189	88.5
278.421	86.5
278.652	80.5
278.884	93.5
279.115	89.5
279.347	89.5
279.579	99.5
279.81	106.5
280.042	126.5
280.273	165.5
280.505	128.5
280.736	109.5
280.968	96.5
281.199	86.5
281.431	94.5
281.662	87.5
281.894	88.5
282.125	109.5
282.356	115.5
282.588	153.5
282.819	121.5
283.051	96.5
283.282	90.5
283.513	77.5
283.745	79.5
283.976	96.5
284.207	79.5
284.439	92.5
284.67	100.5
284.901	89.5
285.132	78.5
285.364	97.5
285.595	89.5
285.826	75.5
286.057	88.5
286.288	85.5
286.52	73.5
286.751	92.5
286.982	96.5
287.213	93.5
287.444	83.5
287.675	92.5
287.906	97.5
288.138	97.5
288.369	95.5
288.6	94.5
288.831	94.5
289.062	83.5
289.293	81.5
289.524	84.5
289.755	89.5
289.986	99.5
290.217	77.5
290.448	87.5
290.679	88.5
290.91	90.5
291.141	89.5
291.371	87.5
291.602	89.5
291.833	89.5
292.064	91.5
292.295	89.5
292.526	85.5
292.757	81.5
292.987	89.5
293.218	82.5
293.449	90.5
293.68	104.5
293.91	77.5
294.141	88.5
294.372	78.5
294.603	89.5
294.833	82.5
295.064	101.5
295.295	95.5
295.525	93.5
295.756	103.5
295.987	126.5
296.217	131.5
296.448	121.5
296.679	106.5
296.909	91.5
297.14	95.5
297.37	94.5
297.601	92.5
297.831	108.5
298.062	88.5
298.292	103.5
298.523	84.5
298.753	83.5
298.984	89.5
299.214	96.5
299.445	92.5
299.675	99.5
299.905	94.5
300.136	94.5
300.366	100.5
300.597	96.5
300.827	80.5
301.057	102.5
301.288	106.5
301.518	92.5
301.748	90.5
301.979	112.5
302.209	101.5
302.439	84.5
302.669	86.5
302.9	88.5
303.13	85.5
303.36	108.5
303.59	122.5
303.82	118.5
304.051	93.5
304.281	88.5
304.511	88.5
304.741	81.5
304.971	93.5
305.201	93.5
305.431	93.5
305.661	88.5
305.891	102.5
306.121	93.5
306.352	101.5
306.582	103.5
306.812	96.5
307.042	106.5
307.272	114.5
307.502	117.5
307.731	127.5
307.961	104.5
308.191	112.5
308.421	98.5
308.651	94.5
308.881	81.5
309.111	92.5
309.341	101.5
309.571	105.5
309.8	102.5
310.03	95.5
310.26	93.5
310.49	95.5
310.72	112.5
310.949	124.5
311.179	110.5
311.409	88.5
311.639	101.5
311.868	93.5
312.098	104.5
312.328	92.5
312.557	98.5
312.787	107.5
313.017	115.5
313.246	97.5
313.476	92.5
313.706	88.5
313.935	80.5
314.165	93.5
314.394	101.5
314.624	108.5
314.853	101.5
315.083	92.5
315.312	79.5
315.542	92.5
315.771	81.5
316.001	79.5
316.23	93.5
316.46	88.5
316.689	90.5
316.919	88.5
317.148	97.5
317.377	117.5
317.607	89.5
317.836	90.5
318.065	109.5
318.295	98.5
318.524	95.5
318.753	102.5
318.983	95.5
319.212	100.5
319.441	115.5
319.67	111.5
319.9	88.5
320.129	97.5
320.358	102.5
320.587	96.5
320.816	96.5
321.046	97.5
321.275	90.5
321.504	97.5
321.733	101.5
321.962	102.5
322.191	101.5
322.42	123.5
322.649	111.5
322.878	108.5
323.108	108.5
323.337	125.5
323.566	142.5
323.795	156.5
324.024	230.5
324.253	432.5
324.482	927.5
324.71	1917.5
324.939	2634.5
325.168	961.5
325.397	278.5
325.626	148.5
325.855	125.5
326.084	132.5
326.313	131.5
326.542	165.5
326.77	254.5
326.999	495.5
327.228	1070.5
327.457	2017.5
327.686	1600.5
327.914	462.5
328.143	337.5
328.372	396.5
328.6	241.5
328.829	150.5
329.058	158.5
329.287	157.5
329.515	144.5
329.744	174.5
329.972	273.5
330.201	516.5
330.43	732.5
330.658	367.5
330.887	218.5
331.115	150.5
331.344	101.5
331.572	118.5
331.801	112.5
332.03	115.5
332.258	106.5
332.486	106.5
332.715	106.5
332.943	102.5
333.172	101.5
333.4	100.5
333.629	124.5
333.857	157.5
334.085	274.5
334.314	473.5
334.542	929.5
334.771	885.5
334.999	277.5
335.227	148.5
335.455	116.5
335.684	108.5
335.912	102.5
336.14	99.5
336.369	110.5
336.597	104.5
336.825	102.5
337.053	84.5
337.281	76.5
337.51	93.5
337.738	103.5
337.966	94.5
338.194	117.5
338.422	96.5
338.65	110.5
338.878	97.5
339.106	92.5
339.334	100.5
339.562	88.5
339.79	93.5
340.018	94.5
340.246	101.5
340.474	94.5
340.702	104.5
340.93	93.5
341.158	91.5
341.386	98.5
341.614	105.5
341.842	90.5
342.07	102.5
342.298	102.5
342.526	91.5
342.754	79.5
342.981	85.5
343.209	93.5
343.437	85.5
343.665	84.5
343.893	89.5
344.12	89.5
344.348	94.5
344.576	93.5
344.804	89.5
345.031	108.5
345.259	96.5
345.487	83.5
345.714	74.5
345.942	96.5
346.17	89.5
346.397	108.5
346.625	80.5
346.853	103.5
347.08	94.5
347.308	102.5
347.535	96.5
347.763	101.5
347.99	93.5
348.218	101.5
348.445	102.5
348.673	104.5
348.9	85.5
349.128	92.5
349.355	79.5
349.583	96.5
349.81	79.5
350.037	98.5
350.265	81.5
350.492	87.5
350.72	100.5
350.947	99.5
351.174	92.5
351.402	114.5
351.629	94.5
351.856	71.5
352.083	104.5
352.311	100.5
352.538	98.5
352.765	124.5
352.992	127.5
353.22	110.5
353.447	110.5
353.674	101.5
353.901	104.5
354.128	96.5
354.355	113.5
354.583	106.5
354.81	86.5
355.037	97.5
355.264	80.5
355.491	90.5
355.718	93.5
355.945	105.5
356.172	103.5
356.399	94.5
356.626	88.5
356.853	82.5
357.08	87.5
357.307	85.5
357.534	95.5
357.761	98.5
357.988	100.5
358.215	90.5
358.441	94.5
358.668	88.5
358.895	84.5
359.122	83.5
359.349	100.5
359.576	99.5
359.802	109.5
360.029	133.5
360.256	113.5
360.483	116.5
360.709	96.5
360.936	97.5
361.163	89.5
361.39	96.5
361.616	96.5
361.843	106.5
362.07	105.5
362.296	96.5
362.523	85.5
362.749	79.5
362.976	90.5
363.203	104.5
363.429	76.5
363.656	83.5
363.882	92.5
364.109	80.5
364.335	112.5
364.562	95.5
364.788	90.5
365.015	86.5
365.241	102.5
365.468	96.5
365.694	109.5
365.92	97.5
366.147	97.5
366.373	104.5
366.599	95.5
366.826	90.5
367.052	101.5
367.278	91.5
367.505	108.5
367.731	94.5
367.957	106.5
368.184	98.5
368.41	94.5
368.636	105.5
368.862	128.5
369.089	105.5
369.315	89.5
369.541	83.5
369.767	90.5
369.993	102.5
370.219	95.5
370.445	85.5
370.672	92.5
370.898	94.5
371.124	88.5
371.35	94.5
371.576	95.5
371.802	68.5
372.028	86.5
372.254	84.5
372.48	81.5
372.706	82.5
372.932	92.5
373.158	64.5
373.384	100.5
373.61	86.5
373.835	104.5
374.061	92.5
374.287	103.5
374.513	98.5
374.739	92.5
374.965	99.5
375.191	92.5
375.416	94.5
375.642	97.5
375.868	79.5
376.094	88.5
376.319	87.5
376.545	92.5
376.771	88.5
376.997	105.5
377.222	96.5
377.448	72.5
377.674	78.5
377.899	105.5
378.125	78.5
378.35	89.5
378.576	90.5
378.802	101.5
379.027	92.5
379.253	78.5
379.478	92.5
379.704	101.5
379.929	95.5
380.155	82.5
380.38	96.5
380.606	96.5
380.831	82.5
381.057	86.5
381.282	70.5
381.507	93.5
381.733	106.5
381.958	94.5
382.184	110.5
382.409	105.5
382.634	111.5
382.86	104.5
383.085	104.5
383.31	100.5
383.535	99.5
383.761	96.5
383.986	110.5
384.211	101.5
384.436	104.5
384.662	82.5
384.887	99.5
385.112	111.5
385.337	106.5
385.562	111.5
385.787	114.5
386.013	105.5
386.238	119.5
386.463	125.5
386.688	97.5
386.913	103.5
387.138	107.5
387.363	105.5
387.588	86.5
387.813	102.5
388.038	109.5
388.263	108.5
388.488	112.5
388.713	97.5
388.938	85.5
389.163	81.5
389.387	101.5
389.612	93.5
389.837	94.5
390.062	71.5
390.287	84.5
390.512	87.5
390.736	79.5
390.961	85.5
391.186	87.5
391.411	82.5
391.636	91.5
391.86	89.5
392.085	83.5
392.31	97.5
392.534	94.5
392.759	110.5
392.984	94.5
393.208	106.5
393.433	105.5
393.658	78.5
393.882	84.5
394.107	70.5
394.331	85.5
394.556	88.5
394.78	96.5
395.005	92.5
395.229	88.5
395.454	92.5
395.678	89.5
395.903	97.5
396.127	90.5
396.352	86.5
396.576	88.5
396.801	109.5
397.025	85.5
397.249	92.5
397.474	86.5
397.698	88.5
397.922	76.5
398.147	101.5
398.371	76.5
398.595	102.5
398.82	102.5
399.044	94.5
399.268	78.5
399.492	65.5
399.717	87.5
399.941	89.5
400.165	97.5
400.389	94.5
400.613	84.5
400.837	95.5
401.062	97.5
401.286	93.5
401.51	95.5
401.734	95.5
401.958	95.5
402.182	125.5
402.406	174.5
402.63	125.5
402.854	110.5
403.078	103.5
403.302	76.5
403.526	87.5
403.75	87.5
403.974	76.5
404.198	98.5
404.422	99.5
404.645	82.5
404.869	90.5
405.093	108.5
405.317	119.5
405.541	131.5
405.765	112.5
405.988	108.5
406.212	175.5
406.436	265.5
406.66	161.5
406.883	90.5
407.107	106.5
407.331	86.5
407.555	123.5
407.778	100.5
408.002	82.5
408.226	93.5
408.449	99.5
408.673	90.5
408.896	88.5
409.12	106.5
409.344	87.5
409.567	90.5
409.791	88.5
410.014	88.5
410.238	103.5
410.461	101.5
410.685	86.5
410.908	95.5
411.132	97.5
411.355	117.5
411.578	84.5
411.802	80.5
412.025	81.5
412.249	95.5
412.472	116.5
412.695	102.5
412.919	119.5
413.142	92.5
413.365	95.5
413.589	93.5
413.812	91.5
414.035	84.5
414.258	108.5
414.482	94.5
414.705	86.5
414.928	76.5
415.151	96.5
415.374	90.5
415.597	99.5
415.821	101.5
416.044	114.5
416.267	87.5
416.49	87.5
416.713	93.5
416.936	88.5
417.159	86.5
417.382	87.5
417.605	84.5
417.828	98.5
418.051	93.5
418.274	101.5
418.497	77.5
418.72	84.5
418.943	84.5
419.166	95.5
419.389	94.5
419.611	83.5
419.834	96.5
420.057	93.5
420.28	92.5
420.503	84.5
420.726	91.5
420.948	89.5
421.171	96.5
421.394	89.5
421.617	109.5
421.839	88.5
422.062	85.5
422.285	96.5
422.507	94.5
422.73	118.5
422.953	90.5
423.175	95.5
423.398	89.5
423.621	87.5
423.843	72.5
424.066	102.5
424.288	98.5
424.511	100.5
424.733	92.5
424.956	119.5
425.178	110.5
425.401	102.5
425.623	116.5
425.846	109.5
426.068	100.5
426.291	112.5
426.513	88.5
426.735	79.5
426.958	94.5
427.18	110.5
427.402	144.5
427.625	194.5
427.847	195.5
428.069	181.5
428.292	113.5
428.514	94.5
428.736	91.5
428.958	85.5
429.181	98.5
429.403	80.5
429.625	98.5
429.847	110.5
430.069	98.5
430.292	81.5
430.514	80.5
430.736	78.5
430.958	87.5
431.18	84.5
431.402	84.5
431.624	84.5
431.846	81.5
432.068	83.5
432.29	91.5
432.512	87.5
432.734	99.5
432.956	93.5
433.178	89.5
433.4	98.5
433.622	100.5
433.844	101.5
434.066	87.5
434.287	90.5
434.509	94.5
434.731	87.5
434.953	103.5
435.175	99.5
435.397	96.5
435.618	81.5
435.84	97.5
436.062	142.5
436.284	136.5
436.505	101.5
436.727	102.5
436.949	101.5
437.17	79.5
437.392	83.5
437.614	96.5
437.835	109.5
438.057	147.5
438.278	127.5
438.5	115.5
438.721	116.5
438.943	105.5
439.165	99.5
439.386	89.5
439.608	91.5
439.829	100.5
440.05	137.5
440.272	172.5
440.493	111.5
440.715	91.5
440.936	94.5
441.158	98.5
441.379	88.5
441.6	85.5
441.822	89.5
442.043	102.5
442.264	120.5
442.486	110.5
442.707	93.5
442.928	119.5
443.149	146.5
443.371	140.5
443.592	127.5
443.813	128.5
444.034	125.5
444.255	110.5
444.476	91.5
444.698	81.5
444.919	90.5
445.14	133.5
445.361	138.5
445.582	119.5
445.803	166.5
446.024	154.5
446.245	163.5
446.466	121.5
446.687	92.5
446.908	98.5
447.129	111.5
447.35	106.5
447.571	84.5
447.792	72.5
448.013	101.5
448.234	105.5
448.455	112.5
448.675	120.5
448.896	136.5
449.117	124.5
449.338	104.5
449.559	138.5
449.779	151.5
450	96.5
450.221	84.5
450.442	87.5
450.662	107.5
450.883	117.5
451.104	117.5
451.324	95.5
451.545	92.5
451.766	80.5
451.986	81.5
452.207	86.5
452.428	100.5
452.648	102.5
452.869	121.5
453.089	106.5
453.31	124.5
453.53	103.5
453.751	91.5
453.971	112.5
454.192	113.5
454.412	83.5
454.633	69.5
454.853	77.5
455.073	87.5
455.294	97.5
455.514	102.5
455.734	92.5
455.955	84.5
456.175	85.5
456.395	96.5
456.616	80.5
456.836	91.5
457.056	89.5
457.276	70.5
457.497	81.5
457.717	96.5
457.937	91.5
458.157	83.5
458.377	103.5
458.598	121.5
458.818	167.5
459.038	182.5
459.258	138.5
459.478	93.5
459.698	88.5
459.918	85.5
460.138	96.5
460.358	72.5
460.578	94.5
460.798	80.5
461.018	75.5
461.238	86.5
461.458	84.5
461.678	88.5
461.898	87.5
462.118	97.5
462.338	99.5
462.558	87.5
462.777	93.5
462.997	85.5
463.217	87.5
463.437	92.5
463.657	78.5
463.876	85.5
464.096	86.5
464.316	101.5
464.536	103.5
464.755	104.5
464.975	116.5
465.195	188.5
465.414	193.5
465.634	100.5
465.854	94.5
466.073	97.5
466.293	85.5
466.512	86.5
466.732	84.5
466.951	94.5
467.171	86.5
467.391	110.5
467.61	122.5
467.829	144.5
468.049	294.5
468.268	406.5
468.488	147.5
468.707	93.5
468.927	85.5
469.146	79.5
469.365	87.5
469.585	96.5
469.804	87.5
470.023	94.5
470.243	101.5
470.462	101.5
470.681	125.5
470.901	89.5
471.12	88.5
471.339	94.5
471.558	102.5
471.777	110.5
471.997	207.5
472.216	558.5
472.435	1216.5
472.654	327.5
472.873	116.5
473.092	78.5
473.311	92.5
473.53	73.5
473.749	97.5
473.968	102.5
474.187	117.5
474.406	110.5
474.625	87.5
474.844	91.5
475.063	85.5
475.282	85.5
475.501	80.5
475.72	79.5
475.939	94.5
476.158	80.5
476.377	82.5
476.596	92.5
476.814	103.5
477.033	93.5
477.252	76.5
477.471	90.5
477.69	98.5
477.908	82.5
478.127	107.5
478.346	87.5
478.564	92.5
478.783	85.5
479.002	98.5
479.22	104.5
479.439	112.5
479.658	118.5
479.876	96.5
480.095	114.5
480.313	112.5
480.532	135.5
480.751	200.5
480.969	547.5
481.188	2168.5
481.406	1306.5
481.624	225.5
481.843	126.5
482.061	111.5
482.28	92.5
482.498	84.5
482.717	85.5
482.935	90.5
483.153	88.5
483.372	82.5
483.59	99.5
483.808	88.5
484.027	84.5
484.245	97.5
484.463	92.5
484.681	105.5
484.9	105.5
485.118	98.5
485.336	73.5
485.554	108.5
485.772	95.5
485.99	97.5
486.209	105.5
486.427	107.5
486.645	108.5
486.863	117.5
487.081	105.5
487.299	100.5
487.517	94.5
487.735	88.5
487.953	102.5
488.171	87.5
488.389	85.5
488.607	107.5
488.825	101.5
489.043	78.5
489.261	92.5
489.479	90.5
489.696	80.5
489.914	80.5
490.132	101.5
490.35	87.5
490.568	96.5
490.786	89.5
491.003	86.5
491.221	87.5
491.439	101.5
491.657	102.5
491.874	103.5
492.092	105.5
492.31	83.5
492.527	92.5
492.745	81.5
492.963	96.5
493.18	86.5
493.398	97.5
493.615	102.5
493.833	97.5
494.05	97.5
494.268	89.5
494.485	102.5
494.703	88.5
494.92	90.5
495.138	87.5
495.355	93.5
495.573	89.5
495.79	77.5
496.008	103.5
496.225	103.5
496.442	96.5
496.66	111.5
496.877	92.5
497.094	90.5
497.312	85.5
497.529	86.5
497.746	88.5
497.963	96.5
498.181	95.5
498.398	107.5
498.615	118.5
498.832	106.5
499.049	97.5
499.267	93.5
499.484	76.5
499.701	69.5
499.918	87.5
500.135	84.5
500.352	94.5
500.569	93.5
500.786	90.5
501.003	76.5
501.22	85.5
501.437	79.5
501.654	102.5
501.871	110.5
502.088	108.5
502.305	97.5
502.522	88.5
502.739	97.5
502.956	92.5
503.172	97.5
503.389	101.5
503.606	99.5
503.823	92.5
504.04	94.5
504.256	103.5
504.473	97.5
504.69	84.5
504.907	111.5
505.123	83.5
505.34	90.5
505.557	76.5
505.773	85.5
505.99	81.5
506.207	92.5
506.423	89.5
506.64	88.5
506.856	81.5
507.073	90.5
507.289	88.5
507.506	100.5
507.722	120.5
507.939	106.5
508.155	105.5
508.372	84.5
508.588	92.5
508.805	81.5
509.021	97.5
509.238	103.5
509.454	92.5
509.67	103.5
509.887	100.5
510.103	108.5
510.319	200.5
510.536	756.5
510.752	2468.5
510.968	672.5
511.184	156.5
511.401	115.5
511.617	119.5
511.833	96.5
512.049	94.5
512.265	99.5
512.481	95.5
512.698	93.5
512.914	95.5
513.13	95.5
513.346	94.5
513.562	99.5
513.778	101.5
513.994	98.5
514.21	113.5
514.426	123.5
514.642	166.5
514.858	147.5
515.074	188.5
515.29	536.5
515.506	1774.5
515.721	660.5
515.937	168.5
516.153	117.5
516.369	96.5
516.585	101.5
516.801	105.5
517.016	94.5
517.232	87.5
517.448	89.5
517.664	102.5
517.879	105.5
518.095	97.5
518.311	100.5
518.527	92.5
518.742	93.5
518.958	80.5
519.173	94.5
519.389	92.5
519.605	94.5
519.82	111.5
520.036	97.5
520.251	120.5
520.467	106.5
520.682	104.5
520.898	96.5
521.113	117.5
521.329	151.5
521.544	231.5
521.76	671.5
521.975	3023.5
522.19	1795.5
522.406	372.5
522.621	128.5
522.836	106.5
523.052	108.5
523.267	84.5
523.482	92.5
523.698	102.5
523.913	123.5
524.128	109.5
524.343	80.5
524.559	107.5
524.774	97.5
524.989	105.5
525.204	112.5
525.419	100.5
525.634	96.5
525.849	94.5
526.064	91.5
526.28	100.5
526.495	92.5
526.71	78.5
526.925	81.5
527.14	86.5
527.355	85.5
527.57	101.5
527.785	85.5
527.999	99.5
528.214	97.5
528.429	102.5
528.644	90.5
528.859	90.5
529.074	87.5
529.289	125.5
529.503	211.5
529.718	82.5
529.933	84.5
530.148	83.5
530.363	93.5
530.577	89.5
530.792	96.5
531.007	90.5
531.221	89.5
531.436	109.5
531.651	100.5
531.865	76.5
532.08	94.5
532.295	108.5
532.509	89.5
532.724	87.5
532.938	86.5
533.153	79.5
