Data from Circ_1989_H10_HRD10591_00066.txt Node
Date: Wed Jan 03 12:01:34 EST 2024
User: Yrep
Spectrometer: HR+D1059
Trigger mode: 1
Integration Time (sec): 1.000000E-1
Scans to average: 1
Electric dark correction enabled: true
Nonlinearity correction enabled: false
Boxcar width: 0
XAxis mode: Wavelengths
Number of Pixels in Spectrum: 2048
>>>>>Begin Spectral Data<<<<<
223.165	-10.81
223.4	-10.81
223.635	-10.81
223.869	-18.81
224.104	-20.81
224.338	-22.81
224.573	-9.81
224.808	-13.81
225.042	0.19
225.277	-13.81
225.511	5.19
225.746	4.19
225.98	11.19
226.215	8.19
226.449	9.19
226.683	23.19
226.918	29.19
227.152	20.19
227.387	31.19
227.621	39.19
227.856	33.19
228.09	47.19
228.324	46.19
228.559	63.19
228.793	60.19
229.027	71.19
229.262	61.19
229.496	67.19
229.73	86.19
229.964	80.19
230.199	86.19
230.433	71.19
230.667	78.19
230.901	59.19
231.136	69.19
231.37	72.19
231.604	76.19
231.838	77.19
232.072	75.19
232.306	90.19
232.541	90.19
232.775	79.19
233.009	68.19
233.243	86.19
233.477	84.19
233.711	75.19
233.945	61.19
234.179	81.19
234.413	83.19
234.647	92.19
234.881	85.19
235.115	71.19
235.349	79.19
235.583	78.19
235.817	89.19
236.051	80.19
236.285	80.19
236.519	72.19
236.753	70.19
236.987	61.19
237.221	92.19
237.455	85.19
237.689	93.19
237.922	71.19
238.156	73.19
238.39	82.19
238.624	75.19
238.858	87.19
239.091	72.19
239.325	91.19
239.559	73.19
239.793	75.19
240.027	91.19
240.26	71.19
240.494	84.19
240.728	69.19
240.961	63.19
241.195	78.19
241.429	69.19
241.662	82.19
241.896	89.19
242.13	82.19
242.363	87.19
242.597	97.19
242.83	76.19
243.064	81.19
243.298	81.19
243.531	76.19
243.765	82.19
243.998	74.19
244.232	83.19
244.465	83.19
244.699	80.19
244.932	77.19
245.166	76.19
245.399	80.19
245.633	76.19
245.866	80.19
246.099	83.19
246.333	86.19
246.566	81.19
246.8	75.19
247.033	81.19
247.266	76.19
247.5	78.19
247.733	78.19
247.966	81.19
248.2	80.19
248.433	84.19
248.666	86.19
248.899	93.19
249.133	83.19
249.366	100.19
249.599	94.19
249.832	93.19
250.066	78.19
250.299	91.19
250.532	84.19
250.765	84.19
250.998	69.19
251.231	84.19
251.465	77.19
251.698	84.19
251.931	83.19
252.164	69.19
252.397	77.19
252.63	79.19
252.863	83.19
253.096	88.19
253.329	71.19
253.562	79.19
253.795	86.19
254.028	83.19
254.261	88.19
254.494	84.19
254.727	87.19
254.96	71.19
255.193	91.19
255.426	91.19
255.659	83.19
255.892	88.19
256.124	79.19
256.357	86.19
256.59	79.19
256.823	91.19
257.056	86.19
257.289	83.19
257.521	83.19
257.754	87.19
257.987	81.19
258.22	86.19
258.452	83.19
258.685	83.19
258.918	89.19
259.151	77.19
259.383	74.19
259.616	78.19
259.849	88.19
260.081	81.19
260.314	82.19
260.547	88.19
260.779	80.19
261.012	77.19
261.244	78.19
261.477	94.19
261.71	108.19
261.942	106.19
262.175	92.19
262.407	98.19
262.64	93.19
262.872	73.19
263.105	79.19
263.337	81.19
263.57	76.19
263.802	72.19
264.035	66.19
264.267	89.19
264.499	79.19
264.732	79.19
264.964	81.19
265.197	68.19
265.429	90.19
265.661	81.19
265.894	84.19
266.126	83.19
266.358	80.19
266.591	93.19
266.823	104.19
267.055	87.19
267.287	77.19
267.52	91.19
267.752	70.19
267.984	77.19
268.216	84.19
268.448	93.19
268.681	85.19
268.913	83.19
269.145	77.19
269.377	69.19
269.609	78.19
269.841	82.19
270.073	79.19
270.306	84.19
270.538	86.19
270.77	89.19
271.002	81.19
271.234	95.19
271.466	89.19
271.698	89.19
271.93	76.19
272.162	83.19
272.394	81.19
272.626	77.19
272.858	68.19
273.09	87.19
273.322	88.19
273.553	98.19
273.785	85.19
274.017	84.19
274.249	83.19
274.481	91.19
274.713	84.19
274.945	82.19
275.176	92.19
275.408	93.19
275.64	100.19
275.872	100.19
276.104	76.19
276.335	101.19
276.567	88.19
276.799	117.19
277.031	106.19
277.262	124.19
277.494	112.19
277.726	77.19
277.957	93.19
278.189	81.19
278.421	85.19
278.652	95.19
278.884	93.19
279.115	89.19
279.347	78.19
279.579	96.19
279.81	95.19
280.042	131.19
280.273	146.19
280.505	108.19
280.736	91.19
280.968	89.19
281.199	79.19
281.431	90.19
281.662	97.19
281.894	92.19
282.125	84.19
282.356	106.19
282.588	129.19
282.819	113.19
283.051	106.19
283.282	93.19
283.513	87.19
283.745	84.19
283.976	79.19
284.207	86.19
284.439	90.19
284.67	84.19
284.901	102.19
285.132	81.19
285.364	84.19
285.595	83.19
285.826	105.19
286.057	94.19
286.288	69.19
286.52	87.19
286.751	71.19
286.982	85.19
287.213	84.19
287.444	88.19
287.675	96.19
287.906	79.19
288.138	84.19
288.369	92.19
288.6	75.19
288.831	83.19
289.062	79.19
289.293	92.19
289.524	85.19
289.755	77.19
289.986	90.19
290.217	105.19
290.448	86.19
290.679	97.19
290.91	91.19
291.141	79.19
291.371	78.19
291.602	87.19
291.833	91.19
292.064	97.19
292.295	87.19
292.526	76.19
292.757	72.19
292.987	75.19
293.218	84.19
293.449	87.19
293.68	85.19
293.91	78.19
294.141	83.19
294.372	85.19
294.603	81.19
294.833	79.19
295.064	76.19
295.295	81.19
295.525	86.19
295.756	88.19
295.987	105.19
296.217	110.19
296.448	111.19
296.679	73.19
296.909	105.19
297.14	109.19
297.37	89.19
297.601	91.19
297.831	90.19
298.062	70.19
298.292	87.19
298.523	77.19
298.753	77.19
298.984	91.19
299.214	96.19
299.445	93.19
299.675	103.19
299.905	99.19
300.136	69.19
300.366	83.19
300.597	82.19
300.827	74.19
301.057	91.19
301.288	96.19
301.518	92.19
301.748	84.19
301.979	120.19
302.209	99.19
302.439	83.19
302.669	83.19
302.9	88.19
303.13	84.19
303.36	100.19
303.59	102.19
303.82	96.19
304.051	108.19
304.281	91.19
304.511	88.19
304.741	80.19
304.971	88.19
305.201	80.19
305.431	92.19
305.661	97.19
305.891	104.19
306.121	91.19
306.352	91.19
306.582	99.19
306.812	111.19
307.042	105.19
307.272	113.19
307.502	120.19
307.731	125.19
307.961	123.19
308.191	88.19
308.421	72.19
308.651	75.19
308.881	88.19
309.111	81.19
309.341	92.19
309.571	91.19
309.8	96.19
310.03	93.19
310.26	91.19
310.49	95.19
310.72	96.19
310.949	96.19
311.179	84.19
311.409	100.19
311.639	100.19
311.868	101.19
312.098	95.19
312.328	96.19
312.557	94.19
312.787	99.19
313.017	87.19
313.246	88.19
313.476	88.19
313.706	93.19
313.935	93.19
314.165	82.19
314.394	101.19
314.624	99.19
314.853	100.19
315.083	96.19
315.312	86.19
315.542	104.19
315.771	88.19
316.001	92.19
316.23	97.19
316.46	87.19
316.689	76.19
316.919	88.19
317.148	83.19
317.377	95.19
317.607	99.19
317.836	85.19
318.065	90.19
318.295	89.19
318.524	91.19
318.753	102.19
318.983	90.19
319.212	103.19
319.441	112.19
319.67	96.19
319.9	101.19
320.129	93.19
320.358	95.19
320.587	95.19
320.816	100.19
321.046	87.19
321.275	85.19
321.504	95.19
321.733	100.19
321.962	105.19
322.191	99.19
322.42	91.19
322.649	104.19
322.878	106.19
323.108	126.19
323.337	118.19
323.566	113.19
323.795	150.19
324.024	204.19
324.253	361.19
324.482	761.19
324.71	1640.19
324.939	2159.19
325.168	798.19
325.397	233.19
325.626	133.19
325.855	111.19
326.084	121.19
326.313	123.19
326.542	165.19
326.77	231.19
326.999	465.19
327.228	904.19
327.457	1712.19
327.686	1358.19
327.914	410.19
328.143	309.19
328.372	323.19
328.6	204.19
328.829	127.19
329.058	141.19
329.287	136.19
329.515	125.19
329.744	167.19
329.972	260.19
330.201	469.19
330.43	661.19
330.658	311.19
330.887	185.19
331.115	134.19
331.344	111.19
331.572	104.19
331.801	115.19
332.03	102.19
332.258	82.19
332.486	88.19
332.715	101.19
332.943	97.19
333.172	111.19
333.4	101.19
333.629	130.19
333.857	160.19
334.085	248.19
334.314	488.19
334.542	870.19
334.771	795.19
334.999	257.19
335.227	123.19
335.455	111.19
335.684	109.19
335.912	114.19
336.14	93.19
336.369	105.19
336.597	90.19
336.825	102.19
337.053	89.19
337.281	97.19
337.51	102.19
337.738	93.19
337.966	89.19
338.194	91.19
338.422	90.19
338.65	95.19
338.878	88.19
339.106	88.19
339.334	93.19
339.562	88.19
339.79	81.19
340.018	111.19
340.246	87.19
340.474	79.19
340.702	79.19
340.93	86.19
341.158	104.19
341.386	87.19
341.614	98.19
341.842	100.19
342.07	104.19
342.298	96.19
342.526	82.19
342.754	82.19
342.981	87.19
343.209	81.19
343.437	109.19
343.665	111.19
343.893	96.19
344.12	95.19
344.348	87.19
344.576	70.19
344.804	87.19
345.031	89.19
345.259	96.19
345.487	100.19
345.714	87.19
345.942	84.19
346.17	95.19
346.397	99.19
346.625	73.19
346.853	92.19
347.08	86.19
347.308	95.19
347.535	96.19
347.763	102.19
347.99	94.19
348.218	104.19
348.445	114.19
348.673	89.19
348.9	103.19
349.128	98.19
349.355	97.19
349.583	95.19
349.81	100.19
350.037	92.19
350.265	93.19
350.492	108.19
350.72	91.19
350.947	118.19
351.174	107.19
351.402	106.19
351.629	87.19
351.856	97.19
352.083	97.19
352.311	92.19
352.538	98.19
352.765	113.19
352.992	102.19
353.22	106.19
353.447	105.19
353.674	96.19
353.901	93.19
354.128	70.19
354.355	87.19
354.583	89.19
354.81	95.19
355.037	101.19
355.264	95.19
355.491	91.19
355.718	106.19
355.945	94.19
356.172	103.19
356.399	87.19
356.626	84.19
356.853	91.19
357.08	93.19
357.307	92.19
357.534	81.19
357.761	79.19
357.988	90.19
358.215	83.19
358.441	85.19
358.668	89.19
358.895	91.19
359.122	98.19
359.349	81.19
359.576	91.19
359.802	95.19
360.029	105.19
360.256	104.19
360.483	91.19
360.709	88.19
360.936	93.19
361.163	90.19
361.39	92.19
361.616	95.19
361.843	93.19
362.07	102.19
362.296	93.19
362.523	98.19
362.749	74.19
362.976	99.19
363.203	86.19
363.429	77.19
363.656	104.19
363.882	76.19
364.109	94.19
364.335	87.19
364.562	88.19
364.788	100.19
365.015	98.19
365.241	88.19
365.468	96.19
365.694	113.19
365.92	99.19
366.147	93.19
366.373	89.19
366.599	81.19
366.826	88.19
367.052	84.19
367.278	85.19
367.505	92.19
367.731	95.19
367.957	84.19
368.184	93.19
368.41	93.19
368.636	104.19
368.862	118.19
369.089	104.19
369.315	97.19
369.541	91.19
369.767	81.19
369.993	99.19
370.219	78.19
370.445	99.19
370.672	89.19
370.898	87.19
371.124	99.19
371.35	89.19
371.576	93.19
371.802	91.19
372.028	77.19
372.254	75.19
372.48	83.19
372.706	83.19
372.932	93.19
373.158	96.19
373.384	93.19
373.61	89.19
373.835	85.19
374.061	95.19
374.287	92.19
374.513	96.19
374.739	86.19
374.965	90.19
375.191	91.19
375.416	86.19
375.642	98.19
375.868	100.19
376.094	71.19
376.319	73.19
376.545	94.19
376.771	83.19
376.997	96.19
377.222	91.19
377.448	79.19
377.674	87.19
377.899	99.19
378.125	94.19
378.35	89.19
378.576	98.19
378.802	93.19
379.027	83.19
379.253	93.19
379.478	96.19
379.704	89.19
379.929	90.19
380.155	89.19
380.38	84.19
380.606	111.19
380.831	100.19
381.057	95.19
381.282	77.19
381.507	94.19
381.733	93.19
381.958	98.19
382.184	85.19
382.409	94.19
382.634	96.19
382.86	92.19
383.085	114.19
383.31	122.19
383.535	95.19
383.761	87.19
383.986	94.19
384.211	102.19
384.436	94.19
384.662	111.19
384.887	99.19
385.112	95.19
385.337	94.19
385.562	95.19
385.787	92.19
386.013	97.19
386.238	116.19
386.463	105.19
386.688	111.19
386.913	117.19
387.138	114.19
387.363	95.19
387.588	99.19
387.813	95.19
388.038	100.19
388.263	112.19
388.488	104.19
388.713	93.19
388.938	88.19
389.163	97.19
389.387	95.19
389.612	101.19
389.837	95.19
390.062	94.19
390.287	98.19
390.512	88.19
390.736	101.19
390.961	91.19
391.186	94.19
391.411	89.19
391.636	88.19
391.86	88.19
392.085	70.19
392.31	88.19
392.534	91.19
392.759	85.19
392.984	94.19
393.208	93.19
393.433	99.19
393.658	96.19
393.882	79.19
394.107	79.19
394.331	79.19
394.556	93.19
394.78	79.19
395.005	91.19
395.229	81.19
395.454	91.19
395.678	78.19
395.903	93.19
396.127	85.19
396.352	89.19
396.576	77.19
396.801	100.19
397.025	79.19
397.249	84.19
397.474	79.19
397.698	82.19
397.922	71.19
398.147	83.19
398.371	103.19
398.595	90.19
398.82	86.19
399.044	71.19
399.268	82.19
399.492	83.19
399.717	96.19
399.941	90.19
400.165	96.19
400.389	96.19
400.613	105.19
400.837	88.19
401.062	83.19
401.286	84.19
401.51	83.19
401.734	79.19
401.958	100.19
402.182	114.19
402.406	139.19
402.63	106.19
402.854	85.19
403.078	83.19
403.302	84.19
403.526	82.19
403.75	82.19
403.974	85.19
404.198	88.19
404.422	91.19
404.645	98.19
404.869	97.19
405.093	106.19
405.317	120.19
405.541	120.19
405.765	111.19
405.988	106.19
406.212	128.19
406.436	187.19
406.66	148.19
406.883	114.19
407.107	106.19
407.331	95.19
407.555	109.19
407.778	92.19
408.002	82.19
408.226	103.19
408.449	82.19
408.673	92.19
408.896	104.19
409.12	103.19
409.344	92.19
409.567	102.19
409.791	91.19
410.014	98.19
410.238	92.19
410.461	89.19
410.685	85.19
410.908	103.19
411.132	103.19
411.355	95.19
411.578	98.19
411.802	85.19
412.025	89.19
412.249	92.19
412.472	104.19
412.695	119.19
412.919	105.19
413.142	86.19
413.365	85.19
413.589	93.19
413.812	82.19
414.035	73.19
414.258	91.19
414.482	96.19
414.705	94.19
414.928	91.19
415.151	104.19
415.374	91.19
415.597	77.19
415.821	79.19
416.044	95.19
416.267	73.19
416.49	87.19
416.713	93.19
416.936	99.19
417.159	96.19
417.382	93.19
417.605	95.19
417.828	99.19
418.051	91.19
418.274	85.19
418.497	72.19
418.72	71.19
418.943	86.19
419.166	77.19
419.389	94.19
419.611	90.19
419.834	92.19
420.057	98.19
420.28	92.19
420.503	98.19
420.726	90.19
420.948	85.19
421.171	99.19
421.394	95.19
421.617	78.19
421.839	93.19
422.062	80.19
422.285	90.19
422.507	92.19
422.73	108.19
422.953	88.19
423.175	87.19
423.398	89.19
423.621	83.19
423.843	68.19
424.066	81.19
424.288	80.19
424.511	82.19
424.733	101.19
424.956	120.19
425.178	99.19
425.401	91.19
425.623	101.19
425.846	83.19
426.068	93.19
426.291	84.19
426.513	89.19
426.735	88.19
426.958	102.19
427.18	116.19
427.402	145.19
427.625	188.19
427.847	187.19
428.069	191.19
428.292	101.19
428.514	95.19
428.736	89.19
428.958	93.19
429.181	93.19
429.403	85.19
429.625	88.19
429.847	96.19
430.069	97.19
430.292	88.19
430.514	85.19
430.736	100.19
430.958	98.19
431.18	94.19
431.402	91.19
431.624	88.19
431.846	89.19
432.068	72.19
432.29	91.19
432.512	105.19
432.734	106.19
432.956	98.19
433.178	100.19
433.4	84.19
433.622	84.19
433.844	98.19
434.066	101.19
434.287	97.19
434.509	87.19
434.731	84.19
434.953	92.19
435.175	85.19
435.397	98.19
435.618	82.19
435.84	104.19
436.062	120.19
436.284	126.19
436.505	99.19
436.727	93.19
436.949	93.19
437.17	80.19
437.392	72.19
437.614	99.19
437.835	101.19
438.057	119.19
438.278	100.19
438.5	117.19
438.721	133.19
438.943	92.19
439.165	92.19
439.386	94.19
439.608	72.19
439.829	108.19
440.05	128.19
440.272	161.19
440.493	118.19
440.715	85.19
440.936	92.19
441.158	83.19
441.379	77.19
441.6	95.19
441.822	104.19
442.043	104.19
442.264	102.19
442.486	114.19
442.707	88.19
442.928	113.19
443.149	116.19
443.371	121.19
443.592	109.19
443.813	108.19
444.034	103.19
444.255	90.19
444.476	87.19
444.698	83.19
444.919	92.19
445.14	128.19
445.361	127.19
445.582	115.19
445.803	120.19
446.024	142.19
446.245	149.19
446.466	104.19
446.687	79.19
446.908	97.19
447.129	84.19
447.35	78.19
447.571	80.19
447.792	97.19
448.013	102.19
448.234	115.19
448.455	109.19
448.675	116.19
448.896	115.19
449.117	91.19
449.338	110.19
449.559	136.19
449.779	124.19
450	95.19
450.221	102.19
450.442	92.19
450.662	80.19
450.883	100.19
451.104	104.19
451.324	83.19
451.545	86.19
451.766	82.19
451.986	80.19
452.207	107.19
452.428	90.19
452.648	109.19
452.869	109.19
453.089	110.19
453.31	114.19
453.53	93.19
453.751	97.19
453.971	96.19
454.192	99.19
454.412	99.19
454.633	95.19
454.853	105.19
455.073	93.19
455.294	90.19
455.514	109.19
455.734	87.19
455.955	75.19
456.175	80.19
456.395	87.19
456.616	70.19
456.836	80.19
457.056	96.19
457.276	86.19
457.497	77.19
457.717	85.19
457.937	80.19
458.157	79.19
458.377	87.19
458.598	110.19
458.818	115.19
459.038	159.19
459.258	108.19
459.478	92.19
459.698	90.19
459.918	98.19
460.138	87.19
460.358	87.19
460.578	80.19
460.798	100.19
461.018	66.19
461.238	87.19
461.458	84.19
461.678	78.19
461.898	91.19
462.118	89.19
462.338	91.19
462.558	85.19
462.777	82.19
462.997	88.19
463.217	112.19
463.437	93.19
463.657	91.19
463.876	95.19
464.096	78.19
464.316	100.19
464.536	92.19
464.755	88.19
464.975	94.19
465.195	132.19
465.414	148.19
465.634	95.19
465.854	90.19
466.073	97.19
466.293	87.19
466.512	98.19
466.732	85.19
466.951	89.19
467.171	96.19
467.391	89.19
467.61	128.19
467.829	142.19
468.049	293.19
468.268	397.19
468.488	134.19
468.707	95.19
468.927	81.19
469.146	88.19
469.365	86.19
469.585	89.19
469.804	104.19
470.023	95.19
470.243	91.19
470.462	81.19
470.681	103.19
470.901	103.19
471.12	94.19
471.339	106.19
471.558	87.19
471.777	100.19
471.997	198.19
472.216	587.19
472.435	1153.19
472.654	318.19
472.873	118.19
473.092	93.19
473.311	103.19
473.53	102.19
473.749	79.19
473.968	85.19
474.187	114.19
474.406	105.19
474.625	88.19
474.844	83.19
475.063	94.19
475.282	87.19
475.501	91.19
475.72	84.19
475.939	97.19
476.158	91.19
476.377	85.19
476.596	94.19
476.814	100.19
477.033	101.19
477.252	94.19
477.471	89.19
477.69	75.19
477.908	96.19
478.127	96.19
478.346	98.19
478.564	86.19
478.783	78.19
479.002	97.19
479.22	87.19
479.439	97.19
479.658	94.19
479.876	111.19
480.095	100.19
480.313	101.19
480.532	129.19
480.751	184.19
480.969	547.19
481.188	2110.19
481.406	1179.19
481.624	217.19
481.843	117.19
482.061	92.19
482.28	81.19
482.498	85.19
482.717	92.19
482.935	88.19
483.153	78.19
483.372	92.19
483.59	86.19
483.808	93.19
484.027	90.19
484.245	97.19
484.463	93.19
484.681	94.19
484.9	100.19
485.118	91.19
485.336	92.19
485.554	94.19
485.772	96.19
485.99	108.19
486.209	114.19
486.427	110.19
486.645	100.19
486.863	104.19
487.081	96.19
487.299	92.19
487.517	108.19
487.735	100.19
487.953	98.19
488.171	92.19
488.389	103.19
488.607	95.19
488.825	87.19
489.043	90.19
489.261	101.19
489.479	88.19
489.696	78.19
489.914	91.19
490.132	99.19
490.35	96.19
490.568	103.19
490.786	76.19
491.003	89.19
491.221	98.19
491.439	89.19
491.657	91.19
491.874	92.19
492.092	86.19
492.31	99.19
492.527	97.19
492.745	91.19
492.963	98.19
493.18	89.19
493.398	97.19
493.615	104.19
493.833	68.19
494.05	100.19
494.268	92.19
494.485	95.19
494.703	81.19
494.92	94.19
495.138	90.19
495.355	76.19
495.573	93.19
495.79	95.19
496.008	91.19
496.225	96.19
496.442	77.19
496.66	109.19
496.877	94.19
497.094	98.19
497.312	102.19
497.529	85.19
497.746	93.19
497.963	85.19
498.181	86.19
498.398	100.19
498.615	93.19
498.832	100.19
499.049	86.19
499.267	88.19
499.484	104.19
499.701	96.19
499.918	76.19
500.135	83.19
500.352	95.19
500.569	87.19
500.786	87.19
501.003	89.19
501.22	80.19
501.437	84.19
501.654	85.19
501.871	105.19
502.088	89.19
502.305	90.19
502.522	88.19
502.739	95.19
502.956	93.19
503.172	92.19
503.389	90.19
503.606	92.19
503.823	94.19
504.04	90.19
504.256	80.19
504.473	94.19
504.69	79.19
504.907	93.19
505.123	92.19
505.34	88.19
505.557	83.19
505.773	84.19
505.99	89.19
506.207	92.19
506.423	91.19
506.64	80.19
506.856	88.19
507.073	108.19
507.289	96.19
507.506	98.19
507.722	111.19
507.939	112.19
508.155	89.19
508.372	86.19
508.588	102.19
508.805	77.19
509.021	91.19
509.238	97.19
509.454	110.19
509.67	100.19
509.887	108.19
510.103	113.19
510.319	179.19
510.536	547.19
510.752	1720.19
510.968	505.19
511.184	143.19
511.401	112.19
511.617	97.19
511.833	103.19
512.049	94.19
512.265	95.19
512.481	92.19
512.698	85.19
512.914	83.19
513.13	106.19
513.346	90.19
513.562	86.19
513.778	105.19
513.994	96.19
514.21	111.19
514.426	108.19
514.642	113.19
514.858	113.19
515.074	167.19
515.29	390.19
