Data from Circ_1989_H10_HRD10591_00083.txt Node
Date: Wed Jan 03 12:01:38 EST 2024
User: Yrep
Spectrometer: HR+D1059
Trigger mode: 1
Integration Time (sec): 1.000000E-1
Scans to average: 1
Electric dark correction enabled: true
Nonlinearity correction enabled: false
Boxcar width: 0
XAxis mode: Wavelengths
Number of Pixels in Spectrum: 2048
>>>>>Begin Spectral Data<<<<<
223.165	-33.19
223.4	-33.19
223.635	-33.19
223.869	-9.19
224.104	-2.19
224.338	-10.19
224.573	-16.19
224.808	-10.19
225.042	-14.19
225.277	-4.19
225.511	-3.19
225.746	-0.19
225.98	16.81
226.215	14.81
226.449	18.81
226.683	12.81
226.918	20.81
227.152	18.81
227.387	33.81
227.621	44.81
227.856	48.81
228.09	49.81
228.324	52.81
228.559	47.81
228.793	66.81
229.027	58.81
229.262	58.81
229.496	60.81
229.73	91.81
229.964	72.81
230.199	72.81
230.433	63.81
230.667	72.81
230.901	92.81
231.136	62.81
231.37	82.81
231.604	84.81
231.838	84.81
232.072	92.81
232.306	85.81
232.541	72.81
232.775	72.81
233.009	82.81
233.243	90.81
233.477	86.81
233.711	92.81
233.945	67.81
234.179	84.81
234.413	71.81
234.647	93.81
234.881	78.81
235.115	79.81
235.349	78.81
235.583	70.81
235.817	71.81
236.051	75.81
236.285	82.81
236.519	89.81
236.753	78.81
236.987	63.81
237.221	93.81
237.455	75.81
237.689	87.81
237.922	61.81
238.156	71.81
238.39	90.81
238.624	72.81
238.858	80.81
239.091	59.81
239.325	84.81
239.559	78.81
239.793	70.81
240.027	78.81
240.26	88.81
240.494	65.81
240.728	83.81
240.961	86.81
241.195	61.81
241.429	71.81
241.662	77.81
241.896	69.81
242.13	78.81
242.363	67.81
242.597	79.81
242.83	58.81
243.064	70.81
243.298	68.81
243.531	89.81
243.765	76.81
243.998	74.81
244.232	61.81
244.465	82.81
244.699	67.81
244.932	79.81
245.166	86.81
245.399	75.81
245.633	69.81
245.866	72.81
246.099	85.81
246.333	60.81
246.566	90.81
246.8	68.81
247.033	90.81
247.266	86.81
247.5	81.81
247.733	91.81
247.966	87.81
248.2	78.81
248.433	82.81
248.666	85.81
248.899	85.81
249.133	75.81
249.366	84.81
249.599	91.81
249.832	84.81
250.066	72.81
250.299	63.81
250.532	87.81
250.765	92.81
250.998	76.81
251.231	66.81
251.465	82.81
251.698	81.81
251.931	83.81
252.164	72.81
252.397	78.81
252.63	84.81
252.863	94.81
253.096	74.81
253.329	88.81
253.562	84.81
253.795	84.81
254.028	83.81
254.261	86.81
254.494	75.81
254.727	90.81
254.96	83.81
255.193	66.81
255.426	74.81
255.659	79.81
255.892	84.81
256.124	81.81
256.357	86.81
256.59	68.81
256.823	80.81
257.056	92.81
257.289	77.81
257.521	75.81
257.754	84.81
257.987	92.81
258.22	88.81
258.452	80.81
258.685	75.81
258.918	84.81
259.151	70.81
259.383	93.81
259.616	79.81
259.849	94.81
260.081	82.81
260.314	86.81
260.547	87.81
260.779	83.81
261.012	81.81
261.244	109.81
261.477	88.81
261.71	90.81
261.942	97.81
262.175	98.81
262.407	72.81
262.64	71.81
262.872	71.81
263.105	87.81
263.337	86.81
263.57	78.81
263.802	80.81
264.035	90.81
264.267	85.81
264.499	81.81
264.732	74.81
264.964	86.81
265.197	72.81
265.429	66.81
265.661	76.81
265.894	83.81
266.126	72.81
266.358	87.81
266.591	89.81
266.823	90.81
267.055	85.81
267.287	91.81
267.52	92.81
267.752	87.81
267.984	78.81
268.216	83.81
268.448	90.81
268.681	86.81
268.913	82.81
269.145	90.81
269.377	84.81
269.609	84.81
269.841	84.81
270.073	82.81
270.306	87.81
270.538	91.81
270.77	85.81
271.002	88.81
271.234	76.81
271.466	84.81
271.698	71.81
271.93	76.81
272.162	93.81
272.394	82.81
272.626	79.81
272.858	75.81
273.09	60.81
273.322	80.81
273.553	69.81
273.785	85.81
274.017	76.81
274.249	94.81
274.481	72.81
274.713	91.81
274.945	83.81
275.176	88.81
275.408	94.81
275.64	84.81
275.872	111.81
276.104	93.81
276.335	103.81
276.567	97.81
276.799	103.81
277.031	105.81
277.262	119.81
277.494	109.81
277.726	89.81
277.957	95.81
278.189	86.81
278.421	89.81
278.652	78.81
278.884	85.81
279.115	76.81
279.347	83.81
279.579	96.81
279.81	86.81
280.042	109.81
280.273	141.81
280.505	111.81
280.736	95.81
280.968	98.81
281.199	85.81
281.431	82.81
281.662	72.81
281.894	98.81
282.125	112.81
282.356	111.81
282.588	123.81
282.819	107.81
283.051	92.81
283.282	78.81
283.513	99.81
283.745	81.81
283.976	70.81
284.207	74.81
284.439	79.81
284.67	93.81
284.901	94.81
285.132	96.81
285.364	93.81
285.595	74.81
285.826	91.81
286.057	87.81
286.288	79.81
286.52	94.81
286.751	90.81
286.982	80.81
287.213	77.81
287.444	91.81
287.675	87.81
287.906	83.81
288.138	88.81
288.369	74.81
288.6	86.81
288.831	78.81
289.062	92.81
289.293	84.81
289.524	89.81
289.755	80.81
289.986	92.81
290.217	94.81
290.448	74.81
290.679	88.81
290.91	87.81
291.141	91.81
291.371	72.81
291.602	88.81
291.833	91.81
292.064	79.81
292.295	80.81
292.526	87.81
292.757	91.81
292.987	97.81
293.218	91.81
293.449	94.81
293.68	93.81
293.91	86.81
294.141	75.81
294.372	86.81
294.603	93.81
294.833	98.81
295.064	84.81
295.295	84.81
295.525	87.81
295.756	93.81
295.987	108.81
296.217	126.81
296.448	110.81
296.679	111.81
296.909	86.81
297.14	79.81
297.37	81.81
297.601	83.81
297.831	96.81
298.062	95.81
298.292	83.81
298.523	84.81
298.753	77.81
298.984	96.81
299.214	84.81
299.445	90.81
299.675	82.81
299.905	83.81
300.136	89.81
300.366	84.81
300.597	86.81
300.827	87.81
301.057	91.81
301.288	95.81
301.518	89.81
301.748	85.81
301.979	104.81
302.209	80.81
302.439	74.81
302.669	88.81
302.9	89.81
303.13	90.81
303.36	89.81
303.59	114.81
303.82	96.81
304.051	84.81
304.281	82.81
304.511	102.81
304.741	78.81
304.971	85.81
305.201	88.81
305.431	87.81
305.661	88.81
305.891	94.81
306.121	84.81
306.352	95.81
306.582	108.81
306.812	93.81
307.042	95.81
307.272	120.81
307.502	130.81
307.731	121.81
307.961	102.81
308.191	83.81
308.421	91.81
308.651	87.81
308.881	90.81
309.111	95.81
309.341	82.81
309.571	104.81
309.8	92.81
310.03	84.81
310.26	93.81
310.49	84.81
310.72	97.81
310.949	91.81
311.179	92.81
311.409	79.81
311.639	90.81
311.868	82.81
312.098	86.81
312.328	82.81
312.557	95.81
312.787	92.81
313.017	99.81
313.246	92.81
313.476	93.81
313.706	85.81
313.935	74.81
314.165	88.81
314.394	82.81
314.624	88.81
314.853	86.81
315.083	93.81
315.312	93.81
315.542	90.81
315.771	98.81
316.001	98.81
316.23	103.81
316.46	78.81
316.689	87.81
316.919	87.81
317.148	86.81
317.377	87.81
317.607	94.81
317.836	84.81
318.065	92.81
318.295	83.81
318.524	83.81
318.753	97.81
318.983	83.81
319.212	91.81
319.441	84.81
319.67	96.81
319.9	97.81
320.129	87.81
320.358	98.81
320.587	82.81
320.816	92.81
321.046	87.81
321.275	88.81
321.504	100.81
321.733	75.81
321.962	104.81
322.191	99.81
322.42	93.81
322.649	86.81
322.878	92.81
323.108	112.81
323.337	111.81
323.566	127.81
323.795	120.81
324.024	188.81
324.253	320.81
324.482	697.81
324.71	1393.81
324.939	1865.81
325.168	702.81
325.397	214.81
325.626	147.81
325.855	120.81
326.084	105.81
326.313	132.81
326.542	132.81
326.77	203.81
326.999	403.81
327.228	828.81
327.457	1485.81
327.686	1202.81
327.914	381.81
328.143	269.81
328.372	298.81
328.6	205.81
328.829	124.81
329.058	128.81
329.287	140.81
329.515	121.81
329.744	156.81
329.972	245.81
330.201	427.81
330.43	588.81
330.658	274.81
330.887	149.81
331.115	121.81
331.344	92.81
331.572	98.81
331.801	104.81
332.03	113.81
332.258	94.81
332.486	87.81
332.715	98.81
332.943	99.81
333.172	92.81
333.4	112.81
333.629	136.81
333.857	135.81
334.085	214.81
334.314	412.81
334.542	709.81
334.771	674.81
334.999	199.81
335.227	125.81
335.455	93.81
335.684	100.81
335.912	94.81
336.14	100.81
336.369	111.81
336.597	86.81
336.825	114.81
337.053	102.81
337.281	104.81
337.51	83.81
337.738	91.81
337.966	94.81
338.194	103.81
338.422	87.81
338.65	100.81
338.878	106.81
339.106	85.81
339.334	96.81
339.562	84.81
339.79	88.81
340.018	80.81
340.246	82.81
340.474	91.81
340.702	78.81
340.93	103.81
341.158	90.81
341.386	86.81
341.614	95.81
341.842	93.81
342.07	94.81
342.298	87.81
342.526	83.81
342.754	95.81
342.981	91.81
343.209	85.81
343.437	103.81
343.665	95.81
343.893	86.81
344.12	86.81
344.348	93.81
344.576	82.81
344.804	74.81
345.031	95.81
345.259	90.81
345.487	92.81
345.714	89.81
345.942	93.81
346.17	92.81
346.397	84.81
346.625	92.81
346.853	94.81
347.08	88.81
347.308	97.81
347.535	92.81
347.763	89.81
347.99	93.81
348.218	95.81
348.445	89.81
348.673	96.81
348.9	92.81
349.128	90.81
349.355	97.81
349.583	88.81
349.81	102.81
350.037	75.81
350.265	92.81
350.492	93.81
350.72	89.81
350.947	111.81
351.174	102.81
351.402	104.81
351.629	94.81
351.856	93.81
352.083	83.81
352.311	94.81
352.538	102.81
352.765	101.81
352.992	98.81
353.22	109.81
353.447	108.81
353.674	114.81
353.901	95.81
354.128	96.81
354.355	89.81
354.583	98.81
354.81	94.81
355.037	94.81
355.264	88.81
355.491	101.81
355.718	93.81
355.945	84.81
356.172	89.81
356.399	90.81
356.626	70.81
356.853	86.81
357.08	102.81
357.307	104.81
357.534	104.81
357.761	100.81
357.988	76.81
358.215	97.81
358.441	93.81
358.668	98.81
358.895	82.81
359.122	98.81
359.349	91.81
359.576	98.81
359.802	104.81
360.029	106.81
360.256	90.81
360.483	89.81
360.709	93.81
360.936	87.81
361.163	87.81
361.39	86.81
361.616	97.81
361.843	82.81
362.07	87.81
362.296	81.81
362.523	94.81
362.749	79.81
362.976	67.81
363.203	89.81
363.429	112.81
363.656	82.81
363.882	85.81
364.109	89.81
364.335	80.81
364.562	91.81
364.788	88.81
365.015	104.81
365.241	87.81
365.468	84.81
365.694	109.81
365.92	94.81
366.147	75.81
366.373	87.81
366.599	95.81
366.826	97.81
367.052	93.81
367.278	95.81
367.505	87.81
367.731	95.81
367.957	102.81
368.184	97.81
368.41	96.81
368.636	110.81
368.862	95.81
369.089	94.81
369.315	89.81
369.541	94.81
369.767	83.81
369.993	99.81
370.219	91.81
370.445	84.81
370.672	98.81
370.898	79.81
371.124	94.81
371.35	77.81
371.576	72.81
371.802	85.81
372.028	92.81
372.254	85.81
372.48	89.81
372.706	86.81
372.932	79.81
373.158	89.81
373.384	90.81
373.61	98.81
373.835	100.81
374.061	84.81
374.287	81.81
374.513	65.81
374.739	72.81
374.965	81.81
375.191	92.81
375.416	98.81
375.642	91.81
375.868	90.81
376.094	92.81
376.319	83.81
376.545	85.81
376.771	90.81
376.997	86.81
377.222	78.81
377.448	84.81
377.674	81.81
377.899	94.81
378.125	99.81
378.35	106.81
378.576	88.81
378.802	90.81
379.027	99.81
379.253	90.81
379.478	88.81
379.704	93.81
379.929	88.81
380.155	86.81
380.38	97.81
380.606	97.81
380.831	93.81
381.057	99.81
381.282	96.81
381.507	101.81
381.733	94.81
381.958	80.81
382.184	91.81
382.409	105.81
382.634	106.81
382.86	89.81
383.085	83.81
383.31	92.81
383.535	90.81
383.761	91.81
383.986	89.81
384.211	83.81
384.436	94.81
384.662	106.81
384.887	102.81
385.112	95.81
385.337	97.81
385.562	94.81
385.787	92.81
386.013	97.81
386.238	126.81
386.463	103.81
386.688	110.81
386.913	94.81
387.138	107.81
387.363	105.81
387.588	90.81
387.813	85.81
388.038	111.81
388.263	103.81
388.488	106.81
388.713	98.81
388.938	87.81
389.163	99.81
389.387	96.81
389.612	82.81
389.837	86.81
390.062	84.81
390.287	87.81
390.512	90.81
390.736	71.81
390.961	84.81
391.186	99.81
391.411	87.81
391.636	94.81
391.86	97.81
392.085	90.81
392.31	95.81
392.534	86.81
392.759	90.81
392.984	95.81
393.208	85.81
393.433	82.81
393.658	94.81
393.882	81.81
394.107	87.81
394.331	78.81
394.556	74.81
394.78	86.81
395.005	83.81
395.229	91.81
395.454	95.81
395.678	80.81
395.903	79.81
396.127	91.81
396.352	71.81
396.576	85.81
396.801	73.81
397.025	86.81
397.249	90.81
397.474	88.81
397.698	77.81
397.922	86.81
398.147	81.81
398.371	85.81
398.595	78.81
398.82	93.81
399.044	93.81
399.268	79.81
399.492	76.81
399.717	75.81
399.941	83.81
400.165	92.81
400.389	85.81
400.613	80.81
400.837	82.81
401.062	87.81
401.286	89.81
401.51	101.81
401.734	90.81
401.958	94.81
402.182	101.81
402.406	124.81
402.63	108.81
402.854	97.81
403.078	84.81
403.302	93.81
403.526	97.81
403.75	83.81
403.974	96.81
404.198	99.81
404.422	95.81
404.645	88.81
404.869	104.81
405.093	101.81
405.317	110.81
405.541	112.81
405.765	95.81
405.988	106.81
406.212	150.81
406.436	193.81
406.66	120.81
406.883	110.81
407.107	107.81
407.331	98.81
407.555	99.81
407.778	90.81
408.002	81.81
408.226	77.81
408.449	86.81
408.673	85.81
408.896	100.81
409.12	99.81
409.344	100.81
409.567	87.81
409.791	97.81
410.014	100.81
410.238	82.81
410.461	80.81
410.685	90.81
410.908	99.81
411.132	107.81
411.355	106.81
411.578	86.81
411.802	93.81
412.025	92.81
412.249	96.81
412.472	95.81
412.695	98.81
412.919	89.81
413.142	87.81
413.365	92.81
413.589	78.81
413.812	80.81
414.035	63.81
414.258	79.81
414.482	92.81
414.705	102.81
414.928	81.81
415.151	86.81
415.374	95.81
415.597	93.81
415.821	97.81
416.044	82.81
416.267	94.81
416.49	92.81
416.713	88.81
416.936	93.81
417.159	82.81
417.382	83.81
417.605	92.81
417.828	95.81
418.051	86.81
418.274	85.81
418.497	97.81
418.72	84.81
418.943	74.81
419.166	79.81
419.389	82.81
419.611	83.81
419.834	91.81
420.057	74.81
420.28	82.81
420.503	85.81
420.726	82.81
420.948	75.81
421.171	94.81
421.394	83.81
421.617	97.81
421.839	87.81
422.062	76.81
422.285	95.81
422.507	100.81
422.73	106.81
422.953	86.81
423.175	95.81
423.398	82.81
423.621	87.81
423.843	93.81
424.066	74.81
424.288	82.81
424.511	80.81
424.733	91.81
424.956	110.81
425.178	109.81
425.401	93.81
425.623	92.81
425.846	89.81
426.068	97.81
426.291	88.81
426.513	108.81
426.735	80.81
426.958	89.81
427.18	100.81
427.402	134.81
427.625	151.81
427.847	160.81
428.069	162.81
428.292	100.81
428.514	92.81
428.736	100.81
428.958	83.81
429.181	88.81
429.403	84.81
429.625	89.81
429.847	84.81
430.069	95.81
430.292	97.81
430.514	74.81
430.736	71.81
430.958	84.81
431.18	74.81
431.402	87.81
431.624	82.81
431.846	76.81
432.068	74.81
432.29	69.81
432.512	92.81
432.734	87.81
432.956	95.81
433.178	100.81
433.4	87.81
433.622	76.81
433.844	88.81
434.066	72.81
434.287	102.81
434.509	87.81
434.731	96.81
434.953	94.81
435.175	84.81
435.397	82.81
435.618	88.81
435.84	96.81
436.062	110.81
436.284	122.81
436.505	99.81
436.727	113.81
436.949	97.81
437.17	93.81
437.392	86.81
437.614	82.81
437.835	95.81
438.057	88.81
438.278	118.81
438.5	96.81
438.721	125.81
438.943	117.81
439.165	91.81
439.386	92.81
439.608	96.81
439.829	103.81
440.05	122.81
440.272	125.81
440.493	94.81
440.715	84.81
440.936	82.81
441.158	88.81
441.379	75.81
441.6	87.81
441.822	96.81
442.043	83.81
442.264	90.81
442.486	98.81
442.707	77.81
442.928	101.81
443.149	117.81
443.371	110.81
443.592	95.81
443.813	114.81
444.034	100.81
444.255	85.81
444.476	92.81
444.698	88.81
444.919	90.81
445.14	120.81
445.361	101.81
445.582	106.81
445.803	123.81
446.024	117.81
446.245	120.81
446.466	101.81
446.687	88.81
446.908	85.81
447.129	82.81
447.35	97.81
447.571	100.81
447.792	94.81
448.013	90.81
448.234	98.81
448.455	102.81
448.675	116.81
448.896	112.81
449.117	91.81
449.338	95.81
449.559	114.81
449.779	115.81
450	95.81
450.221	82.81
450.442	82.81
450.662	88.81
450.883	78.81
451.104	92.81
451.324	84.81
451.545	90.81
451.766	83.81
451.986	79.81
452.207	83.81
452.428	99.81
452.648	94.81
452.869	93.81
453.089	103.81
453.31	101.81
453.53	96.81
453.751	101.81
453.971	87.81
454.192	104.81
454.412	94.81
454.633	88.81
454.853	85.81
455.073	87.81
455.294	88.81
455.514	82.81
455.734	94.81
455.955	92.81
456.175	95.81
456.395	84.81
456.616	83.81
456.836	87.81
457.056	94.81
457.276	100.81
457.497	84.81
457.717	77.81
457.937	97.81
458.157	82.81
458.377	79.81
458.598	98.81
458.818	116.81
459.038	150.81
459.258	114.81
459.478	84.81
459.698	96.81
459.918	86.81
460.138	95.81
460.358	87.81
460.578	85.81
460.798	79.81
461.018	89.81
461.238	87.81
461.458	88.81
461.678	80.81
461.898	90.81
462.118	88.81
462.338	87.81
462.558	77.81
462.777	94.81
462.997	90.81
463.217	84.81
463.437	79.81
463.657	85.81
463.876	92.81
464.096	83.81
464.316	91.81
464.536	95.81
464.755	107.81
464.975	113.81
465.195	131.81
465.414	144.81
465.634	92.81
465.854	89.81
466.073	87.81
466.293	86.81
466.512	78.81
466.732	96.81
466.951	101.81
467.171	88.81
467.391	105.81
467.61	114.81
467.829	127.81
468.049	278.81
468.268	366.81
468.488	129.81
468.707	90.81
468.927	99.81
469.146	71.81
469.365	80.81
469.585	78.81
469.804	96.81
470.023	99.81
470.243	88.81
470.462	87.81
470.681	86.81
470.901	86.81
471.12	81.81
471.339	92.81
471.558	101.81
471.777	107.81
471.997	178.81
472.216	516.81
472.435	1104.81
472.654	280.81
472.873	109.81
473.092	81.81
473.311	81.81
473.53	95.81
473.749	75.81
473.968	93.81
474.187	95.81
474.406	102.81
474.625	78.81
474.844	87.81
475.063	95.81
475.282	92.81
475.501	77.81
475.72	94.81
475.939	80.81
476.158	86.81
476.377	88.81
476.596	87.81
476.814	87.81
477.033	87.81
477.252	81.81
477.471	97.81
477.69	99.81
477.908	92.81
478.127	93.81
478.346	102.81
478.564	97.81
478.783	86.81
479.002	97.81
479.22	93.81
479.439	91.81
479.658	104.81
479.876	104.81
480.095	88.81
480.313	91.81
480.532	101.81
480.751	183.81
480.969	484.81
481.188	1884.81
481.406	1095.81
481.624	202.81
481.843	119.81
482.061	101.81
482.28	91.81
482.498	86.81
482.717	87.81
482.935	87.81
483.153	91.81
483.372	93.81
483.59	94.81
483.808	65.81
484.027	105.81
484.245	91.81
484.463	81.81
484.681	88.81
484.9	86.81
485.118	85.81
485.336	93.81
485.554	98.81
485.772	103.81
485.99	111.81
486.209	99.81
486.427	110.81
486.645	127.81
486.863	108.81
487.081	104.81
487.299	91.81
487.517	107.81
487.735	90.81
487.953	89.81
488.171	88.81
488.389	90.81
488.607	100.81
488.825	90.81
489.043	87.81
489.261	84.81
489.479	87.81
489.696	92.81
489.914	94.81
490.132	96.81
490.35	74.81
490.568	92.81
490.786	70.81
491.003	79.81
491.221	87.81
491.439	90.81
491.657	101.81
491.874	80.81
492.092	95.81
492.31	90.81
492.527	92.81
492.745	99.81
492.963	94.81
493.18	84.81
493.398	80.81
493.615	90.81
493.833	94.81
494.05	79.81
494.268	92.81
494.485	87.81
494.703	84.81
494.92	87.81
495.138	90.81
495.355	101.81
495.573	101.81
495.79	95.81
496.008	93.81
496.225	77.81
496.442	96.81
496.66	94.81
496.877	86.81
497.094	86.81
497.312	87.81
497.529	87.81
497.746	81.81
497.963	99.81
498.181	95.81
498.398	77.81
498.615	112.81
498.832	122.81
499.049	87.81
499.267	88.81
499.484	91.81
499.701	90.81
499.918	89.81
500.135	102.81
500.352	90.81
500.569	91.81
500.786	89.81
501.003	82.81
501.22	86.81
501.437	80.81
501.654	98.81
501.871	101.81
502.088	91.81
502.305	96.81
502.522	91.81
502.739	94.81
502.956	91.81
503.172	87.81
503.389	94.81
503.606	95.81
503.823	96.81
504.04	92.81
504.256	103.81
504.473	84.81
504.69	85.81
504.907	94.81
505.123	90.81
505.34	81.81
505.557	90.81
505.773	95.81
505.99	113.81
506.207	73.81
506.423	99.81
506.64	76.81
506.856	79.81
507.073	89.81
507.289	93.81
507.506	80.81
507.722	105.81
507.939	112.81
508.155	95.81
508.372	87.81
508.588	94.81
508.805	103.81
509.021	96.81
509.238	100.81
509.454	93.81
509.67	91.81
509.887	111.81
510.103	125.81
510.319	172.81
510.536	554.81
510.752	1694.81
510.968	480.81
511.184	148.81
511.401	105.81
511.617	92.81
511.833	92.81
512.049	90.81
512.265	84.81
512.481	93.81
512.698	84.81
512.914	83.81
513.13	85.81
513.346	85.81
513.562	94.81
513.778	101.81
513.994	95.81
514.21	101.81
514.426	99.81
514.642	115.81
514.858	110.81
515.074	147.81
515.29	348.81
515.506	1102.81
515.721	419.81
515.937	140.81
516.153	108.81
516.369	105.81
