Data from Circ_1989_H10_HRD10591_00073.txt Node
Date: Wed Jan 03 12:01:36 EST 2024
User: Yrep
Spectrometer: HR+D1059
Trigger mode: 1
Integration Time (sec): 1.000000E-1
Scans to average: 1
Electric dark correction enabled: true
Nonlinearity correction enabled: false
Boxcar width: 0
XAxis mode: Wavelengths
Number of Pixels in Spectrum: 2048
>>>>>Begin Spectral Data<<<<<
223.165	-12.5
223.4	-12.5
223.635	-12.5
223.869	-12.5
224.104	-29.5
224.338	-14.5
224.573	-9.5
224.808	-21.5
225.042	6.5
225.277	-1.5
225.511	-4.5
225.746	7.5
225.98	-0.5
226.215	8.5
226.449	11.5
226.683	22.5
226.918	25.5
227.152	24.5
227.387	42.5
227.621	43.5
227.856	39.5
228.09	52.5
228.324	49.5
228.559	65.5
228.793	163.5
229.027	451.5
229.262	518.5
229.496	637.5
229.73	847.5
229.964	858.5
230.199	565.5
230.433	500.5
230.667	494.5
230.901	484.5
231.136	474.5
231.37	485.5
231.604	479.5
231.838	497.5
232.072	481.5
232.306	498.5
232.541	498.5
232.775	515.5
233.009	494.5
233.243	515.5
233.477	548.5
233.711	531.5
233.945	525.5
234.179	552.5
234.413	538.5
234.647	552.5
234.881	556.5
235.115	567.5
235.349	591.5
235.583	594.5
235.817	627.5
236.051	681.5
236.285	647.5
236.519	662.5
236.753	737.5
236.987	926.5
237.221	1437.5
237.455	1563.5
237.689	931.5
237.922	761.5
238.156	753.5
238.39	722.5
238.624	722.5
238.858	697.5
239.091	701.5
239.325	734.5
239.559	735.5
239.793	783.5
240.027	841.5
240.26	978.5
240.494	1026.5
240.728	999.5
240.961	963.5
241.195	881.5
241.429	873.5
241.662	845.5
241.896	834.5
242.13	845.5
242.363	897.5
242.597	931.5
242.83	905.5
243.064	900.5
243.298	934.5
243.531	934.5
243.765	940.5
243.998	954.5
244.232	952.5
244.465	987.5
244.699	986.5
244.932	1016.5
245.166	1001.5
245.399	1032.5
245.633	1005.5
245.866	1005.5
246.099	1019.5
246.333	1062.5
246.566	1079.5
246.8	1087.5
247.033	1141.5
247.266	1158.5
247.5	1224.5
247.733	1277.5
247.966	1233.5
248.2	1282.5
248.433	1285.5
248.666	1318.5
248.899	1521.5
249.133	1616.5
249.366	1650.5
249.599	1560.5
249.832	1528.5
250.066	1741.5
250.299	2267.5
250.532	2998.5
250.765	2871.5
250.998	2475.5
251.231	2077.5
251.465	1854.5
251.698	1675.5
251.931	1642.5
252.164	1627.5
252.397	1618.5
252.63	1619.5
252.863	1711.5
253.096	1817.5
253.329	1884.5
253.562	1747.5
253.795	1723.5
254.028	1741.5
254.261	1822.5
254.494	2038.5
254.727	2330.5
254.96	2506.5
255.193	2228.5
255.426	2349.5
255.659	2788.5
255.892	4078.5
256.124	5318.5
256.357	4495.5
256.59	3178.5
256.823	2575.5
257.056	2260.5
257.289	2151.5
257.521	2039.5
257.754	1957.5
257.987	1905.5
258.22	1885.5
258.452	1835.5
258.685	1847.5
258.918	1841.5
259.151	1898.5
259.383	1919.5
259.616	1899.5
259.849	2010.5
260.081	2121.5
260.314	2329.5
260.547	2147.5
260.779	2060.5
261.012	1984.5
261.244	1939.5
261.477	1878.5
261.71	1919.5
261.942	1973.5
262.175	2026.5
262.407	1900.5
262.64	1857.5
262.872	1856.5
263.105	1852.5
263.337	1845.5
263.57	1841.5
263.802	1881.5
264.035	1879.5
264.267	1880.5
264.499	1838.5
264.732	1844.5
264.964	1852.5
265.197	1898.5
265.429	1899.5
265.661	1897.5
265.894	1925.5
266.126	1946.5
266.358	1961.5
266.591	2006.5
266.823	2040.5
267.055	2078.5
267.287	2039.5
267.52	2052.5
267.752	2040.5
267.984	2072.5
268.216	2081.5
268.448	2127.5
268.681	2178.5
268.913	2353.5
269.145	2484.5
269.377	2556.5
269.609	2447.5
269.841	2425.5
270.073	2497.5
270.306	2788.5
270.538	2922.5
270.77	2788.5
271.002	2599.5
271.234	2582.5
271.466	2727.5
271.698	2901.5
271.93	2867.5
272.162	2852.5
272.394	2809.5
272.626	2615.5
272.858	2469.5
273.09	2509.5
273.322	2464.5
273.553	2479.5
273.785	2471.5
274.017	2461.5
274.249	2544.5
274.481	2513.5
274.713	2540.5
274.945	2621.5
275.176	2612.5
275.408	2643.5
275.64	2646.5
275.872	2690.5
276.104	2709.5
276.335	2703.5
276.567	2866.5
276.799	3073.5
277.031	3440.5
277.262	3613.5
277.494	3348.5
277.726	3113.5
277.957	2962.5
278.189	2903.5
278.421	2814.5
278.652	2769.5
278.884	2747.5
279.115	2784.5
279.347	2818.5
279.579	2836.5
279.81	2961.5
280.042	3189.5
280.273	3427.5
280.505	3261.5
280.736	3033.5
280.968	2959.5
281.199	2869.5
281.431	2890.5
281.662	2836.5
281.894	2856.5
282.125	2914.5
282.356	3080.5
282.588	3202.5
282.819	2998.5
283.051	2817.5
283.282	2826.5
283.513	2905.5
283.745	2894.5
283.976	2934.5
284.207	2919.5
284.439	2871.5
284.67	2894.5
284.901	2917.5
285.132	2901.5
285.364	2883.5
285.595	2929.5
285.826	2883.5
286.057	2963.5
286.288	2953.5
286.52	2950.5
286.751	2900.5
286.982	2973.5
287.213	2985.5
287.444	2988.5
287.675	3104.5
287.906	3168.5
288.138	3223.5
288.369	3197.5
288.6	3144.5
288.831	3126.5
289.062	3119.5
289.293	3101.5
289.524	3115.5
289.755	3139.5
289.986	3073.5
290.217	3058.5
290.448	3097.5
290.679	3051.5
290.91	3024.5
291.141	3032.5
291.371	3032.5
291.602	3007.5
291.833	2993.5
292.064	3021.5
292.295	3023.5
292.526	3017.5
292.757	3048.5
292.987	2996.5
293.218	2979.5
293.449	3058.5
293.68	3013.5
293.91	2991.5
294.141	3018.5
294.372	3034.5
294.603	3121.5
294.833	3101.5
295.064	3091.5
295.295	3130.5
295.525	3094.5
295.756	3178.5
295.987	3285.5
296.217	3461.5
296.448	3374.5
296.679	3158.5
296.909	3202.5
297.14	3182.5
297.37	3233.5
297.601	3260.5
297.831	3256.5
298.062	3291.5
298.292	3346.5
298.523	3362.5
298.753	3341.5
298.984	3292.5
299.214	3333.5
299.445	3311.5
299.675	3369.5
299.905	3413.5
300.136	3332.5
300.366	3317.5
300.597	3398.5
300.827	3487.5
301.057	3539.5
301.288	3651.5
301.518	3590.5
301.748	3586.5
301.979	3711.5
302.209	3652.5
302.439	3676.5
302.669	3574.5
302.9	3583.5
303.13	3511.5
303.36	3605.5
303.59	3778.5
303.82	3727.5
304.051	3656.5
304.281	3644.5
304.511	3544.5
304.741	3534.5
304.971	3544.5
305.201	3524.5
305.431	3549.5
305.661	3493.5
305.891	3473.5
306.121	3513.5
306.352	3575.5
306.582	3559.5
306.812	3506.5
307.042	3665.5
307.272	3735.5
307.502	3903.5
307.731	3834.5
307.961	3658.5
308.191	3578.5
308.421	3566.5
308.651	3601.5
308.881	3613.5
309.111	3648.5
309.341	3580.5
309.571	3747.5
309.8	3761.5
310.03	3865.5
310.26	3929.5
310.49	3880.5
310.72	4036.5
310.949	4120.5
311.179	4134.5
311.409	3938.5
311.639	3905.5
311.868	3994.5
312.098	3945.5
312.328	4055.5
312.557	4208.5
312.787	4345.5
313.017	4217.5
313.246	4040.5
313.476	3915.5
313.706	4022.5
313.935	4116.5
314.165	4280.5
314.394	4275.5
314.624	4193.5
314.853	4109.5
315.083	3997.5
315.312	4055.5
315.542	3943.5
315.771	3934.5
316.001	3946.5
316.23	3953.5
316.46	3948.5
316.689	4027.5
316.919	4009.5
317.148	4129.5
317.377	4051.5
317.607	4113.5
317.836	4098.5
318.065	4030.5
318.295	4053.5
318.524	3982.5
318.753	4011.5
318.983	3989.5
319.212	4009.5
319.441	4121.5
319.67	4068.5
319.9	3997.5
320.129	4040.5
320.358	4088.5
320.587	4057.5
320.816	4222.5
321.046	4255.5
321.275	4217.5
321.504	4189.5
321.733	4253.5
321.962	4343.5
322.191	4422.5
322.42	4546.5
322.649	4702.5
322.878	4705.5
323.108	4888.5
323.337	5140.5
323.566	5339.5
323.795	5693.5
324.024	6305.5
324.253	8372.5
324.482	12408.5
324.71	15627.5
324.939	15627.5
325.168	14105.5
325.397	7383.5
325.626	6012.5
325.855	5640.5
326.084	5603.5
326.313	5654.5
326.542	5850.5
326.77	6575.5
326.999	8257.5
327.228	11886.5
327.457	15595.5
327.686	15192.5
327.914	9955.5
328.143	9722.5
328.372	10339.5
328.6	8474.5
328.829	7384.5
329.058	7513.5
329.287	7615.5
329.515	7682.5
329.744	8565.5
329.972	10805.5
330.201	13702.5
330.43	14819.5
330.658	11637.5
330.887	9105.5
331.115	7666.5
331.344	6811.5
331.572	6496.5
331.801	6472.5
332.03	6440.5
332.258	6355.5
332.486	6353.5
332.715	6596.5
332.943	6924.5
333.172	7265.5
333.4	7766.5
333.629	8465.5
333.857	9804.5
334.085	12187.5
334.314	14834.5
334.542	15627.5
334.771	15627.5
334.999	11789.5
335.227	8499.5
335.455	7420.5
335.684	6820.5
335.912	6485.5
336.14	6200.5
336.369	5993.5
336.597	5942.5
336.825	5854.5
337.053	5599.5
337.281	5508.5
337.51	5371.5
337.738	5382.5
337.966	5319.5
338.194	5346.5
338.422	5211.5
338.65	5071.5
338.878	5058.5
339.106	4980.5
339.334	4953.5
339.562	4924.5
339.79	4853.5
340.018	4805.5
340.246	4814.5
340.474	4846.5
340.702	4774.5
340.93	4784.5
341.158	4722.5
341.386	4779.5
341.614	4729.5
341.842	4721.5
342.07	4739.5
342.298	4686.5
342.526	4618.5
342.754	4559.5
342.981	4581.5
343.209	4752.5
343.437	4884.5
343.665	5160.5
343.893	5359.5
344.12	5457.5
344.348	5199.5
344.576	5037.5
344.804	5044.5
345.031	4947.5
345.259	4959.5
345.487	4693.5
345.714	4613.5
345.942	4534.5
346.17	4501.5
346.397	4509.5
346.625	4483.5
346.853	4456.5
347.08	4427.5
347.308	4517.5
347.535	4586.5
347.763	4625.5
347.99	4571.5
348.218	4588.5
348.445	4678.5
348.673	4550.5
348.9	4490.5
349.128	4392.5
349.355	4364.5
349.583	4345.5
349.81	4301.5
350.037	4369.5
350.265	4292.5
350.492	4301.5
350.72	4353.5
350.947	4381.5
351.174	4505.5
351.402	4583.5
351.629	4501.5
351.856	4505.5
352.083	4565.5
352.311	4637.5
352.538	4607.5
352.765	4567.5
352.992	4504.5
353.22	4405.5
353.447	4382.5
353.674	4350.5
353.901	4238.5
354.128	4269.5
354.355	4191.5
354.583	4256.5
354.81	4218.5
355.037	4130.5
355.264	4163.5
355.491	4117.5
355.718	4195.5
355.945	4129.5
356.172	4166.5
356.399	4189.5
356.626	4183.5
356.853	4213.5
357.08	4152.5
357.307	4143.5
357.534	4147.5
357.761	4258.5
357.988	4197.5
358.215	4181.5
358.441	4198.5
358.668	4235.5
358.895	4275.5
359.122	4290.5
359.349	4356.5
359.576	4541.5
359.802	4765.5
360.029	4976.5
360.256	4906.5
360.483	4651.5
360.709	4480.5
360.936	4463.5
361.163	4473.5
361.39	4472.5
361.616	4544.5
361.843	4421.5
362.07	4499.5
362.296	4515.5
362.523	4374.5
362.749	4402.5
362.976	4452.5
363.203	4320.5
363.429	4334.5
363.656	4282.5
363.882	4256.5
364.109	4304.5
364.335	4307.5
364.562	4271.5
364.788	4252.5
365.015	4334.5
365.241	4316.5
365.468	4321.5
365.694	4347.5
365.92	4310.5
366.147	4248.5
366.373	4344.5
366.599	4244.5
366.826	4292.5
367.052	4231.5
367.278	4259.5
367.505	4330.5
367.731	4375.5
367.957	4353.5
368.184	4379.5
368.41	4432.5
368.636	4474.5
368.862	4487.5
369.089	4448.5
369.315	4487.5
369.541	4341.5
369.767	4469.5
369.993	4448.5
370.219	4413.5
370.445	4419.5
370.672	4416.5
370.898	4415.5
371.124	4436.5
371.35	4528.5
371.576	4498.5
371.802	4515.5
372.028	4490.5
372.254	4463.5
372.48	4520.5
372.706	4621.5
372.932	4652.5
373.158	4561.5
373.384	4569.5
373.61	4523.5
373.835	4544.5
374.061	4467.5
374.287	4592.5
374.513	4673.5
374.739	4831.5
374.965	4915.5
375.191	4854.5
375.416	4808.5
375.642	4674.5
375.868	4740.5
376.094	4613.5
376.319	4603.5
376.545	4572.5
376.771	4525.5
376.997	4515.5
377.222	4477.5
377.448	4465.5
377.674	4440.5
377.899	4429.5
378.125	4440.5
378.35	4452.5
378.576	4429.5
378.802	4395.5
379.027	4403.5
379.253	4451.5
379.478	4395.5
379.704	4406.5
379.929	4478.5
380.155	4460.5
380.38	4514.5
380.606	4532.5
380.831	4495.5
381.057	4501.5
381.282	4541.5
381.507	4500.5
381.733	4534.5
381.958	4557.5
382.184	4626.5
382.409	4696.5
382.634	4743.5
382.86	4697.5
383.085	4820.5
383.31	4856.5
383.535	4875.5
383.761	4973.5
383.986	5041.5
384.211	5105.5
384.436	5186.5
384.662	5319.5
384.887	5326.5
385.112	5274.5
385.337	5352.5
385.562	5390.5
385.787	5344.5
386.013	5475.5
386.238	5490.5
386.463	5454.5
386.688	5472.5
386.913	5324.5
387.138	5292.5
387.363	5390.5
387.588	5277.5
387.813	5269.5
388.038	5291.5
388.263	5371.5
388.488	5320.5
388.713	5315.5
388.938	5376.5
389.163	5294.5
389.387	5275.5
389.612	5245.5
389.837	5182.5
390.062	5180.5
390.287	5282.5
390.512	5272.5
390.736	5348.5
390.961	5371.5
391.186	5475.5
391.411	5633.5
391.636	5800.5
391.86	5890.5
392.085	5862.5
392.31	5811.5
392.534	5750.5
392.759	5632.5
392.984	5535.5
393.208	5606.5
393.433	5508.5
393.658	5492.5
393.882	5500.5
394.107	5565.5
394.331	5579.5
394.556	5596.5
394.78	5633.5
395.005	5706.5
395.229	5655.5
395.454	5925.5
395.678	6047.5
395.903	6040.5
396.127	6059.5
396.352	5928.5
396.576	5669.5
396.801	5616.5
397.025	5782.5
397.249	5892.5
397.474	5965.5
397.698	6007.5
397.922	6136.5
398.147	6298.5
398.371	6420.5
398.595	6502.5
398.82	6785.5
399.044	7236.5
399.268	7968.5
399.492	9120.5
399.717	9693.5
399.941	9524.5
400.165	8977.5
400.389	8304.5
400.613	7453.5
400.837	7108.5
401.062	6863.5
401.286	6767.5
401.51	6749.5
401.734	6721.5
401.958	6876.5
402.182	6963.5
402.406	7095.5
402.63	7209.5
402.854	7225.5
403.078	7404.5
403.302	7426.5
403.526	7641.5
403.75	7674.5
403.974	7762.5
404.198	7771.5
404.422	8063.5
404.645	8153.5
404.869	8339.5
405.093	9007.5
405.317	9647.5
405.541	9463.5
405.765	8513.5
405.988	8100.5
406.212	8035.5
406.436	8097.5
406.66	8212.5
406.883	8099.5
407.107	8728.5
407.331	9141.5
407.555	9673.5
407.778	9314.5
408.002	8521.5
408.226	8095.5
408.449	8097.5
408.673	7917.5
408.896	8135.5
409.12	8256.5
409.344	7804.5
409.567	7368.5
409.791	7490.5
410.014	7344.5
410.238	7234.5
410.461	7249.5
410.685	7349.5
410.908	7437.5
411.132	7770.5
411.355	7744.5
411.578	7402.5
411.802	7343.5
412.025	7525.5
412.249	8123.5
412.472	8817.5
412.695	9456.5
412.919	8668.5
413.142	8147.5
413.365	7756.5
413.589	7390.5
413.812	7138.5
414.035	6982.5
414.258	7044.5
414.482	7007.5
414.705	6897.5
414.928	6855.5
415.151	6845.5
415.374	6753.5
415.597	6736.5
415.821	6583.5
416.044	6678.5
416.267	6654.5
416.49	6474.5
416.713	6443.5
416.936	6630.5
417.159	6766.5
417.382	6915.5
417.605	7017.5
417.828	7232.5
418.051	7178.5
418.274	6847.5
418.497	6713.5
418.72	6897.5
418.943	6825.5
419.166	7273.5
419.389	7802.5
419.611	7711.5
419.834	7730.5
420.057	7978.5
420.28	8356.5
420.503	8029.5
420.726	7701.5
420.948	7597.5
421.171	7840.5
421.394	7501.5
421.617	6994.5
421.839	6948.5
422.062	7043.5
422.285	7186.5
422.507	7757.5
422.73	8218.5
422.953	7666.5
423.175	7170.5
423.398	7205.5
423.621	7259.5
423.843	7477.5
424.066	7396.5
424.288	7290.5
424.511	7531.5
424.733	8049.5
424.956	8575.5
425.178	7957.5
425.401	8264.5
425.623	8054.5
425.846	7057.5
426.068	6868.5
426.291	6800.5
426.513	6861.5
426.735	6888.5
426.958	7405.5
427.18	8392.5
427.402	9681.5
427.625	10152.5
427.847	9606.5
428.069	9372.5
428.292	7792.5
428.514	6779.5
428.736	6415.5
428.958	6335.5
429.181	6131.5
429.403	6074.5
429.625	6317.5
429.847	6701.5
430.069	7321.5
430.292	6671.5
430.514	6090.5
430.736	6063.5
430.958	5911.5
431.18	5931.5
431.402	5923.5
431.624	5875.5
431.846	5897.5
432.068	5935.5
432.29	6073.5
432.512	5941.5
432.734	5978.5
432.956	5958.5
433.178	6105.5
433.4	6093.5
433.622	5917.5
433.844	5980.5
434.066	5993.5
434.287	6062.5
434.509	6322.5
434.731	6578.5
434.953	6614.5
435.175	6797.5
435.397	6806.5
435.618	6754.5
435.84	7219.5
436.062	8229.5
436.284	8102.5
436.505	6820.5
436.727	6481.5
436.949	6205.5
437.17	6127.5
437.392	5973.5
437.614	6144.5
437.835	6567.5
438.057	7641.5
438.278	8337.5
438.5	8177.5
438.721	9132.5
438.943	7845.5
439.165	6608.5
439.386	6459.5
439.608	6479.5
439.829	6648.5
440.05	7101.5
440.272	7509.5
440.493	6715.5
440.715	6430.5
440.936	6300.5
441.158	6348.5
441.379	6455.5
441.6	6813.5
441.822	7073.5
442.043	7520.5
442.264	8355.5
442.486	8017.5
442.707	7050.5
442.928	7005.5
443.149	7232.5
443.371	7438.5
443.592	7925.5
443.813	9077.5
444.034	8828.5
444.255	7693.5
444.476	7496.5
444.698	7681.5
444.919	7689.5
445.14	7535.5
445.361	7479.5
445.582	7798.5
445.803	8625.5
446.024	9281.5
446.245	8790.5
446.466	7731.5
446.687	6659.5
446.908	6293.5
447.129	5989.5
447.35	5766.5
447.571	5743.5
447.792	5724.5
448.013	5807.5
448.234	6014.5
448.455	6754.5
448.675	8045.5
448.896	8554.5
449.117	6882.5
449.338	7200.5
449.559	8719.5
449.779	8816.5
450	6662.5
450.221	6033.5
450.442	5789.5
450.662	5628.5
450.883	5819.5
451.104	6041.5
451.324	5806.5
451.545	5585.5
451.766	5434.5
451.986	5254.5
452.207	5226.5
452.428	5215.5
452.648	5245.5
452.869	5305.5
453.089	5393.5
453.31	5424.5
453.53	5301.5
453.751	5187.5
453.971	5266.5
454.192	5409.5
454.412	5253.5
454.633	5169.5
454.853	5124.5
455.073	5199.5
455.294	5674.5
455.514	6175.5
455.734	5555.5
455.955	4992.5
456.175	4927.5
456.395	4820.5
456.616	4858.5
456.836	4895.5
457.056	4812.5
457.276	4821.5
457.497	5029.5
457.717	4922.5
457.937	5031.5
458.157	5115.5
458.377	5145.5
458.598	5618.5
458.818	6371.5
459.038	7239.5
459.258	7066.5
459.478	6121.5
459.698	6033.5
459.918	6125.5
460.138	6265.5
460.358	6557.5
460.578	6479.5
460.798	6620.5
461.018	6571.5
461.238	6391.5
461.458	6418.5
461.678	6355.5
461.898	6576.5
462.118	6662.5
462.338	6914.5
462.558	7011.5
462.777	7344.5
462.997	7928.5
463.217	8311.5
463.437	8086.5
463.657	7513.5
463.876	7505.5
464.096	7501.5
464.316	7422.5
464.536	7439.5
464.755	7333.5
464.975	7104.5
465.195	7534.5
465.414	7778.5
465.634	6639.5
465.854	6248.5
466.073	5960.5
466.293	5786.5
466.512	5658.5
466.732	5591.5
466.951	5543.5
467.171	5554.5
467.391	5736.5
467.61	5896.5
467.829	6180.5
468.049	7245.5
468.268	8499.5
468.488	6751.5
468.707	6021.5
468.927	5733.5
469.146	5610.5
469.365	5620.5
469.585	5554.5
469.804	5832.5
470.023	5969.5
470.243	5833.5
470.462	5955.5
470.681	6222.5
470.901	6077.5
471.12	5839.5
471.339	5893.5
471.558	5960.5
471.777	6131.5
471.997	6695.5
472.216	9513.5
472.435	14183.5
472.654	10631.5
472.873	7763.5
473.092	6869.5
473.311	6356.5
473.53	6184.5
473.749	6249.5
473.968	6580.5
474.187	7573.5
474.406	6926.5
474.625	5926.5
474.844	5661.5
475.063	5599.5
475.282	5624.5
475.501	5666.5
475.72	5632.5
475.939	5623.5
476.158	5664.5
476.377	5651.5
476.596	5657.5
476.814	5837.5
477.033	5922.5
477.252	5984.5
477.471	6083.5
477.69	6192.5
477.908	6259.5
478.127	6394.5
478.346	6482.5
478.564	6575.5
478.783	6663.5
479.002	6843.5
479.22	6903.5
479.439	7082.5
479.658	7229.5
479.876	7375.5
480.095	7597.5
480.313	8196.5
480.532	8364.5
480.751	8885.5
480.969	11635.5
481.188	15627.5
481.406	15627.5
481.624	13698.5
481.843	10215.5
482.061	8926.5
482.28	8221.5
482.498	7788.5
482.717	7415.5
482.935	7325.5
483.153	7120.5
483.372	7047.5
483.59	6944.5
483.808	6854.5
484.027	6788.5
484.245	6859.5
484.463	6827.5
484.681	6918.5
484.9	6832.5
485.118	6852.5
485.336	6960.5
485.554	7006.5
485.772	7013.5
485.99	6913.5
486.209	7064.5
486.427	7192.5
486.645	7223.5
486.863	7304.5
487.081	7237.5
487.299	7240.5
487.517	7138.5
487.735	7123.5
487.953	7148.5
488.171	7233.5
488.389	7129.5
488.607	7201.5
488.825	7205.5
489.043	7367.5
489.261	7306.5
489.479	7467.5
489.696	7583.5
489.914	7715.5
490.132	7992.5
490.35	7951.5
490.568	8143.5
490.786	8427.5
491.003	8664.5
491.221	9108.5
491.439	9566.5
491.657	9832.5
491.874	9806.5
492.092	9954.5
492.31	10057.5
492.527	10428.5
492.745	10753.5
492.963	10669.5
493.18	10462.5
493.398	10234.5
493.615	10120.5
493.833	9962.5
494.05	9799.5
494.268	9573.5
494.485	9319.5
494.703	9219.5
494.92	9226.5
495.138	9096.5
495.355	8999.5
495.573	8912.5
495.79	8757.5
496.008	8795.5
496.225	8788.5
496.442	8685.5
496.66	8737.5
496.877	8639.5
497.094	8624.5
497.312	8824.5
497.529	8992.5
497.746	9101.5
497.963	9263.5
498.181	9770.5
498.398	9936.5
498.615	10367.5
498.832	10816.5
499.049	11281.5
499.267	11705.5
499.484	12568.5
499.701	13223.5
499.918	13807.5
500.135	14551.5
500.352	15193.5
500.569	15392.5
500.786	15462.5
501.003	14962.5
501.22	14280.5
501.437	13641.5
501.654	12827.5
501.871	12180.5
502.088	11476.5
502.305	10738.5
502.522	10128.5
502.739	9876.5
502.956	9430.5
503.172	9075.5
