Data from Circ_1989_H10_HRD10591_00018.txt Node
Date: Wed Jan 03 12:01:25 EST 2024
User: Yrep
Spectrometer: HR+D1059
Trigger mode: 1
Integration Time (sec): 1.000000E-1
Scans to average: 1
Electric dark correction enabled: true
Nonlinearity correction enabled: false
Boxcar width: 0
XAxis mode: Wavelengths
Number of Pixels in Spectrum: 2048
>>>>>Begin Spectral Data<<<<<
223.165	-18.75
223.4	-18.75
223.635	-18.75
223.869	-17.75
224.104	-29.75
224.338	-11.75
224.573	-9.75
224.808	-16.75
225.042	-7.75
225.277	-15.75
225.511	-5.75
225.746	1.25
225.98	8.25
226.215	9.25
226.449	28.25
226.683	25.25
226.918	26.25
227.152	35.25
227.387	39.25
227.621	38.25
227.856	38.25
228.09	55.25
228.324	47.25
228.559	51.25
228.793	64.25
229.027	50.25
229.262	68.25
229.496	53.25
229.73	65.25
229.964	74.25
230.199	67.25
230.433	83.25
230.667	92.25
230.901	82.25
231.136	83.25
231.37	83.25
231.604	70.25
231.838	80.25
232.072	93.25
232.306	93.25
232.541	76.25
232.775	86.25
233.009	83.25
233.243	71.25
233.477	81.25
233.711	79.25
233.945	71.25
234.179	89.25
234.413	76.25
234.647	82.25
234.881	84.25
235.115	77.25
235.349	83.25
235.583	80.25
235.817	76.25
236.051	79.25
236.285	69.25
236.519	79.25
236.753	64.25
236.987	85.25
237.221	75.25
237.455	71.25
237.689	75.25
237.922	72.25
238.156	72.25
238.39	65.25
238.624	85.25
238.858	72.25
239.091	83.25
239.325	78.25
239.559	75.25
239.793	70.25
240.027	75.25
240.26	85.25
240.494	69.25
240.728	82.25
240.961	71.25
241.195	83.25
241.429	81.25
241.662	81.25
241.896	75.25
242.13	75.25
242.363	72.25
242.597	71.25
242.83	80.25
243.064	66.25
243.298	84.25
243.531	84.25
243.765	83.25
243.998	88.25
244.232	86.25
244.465	92.25
244.699	84.25
244.932	89.25
245.166	67.25
245.399	82.25
245.633	75.25
245.866	62.25
246.099	69.25
246.333	97.25
246.566	93.25
246.8	80.25
247.033	90.25
247.266	93.25
247.5	84.25
247.733	93.25
247.966	72.25
248.2	68.25
248.433	75.25
248.666	77.25
248.899	73.25
249.133	95.25
249.366	93.25
249.599	83.25
249.832	85.25
250.066	89.25
250.299	87.25
250.532	85.25
250.765	93.25
250.998	67.25
251.231	72.25
251.465	82.25
251.698	85.25
251.931	70.25
252.164	78.25
252.397	73.25
252.63	70.25
252.863	76.25
253.096	87.25
253.329	82.25
253.562	84.25
253.795	98.25
254.028	94.25
254.261	78.25
254.494	93.25
254.727	61.25
254.96	71.25
255.193	71.25
255.426	81.25
255.659	78.25
255.892	89.25
256.124	85.25
256.357	80.25
256.59	77.25
256.823	79.25
257.056	79.25
257.289	89.25
257.521	75.25
257.754	83.25
257.987	82.25
258.22	107.25
258.452	71.25
258.685	87.25
258.918	89.25
259.151	83.25
259.383	87.25
259.616	77.25
259.849	78.25
260.081	71.25
260.314	84.25
260.547	83.25
260.779	83.25
261.012	87.25
261.244	87.25
261.477	89.25
261.71	79.25
261.942	92.25
262.175	93.25
262.407	91.25
262.64	99.25
262.872	67.25
263.105	86.25
263.337	95.25
263.57	73.25
263.802	95.25
264.035	86.25
264.267	82.25
264.499	77.25
264.732	86.25
264.964	70.25
265.197	89.25
265.429	95.25
265.661	86.25
265.894	81.25
266.126	69.25
266.358	86.25
266.591	96.25
266.823	89.25
267.055	85.25
267.287	80.25
267.52	91.25
267.752	86.25
267.984	84.25
268.216	69.25
268.448	82.25
268.681	94.25
268.913	92.25
269.145	82.25
269.377	81.25
269.609	85.25
269.841	86.25
270.073	88.25
270.306	80.25
270.538	75.25
270.77	85.25
271.002	89.25
271.234	78.25
271.466	79.25
271.698	86.25
271.93	76.25
272.162	84.25
272.394	94.25
272.626	72.25
272.858	90.25
273.09	97.25
273.322	71.25
273.553	77.25
273.785	93.25
274.017	84.25
274.249	98.25
274.481	80.25
274.713	75.25
274.945	96.25
275.176	87.25
275.408	93.25
275.64	99.25
275.872	103.25
276.104	64.25
276.335	76.25
276.567	72.25
276.799	94.25
277.031	95.25
277.262	99.25
277.494	87.25
277.726	91.25
277.957	94.25
278.189	82.25
278.421	81.25
278.652	86.25
278.884	87.25
279.115	84.25
279.347	96.25
279.579	89.25
279.81	91.25
280.042	103.25
280.273	120.25
280.505	93.25
280.736	88.25
280.968	88.25
281.199	93.25
281.431	83.25
281.662	76.25
281.894	90.25
282.125	96.25
282.356	104.25
282.588	112.25
282.819	96.25
283.051	98.25
283.282	78.25
283.513	93.25
283.745	85.25
283.976	82.25
284.207	84.25
284.439	72.25
284.67	68.25
284.901	81.25
285.132	91.25
285.364	79.25
285.595	88.25
285.826	98.25
286.057	101.25
286.288	84.25
286.52	82.25
286.751	81.25
286.982	91.25
287.213	77.25
287.444	77.25
287.675	86.25
287.906	90.25
288.138	85.25
288.369	93.25
288.6	87.25
288.831	84.25
289.062	79.25
289.293	85.25
289.524	86.25
289.755	94.25
289.986	85.25
290.217	90.25
290.448	82.25
290.679	92.25
290.91	102.25
291.141	88.25
291.371	89.25
291.602	87.25
291.833	89.25
292.064	92.25
292.295	84.25
292.526	85.25
292.757	87.25
292.987	84.25
293.218	88.25
293.449	85.25
293.68	95.25
293.91	76.25
294.141	90.25
294.372	80.25
294.603	83.25
294.833	96.25
295.064	94.25
295.295	103.25
295.525	84.25
295.756	105.25
295.987	102.25
296.217	116.25
296.448	100.25
296.679	94.25
296.909	87.25
297.14	91.25
297.37	70.25
297.601	94.25
297.831	95.25
298.062	75.25
298.292	111.25
298.523	104.25
298.753	67.25
298.984	72.25
299.214	91.25
299.445	81.25
299.675	94.25
299.905	89.25
300.136	95.25
300.366	101.25
300.597	96.25
300.827	90.25
301.057	97.25
301.288	91.25
301.518	90.25
301.748	85.25
301.979	99.25
302.209	99.25
302.439	104.25
302.669	93.25
302.9	100.25
303.13	84.25
303.36	96.25
303.59	95.25
303.82	104.25
304.051	100.25
304.281	105.25
304.511	94.25
304.741	101.25
304.971	72.25
305.201	73.25
305.431	94.25
305.661	93.25
305.891	95.25
306.121	109.25
306.352	97.25
306.582	94.25
306.812	76.25
307.042	88.25
307.272	111.25
307.502	96.25
307.731	111.25
307.961	104.25
308.191	100.25
308.421	98.25
308.651	72.25
308.881	90.25
309.111	81.25
309.341	98.25
309.571	114.25
309.8	103.25
310.03	88.25
310.26	103.25
310.49	104.25
310.72	113.25
310.949	100.25
311.179	77.25
311.409	91.25
311.639	87.25
311.868	93.25
312.098	82.25
312.328	87.25
312.557	97.25
312.787	95.25
313.017	95.25
313.246	96.25
313.476	100.25
313.706	92.25
313.935	87.25
314.165	87.25
314.394	100.25
314.624	109.25
314.853	96.25
315.083	95.25
315.312	80.25
315.542	84.25
315.771	99.25
316.001	95.25
316.23	96.25
316.46	80.25
316.689	86.25
316.919	83.25
317.148	90.25
317.377	105.25
317.607	101.25
317.836	95.25
318.065	88.25
318.295	97.25
318.524	96.25
318.753	81.25
318.983	92.25
319.212	99.25
319.441	105.25
319.67	91.25
319.9	92.25
320.129	90.25
320.358	101.25
320.587	80.25
320.816	94.25
321.046	72.25
321.275	95.25
321.504	92.25
321.733	98.25
321.962	103.25
322.191	102.25
322.42	103.25
322.649	100.25
322.878	108.25
323.108	112.25
323.337	105.25
323.566	105.25
323.795	128.25
324.024	164.25
324.253	291.25
324.482	577.25
324.71	1128.25
324.939	1480.25
325.168	551.25
325.397	192.25
325.626	132.25
325.855	119.25
326.084	122.25
326.313	116.25
326.542	136.25
326.77	184.25
326.999	326.25
327.228	658.25
327.457	1154.25
327.686	935.25
327.914	309.25
328.143	220.25
328.372	196.25
328.6	155.25
328.829	133.25
329.058	117.25
329.287	108.25
329.515	110.25
329.744	107.25
329.972	161.25
330.201	277.25
330.43	315.25
330.658	191.25
330.887	120.25
331.115	119.25
331.344	97.25
331.572	93.25
331.801	97.25
332.03	106.25
332.258	92.25
332.486	96.25
332.715	101.25
332.943	96.25
333.172	99.25
333.4	101.25
333.629	110.25
333.857	132.25
334.085	176.25
334.314	261.25
334.542	415.25
334.771	383.25
334.999	143.25
335.227	111.25
335.455	85.25
335.684	100.25
335.912	83.25
336.14	89.25
336.369	88.25
336.597	99.25
336.825	111.25
337.053	94.25
337.281	102.25
337.51	81.25
337.738	92.25
337.966	97.25
338.194	92.25
338.422	102.25
338.65	103.25
338.878	91.25
339.106	87.25
339.334	103.25
339.562	81.25
339.79	84.25
340.018	90.25
340.246	88.25
340.474	94.25
340.702	97.25
340.93	97.25
341.158	77.25
341.386	88.25
341.614	81.25
341.842	103.25
342.07	99.25
342.298	88.25
342.526	92.25
342.754	86.25
342.981	84.25
343.209	77.25
343.437	99.25
343.665	103.25
343.893	89.25
344.12	84.25
344.348	96.25
344.576	76.25
344.804	102.25
345.031	87.25
345.259	99.25
345.487	98.25
345.714	88.25
345.942	86.25
346.17	78.25
346.397	100.25
346.625	84.25
346.853	86.25
347.08	101.25
347.308	87.25
347.535	117.25
347.763	94.25
347.99	96.25
348.218	99.25
348.445	99.25
348.673	103.25
348.9	84.25
349.128	90.25
349.355	97.25
349.583	104.25
349.81	99.25
350.037	103.25
350.265	86.25
350.492	92.25
350.72	96.25
350.947	100.25
351.174	101.25
351.402	85.25
351.629	97.25
351.856	102.25
352.083	104.25
352.311	84.25
352.538	105.25
352.765	91.25
352.992	109.25
353.22	105.25
353.447	106.25
353.674	106.25
353.901	91.25
354.128	103.25
354.355	85.25
354.583	102.25
354.81	102.25
355.037	107.25
355.264	91.25
355.491	81.25
355.718	91.25
355.945	103.25
356.172	93.25
356.399	81.25
356.626	105.25
356.853	108.25
357.08	101.25
357.307	100.25
357.534	101.25
357.761	107.25
357.988	109.25
358.215	101.25
358.441	99.25
358.668	83.25
358.895	81.25
359.122	100.25
359.349	90.25
359.576	93.25
359.802	86.25
360.029	102.25
360.256	119.25
360.483	96.25
360.709	99.25
360.936	87.25
361.163	88.25
361.39	81.25
361.616	93.25
361.843	102.25
362.07	77.25
362.296	87.25
362.523	92.25
362.749	87.25
362.976	71.25
363.203	88.25
363.429	81.25
363.656	87.25
363.882	94.25
364.109	100.25
364.335	83.25
364.562	99.25
364.788	78.25
365.015	92.25
365.241	82.25
365.468	94.25
365.694	95.25
365.92	97.25
366.147	89.25
366.373	88.25
366.599	80.25
366.826	85.25
367.052	84.25
367.278	83.25
367.505	98.25
367.731	85.25
367.957	81.25
368.184	103.25
368.41	97.25
368.636	82.25
368.862	110.25
369.089	102.25
369.315	91.25
369.541	97.25
369.767	78.25
369.993	92.25
370.219	86.25
370.445	85.25
370.672	86.25
370.898	91.25
371.124	90.25
371.35	85.25
371.576	94.25
371.802	95.25
372.028	90.25
372.254	70.25
372.48	84.25
372.706	82.25
372.932	88.25
373.158	98.25
373.384	79.25
373.61	97.25
373.835	94.25
374.061	83.25
374.287	96.25
374.513	87.25
374.739	93.25
374.965	89.25
375.191	97.25
375.416	76.25
375.642	82.25
375.868	98.25
376.094	83.25
376.319	102.25
376.545	88.25
376.771	88.25
376.997	81.25
377.222	110.25
377.448	96.25
377.674	88.25
377.899	84.25
378.125	87.25
378.35	92.25
378.576	80.25
378.802	98.25
379.027	83.25
379.253	96.25
379.478	100.25
379.704	79.25
379.929	86.25
380.155	88.25
380.38	85.25
380.606	101.25
380.831	113.25
381.057	88.25
381.282	93.25
381.507	68.25
381.733	112.25
381.958	97.25
382.184	92.25
382.409	109.25
382.634	100.25
382.86	102.25
383.085	100.25
383.31	112.25
383.535	105.25
383.761	118.25
383.986	102.25
384.211	102.25
384.436	109.25
384.662	91.25
384.887	101.25
385.112	103.25
385.337	108.25
385.562	102.25
385.787	97.25
386.013	104.25
386.238	119.25
386.463	116.25
386.688	103.25
386.913	116.25
387.138	105.25
387.363	108.25
387.588	99.25
387.813	107.25
388.038	103.25
388.263	119.25
388.488	111.25
388.713	95.25
388.938	103.25
389.163	100.25
389.387	82.25
389.612	82.25
389.837	93.25
390.062	96.25
390.287	91.25
390.512	88.25
390.736	81.25
390.961	98.25
391.186	91.25
391.411	82.25
391.636	112.25
391.86	88.25
392.085	90.25
392.31	79.25
392.534	94.25
392.759	69.25
392.984	80.25
393.208	95.25
393.433	101.25
393.658	101.25
393.882	86.25
394.107	89.25
394.331	83.25
394.556	69.25
394.78	85.25
395.005	92.25
395.229	94.25
395.454	101.25
395.678	86.25
395.903	91.25
396.127	87.25
396.352	94.25
396.576	91.25
396.801	81.25
397.025	99.25
397.249	85.25
397.474	86.25
397.698	95.25
397.922	87.25
398.147	82.25
398.371	86.25
398.595	91.25
398.82	81.25
399.044	78.25
399.268	87.25
399.492	86.25
399.717	94.25
399.941	83.25
400.165	79.25
400.389	87.25
400.613	80.25
400.837	92.25
401.062	86.25
401.286	75.25
401.51	80.25
401.734	81.25
401.958	91.25
402.182	96.25
402.406	123.25
402.63	98.25
402.854	85.25
403.078	95.25
403.302	91.25
403.526	88.25
403.75	88.25
403.974	77.25
404.198	90.25
404.422	73.25
404.645	95.25
404.869	91.25
405.093	96.25
405.317	85.25
405.541	105.25
405.765	96.25
405.988	98.25
406.212	137.25
406.436	166.25
406.66	111.25
406.883	87.25
407.107	80.25
407.331	91.25
407.555	83.25
407.778	81.25
408.002	102.25
408.226	101.25
408.449	92.25
408.673	84.25
408.896	99.25
409.12	100.25
409.344	100.25
409.567	88.25
409.791	88.25
410.014	95.25
410.238	80.25
410.461	90.25
410.685	87.25
410.908	101.25
411.132	93.25
411.355	96.25
411.578	83.25
411.802	101.25
412.025	98.25
412.249	100.25
412.472	91.25
412.695	110.25
412.919	92.25
413.142	71.25
413.365	98.25
413.589	85.25
413.812	84.25
414.035	89.25
414.258	87.25
414.482	80.25
414.705	95.25
414.928	91.25
415.151	95.25
415.374	97.25
415.597	93.25
415.821	74.25
416.044	93.25
416.267	95.25
416.49	93.25
416.713	81.25
416.936	79.25
417.159	92.25
417.382	79.25
417.605	88.25
417.828	89.25
418.051	87.25
418.274	87.25
418.497	81.25
418.72	78.25
418.943	85.25
419.166	75.25
419.389	89.25
419.611	81.25
419.834	83.25
420.057	90.25
420.28	93.25
420.503	95.25
420.726	85.25
420.948	89.25
421.171	91.25
421.394	82.25
421.617	81.25
421.839	81.25
422.062	78.25
422.285	77.25
422.507	98.25
422.73	99.25
422.953	80.25
423.175	75.25
423.398	76.25
423.621	81.25
423.843	88.25
424.066	89.25
424.288	91.25
424.511	85.25
424.733	88.25
424.956	87.25
425.178	94.25
425.401	84.25
425.623	93.25
425.846	83.25
426.068	90.25
426.291	95.25
426.513	70.25
426.735	88.25
426.958	96.25
427.18	92.25
427.402	113.25
427.625	136.25
427.847	117.25
428.069	135.25
428.292	97.25
428.514	82.25
428.736	85.25
428.958	88.25
429.181	88.25
429.403	76.25
429.625	72.25
429.847	95.25
430.069	81.25
430.292	96.25
430.514	82.25
430.736	101.25
430.958	84.25
431.18	73.25
431.402	77.25
431.624	85.25
431.846	92.25
432.068	80.25
432.29	71.25
432.512	87.25
432.734	79.25
432.956	83.25
433.178	104.25
433.4	87.25
433.622	81.25
433.844	74.25
434.066	97.25
434.287	77.25
434.509	87.25
434.731	81.25
434.953	90.25
435.175	79.25
435.397	94.25
435.618	88.25
435.84	104.25
436.062	104.25
436.284	105.25
436.505	97.25
436.727	97.25
436.949	83.25
437.17	88.25
437.392	87.25
437.614	80.25
437.835	99.25
438.057	100.25
438.278	95.25
438.5	96.25
438.721	105.25
438.943	96.25
439.165	95.25
439.386	76.25
439.608	88.25
439.829	99.25
440.05	101.25
440.272	110.25
440.493	94.25
440.715	75.25
440.936	95.25
441.158	86.25
441.379	76.25
441.6	96.25
441.822	88.25
442.043	80.25
442.264	76.25
442.486	97.25
442.707	90.25
442.928	100.25
443.149	109.25
443.371	118.25
443.592	95.25
443.813	113.25
444.034	85.25
444.255	83.25
444.476	95.25
444.698	89.25
444.919	86.25
445.14	133.25
445.361	116.25
445.582	108.25
445.803	114.25
446.024	105.25
446.245	124.25
446.466	99.25
446.687	83.25
446.908	88.25
447.129	91.25
447.35	90.25
447.571	87.25
447.792	92.25
448.013	98.25
448.234	91.25
448.455	89.25
448.675	120.25
448.896	93.25
449.117	97.25
449.338	85.25
449.559	116.25
449.779	124.25
450	87.25
450.221	80.25
450.442	98.25
450.662	93.25
450.883	87.25
451.104	70.25
451.324	88.25
451.545	81.25
451.766	87.25
451.986	77.25
452.207	80.25
452.428	101.25
452.648	89.25
452.869	92.25
453.089	109.25
453.31	98.25
453.53	93.25
453.751	97.25
453.971	94.25
454.192	101.25
454.412	88.25
454.633	90.25
454.853	80.25
455.073	80.25
455.294	100.25
455.514	89.25
455.734	102.25
455.955	96.25
456.175	87.25
456.395	89.25
456.616	88.25
456.836	88.25
457.056	79.25
457.276	92.25
457.497	93.25
457.717	76.25
457.937	78.25
458.157	91.25
458.377	92.25
458.598	91.25
458.818	126.25
459.038	124.25
459.258	104.25
459.478	75.25
459.698	88.25
459.918	87.25
460.138	95.25
460.358	97.25
460.578	91.25
460.798	83.25
461.018	78.25
461.238	78.25
461.458	87.25
461.678	76.25
461.898	80.25
462.118	78.25
462.338	68.25
462.558	84.25
462.777	76.25
462.997	90.25
463.217	88.25
463.437	85.25
463.657	83.25
463.876	76.25
464.096	80.25
464.316	77.25
464.536	102.25
464.755	87.25
464.975	97.25
465.195	137.25
465.414	116.25
465.634	99.25
465.854	87.25
466.073	63.25
466.293	100.25
466.512	88.25
466.732	79.25
466.951	90.25
467.171	96.25
467.391	80.25
467.61	100.25
467.829	107.25
468.049	185.25
468.268	227.25
468.488	99.25
468.707	80.25
468.927	71.25
469.146	87.25
469.365	92.25
469.585	85.25
469.804	81.25
470.023	83.25
470.243	94.25
470.462	103.25
470.681	87.25
470.901	76.25
471.12	82.25
471.339	71.25
471.558	93.25
471.777	94.25
471.997	143.25
472.216	309.25
472.435	567.25
472.654	178.25
472.873	87.25
473.092	95.25
473.311	78.25
473.53	85.25
473.749	73.25
473.968	85.25
474.187	99.25
474.406	92.25
474.625	93.25
474.844	91.25
475.063	95.25
475.282	82.25
475.501	79.25
475.72	87.25
475.939	97.25
476.158	81.25
476.377	86.25
476.596	78.25
476.814	83.25
477.033	79.25
477.252	72.25
477.471	91.25
477.69	91.25
477.908	89.25
478.127	71.25
478.346	68.25
478.564	99.25
478.783	84.25
479.002	101.25
479.22	86.25
479.439	98.25
479.658	94.25
479.876	85.25
480.095	92.25
480.313	100.25
480.532	107.25
480.751	111.25
480.969	283.25
481.188	1045.25
481.406	574.25
481.624	147.25
481.843	107.25
482.061	94.25
482.28	84.25
482.498	93.25
482.717	93.25
482.935	93.25
483.153	89.25
483.372	85.25
483.59	86.25
483.808	92.25
484.027	85.25
484.245	70.25
484.463	93.25
484.681	85.25
484.9	93.25
485.118	81.25
485.336	99.25
485.554	94.25
485.772	104.25
485.99	102.25
486.209	103.25
486.427	102.25
486.645	111.25
486.863	116.25
487.081	113.25
487.299	96.25
487.517	92.25
487.735	88.25
487.953	91.25
488.171	80.25
488.389	98.25
488.607	103.25
488.825	97.25
489.043	97.25
489.261	78.25
489.479	84.25
489.696	75.25
489.914	92.25
490.132	84.25
490.35	98.25
490.568	88.25
490.786	80.25
491.003	88.25
491.221	95.25
491.439	110.25
491.657	97.25
491.874	95.25
492.092	94.25
492.31	83.25
492.527	88.25
492.745	92.25
492.963	89.25
493.18	100.25
493.398	75.25
493.615	91.25
493.833	96.25
494.05	91.25
494.268	85.25
494.485	83.25
494.703	85.25
494.92	96.25
495.138	81.25
495.355	84.25
495.573	91.25
495.79	88.25
496.008	82.25
496.225	90.25
496.442	87.25
496.66	103.25
496.877	92.25
497.094	102.25
497.312	79.25
497.529	95.25
497.746	73.25
497.963	89.25
498.181	92.25
498.398	91.25
498.615	105.25
498.832	103.25
499.049	85.25
499.267	96.25
499.484	100.25
499.701	100.25
499.918	91.25
500.135	84.25
500.352	87.25
500.569	88.25
500.786	88.25
501.003	82.25
501.22	86.25
501.437	86.25
501.654	97.25
501.871	109.25
502.088	97.25
502.305	91.25
502.522	75.25
502.739	93.25
502.956	88.25
503.172	100.25
503.389	92.25
503.606	90.25
503.823	77.25
504.04	88.25
504.256	98.25
504.473	92.25
504.69	92.25
504.907	86.25
505.123	87.25
505.34	85.25
505.557	91.25
505.773	94.25
505.99	88.25
506.207	88.25
506.423	89.25
506.64	92.25
506.856	92.25
507.073	88.25
507.289	89.25
507.506	86.25
507.722	103.25
507.939	94.25
508.155	95.25
508.372	88.25
508.588	104.25
508.805	94.25
509.021	94.25
509.238	110.25
509.454	88.25
509.67	99.25
509.887	91.25
510.103	111.25
510.319	172.25
510.536	520.25
510.752	1568.25
510.968	468.25
511.184	139.25
511.401	92.25
511.617	93.25
511.833	85.25
512.049	84.25
512.265	102.25
512.481	96.25
512.698	81.25
512.914	93.25
513.13	93.25
513.346	86.25
513.562	101.25
513.778	104.25
513.994	102.25
514.21	108.25
514.426	111.25
514.642	117.25
514.858	113.25
515.074	124.25
515.29	310.25
515.506	904.25
515.721	375.25
515.937	110.25
516.153	99.25
