Data from Circ_1989_H10_HRD10591_00040.txt Node
Date: Wed Jan 03 12:01:29 EST 2024
User: Yrep
Spectrometer: HR+D1059
Trigger mode: 1
Integration Time (sec): 1.000000E-1
Scans to average: 1
Electric dark correction enabled: true
Nonlinearity correction enabled: false
Boxcar width: 0
XAxis mode: Wavelengths
Number of Pixels in Spectrum: 2048
>>>>>Begin Spectral Data<<<<<
223.165	-24.62
223.4	-24.62
223.635	-24.62
223.869	-19.62
224.104	-18.62
224.338	-15.62
224.573	8.38
224.808	-18.62
225.042	-0.62
225.277	-22.62
225.511	-0.62
225.746	-3.62
225.98	12.38
226.215	12.38
226.449	11.38
226.683	20.38
226.918	17.38
227.152	42.38
227.387	45.38
227.621	37.38
227.856	47.38
228.09	48.38
228.324	55.38
228.559	58.38
228.793	68.38
229.027	53.38
229.262	71.38
229.496	64.38
229.73	71.38
229.964	80.38
230.199	80.38
230.433	71.38
230.667	77.38
230.901	73.38
231.136	74.38
231.37	78.38
231.604	87.38
231.838	84.38
232.072	91.38
232.306	87.38
232.541	83.38
232.775	70.38
233.009	101.38
233.243	80.38
233.477	82.38
233.711	93.38
233.945	99.38
234.179	66.38
234.413	90.38
234.647	83.38
234.881	85.38
235.115	83.38
235.349	74.38
235.583	91.38
235.817	80.38
236.051	71.38
236.285	86.38
236.519	82.38
236.753	91.38
236.987	74.38
237.221	80.38
237.455	100.38
237.689	83.38
237.922	69.38
238.156	70.38
238.39	85.38
238.624	71.38
238.858	81.38
239.091	76.38
239.325	90.38
239.559	81.38
239.793	75.38
240.027	70.38
240.26	75.38
240.494	92.38
240.728	70.38
240.961	63.38
241.195	69.38
241.429	70.38
241.662	84.38
241.896	68.38
242.13	91.38
242.363	72.38
242.597	83.38
242.83	70.38
243.064	82.38
243.298	100.38
243.531	91.38
243.765	73.38
243.998	82.38
244.232	98.38
244.465	79.38
244.699	95.38
244.932	88.38
245.166	80.38
245.399	80.38
245.633	79.38
245.866	88.38
246.099	76.38
246.333	96.38
246.566	76.38
246.8	91.38
247.033	83.38
247.266	92.38
247.5	83.38
247.733	76.38
247.966	87.38
248.2	79.38
248.433	95.38
248.666	86.38
248.899	80.38
249.133	96.38
249.366	107.38
249.599	86.38
249.832	87.38
250.066	88.38
250.299	85.38
250.532	92.38
250.765	73.38
250.998	75.38
251.231	86.38
251.465	79.38
251.698	70.38
251.931	104.38
252.164	81.38
252.397	77.38
252.63	77.38
252.863	94.38
253.096	85.38
253.329	75.38
253.562	85.38
253.795	96.38
254.028	88.38
254.261	90.38
254.494	83.38
254.727	86.38
254.96	81.38
255.193	85.38
255.426	77.38
255.659	81.38
255.892	90.38
256.124	79.38
256.357	94.38
256.59	85.38
256.823	93.38
257.056	90.38
257.289	90.38
257.521	91.38
257.754	101.38
257.987	81.38
258.22	98.38
258.452	89.38
258.685	74.38
258.918	62.38
259.151	92.38
259.383	93.38
259.616	99.38
259.849	80.38
260.081	101.38
260.314	73.38
260.547	84.38
260.779	75.38
261.012	104.38
261.244	89.38
261.477	93.38
261.71	90.38
261.942	106.38
262.175	120.38
262.407	91.38
262.64	88.38
262.872	86.38
263.105	83.38
263.337	94.38
263.57	85.38
263.802	82.38
264.035	89.38
264.267	75.38
264.499	99.38
264.732	68.38
264.964	74.38
265.197	83.38
265.429	69.38
265.661	86.38
265.894	102.38
266.126	98.38
266.358	79.38
266.591	88.38
266.823	93.38
267.055	84.38
267.287	82.38
267.52	77.38
267.752	85.38
267.984	76.38
268.216	107.38
268.448	84.38
268.681	87.38
268.913	96.38
269.145	91.38
269.377	84.38
269.609	91.38
269.841	86.38
270.073	76.38
270.306	81.38
270.538	87.38
270.77	94.38
271.002	88.38
271.234	84.38
271.466	85.38
271.698	77.38
271.93	89.38
272.162	91.38
272.394	109.38
272.626	87.38
272.858	81.38
273.09	95.38
273.322	89.38
273.553	94.38
273.785	91.38
274.017	87.38
274.249	90.38
274.481	71.38
274.713	97.38
274.945	70.38
275.176	95.38
275.408	93.38
275.64	80.38
275.872	88.38
276.104	94.38
276.335	99.38
276.567	98.38
276.799	122.38
277.031	97.38
277.262	118.38
277.494	92.38
277.726	94.38
277.957	83.38
278.189	84.38
278.421	82.38
278.652	90.38
278.884	91.38
279.115	83.38
279.347	82.38
279.579	94.38
279.81	91.38
280.042	105.38
280.273	131.38
280.505	104.38
280.736	89.38
280.968	96.38
281.199	82.38
281.431	90.38
281.662	93.38
281.894	90.38
282.125	107.38
282.356	113.38
282.588	130.38
282.819	98.38
283.051	107.38
283.282	82.38
283.513	107.38
283.745	84.38
283.976	87.38
284.207	85.38
284.439	91.38
284.67	89.38
284.901	81.38
285.132	92.38
285.364	81.38
285.595	87.38
285.826	98.38
286.057	93.38
286.288	76.38
286.52	89.38
286.751	87.38
286.982	97.38
287.213	92.38
287.444	91.38
287.675	88.38
287.906	89.38
288.138	87.38
288.369	91.38
288.6	99.38
288.831	86.38
289.062	84.38
289.293	87.38
289.524	95.38
289.755	86.38
289.986	85.38
290.217	88.38
290.448	90.38
290.679	90.38
290.91	91.38
291.141	94.38
291.371	87.38
291.602	98.38
291.833	110.38
292.064	103.38
292.295	89.38
292.526	111.38
292.757	90.38
292.987	99.38
293.218	87.38
293.449	83.38
293.68	86.38
293.91	99.38
294.141	104.38
294.372	85.38
294.603	90.38
294.833	91.38
295.064	103.38
295.295	82.38
295.525	73.38
295.756	101.38
295.987	121.38
296.217	138.38
296.448	120.38
296.679	113.38
296.909	91.38
297.14	95.38
297.37	83.38
297.601	81.38
297.831	92.38
298.062	104.38
298.292	84.38
298.523	92.38
298.753	89.38
298.984	95.38
299.214	101.38
299.445	91.38
299.675	96.38
299.905	111.38
300.136	97.38
300.366	96.38
300.597	95.38
300.827	102.38
301.057	94.38
301.288	105.38
301.518	103.38
301.748	100.38
301.979	101.38
302.209	88.38
302.439	99.38
302.669	91.38
302.9	100.38
303.13	85.38
303.36	96.38
303.59	96.38
303.82	112.38
304.051	93.38
304.281	89.38
304.511	96.38
304.741	83.38
304.971	79.38
305.201	85.38
305.431	98.38
305.661	92.38
305.891	88.38
306.121	101.38
306.352	109.38
306.582	106.38
306.812	88.38
307.042	102.38
307.272	109.38
307.502	129.38
307.731	122.38
307.961	114.38
308.191	99.38
308.421	106.38
308.651	91.38
308.881	99.38
309.111	103.38
309.341	101.38
309.571	118.38
309.8	92.38
310.03	104.38
310.26	109.38
310.49	85.38
310.72	98.38
310.949	96.38
311.179	99.38
311.409	91.38
311.639	80.38
311.868	88.38
312.098	104.38
312.328	84.38
312.557	98.38
312.787	112.38
313.017	106.38
313.246	103.38
313.476	89.38
313.706	89.38
313.935	90.38
314.165	93.38
314.394	111.38
314.624	106.38
314.853	116.38
315.083	99.38
315.312	113.38
315.542	86.38
315.771	86.38
316.001	103.38
316.23	80.38
316.46	96.38
316.689	101.38
316.919	96.38
317.148	97.38
317.377	100.38
317.607	99.38
317.836	98.38
318.065	114.38
318.295	95.38
318.524	88.38
318.753	91.38
318.983	108.38
319.212	112.38
319.441	116.38
319.67	98.38
319.9	92.38
320.129	100.38
320.358	108.38
320.587	103.38
320.816	98.38
321.046	102.38
321.275	92.38
321.504	106.38
321.733	90.38
321.962	103.38
322.191	99.38
322.42	100.38
322.649	111.38
322.878	116.38
323.108	132.38
323.337	105.38
323.566	132.38
323.795	128.38
324.024	179.38
324.253	323.38
324.482	660.38
324.71	1393.38
324.939	1828.38
325.168	712.38
325.397	211.38
325.626	133.38
325.855	126.38
326.084	110.38
326.313	148.38
326.542	142.38
326.77	212.38
326.999	385.38
327.228	784.38
327.457	1368.38
327.686	1137.38
327.914	351.38
328.143	282.38
328.372	279.38
328.6	195.38
328.829	133.38
329.058	128.38
329.287	147.38
329.515	109.38
329.744	174.38
329.972	223.38
330.201	372.38
330.43	501.38
330.658	263.38
330.887	157.38
331.115	132.38
331.344	108.38
331.572	116.38
331.801	112.38
332.03	120.38
332.258	105.38
332.486	101.38
332.715	95.38
332.943	104.38
333.172	117.38
333.4	106.38
333.629	110.38
333.857	139.38
334.085	223.38
334.314	364.38
334.542	649.38
334.771	574.38
334.999	207.38
335.227	118.38
335.455	98.38
335.684	106.38
335.912	86.38
336.14	99.38
336.369	106.38
336.597	104.38
336.825	103.38
337.053	86.38
337.281	95.38
337.51	97.38
337.738	89.38
337.966	103.38
338.194	88.38
338.422	89.38
338.65	95.38
338.878	98.38
339.106	104.38
339.334	93.38
339.562	98.38
339.79	86.38
340.018	88.38
340.246	93.38
340.474	94.38
340.702	95.38
340.93	91.38
341.158	99.38
341.386	117.38
341.614	95.38
341.842	98.38
342.07	110.38
342.298	100.38
342.526	104.38
342.754	98.38
342.981	102.38
343.209	88.38
343.437	114.38
343.665	105.38
343.893	81.38
344.12	98.38
344.348	93.38
344.576	97.38
344.804	91.38
345.031	116.38
345.259	113.38
345.487	92.38
345.714	114.38
345.942	108.38
346.17	92.38
346.397	103.38
346.625	99.38
346.853	111.38
347.08	106.38
347.308	97.38
347.535	96.38
347.763	98.38
347.99	100.38
348.218	103.38
348.445	107.38
348.673	104.38
348.9	94.38
349.128	91.38
349.355	95.38
349.583	95.38
349.81	98.38
350.037	107.38
350.265	94.38
350.492	100.38
350.72	112.38
350.947	104.38
351.174	106.38
351.402	117.38
351.629	101.38
351.856	91.38
352.083	92.38
352.311	105.38
352.538	112.38
352.765	119.38
352.992	112.38
353.22	116.38
353.447	105.38
353.674	106.38
353.901	101.38
354.128	117.38
354.355	98.38
354.583	91.38
354.81	105.38
355.037	98.38
355.264	102.38
355.491	103.38
355.718	96.38
355.945	98.38
356.172	103.38
356.399	105.38
356.626	96.38
356.853	105.38
357.08	97.38
357.307	97.38
357.534	94.38
357.761	92.38
357.988	104.38
358.215	109.38
358.441	97.38
358.668	94.38
358.895	84.38
359.122	97.38
359.349	89.38
359.576	98.38
359.802	95.38
360.029	112.38
360.256	105.38
360.483	98.38
360.709	97.38
360.936	122.38
361.163	91.38
361.39	87.38
361.616	97.38
361.843	95.38
362.07	88.38
362.296	87.38
362.523	84.38
362.749	100.38
362.976	95.38
363.203	93.38
363.429	97.38
363.656	99.38
363.882	98.38
364.109	92.38
364.335	95.38
364.562	98.38
364.788	92.38
365.015	101.38
365.241	91.38
365.468	95.38
365.694	114.38
365.92	91.38
366.147	98.38
366.373	87.38
366.599	105.38
366.826	93.38
367.052	97.38
367.278	99.38
367.505	94.38
367.731	86.38
367.957	87.38
368.184	88.38
368.41	101.38
368.636	108.38
368.862	124.38
369.089	101.38
369.315	116.38
369.541	92.38
369.767	99.38
369.993	93.38
370.219	93.38
370.445	110.38
370.672	100.38
370.898	92.38
371.124	91.38
371.35	80.38
371.576	64.38
371.802	101.38
372.028	83.38
372.254	100.38
372.48	86.38
372.706	93.38
372.932	105.38
373.158	81.38
373.384	92.38
373.61	91.38
373.835	100.38
374.061	105.38
374.287	93.38
374.513	107.38
374.739	98.38
374.965	82.38
375.191	93.38
375.416	89.38
375.642	88.38
375.868	94.38
376.094	85.38
376.319	99.38
376.545	90.38
376.771	111.38
376.997	97.38
377.222	93.38
377.448	84.38
377.674	96.38
377.899	88.38
378.125	89.38
378.35	97.38
378.576	96.38
378.802	89.38
379.027	97.38
379.253	96.38
379.478	99.38
379.704	88.38
379.929	100.38
380.155	96.38
380.38	102.38
380.606	99.38
380.831	103.38
381.057	102.38
381.282	86.38
381.507	87.38
381.733	91.38
381.958	95.38
382.184	106.38
382.409	91.38
382.634	113.38
382.86	101.38
383.085	106.38
383.31	104.38
383.535	106.38
383.761	115.38
383.986	104.38
384.211	102.38
384.436	101.38
384.662	104.38
384.887	95.38
385.112	96.38
385.337	105.38
385.562	109.38
385.787	117.38
386.013	102.38
386.238	124.38
386.463	110.38
386.688	111.38
386.913	110.38
387.138	106.38
387.363	84.38
387.588	108.38
387.813	93.38
388.038	95.38
388.263	122.38
388.488	105.38
388.713	112.38
388.938	101.38
389.163	89.38
389.387	96.38
389.612	107.38
389.837	92.38
390.062	92.38
390.287	91.38
390.512	97.38
390.736	101.38
390.961	105.38
391.186	90.38
391.411	88.38
391.636	83.38
391.86	93.38
392.085	108.38
392.31	83.38
392.534	91.38
392.759	87.38
392.984	90.38
393.208	100.38
393.433	106.38
393.658	88.38
393.882	81.38
394.107	91.38
394.331	95.38
394.556	97.38
394.78	92.38
395.005	87.38
395.229	90.38
395.454	81.38
395.678	93.38
395.903	90.38
396.127	95.38
396.352	95.38
396.576	93.38
396.801	84.38
397.025	107.38
397.249	92.38
397.474	92.38
397.698	88.38
397.922	93.38
398.147	83.38
398.371	88.38
398.595	112.38
398.82	85.38
399.044	89.38
399.268	85.38
399.492	93.38
399.717	93.38
399.941	91.38
400.165	93.38
400.389	101.38
400.613	91.38
400.837	84.38
401.062	83.38
401.286	99.38
401.51	94.38
401.734	103.38
401.958	98.38
402.182	116.38
402.406	142.38
402.63	115.38
402.854	94.38
403.078	80.38
403.302	95.38
403.526	91.38
403.75	79.38
403.974	87.38
404.198	95.38
404.422	90.38
404.645	93.38
404.869	95.38
405.093	92.38
405.317	97.38
405.541	113.38
405.765	100.38
405.988	121.38
406.212	152.38
406.436	202.38
406.66	141.38
406.883	111.38
407.107	92.38
407.331	106.38
407.555	97.38
407.778	91.38
408.002	96.38
408.226	101.38
408.449	95.38
408.673	106.38
408.896	101.38
409.12	109.38
409.344	99.38
409.567	91.38
409.791	102.38
410.014	103.38
410.238	89.38
410.461	87.38
410.685	113.38
410.908	119.38
411.132	108.38
411.355	99.38
411.578	96.38
411.802	98.38
412.025	109.38
412.249	104.38
412.472	99.38
412.695	109.38
412.919	100.38
413.142	100.38
413.365	112.38
413.589	90.38
413.812	88.38
414.035	91.38
414.258	105.38
414.482	103.38
414.705	92.38
414.928	109.38
415.151	102.38
415.374	87.38
415.597	95.38
415.821	91.38
416.044	101.38
416.267	97.38
416.49	82.38
416.713	90.38
416.936	98.38
417.159	96.38
417.382	92.38
417.605	99.38
417.828	113.38
418.051	98.38
418.274	88.38
418.497	78.38
418.72	92.38
418.943	81.38
419.166	80.38
419.389	92.38
419.611	100.38
419.834	91.38
420.057	88.38
420.28	91.38
420.503	93.38
420.726	95.38
420.948	108.38
421.171	111.38
421.394	108.38
421.617	91.38
421.839	103.38
422.062	96.38
422.285	108.38
422.507	94.38
422.73	106.38
422.953	86.38
423.175	95.38
423.398	96.38
423.621	87.38
423.843	89.38
424.066	91.38
424.288	87.38
424.511	106.38
424.733	102.38
424.956	100.38
425.178	113.38
425.401	99.38
425.623	110.38
425.846	111.38
426.068	96.38
426.291	105.38
426.513	97.38
426.735	93.38
426.958	105.38
427.18	103.38
427.402	135.38
427.625	153.38
427.847	145.38
428.069	136.38
428.292	106.38
428.514	93.38
428.736	85.38
428.958	101.38
429.181	90.38
429.403	87.38
429.625	82.38
429.847	95.38
430.069	93.38
430.292	104.38
430.514	85.38
430.736	72.38
430.958	85.38
431.18	89.38
431.402	74.38
431.624	97.38
431.846	99.38
432.068	93.38
432.29	77.38
432.512	88.38
432.734	85.38
432.956	98.38
433.178	98.38
433.4	96.38
433.622	93.38
433.844	92.38
434.066	103.38
434.287	87.38
434.509	93.38
434.731	92.38
434.953	77.38
435.175	104.38
435.397	68.38
435.618	99.38
435.84	96.38
436.062	107.38
436.284	108.38
436.505	94.38
436.727	86.38
436.949	101.38
437.17	87.38
437.392	92.38
437.614	99.38
437.835	104.38
438.057	115.38
438.278	87.38
438.5	103.38
438.721	102.38
438.943	86.38
439.165	94.38
439.386	94.38
439.608	107.38
439.829	99.38
440.05	120.38
440.272	118.38
440.493	96.38
440.715	102.38
440.936	101.38
441.158	108.38
441.379	103.38
441.6	91.38
441.822	92.38
442.043	94.38
442.264	105.38
442.486	100.38
442.707	99.38
442.928	107.38
443.149	113.38
443.371	121.38
443.592	118.38
443.813	106.38
444.034	102.38
444.255	96.38
444.476	91.38
444.698	99.38
444.919	92.38
445.14	143.38
445.361	109.38
445.582	119.38
445.803	121.38
446.024	112.38
446.245	130.38
446.466	107.38
446.687	94.38
446.908	98.38
447.129	84.38
447.35	96.38
447.571	69.38
447.792	107.38
448.013	102.38
448.234	111.38
448.455	95.38
448.675	104.38
448.896	110.38
449.117	101.38
449.338	108.38
449.559	133.38
449.779	132.38
450	104.38
450.221	102.38
450.442	83.38
450.662	106.38
450.883	114.38
451.104	114.38
451.324	89.38
451.545	87.38
451.766	92.38
451.986	98.38
452.207	94.38
452.428	93.38
452.648	98.38
452.869	96.38
453.089	97.38
453.31	123.38
453.53	95.38
453.751	92.38
453.971	101.38
454.192	106.38
454.412	101.38
454.633	101.38
454.853	95.38
455.073	81.38
455.294	99.38
455.514	99.38
455.734	95.38
455.955	107.38
456.175	81.38
456.395	88.38
456.616	94.38
456.836	91.38
457.056	84.38
457.276	81.38
457.497	80.38
457.717	97.38
457.937	85.38
458.157	93.38
458.377	91.38
458.598	108.38
458.818	130.38
459.038	133.38
459.258	122.38
459.478	96.38
459.698	85.38
459.918	92.38
460.138	88.38
460.358	98.38
460.578	93.38
460.798	97.38
461.018	86.38
461.238	96.38
461.458	95.38
461.678	86.38
461.898	87.38
462.118	102.38
462.338	93.38
462.558	106.38
462.777	84.38
462.997	101.38
463.217	97.38
463.437	100.38
463.657	99.38
463.876	84.38
464.096	99.38
464.316	106.38
464.536	100.38
464.755	95.38
464.975	94.38
465.195	139.38
465.414	136.38
465.634	95.38
465.854	97.38
466.073	102.38
466.293	91.38
466.512	97.38
466.732	95.38
466.951	89.38
467.171	95.38
467.391	92.38
467.61	116.38
467.829	126.38
468.049	256.38
468.268	349.38
468.488	128.38
468.707	83.38
468.927	91.38
469.146	93.38
469.365	93.38
469.585	87.38
469.804	103.38
470.023	105.38
470.243	95.38
470.462	102.38
470.681	113.38
470.901	107.38
471.12	85.38
471.339	83.38
471.558	92.38
471.777	115.38
471.997	171.38
472.216	458.38
472.435	915.38
472.654	262.38
472.873	104.38
473.092	95.38
473.311	102.38
473.53	71.38
473.749	82.38
473.968	104.38
474.187	108.38
474.406	100.38
474.625	97.38
474.844	94.38
475.063	94.38
475.282	95.38
475.501	98.38
475.72	85.38
475.939	90.38
476.158	82.38
476.377	99.38
476.596	105.38
476.814	115.38
477.033	99.38
477.252	85.38
477.471	91.38
477.69	83.38
477.908	97.38
478.127	98.38
478.346	96.38
478.564	94.38
478.783	95.38
479.002	96.38
479.22	92.38
479.439	89.38
479.658	105.38
479.876	104.38
480.095	114.38
480.313	93.38
480.532	122.38
480.751	175.38
480.969	425.38
481.188	1633.38
481.406	883.38
481.624	191.38
481.843	114.38
482.061	101.38
482.28	91.38
482.498	88.38
482.717	81.38
482.935	99.38
483.153	100.38
483.372	90.38
483.59	91.38
483.808	88.38
484.027	91.38
484.245	86.38
484.463	101.38
484.681	83.38
484.9	92.38
485.118	97.38
485.336	98.38
485.554	98.38
485.772	102.38
485.99	107.38
486.209	99.38
486.427	98.38
486.645	119.38
486.863	123.38
487.081	105.38
487.299	107.38
487.517	119.38
487.735	85.38
487.953	89.38
488.171	83.38
488.389	91.38
488.607	103.38
488.825	78.38
489.043	83.38
489.261	103.38
489.479	92.38
489.696	89.38
489.914	92.38
490.132	89.38
490.35	86.38
490.568	91.38
490.786	80.38
491.003	89.38
491.221	96.38
491.439	101.38
491.657	87.38
491.874	95.38
492.092	90.38
492.31	91.38
492.527	113.38
492.745	87.38
492.963	91.38
493.18	98.38
493.398	104.38
493.615	106.38
493.833	116.38
494.05	89.38
494.268	99.38
494.485	78.38
494.703	89.38
494.92	101.38
495.138	95.38
495.355	97.38
495.573	101.38
495.79	91.38
496.008	96.38
496.225	79.38
496.442	91.38
496.66	92.38
496.877	95.38
497.094	91.38
497.312	90.38
497.529	88.38
497.746	99.38
497.963	79.38
498.181	95.38
498.398	88.38
498.615	96.38
498.832	97.38
499.049	92.38
499.267	85.38
499.484	91.38
499.701	93.38
499.918	114.38
500.135	80.38
500.352	104.38
500.569	96.38
500.786	100.38
501.003	95.38
501.22	89.38
501.437	102.38
501.654	83.38
501.871	112.38
502.088	90.38
502.305	91.38
502.522	102.38
502.739	88.38
502.956	87.38
503.172	89.38
503.389	108.38
503.606	106.38
503.823	88.38
504.04	91.38
504.256	106.38
504.473	96.38
504.69	89.38
504.907	92.38
505.123	93.38
505.34	91.38
505.557	106.38
505.773	86.38
505.99	103.38
506.207	95.38
506.423	97.38
506.64	90.38
506.856	90.38
507.073	76.38
507.289	106.38
507.506	85.38
507.722	115.38
507.939	108.38
508.155	103.38
508.372	99.38
508.588	99.38
508.805	89.38
509.021	86.38
509.238	99.38
509.454	101.38
509.67	106.38
509.887	102.38
510.103	121.38
510.319	192.38
510.536	614.38
510.752	1913.38
510.968	525.38
511.184	119.38
511.401	111.38
511.617	108.38
511.833	95.38
512.049	86.38
512.265	87.38
512.481	94.38
512.698	97.38
512.914	97.38
513.13	88.38
513.346	74.38
513.562	92.38
513.778	85.38
