Data from Circ_1989_H10_HRD10591_00058.txt Node
Date: Wed Jan 03 12:01:33 EST 2024
User: Yrep
Spectrometer: HR+D1059
Trigger mode: 1
Integration Time (sec): 1.000000E-1
Scans to average: 1
Electric dark correction enabled: true
Nonlinearity correction enabled: false
Boxcar width: 0
XAxis mode: Wavelengths
Number of Pixels in Spectrum: 2048
>>>>>Begin Spectral Data<<<<<
223.165	-9
223.4	-9
223.635	-9
223.869	-13
224.104	-24
224.338	-9
224.573	-21
224.808	-23
225.042	-6
225.277	9
225.511	-13
225.746	-4
225.98	7
226.215	4
226.449	15
226.683	15
226.918	42
227.152	30
227.387	40
227.621	31
227.856	52
228.09	37
228.324	54
228.559	58
228.793	46
229.027	66
229.262	63
229.496	72
229.73	61
229.964	90
230.199	77
230.433	78
230.667	84
230.901	66
231.136	79
231.37	81
231.604	69
231.838	79
232.072	78
232.306	71
232.541	84
232.775	76
233.009	85
233.243	80
233.477	82
233.711	70
233.945	79
234.179	95
234.413	78
234.647	85
234.881	82
235.115	77
235.349	85
235.583	74
235.817	90
236.051	71
236.285	86
236.519	84
236.753	90
236.987	78
237.221	80
237.455	85
237.689	71
237.922	82
238.156	80
238.39	69
238.624	68
238.858	83
239.091	75
239.325	78
239.559	69
239.793	83
240.027	82
240.26	81
240.494	63
240.728	69
240.961	74
241.195	83
241.429	88
241.662	86
241.896	53
242.13	80
242.363	63
242.597	61
242.83	81
243.064	81
243.298	68
243.531	77
243.765	82
243.998	64
244.232	78
244.465	97
244.699	89
244.932	81
245.166	78
245.399	84
245.633	70
245.866	84
246.099	77
246.333	88
246.566	74
246.8	76
247.033	84
247.266	74
247.5	79
247.733	67
247.966	80
248.2	68
248.433	81
248.666	66
248.899	86
249.133	80
249.366	87
249.599	78
249.832	79
250.066	91
250.299	65
250.532	95
250.765	78
250.998	85
251.231	80
251.465	79
251.698	71
251.931	78
252.164	82
252.397	84
252.63	75
252.863	83
253.096	73
253.329	81
253.562	95
253.795	79
254.028	84
254.261	72
254.494	74
254.727	80
254.96	88
255.193	86
255.426	80
255.659	66
255.892	88
256.124	83
256.357	74
256.59	78
256.823	92
257.056	86
257.289	78
257.521	95
257.754	75
257.987	80
258.22	84
258.452	79
258.685	94
258.918	75
259.151	78
259.383	88
259.616	84
259.849	86
260.081	91
260.314	71
260.547	83
260.779	92
261.012	84
261.244	96
261.477	92
261.71	87
261.942	90
262.175	110
262.407	77
262.64	79
262.872	76
263.105	80
263.337	75
263.57	82
263.802	80
264.035	79
264.267	86
264.499	80
264.732	98
264.964	79
265.197	66
265.429	87
265.661	72
265.894	83
266.126	66
266.358	88
266.591	81
266.823	82
267.055	79
267.287	95
267.52	83
267.752	94
267.984	93
268.216	77
268.448	85
268.681	92
268.913	90
269.145	83
269.377	86
269.609	71
269.841	94
270.073	86
270.306	75
270.538	96
270.77	75
271.002	80
271.234	80
271.466	72
271.698	71
271.93	85
272.162	85
272.394	90
272.626	88
272.858	89
273.09	85
273.322	81
273.553	82
273.785	82
274.017	76
274.249	78
274.481	70
274.713	79
274.945	98
275.176	90
275.408	78
275.64	78
275.872	97
276.104	86
276.335	85
276.567	82
276.799	102
277.031	99
277.262	105
277.494	95
277.726	82
277.957	90
278.189	92
278.421	81
278.652	101
278.884	95
279.115	107
279.347	98
279.579	95
279.81	101
280.042	117
280.273	109
280.505	105
280.736	94
280.968	82
281.199	87
281.431	84
281.662	82
281.894	80
282.125	95
282.356	95
282.588	122
282.819	92
283.051	85
283.282	86
283.513	80
283.745	84
283.976	83
284.207	90
284.439	85
284.67	66
284.901	84
285.132	98
285.364	78
285.595	76
285.826	87
286.057	91
286.288	92
286.52	86
286.751	90
286.982	82
287.213	78
287.444	93
287.675	84
287.906	67
288.138	81
288.369	90
288.6	90
288.831	85
289.062	94
289.293	92
289.524	95
289.755	89
289.986	83
290.217	99
290.448	92
290.679	72
290.91	93
291.141	82
291.371	76
291.602	83
291.833	95
292.064	92
292.295	97
292.526	88
292.757	88
292.987	75
293.218	89
293.449	90
293.68	86
293.91	86
294.141	86
294.372	99
294.603	77
294.833	85
295.064	94
295.295	83
295.525	77
295.756	103
295.987	95
296.217	109
296.448	129
296.679	93
296.909	71
297.14	90
297.37	91
297.601	82
297.831	77
298.062	88
298.292	94
298.523	90
298.753	78
298.984	82
299.214	78
299.445	99
299.675	84
299.905	86
300.136	93
300.366	105
300.597	88
300.827	86
301.057	84
301.288	91
301.518	77
301.748	90
301.979	93
302.209	90
302.439	85
302.669	94
302.9	89
303.13	87
303.36	92
303.59	90
303.82	91
304.051	91
304.281	89
304.511	81
304.741	85
304.971	97
305.201	90
305.431	88
305.661	96
305.891	86
306.121	102
306.352	93
306.582	103
306.812	108
307.042	111
307.272	119
307.502	116
307.731	113
307.961	96
308.191	87
308.421	96
308.651	92
308.881	86
309.111	80
309.341	91
309.571	98
309.8	83
310.03	100
310.26	91
310.49	97
310.72	81
310.949	92
311.179	108
311.409	86
311.639	84
311.868	99
312.098	89
312.328	86
312.557	94
312.787	104
313.017	98
313.246	109
313.476	92
313.706	98
313.935	93
314.165	91
314.394	95
314.624	86
314.853	88
315.083	86
315.312	94
315.542	80
315.771	85
316.001	95
316.23	88
316.46	88
316.689	96
316.919	82
317.148	91
317.377	103
317.607	74
317.836	88
318.065	96
318.295	87
318.524	90
318.753	87
318.983	99
319.212	78
319.441	99
319.67	92
319.9	88
320.129	101
320.358	97
320.587	78
320.816	88
321.046	94
321.275	84
321.504	114
321.733	83
321.962	95
322.191	95
322.42	106
322.649	99
322.878	100
323.108	112
323.337	111
323.566	118
323.795	134
324.024	174
324.253	301
324.482	598
324.71	1194
324.939	1601
325.168	612
325.397	206
325.626	146
325.855	107
326.084	122
326.313	117
326.542	140
326.77	186
326.999	347
327.228	682
327.457	1258
327.686	1021
327.914	326
328.143	250
328.372	264
328.6	193
328.829	125
329.058	119
329.287	132
329.515	114
329.744	136
329.972	204
330.201	374
330.43	483
330.658	263
330.887	140
331.115	122
331.344	109
331.572	95
331.801	92
332.03	102
332.258	96
332.486	93
332.715	103
332.943	93
333.172	92
333.4	113
333.629	116
333.857	130
334.085	188
334.314	355
334.542	637
334.771	580
334.999	197
335.227	104
335.455	99
335.684	106
335.912	82
336.14	109
336.369	90
336.597	95
336.825	94
337.053	100
337.281	88
337.51	91
337.738	88
337.966	87
338.194	117
338.422	85
338.65	86
338.878	96
339.106	90
339.334	79
339.562	89
339.79	91
340.018	91
340.246	88
340.474	78
340.702	87
340.93	86
341.158	83
341.386	96
341.614	78
341.842	96
342.07	77
342.298	88
342.526	86
342.754	91
342.981	98
343.209	93
343.437	109
343.665	91
343.893	96
344.12	92
344.348	86
344.576	90
344.804	109
345.031	102
345.259	74
345.487	77
345.714	101
345.942	88
346.17	83
346.397	104
346.625	87
346.853	81
347.08	95
347.308	83
347.535	97
347.763	101
347.99	111
348.218	98
348.445	82
348.673	102
348.9	87
349.128	87
349.355	98
349.583	84
349.81	86
350.037	84
350.265	100
350.492	101
350.72	94
350.947	94
351.174	86
351.402	98
351.629	92
351.856	95
352.083	94
352.311	100
352.538	94
352.765	87
352.992	105
353.22	96
353.447	94
353.674	99
353.901	110
354.128	92
354.355	101
354.583	99
354.81	98
355.037	108
355.264	87
355.491	84
355.718	78
355.945	93
356.172	95
356.399	93
356.626	88
356.853	101
357.08	94
357.307	102
357.534	103
357.761	76
357.988	82
358.215	92
358.441	86
358.668	85
358.895	83
359.122	97
359.349	80
359.576	82
359.802	92
360.029	107
360.256	103
360.483	105
360.709	90
360.936	76
361.163	79
361.39	85
361.616	88
361.843	88
362.07	83
362.296	85
362.523	88
362.749	94
362.976	98
363.203	103
363.429	87
363.656	75
363.882	80
364.109	87
364.335	91
364.562	100
364.788	94
365.015	94
365.241	81
365.468	97
365.694	86
365.92	91
366.147	90
366.373	77
366.599	84
366.826	84
367.052	79
367.278	97
367.505	90
367.731	94
367.957	93
368.184	100
368.41	102
368.636	94
368.862	115
369.089	101
369.315	95
369.541	102
369.767	92
369.993	81
370.219	79
370.445	91
370.672	80
370.898	85
371.124	90
371.35	102
371.576	91
371.802	85
372.028	92
372.254	99
372.48	91
372.706	93
372.932	90
373.158	82
373.384	74
373.61	89
373.835	94
374.061	87
374.287	98
374.513	86
374.739	80
374.965	86
375.191	87
375.416	90
375.642	88
375.868	88
376.094	82
376.319	90
376.545	103
376.771	98
376.997	80
377.222	77
377.448	91
377.674	101
377.899	77
378.125	90
378.35	89
378.576	85
378.802	96
379.027	87
379.253	99
379.478	74
379.704	87
379.929	88
380.155	94
380.38	86
380.606	78
380.831	98
381.057	93
381.282	82
381.507	91
381.733	87
381.958	90
382.184	90
382.409	86
382.634	99
382.86	93
383.085	92
383.31	88
383.535	101
383.761	90
383.986	102
384.211	90
384.436	104
384.662	98
384.887	97
385.112	104
385.337	86
385.562	99
385.787	99
386.013	95
386.238	99
386.463	105
386.688	102
386.913	106
387.138	106
387.363	87
387.588	98
387.813	106
388.038	117
388.263	108
388.488	98
388.713	97
388.938	90
389.163	90
389.387	88
389.612	97
389.837	103
390.062	84
390.287	81
390.512	75
390.736	89
390.961	66
391.186	84
391.411	89
391.636	94
391.86	87
392.085	67
392.31	78
392.534	91
392.759	91
392.984	81
393.208	91
393.433	94
393.658	94
393.882	86
394.107	85
394.331	76
394.556	82
394.78	93
395.005	75
395.229	87
395.454	85
395.678	83
395.903	94
396.127	98
396.352	89
396.576	87
396.801	92
397.025	84
397.249	80
397.474	99
397.698	95
397.922	88
398.147	95
398.371	89
398.595	86
398.82	78
399.044	75
399.268	87
399.492	76
399.717	96
399.941	83
400.165	101
400.389	91
400.613	93
400.837	87
401.062	68
401.286	90
401.51	88
401.734	86
401.958	99
402.182	114
402.406	138
402.63	111
402.854	90
403.078	93
403.302	85
403.526	77
403.75	84
403.974	78
404.198	79
404.422	72
404.645	88
404.869	90
405.093	98
405.317	109
405.541	101
405.765	104
405.988	116
406.212	138
406.436	181
406.66	124
406.883	95
407.107	88
407.331	82
407.555	101
407.778	98
408.002	87
408.226	91
408.449	92
408.673	76
408.896	87
409.12	95
409.344	89
409.567	83
409.791	80
410.014	74
410.238	94
410.461	86
410.685	84
410.908	85
411.132	79
411.355	98
411.578	86
411.802	98
412.025	91
412.249	94
412.472	90
412.695	86
412.919	100
413.142	84
413.365	80
413.589	78
413.812	78
414.035	89
414.258	86
414.482	100
414.705	86
414.928	100
415.151	88
415.374	88
415.597	75
415.821	94
416.044	87
416.267	92
416.49	93
416.713	85
416.936	77
417.159	90
417.382	90
417.605	100
417.828	104
418.051	66
418.274	83
418.497	86
418.72	91
418.943	74
419.166	90
419.389	88
419.611	84
419.834	84
420.057	90
420.28	85
420.503	92
420.726	86
420.948	85
421.171	96
421.394	102
421.617	92
421.839	92
422.062	75
422.285	88
422.507	96
422.73	92
422.953	89
423.175	84
423.398	87
423.621	89
423.843	88
424.066	88
424.288	89
424.511	86
424.733	77
424.956	106
425.178	87
425.401	83
425.623	98
425.846	78
426.068	92
426.291	93
426.513	91
426.735	82
426.958	92
427.18	97
427.402	122
427.625	148
427.847	151
428.069	139
428.292	89
428.514	81
428.736	82
428.958	81
429.181	78
429.403	70
429.625	87
429.847	90
430.069	100
430.292	72
430.514	82
430.736	86
430.958	92
431.18	78
431.402	86
431.624	87
431.846	80
432.068	77
432.29	70
432.512	81
432.734	100
432.956	87
433.178	99
433.4	86
433.622	84
433.844	80
434.066	91
434.287	80
434.509	81
434.731	101
434.953	93
435.175	81
435.397	98
435.618	107
435.84	98
436.062	102
436.284	109
436.505	99
436.727	90
436.949	78
437.17	92
437.392	83
437.614	93
437.835	83
438.057	93
438.278	105
438.5	95
438.721	107
438.943	94
439.165	88
439.386	91
439.608	86
439.829	106
440.05	104
440.272	118
440.493	72
440.715	84
440.936	83
441.158	90
441.379	93
441.6	90
441.822	97
442.043	83
442.264	77
442.486	98
442.707	71
442.928	112
443.149	119
443.371	114
443.592	96
443.813	87
444.034	94
444.255	84
444.476	89
444.698	84
444.919	79
445.14	109
445.361	102
445.582	100
445.803	135
446.024	106
446.245	111
446.466	99
446.687	103
446.908	83
447.129	90
447.35	82
447.571	87
447.792	90
448.013	96
448.234	90
448.455	87
448.675	90
448.896	106
449.117	99
449.338	88
449.559	107
449.779	110
450	90
450.221	81
450.442	83
450.662	97
450.883	101
451.104	101
451.324	93
451.545	102
451.766	64
451.986	72
452.207	87
452.428	79
452.648	98
452.869	94
453.089	102
453.31	106
453.53	85
453.751	80
453.971	91
454.192	100
454.412	88
454.633	83
454.853	76
455.073	84
455.294	101
455.514	99
455.734	96
455.955	84
456.175	89
456.395	73
456.616	78
456.836	90
457.056	73
457.276	94
457.497	63
457.717	87
457.937	89
458.157	84
458.377	87
458.598	99
458.818	127
459.038	133
459.258	111
459.478	75
459.698	80
459.918	78
460.138	87
460.358	83
460.578	87
460.798	89
461.018	93
461.238	76
461.458	93
461.678	87
461.898	92
462.118	69
462.338	83
462.558	89
462.777	83
462.997	87
463.217	78
463.437	88
463.657	83
463.876	95
464.096	83
464.316	100
464.536	80
464.755	90
464.975	94
465.195	132
465.414	132
465.634	88
465.854	82
466.073	92
466.293	79
466.512	84
466.732	76
466.951	78
467.171	91
467.391	78
467.61	110
467.829	115
468.049	215
468.268	295
468.488	118
468.707	91
468.927	102
469.146	87
469.365	94
469.585	87
469.804	74
470.023	94
470.243	97
470.462	96
470.681	100
470.901	89
471.12	86
471.339	94
471.558	78
471.777	100
471.997	144
472.216	461
472.435	883
472.654	252
472.873	110
473.092	92
473.311	88
473.53	85
473.749	84
473.968	88
474.187	91
474.406	81
474.625	77
474.844	92
475.063	79
475.282	74
475.501	85
475.72	91
475.939	89
476.158	91
476.377	90
476.596	88
476.814	97
477.033	85
477.252	83
477.471	80
477.69	79
477.908	83
478.127	92
478.346	86
478.564	94
478.783	77
479.002	90
479.22	103
479.439	102
479.658	87
479.876	81
480.095	97
480.313	109
480.532	127
480.751	145
480.969	418
481.188	1548
481.406	899
481.624	166
481.843	110
482.061	86
482.28	79
482.498	100
482.717	95
482.935	91
483.153	95
483.372	88
483.59	69
483.808	82
484.027	92
484.245	85
484.463	97
484.681	98
484.9	98
485.118	91
485.336	74
485.554	98
485.772	107
485.99	94
486.209	98
486.427	86
486.645	107
486.863	95
487.081	87
487.299	90
487.517	80
487.735	92
487.953	93
488.171	83
488.389	95
488.607	90
488.825	70
489.043	92
489.261	95
489.479	80
489.696	94
489.914	88
490.132	71
490.35	83
490.568	66
490.786	79
491.003	87
491.221	93
491.439	90
491.657	83
491.874	92
492.092	83
492.31	82
492.527	75
492.745	87
492.963	95
493.18	94
493.398	99
493.615	98
493.833	101
494.05	87
494.268	95
494.485	80
494.703	91
494.92	101
495.138	90
495.355	100
495.573	83
495.79	80
496.008	99
496.225	84
496.442	93
496.66	89
496.877	82
497.094	90
497.312	93
497.529	91
497.746	82
497.963	80
498.181	91
498.398	95
498.615	104
498.832	98
499.049	90
499.267	102
499.484	91
499.701	87
499.918	98
500.135	74
500.352	85
500.569	92
500.786	90
501.003	86
501.22	87
501.437	92
501.654	111
501.871	88
502.088	90
502.305	97
502.522	79
502.739	85
502.956	92
503.172	96
503.389	94
503.606	92
503.823	96
504.04	85
504.256	83
504.473	86
504.69	83
504.907	79
505.123	79
505.34	91
505.557	91
505.773	90
505.99	93
506.207	85
506.423	82
506.64	77
506.856	92
507.073	96
507.289	96
507.506	91
507.722	87
507.939	104
508.155	99
508.372	101
508.588	101
508.805	108
509.021	83
509.238	100
509.454	86
509.67	92
509.887	101
510.103	106
510.319	163
510.536	542
510.752	1635
510.968	462
511.184	132
511.401	104
511.617	93
511.833	78
512.049	92
512.265	85
512.481	90
512.698	82
512.914	86
513.13	93
513.346	96
513.562	84
513.778	86
513.994	99
514.21	92
514.426	116
514.642	125
514.858	102
515.074	134
515.29	306
515.506	994
515.721	381
515.937	114
516.153	105
516.369	90
516.585	93
516.801	87
517.016	90
517.232	88
517.448	96
517.664	101
517.879	114
518.095	90
518.311	87
518.527	81
518.742	95
518.958	95
519.173	75
519.389	75
519.605	90
519.82	100
520.036	97
520.251	106
520.467	99
520.682	78
520.898	114
521.113	115
521.329	125
521.544	150
521.76	398
521.975	1638
522.19	1010
522.406	234
522.621	109
522.836	95
523.052	91
523.267	95
523.482	84
523.698	96
523.913	110
524.128	84
524.343	91
524.559	81
524.774	95
524.989	94
525.204	91
525.419	101
525.634	97
525.849	86
526.064	82
526.28	95
526.495	93
526.71	101
526.925	94
527.14	94
527.355	78
527.57	93
527.785	67
527.999	82
528.214	82
528.429	90
528.644	92
528.859	92
529.074	92
529.289	108
529.503	140
529.718	91
529.933	78
530.148	95
530.363	89
530.577	84
530.792	87
531.007	96
531.221	91
531.436	82
531.651	78
531.865	78
532.08	82
532.295	91
532.509	88
532.724	88
532.938	87
533.153	85
533.367	99
533.582	84
533.796	86
534.011	85
534.225	79
534.44	75
534.654	88
534.868	85
535.083	82
535.297	103
535.511	84
535.726	93
535.94	94
536.154	92
536.369	94
536.583	86
536.797	101
537.011	86
537.225	84
537.44	96
537.654	86
537.868	88
538.082	85
538.296	94
538.51	94
538.724	90
538.938	84
539.153	91
539.367	95
539.581	85
539.795	91
540.009	92
540.222	81
540.436	75
540.65	88
540.864	85
541.078	82
541.292	89
541.506	81
541.72	86
541.934	97
542.147	90
542.361	101
542.575	98
542.789	79
543.002	81
543.216	101
543.43	87
543.644	91
543.857	96
544.071	94
544.285	104
544.498	85
544.712	92
544.925	72
545.139	86
545.352	94
545.566	77
545.779	69
545.993	91
546.206	88
546.42	97
546.633	85
546.847	92
547.06	78
547.274	99
547.487	86
547.7	86
547.914	66
548.127	92
548.34	78
548.554	90
548.767	91
548.98	87
549.193	97
549.407	86
549.62	95
549.833	88
550.046	92
550.259	93
550.473	92
550.686	87
550.899	96
551.112	83
551.325	79
551.538	95
551.751	90
551.964	84
552.177	97
552.39	96
552.603	86
552.816	81
553.029	75
553.242	92
553.455	94
553.667	106
553.88	87
554.093	96
554.306	94
554.519	87
554.732	83
554.944	86
555.157	86
555.37	95
555.583	91
555.795	85
556.008	87
556.221	79
556.433	85
556.646	92
556.859	88
557.071	97
557.284	91
557.496	66
557.709	88
557.921	99
558.134	82
558.346	82
558.559	93
558.771	78
558.984	72
559.196	94
559.409	87
559.621	84
559.833	70
560.046	85
560.258	85
560.47	94
560.683	87
560.895	90
561.107	92
561.32	86
561.532	87
561.744	89
561.956	104
562.168	82
562.381	85
562.593	83
562.805	80
563.017	98
563.229	95
563.441	78
563.653	96
563.865	83
564.077	88
564.289	77
564.501	84
564.713	90
564.925	102
565.137	105
565.349	94
565.561	90
565.773	88
565.985	88
566.197	85
566.408	98
566.62	82
566.832	89
567.044	110
567.255	82
567.467	91
567.679	90
567.891	88
568.102	87
568.314	90
568.526	83
568.737	87
568.949	91
569.161	99
569.372	78
569.584	79
569.795	97
570.007	94
570.218	187
570.43	110
570.641	76
570.853	87
571.064	102
571.276	89
571.487	91
571.698	83
571.91	99
572.121	89
572.333	90
572.544	83
572.755	81
572.966	85
573.178	80
573.389	85
573.6	86
573.811	75
574.023	87
574.234	92
574.445	100
574.656	96
574.867	81
575.078	80
575.289	103
575.501	92
575.712	92
575.923	70
576.134	97
576.345	95
576.556	98
576.767	95
576.978	97
577.188	80
577.399	90
577.61	84
577.821	96
578.032	114
578.243	222
578.454	498
578.665	153
578.875	80
579.086	91
579.297	91
579.508	74
579.718	90
579.929	93
580.14	75
580.35	84
580.561	80
580.772	88
580.982	84
581.193	86
581.403	78
581.614	85
581.825	76
582.035	77
582.246	82
582.456	92
582.667	81
582.877	85
583.087	83
583.298	84
583.508	86
583.719	82
583.929	92
584.139	84
584.35	95
584.56	87
584.77	84
584.981	87
585.191	79
585.401	84
585.611	82
585.821	93
586.032	83
