Data from Circ_1989_H10_HRD10591_00057.txt Node
Date: Wed Jan 03 12:01:33 EST 2024
User: Yrep
Spectrometer: HR+D1059
Trigger mode: 1
Integration Time (sec): 1.000000E-1
Scans to average: 1
Electric dark correction enabled: true
Nonlinearity correction enabled: false
Boxcar width: 0
XAxis mode: Wavelengths
Number of Pixels in Spectrum: 2048
>>>>>Begin Spectral Data<<<<<
223.165	-27.81
223.4	-27.81
223.635	-27.81
223.869	-6.81
224.104	-9.81
224.338	-24.81
224.573	-11.81
224.808	-13.81
225.042	-7.81
225.277	-15.81
225.511	-20.81
225.746	4.19
225.98	24.19
226.215	18.19
226.449	22.19
226.683	12.19
226.918	28.19
227.152	30.19
227.387	42.19
227.621	40.19
227.856	35.19
228.09	53.19
228.324	57.19
228.559	57.19
228.793	62.19
229.027	62.19
229.262	69.19
229.496	67.19
229.73	80.19
229.964	82.19
230.199	76.19
230.433	80.19
230.667	74.19
230.901	82.19
231.136	76.19
231.37	86.19
231.604	83.19
231.838	73.19
232.072	78.19
232.306	74.19
232.541	90.19
232.775	82.19
233.009	82.19
233.243	82.19
233.477	72.19
233.711	78.19
233.945	71.19
234.179	85.19
234.413	84.19
234.647	74.19
234.881	80.19
235.115	81.19
235.349	86.19
235.583	94.19
235.817	80.19
236.051	75.19
236.285	73.19
236.519	65.19
236.753	78.19
236.987	97.19
237.221	94.19
237.455	65.19
237.689	74.19
237.922	83.19
238.156	88.19
238.39	80.19
238.624	73.19
238.858	86.19
239.091	94.19
239.325	90.19
239.559	84.19
239.793	75.19
240.027	84.19
240.26	84.19
240.494	78.19
240.728	70.19
240.961	80.19
241.195	83.19
241.429	95.19
241.662	63.19
241.896	93.19
242.13	78.19
242.363	57.19
242.597	82.19
242.83	84.19
243.064	65.19
243.298	80.19
243.531	77.19
243.765	66.19
243.998	80.19
244.232	83.19
244.465	87.19
244.699	71.19
244.932	71.19
245.166	64.19
245.399	81.19
245.633	82.19
245.866	68.19
246.099	71.19
246.333	86.19
246.566	83.19
246.8	79.19
247.033	74.19
247.266	86.19
247.5	89.19
247.733	74.19
247.966	84.19
248.2	74.19
248.433	86.19
248.666	85.19
248.899	83.19
249.133	78.19
249.366	103.19
249.599	100.19
249.832	82.19
250.066	84.19
250.299	80.19
250.532	88.19
250.765	80.19
250.998	72.19
251.231	75.19
251.465	78.19
251.698	72.19
251.931	88.19
252.164	79.19
252.397	91.19
252.63	90.19
252.863	79.19
253.096	72.19
253.329	97.19
253.562	71.19
253.795	69.19
254.028	100.19
254.261	88.19
254.494	74.19
254.727	88.19
254.96	75.19
255.193	83.19
255.426	79.19
255.659	74.19
255.892	88.19
256.124	88.19
256.357	88.19
256.59	92.19
256.823	96.19
257.056	74.19
257.289	83.19
257.521	75.19
257.754	80.19
257.987	82.19
258.22	88.19
258.452	91.19
258.685	91.19
258.918	79.19
259.151	84.19
259.383	76.19
259.616	83.19
259.849	82.19
260.081	86.19
260.314	98.19
260.547	87.19
260.779	76.19
261.012	94.19
261.244	85.19
261.477	101.19
261.71	91.19
261.942	109.19
262.175	94.19
262.407	87.19
262.64	87.19
262.872	85.19
263.105	100.19
263.337	91.19
263.57	82.19
263.802	87.19
264.035	82.19
264.267	92.19
264.499	98.19
264.732	92.19
264.964	57.19
265.197	96.19
265.429	89.19
265.661	81.19
265.894	78.19
266.126	83.19
266.358	74.19
266.591	81.19
266.823	91.19
267.055	87.19
267.287	94.19
267.52	81.19
267.752	84.19
267.984	100.19
268.216	86.19
268.448	78.19
268.681	79.19
268.913	81.19
269.145	82.19
269.377	80.19
269.609	84.19
269.841	90.19
270.073	101.19
270.306	87.19
270.538	100.19
270.77	84.19
271.002	98.19
271.234	95.19
271.466	98.19
271.698	98.19
271.93	82.19
272.162	88.19
272.394	90.19
272.626	85.19
272.858	80.19
273.09	82.19
273.322	90.19
273.553	101.19
273.785	95.19
274.017	82.19
274.249	95.19
274.481	99.19
274.713	86.19
274.945	86.19
275.176	78.19
275.408	74.19
275.64	82.19
275.872	97.19
276.104	95.19
276.335	79.19
276.567	103.19
276.799	104.19
277.031	106.19
277.262	118.19
277.494	105.19
277.726	86.19
277.957	84.19
278.189	88.19
278.421	82.19
278.652	89.19
278.884	91.19
279.115	90.19
279.347	74.19
279.579	88.19
279.81	105.19
280.042	116.19
280.273	136.19
280.505	111.19
280.736	92.19
280.968	90.19
281.199	81.19
281.431	89.19
281.662	90.19
281.894	91.19
282.125	99.19
282.356	102.19
282.588	129.19
282.819	124.19
283.051	78.19
283.282	90.19
283.513	90.19
283.745	93.19
283.976	87.19
284.207	89.19
284.439	90.19
284.67	92.19
284.901	91.19
285.132	100.19
285.364	88.19
285.595	72.19
285.826	81.19
286.057	95.19
286.288	91.19
286.52	80.19
286.751	87.19
286.982	90.19
287.213	92.19
287.444	83.19
287.675	94.19
287.906	84.19
288.138	96.19
288.369	80.19
288.6	91.19
288.831	79.19
289.062	96.19
289.293	101.19
289.524	92.19
289.755	98.19
289.986	99.19
290.217	82.19
290.448	96.19
290.679	96.19
290.91	83.19
291.141	80.19
291.371	76.19
291.602	86.19
291.833	85.19
292.064	101.19
292.295	85.19
292.526	83.19
292.757	95.19
292.987	84.19
293.218	82.19
293.449	97.19
293.68	85.19
293.91	91.19
294.141	91.19
294.372	90.19
294.603	90.19
294.833	80.19
295.064	97.19
295.295	84.19
295.525	91.19
295.756	111.19
295.987	101.19
296.217	122.19
296.448	105.19
296.679	90.19
296.909	98.19
297.14	96.19
297.37	90.19
297.601	84.19
297.831	91.19
298.062	97.19
298.292	93.19
298.523	84.19
298.753	78.19
298.984	94.19
299.214	105.19
299.445	86.19
299.675	93.19
299.905	95.19
300.136	91.19
300.366	96.19
300.597	96.19
300.827	88.19
301.057	90.19
301.288	108.19
301.518	85.19
301.748	88.19
301.979	109.19
302.209	85.19
302.439	96.19
302.669	95.19
302.9	88.19
303.13	94.19
303.36	102.19
303.59	103.19
303.82	116.19
304.051	108.19
304.281	96.19
304.511	85.19
304.741	90.19
304.971	90.19
305.201	76.19
305.431	81.19
305.661	92.19
305.891	99.19
306.121	88.19
306.352	102.19
306.582	94.19
306.812	90.19
307.042	87.19
307.272	121.19
307.502	131.19
307.731	139.19
307.961	121.19
308.191	99.19
308.421	98.19
308.651	103.19
308.881	104.19
309.111	94.19
309.341	105.19
309.571	93.19
309.8	86.19
310.03	98.19
310.26	97.19
310.49	89.19
310.72	109.19
310.949	106.19
311.179	88.19
311.409	86.19
311.639	95.19
311.868	91.19
312.098	110.19
312.328	101.19
312.557	99.19
312.787	91.19
313.017	108.19
313.246	93.19
313.476	101.19
313.706	103.19
313.935	93.19
314.165	89.19
314.394	113.19
314.624	96.19
314.853	96.19
315.083	93.19
315.312	96.19
315.542	100.19
315.771	98.19
316.001	98.19
316.23	95.19
316.46	97.19
316.689	89.19
316.919	94.19
317.148	86.19
317.377	96.19
317.607	98.19
317.836	102.19
318.065	99.19
318.295	93.19
318.524	96.19
318.753	89.19
318.983	94.19
319.212	101.19
319.441	103.19
319.67	91.19
319.9	87.19
320.129	103.19
320.358	74.19
320.587	101.19
320.816	103.19
321.046	83.19
321.275	99.19
321.504	92.19
321.733	105.19
321.962	109.19
322.191	99.19
322.42	108.19
322.649	111.19
322.878	92.19
323.108	95.19
323.337	112.19
323.566	131.19
323.795	138.19
324.024	175.19
324.253	317.19
324.482	652.19
324.71	1333.19
324.939	1806.19
325.168	657.19
325.397	206.19
325.626	142.19
325.855	126.19
326.084	106.19
326.313	133.19
326.542	131.19
326.77	190.19
326.999	372.19
327.228	755.19
327.457	1386.19
327.686	1124.19
327.914	369.19
328.143	268.19
328.372	290.19
328.6	194.19
328.829	126.19
329.058	128.19
329.287	148.19
329.515	113.19
329.744	136.19
329.972	229.19
330.201	389.19
330.43	550.19
330.658	274.19
330.887	169.19
331.115	132.19
331.344	106.19
331.572	107.19
331.801	126.19
332.03	116.19
332.258	99.19
332.486	108.19
332.715	113.19
332.943	95.19
333.172	111.19
333.4	95.19
333.629	114.19
333.857	137.19
334.085	219.19
334.314	384.19
334.542	702.19
334.771	679.19
334.999	216.19
335.227	134.19
335.455	110.19
335.684	99.19
335.912	109.19
336.14	101.19
336.369	94.19
336.597	96.19
336.825	95.19
337.053	104.19
337.281	90.19
337.51	84.19
337.738	75.19
337.966	92.19
338.194	102.19
338.422	98.19
338.65	102.19
338.878	91.19
339.106	99.19
339.334	99.19
339.562	95.19
339.79	84.19
340.018	88.19
340.246	107.19
340.474	100.19
340.702	74.19
340.93	103.19
341.158	103.19
341.386	99.19
341.614	92.19
341.842	92.19
342.07	92.19
342.298	106.19
342.526	82.19
342.754	96.19
342.981	107.19
343.209	87.19
343.437	100.19
343.665	98.19
343.893	88.19
344.12	102.19
344.348	87.19
344.576	95.19
344.804	100.19
345.031	89.19
345.259	96.19
345.487	88.19
345.714	106.19
345.942	86.19
346.17	94.19
346.397	107.19
346.625	104.19
346.853	84.19
347.08	93.19
347.308	89.19
347.535	98.19
347.763	90.19
347.99	98.19
348.218	107.19
348.445	94.19
348.673	113.19
348.9	88.19
349.128	92.19
349.355	100.19
349.583	87.19
349.81	106.19
350.037	92.19
350.265	98.19
350.492	110.19
350.72	104.19
350.947	105.19
351.174	109.19
351.402	92.19
351.629	92.19
351.856	105.19
352.083	91.19
352.311	106.19
352.538	112.19
352.765	114.19
352.992	110.19
353.22	108.19
353.447	103.19
353.674	86.19
353.901	96.19
354.128	96.19
354.355	115.19
354.583	103.19
354.81	102.19
355.037	109.19
355.264	105.19
355.491	88.19
355.718	80.19
355.945	93.19
356.172	90.19
356.399	98.19
356.626	94.19
356.853	88.19
357.08	95.19
357.307	96.19
357.534	85.19
357.761	80.19
357.988	99.19
358.215	90.19
358.441	99.19
358.668	90.19
358.895	92.19
359.122	92.19
359.349	88.19
359.576	101.19
359.802	101.19
360.029	107.19
360.256	89.19
360.483	97.19
360.709	99.19
360.936	95.19
361.163	92.19
361.39	99.19
361.616	98.19
361.843	86.19
362.07	82.19
362.296	85.19
362.523	86.19
362.749	95.19
362.976	98.19
363.203	96.19
363.429	83.19
363.656	97.19
363.882	82.19
364.109	93.19
364.335	94.19
364.562	88.19
364.788	96.19
365.015	106.19
365.241	98.19
365.468	90.19
365.694	98.19
365.92	86.19
366.147	92.19
366.373	87.19
366.599	83.19
366.826	94.19
367.052	98.19
367.278	89.19
367.505	96.19
367.731	80.19
367.957	85.19
368.184	93.19
368.41	93.19
368.636	113.19
368.862	108.19
369.089	85.19
369.315	95.19
369.541	99.19
369.767	90.19
369.993	96.19
370.219	104.19
370.445	107.19
370.672	94.19
370.898	70.19
371.124	89.19
371.35	100.19
371.576	82.19
371.802	75.19
372.028	99.19
372.254	103.19
372.48	99.19
372.706	98.19
372.932	94.19
373.158	93.19
373.384	85.19
373.61	81.19
373.835	91.19
374.061	85.19
374.287	108.19
374.513	92.19
374.739	75.19
374.965	97.19
375.191	88.19
375.416	97.19
375.642	89.19
375.868	104.19
376.094	91.19
376.319	97.19
376.545	95.19
376.771	89.19
376.997	99.19
377.222	92.19
377.448	82.19
377.674	80.19
377.899	90.19
378.125	98.19
378.35	98.19
378.576	108.19
378.802	100.19
379.027	92.19
379.253	96.19
379.478	97.19
379.704	80.19
379.929	83.19
380.155	102.19
380.38	103.19
380.606	98.19
380.831	101.19
381.057	87.19
381.282	90.19
381.507	98.19
381.733	105.19
381.958	90.19
382.184	101.19
382.409	102.19
382.634	108.19
382.86	105.19
383.085	105.19
383.31	94.19
383.535	98.19
383.761	97.19
383.986	109.19
384.211	104.19
384.436	109.19
384.662	84.19
384.887	100.19
385.112	114.19
385.337	98.19
385.562	106.19
385.787	100.19
386.013	111.19
386.238	101.19
386.463	103.19
386.688	112.19
386.913	107.19
387.138	112.19
387.363	94.19
387.588	102.19
387.813	99.19
388.038	108.19
388.263	112.19
388.488	99.19
388.713	92.19
388.938	96.19
389.163	100.19
389.387	100.19
389.612	102.19
389.837	88.19
390.062	100.19
390.287	100.19
390.512	93.19
390.736	94.19
390.961	98.19
391.186	90.19
391.411	87.19
391.636	84.19
391.86	90.19
392.085	91.19
392.31	88.19
392.534	81.19
392.759	97.19
392.984	81.19
393.208	90.19
393.433	89.19
393.658	102.19
393.882	96.19
394.107	91.19
394.331	70.19
394.556	91.19
394.78	88.19
395.005	84.19
395.229	88.19
395.454	79.19
395.678	94.19
395.903	81.19
396.127	85.19
396.352	69.19
396.576	86.19
396.801	89.19
397.025	80.19
397.249	100.19
397.474	84.19
397.698	90.19
397.922	74.19
398.147	84.19
398.371	91.19
398.595	95.19
398.82	89.19
399.044	86.19
399.268	90.19
399.492	86.19
399.717	90.19
399.941	90.19
400.165	101.19
400.389	101.19
400.613	91.19
400.837	94.19
401.062	89.19
401.286	99.19
401.51	79.19
401.734	91.19
401.958	97.19
402.182	97.19
402.406	134.19
402.63	101.19
402.854	100.19
403.078	73.19
403.302	86.19
403.526	96.19
403.75	96.19
403.974	91.19
404.198	90.19
404.422	106.19
404.645	107.19
404.869	85.19
405.093	99.19
405.317	98.19
405.541	117.19
405.765	101.19
405.988	105.19
406.212	151.19
406.436	185.19
406.66	135.19
406.883	95.19
407.107	97.19
407.331	109.19
407.555	86.19
407.778	94.19
408.002	93.19
408.226	93.19
408.449	96.19
408.673	91.19
408.896	98.19
409.12	78.19
409.344	97.19
409.567	81.19
409.791	98.19
410.014	102.19
410.238	90.19
410.461	90.19
410.685	109.19
410.908	94.19
411.132	111.19
411.355	103.19
411.578	107.19
411.802	87.19
412.025	93.19
412.249	90.19
412.472	107.19
412.695	115.19
412.919	101.19
413.142	92.19
413.365	90.19
413.589	98.19
413.812	95.19
414.035	109.19
414.258	86.19
414.482	84.19
414.705	77.19
414.928	88.19
415.151	88.19
415.374	100.19
415.597	91.19
415.821	81.19
416.044	89.19
416.267	88.19
416.49	98.19
416.713	98.19
416.936	86.19
417.159	78.19
417.382	86.19
417.605	97.19
417.828	98.19
418.051	98.19
418.274	101.19
418.497	85.19
418.72	80.19
418.943	94.19
419.166	73.19
419.389	91.19
419.611	90.19
419.834	90.19
420.057	95.19
420.28	88.19
420.503	83.19
420.726	94.19
420.948	83.19
421.171	99.19
421.394	72.19
421.617	79.19
421.839	92.19
422.062	89.19
422.285	88.19
422.507	92.19
422.73	98.19
422.953	74.19
423.175	93.19
423.398	94.19
423.621	97.19
423.843	90.19
424.066	88.19
424.288	81.19
424.511	106.19
424.733	91.19
424.956	104.19
425.178	96.19
425.401	102.19
425.623	103.19
425.846	89.19
426.068	89.19
426.291	94.19
426.513	94.19
426.735	90.19
426.958	95.19
427.18	107.19
427.402	127.19
427.625	146.19
427.847	167.19
428.069	155.19
428.292	97.19
428.514	91.19
428.736	80.19
428.958	80.19
429.181	76.19
429.403	82.19
429.625	82.19
429.847	83.19
430.069	93.19
430.292	73.19
430.514	80.19
430.736	84.19
430.958	98.19
431.18	93.19
431.402	76.19
431.624	82.19
431.846	86.19
432.068	82.19
432.29	96.19
432.512	89.19
432.734	81.19
432.956	90.19
433.178	84.19
433.4	85.19
433.622	86.19
433.844	100.19
434.066	91.19
434.287	97.19
434.509	93.19
434.731	94.19
434.953	84.19
435.175	104.19
435.397	91.19
435.618	91.19
435.84	97.19
436.062	124.19
436.284	106.19
436.505	86.19
436.727	90.19
436.949	84.19
437.17	85.19
437.392	85.19
437.614	92.19
437.835	121.19
438.057	114.19
438.278	107.19
438.5	110.19
438.721	117.19
438.943	104.19
439.165	89.19
439.386	102.19
439.608	79.19
439.829	95.19
440.05	120.19
440.272	136.19
440.493	100.19
440.715	97.19
440.936	95.19
441.158	104.19
441.379	96.19
441.6	90.19
441.822	91.19
442.043	88.19
442.264	99.19
442.486	92.19
442.707	99.19
442.928	114.19
443.149	115.19
443.371	119.19
443.592	88.19
443.813	96.19
444.034	90.19
444.255	93.19
444.476	93.19
444.698	82.19
444.919	97.19
445.14	114.19
445.361	117.19
445.582	109.19
445.803	134.19
446.024	123.19
446.245	128.19
446.466	107.19
446.687	92.19
446.908	97.19
447.129	86.19
447.35	91.19
447.571	91.19
447.792	87.19
448.013	98.19
448.234	84.19
448.455	102.19
448.675	107.19
448.896	108.19
449.117	106.19
449.338	96.19
449.559	118.19
449.779	128.19
450	102.19
450.221	81.19
450.442	88.19
450.662	101.19
450.883	103.19
451.104	97.19
451.324	96.19
451.545	88.19
451.766	92.19
451.986	75.19
452.207	92.19
452.428	92.19
452.648	96.19
452.869	115.19
453.089	96.19
453.31	112.19
453.53	90.19
453.751	84.19
453.971	96.19
454.192	112.19
454.412	96.19
454.633	83.19
454.853	82.19
455.073	85.19
455.294	85.19
455.514	76.19
455.734	97.19
455.955	91.19
456.175	88.19
456.395	103.19
456.616	89.19
456.836	98.19
457.056	93.19
457.276	96.19
457.497	87.19
457.717	78.19
457.937	86.19
458.157	84.19
458.377	87.19
458.598	99.19
458.818	131.19
459.038	146.19
459.258	107.19
459.478	88.19
459.698	91.19
459.918	95.19
460.138	95.19
460.358	82.19
460.578	83.19
460.798	106.19
461.018	108.19
461.238	82.19
461.458	95.19
461.678	90.19
461.898	80.19
462.118	97.19
462.338	83.19
462.558	91.19
462.777	88.19
462.997	90.19
463.217	84.19
463.437	87.19
463.657	84.19
463.876	97.19
464.096	91.19
464.316	80.19
464.536	89.19
464.755	90.19
464.975	98.19
465.195	137.19
465.414	123.19
465.634	106.19
465.854	86.19
466.073	89.19
466.293	83.19
466.512	94.19
466.732	106.19
466.951	89.19
467.171	100.19
467.391	94.19
467.61	118.19
467.829	133.19
468.049	257.19
468.268	363.19
468.488	132.19
468.707	103.19
468.927	89.19
469.146	81.19
469.365	79.19
469.585	96.19
469.804	87.19
470.023	95.19
470.243	96.19
470.462	97.19
470.681	108.19
470.901	92.19
471.12	102.19
471.339	94.19
471.558	90.19
471.777	120.19
471.997	165.19
472.216	476.19
472.435	1012.19
472.654	275.19
472.873	115.19
473.092	98.19
473.311	99.19
473.53	101.19
473.749	97.19
473.968	97.19
474.187	105.19
474.406	96.19
474.625	109.19
474.844	91.19
475.063	99.19
475.282	95.19
475.501	91.19
475.72	88.19
475.939	86.19
476.158	89.19
476.377	96.19
476.596	98.19
476.814	109.19
477.033	95.19
477.252	96.19
477.471	70.19
477.69	90.19
477.908	100.19
478.127	99.19
478.346	89.19
478.564	104.19
478.783	89.19
479.002	96.19
479.22	90.19
479.439	104.19
479.658	112.19
479.876	97.19
480.095	110.19
480.313	104.19
480.532	114.19
480.751	166.19
480.969	462.19
481.188	1760.19
481.406	1012.19
481.624	202.19
481.843	106.19
482.061	96.19
482.28	89.19
482.498	96.19
482.717	83.19
482.935	68.19
483.153	84.19
483.372	89.19
483.59	84.19
483.808	110.19
484.027	93.19
484.245	98.19
484.463	103.19
484.681	101.19
484.9	98.19
485.118	96.19
485.336	93.19
485.554	97.19
485.772	97.19
485.99	125.19
486.209	109.19
486.427	123.19
486.645	101.19
486.863	117.19
487.081	100.19
487.299	101.19
487.517	90.19
487.735	93.19
487.953	109.19
488.171	93.19
488.389	83.19
488.607	86.19
488.825	86.19
489.043	82.19
489.261	99.19
489.479	101.19
489.696	92.19
489.914	100.19
490.132	91.19
490.35	95.19
490.568	96.19
490.786	99.19
491.003	78.19
491.221	90.19
491.439	94.19
491.657	101.19
491.874	99.19
492.092	99.19
492.31	82.19
492.527	86.19
492.745	75.19
492.963	92.19
493.18	94.19
493.398	104.19
493.615	85.19
493.833	95.19
494.05	93.19
494.268	99.19
494.485	90.19
494.703	98.19
494.92	90.19
495.138	90.19
495.355	102.19
495.573	100.19
495.79	100.19
496.008	106.19
496.225	99.19
496.442	88.19
496.66	89.19
496.877	79.19
497.094	89.19
497.312	102.19
497.529	95.19
497.746	94.19
497.963	99.19
498.181	90.19
498.398	94.19
498.615	112.19
498.832	102.19
499.049	88.19
499.267	102.19
499.484	118.19
499.701	93.19
499.918	76.19
500.135	89.19
500.352	88.19
500.569	88.19
500.786	100.19
501.003	87.19
501.22	95.19
501.437	81.19
501.654	99.19
501.871	105.19
502.088	101.19
502.305	89.19
502.522	98.19
502.739	91.19
502.956	95.19
503.172	93.19
503.389	96.19
503.606	102.19
503.823	101.19
504.04	82.19
504.256	88.19
504.473	101.19
504.69	88.19
504.907	89.19
505.123	95.19
505.34	85.19
505.557	85.19
505.773	90.19
505.99	93.19
506.207	87.19
506.423	86.19
506.64	103.19
506.856	94.19
507.073	93.19
507.289	105.19
507.506	87.19
507.722	92.19
507.939	98.19
508.155	93.19
508.372	104.19
508.588	100.19
508.805	89.19
509.021	98.19
509.238	90.19
509.454	104.19
509.67	95.19
509.887	97.19
510.103	112.19
510.319	185.19
510.536	556.19
510.752	1720.19
510.968	486.19
511.184	135.19
511.401	112.19
511.617	99.19
511.833	88.19
512.049	105.19
512.265	84.19
512.481	88.19
512.698	101.19
512.914	93.19
513.13	92.19
513.346	92.19
513.562	88.19
513.778	103.19
513.994	94.19
514.21	98.19
514.426	105.19
514.642	123.19
514.858	116.19
