Data from Circ_1989_H10_HRD10591_00027.txt Node
Date: Wed Jan 03 12:01:27 EST 2024
User: Yrep
Spectrometer: HR+D1059
Trigger mode: 1
Integration Time (sec): 1.000000E-1
Scans to average: 1
Electric dark correction enabled: true
Nonlinearity correction enabled: false
Boxcar width: 0
XAxis mode: Wavelengths
Number of Pixels in Spectrum: 2048
>>>>>Begin Spectral Data<<<<<
223.165	-22.38
223.4	-22.38
223.635	-22.38
223.869	-2.38
224.104	-18.38
224.338	-24.38
224.573	-3.38
224.808	-16.38
225.042	-6.38
225.277	-11.38
225.511	-13.38
225.746	1.62
225.98	6.62
226.215	11.62
226.449	26.62
226.683	17.62
226.918	19.62
227.152	34.62
227.387	30.62
227.621	41.62
227.856	46.62
228.09	52.62
228.324	52.62
228.559	46.62
228.793	72.62
229.027	66.62
229.262	68.62
229.496	74.62
229.73	89.62
229.964	101.62
230.199	89.62
230.433	71.62
230.667	85.62
230.901	85.62
231.136	66.62
231.37	78.62
231.604	74.62
231.838	82.62
232.072	79.62
232.306	65.62
232.541	74.62
232.775	78.62
233.009	81.62
233.243	76.62
233.477	77.62
233.711	89.62
233.945	72.62
234.179	88.62
234.413	67.62
234.647	68.62
234.881	66.62
235.115	72.62
235.349	81.62
235.583	61.62
235.817	77.62
236.051	80.62
236.285	83.62
236.519	78.62
236.753	79.62
236.987	85.62
237.221	98.62
237.455	77.62
237.689	77.62
237.922	93.62
238.156	80.62
238.39	80.62
238.624	73.62
238.858	77.62
239.091	77.62
239.325	89.62
239.559	86.62
239.793	87.62
240.027	99.62
240.26	75.62
240.494	87.62
240.728	83.62
240.961	75.62
241.195	77.62
241.429	78.62
241.662	67.62
241.896	81.62
242.13	81.62
242.363	74.62
242.597	76.62
242.83	83.62
243.064	81.62
243.298	88.62
243.531	87.62
243.765	90.62
243.998	74.62
244.232	91.62
244.465	87.62
244.699	83.62
244.932	64.62
245.166	71.62
245.399	95.62
245.633	69.62
245.866	79.62
246.099	74.62
246.333	66.62
246.566	78.62
246.8	81.62
247.033	80.62
247.266	83.62
247.5	83.62
247.733	87.62
247.966	79.62
248.2	75.62
248.433	76.62
248.666	87.62
248.899	85.62
249.133	79.62
249.366	105.62
249.599	89.62
249.832	88.62
250.066	88.62
250.299	89.62
250.532	94.62
250.765	80.62
250.998	88.62
251.231	71.62
251.465	75.62
251.698	82.62
251.931	82.62
252.164	71.62
252.397	74.62
252.63	77.62
252.863	79.62
253.096	75.62
253.329	83.62
253.562	68.62
253.795	89.62
254.028	94.62
254.261	82.62
254.494	85.62
254.727	88.62
254.96	69.62
255.193	82.62
255.426	88.62
255.659	82.62
255.892	82.62
256.124	83.62
256.357	80.62
256.59	71.62
256.823	87.62
257.056	90.62
257.289	81.62
257.521	76.62
257.754	75.62
257.987	97.62
258.22	102.62
258.452	76.62
258.685	87.62
258.918	79.62
259.151	78.62
259.383	70.62
259.616	71.62
259.849	83.62
260.081	95.62
260.314	97.62
260.547	104.62
260.779	78.62
261.012	90.62
261.244	93.62
261.477	93.62
261.71	107.62
261.942	102.62
262.175	119.62
262.407	88.62
262.64	80.62
262.872	78.62
263.105	80.62
263.337	75.62
263.57	75.62
263.802	88.62
264.035	84.62
264.267	85.62
264.499	86.62
264.732	97.62
264.964	83.62
265.197	98.62
265.429	91.62
265.661	87.62
265.894	81.62
266.126	95.62
266.358	90.62
266.591	88.62
266.823	85.62
267.055	78.62
267.287	77.62
267.52	82.62
267.752	93.62
267.984	83.62
268.216	84.62
268.448	69.62
268.681	88.62
268.913	89.62
269.145	86.62
269.377	98.62
269.609	83.62
269.841	95.62
270.073	77.62
270.306	90.62
270.538	90.62
270.77	87.62
271.002	85.62
271.234	93.62
271.466	87.62
271.698	91.62
271.93	81.62
272.162	78.62
272.394	88.62
272.626	94.62
272.858	72.62
273.09	81.62
273.322	95.62
273.553	83.62
273.785	105.62
274.017	95.62
274.249	98.62
274.481	87.62
274.713	93.62
274.945	97.62
275.176	102.62
275.408	85.62
275.64	100.62
275.872	93.62
276.104	95.62
276.335	97.62
276.567	104.62
276.799	120.62
277.031	106.62
277.262	125.62
277.494	127.62
277.726	82.62
277.957	97.62
278.189	71.62
278.421	85.62
278.652	98.62
278.884	89.62
279.115	90.62
279.347	78.62
279.579	94.62
279.81	104.62
280.042	117.62
280.273	142.62
280.505	117.62
280.736	94.62
280.968	82.62
281.199	83.62
281.431	96.62
281.662	91.62
281.894	77.62
282.125	100.62
282.356	111.62
282.588	150.62
282.819	106.62
283.051	96.62
283.282	95.62
283.513	91.62
283.745	83.62
283.976	101.62
284.207	90.62
284.439	79.62
284.67	86.62
284.901	100.62
285.132	80.62
285.364	83.62
285.595	84.62
285.826	89.62
286.057	93.62
286.288	99.62
286.52	89.62
286.751	80.62
286.982	78.62
287.213	94.62
287.444	82.62
287.675	82.62
287.906	80.62
288.138	94.62
288.369	91.62
288.6	106.62
288.831	101.62
289.062	89.62
289.293	92.62
289.524	83.62
289.755	82.62
289.986	73.62
290.217	79.62
290.448	86.62
290.679	92.62
290.91	83.62
291.141	92.62
291.371	104.62
291.602	82.62
291.833	91.62
292.064	83.62
292.295	82.62
292.526	86.62
292.757	84.62
292.987	103.62
293.218	89.62
293.449	100.62
293.68	82.62
293.91	84.62
294.141	103.62
294.372	86.62
294.603	100.62
294.833	94.62
295.064	106.62
295.295	89.62
295.525	99.62
295.756	98.62
295.987	114.62
296.217	127.62
296.448	112.62
296.679	97.62
296.909	93.62
297.14	92.62
297.37	96.62
297.601	93.62
297.831	87.62
298.062	102.62
298.292	91.62
298.523	84.62
298.753	91.62
298.984	90.62
299.214	99.62
299.445	77.62
299.675	91.62
299.905	88.62
300.136	99.62
300.366	90.62
300.597	82.62
300.827	94.62
301.057	86.62
301.288	104.62
301.518	105.62
301.748	102.62
301.979	91.62
302.209	84.62
302.439	88.62
302.669	89.62
302.9	94.62
303.13	100.62
303.36	111.62
303.59	113.62
303.82	114.62
304.051	101.62
304.281	93.62
304.511	105.62
304.741	97.62
304.971	92.62
305.201	97.62
305.431	93.62
305.661	86.62
305.891	93.62
306.121	92.62
306.352	117.62
306.582	108.62
306.812	107.62
307.042	104.62
307.272	112.62
307.502	126.62
307.731	114.62
307.961	107.62
308.191	99.62
308.421	96.62
308.651	92.62
308.881	89.62
309.111	97.62
309.341	100.62
309.571	93.62
309.8	88.62
310.03	89.62
310.26	102.62
310.49	87.62
310.72	98.62
310.949	101.62
311.179	103.62
311.409	113.62
311.639	110.62
311.868	93.62
312.098	85.62
312.328	101.62
312.557	114.62
312.787	104.62
313.017	97.62
313.246	94.62
313.476	105.62
313.706	94.62
313.935	90.62
314.165	89.62
314.394	94.62
314.624	91.62
314.853	99.62
315.083	90.62
315.312	102.62
315.542	85.62
315.771	88.62
316.001	98.62
316.23	102.62
316.46	80.62
316.689	90.62
316.919	93.62
317.148	102.62
317.377	105.62
317.607	101.62
317.836	79.62
318.065	99.62
318.295	102.62
318.524	76.62
318.753	89.62
318.983	85.62
319.212	90.62
319.441	105.62
319.67	110.62
319.9	100.62
320.129	85.62
320.358	93.62
320.587	94.62
320.816	102.62
321.046	99.62
321.275	97.62
321.504	96.62
321.733	105.62
321.962	101.62
322.191	110.62
322.42	119.62
322.649	124.62
322.878	107.62
323.108	116.62
323.337	133.62
323.566	143.62
323.795	157.62
324.024	193.62
324.253	381.62
324.482	817.62
324.71	1680.62
324.939	2309.62
325.168	831.62
325.397	234.62
325.626	145.62
325.855	126.62
326.084	133.62
326.313	129.62
326.542	158.62
326.77	218.62
326.999	440.62
327.228	931.62
327.457	1687.62
327.686	1405.62
327.914	427.62
328.143	280.62
328.372	326.62
328.6	212.62
328.829	131.62
329.058	141.62
329.287	137.62
329.515	141.62
329.744	167.62
329.972	260.62
330.201	444.62
330.43	601.62
330.658	311.62
330.887	179.62
331.115	137.62
331.344	104.62
331.572	106.62
331.801	95.62
332.03	108.62
332.258	94.62
332.486	94.62
332.715	98.62
332.943	98.62
333.172	93.62
333.4	111.62
333.629	132.62
333.857	159.62
334.085	246.62
334.314	422.62
334.542	757.62
334.771	710.62
334.999	216.62
335.227	137.62
335.455	120.62
335.684	103.62
335.912	106.62
336.14	103.62
336.369	99.62
336.597	106.62
336.825	105.62
337.053	96.62
337.281	114.62
337.51	93.62
337.738	104.62
337.966	104.62
338.194	102.62
338.422	106.62
338.65	111.62
338.878	94.62
339.106	84.62
339.334	94.62
339.562	91.62
339.79	91.62
340.018	85.62
340.246	94.62
340.474	97.62
340.702	85.62
340.93	106.62
341.158	93.62
341.386	89.62
341.614	92.62
341.842	102.62
342.07	101.62
342.298	84.62
342.526	88.62
342.754	80.62
342.981	83.62
343.209	111.62
343.437	96.62
343.665	94.62
343.893	96.62
344.12	93.62
344.348	97.62
344.576	85.62
344.804	101.62
345.031	90.62
345.259	111.62
345.487	97.62
345.714	105.62
345.942	108.62
346.17	92.62
346.397	94.62
346.625	106.62
346.853	85.62
347.08	101.62
347.308	87.62
347.535	99.62
347.763	105.62
347.99	94.62
348.218	97.62
348.445	113.62
348.673	98.62
348.9	107.62
349.128	117.62
349.355	97.62
349.583	96.62
349.81	99.62
350.037	88.62
350.265	96.62
350.492	99.62
350.72	103.62
350.947	106.62
351.174	98.62
351.402	95.62
351.629	106.62
351.856	107.62
352.083	98.62
352.311	102.62
352.538	122.62
352.765	113.62
352.992	123.62
353.22	130.62
353.447	104.62
353.674	103.62
353.901	101.62
354.128	101.62
354.355	110.62
354.583	107.62
354.81	107.62
355.037	95.62
355.264	94.62
355.491	99.62
355.718	99.62
355.945	94.62
356.172	98.62
356.399	97.62
356.626	97.62
356.853	96.62
357.08	111.62
357.307	101.62
357.534	98.62
357.761	106.62
357.988	99.62
358.215	106.62
358.441	87.62
358.668	96.62
358.895	95.62
359.122	91.62
359.349	86.62
359.576	97.62
359.802	106.62
360.029	108.62
360.256	126.62
360.483	105.62
360.709	98.62
360.936	98.62
361.163	97.62
361.39	85.62
361.616	89.62
361.843	93.62
362.07	91.62
362.296	102.62
362.523	86.62
362.749	106.62
362.976	82.62
363.203	101.62
363.429	87.62
363.656	99.62
363.882	86.62
364.109	86.62
364.335	85.62
364.562	98.62
364.788	97.62
365.015	98.62
365.241	97.62
365.468	89.62
365.694	91.62
365.92	105.62
366.147	86.62
366.373	89.62
366.599	82.62
366.826	81.62
367.052	79.62
367.278	88.62
367.505	105.62
367.731	94.62
367.957	87.62
368.184	79.62
368.41	109.62
368.636	113.62
368.862	116.62
369.089	100.62
369.315	86.62
369.541	93.62
369.767	98.62
369.993	104.62
370.219	87.62
370.445	100.62
370.672	84.62
370.898	106.62
371.124	92.62
371.35	92.62
371.576	99.62
371.802	90.62
372.028	79.62
372.254	87.62
372.48	89.62
372.706	90.62
372.932	88.62
373.158	83.62
373.384	90.62
373.61	83.62
373.835	86.62
374.061	101.62
374.287	97.62
374.513	93.62
374.739	80.62
374.965	104.62
375.191	93.62
375.416	90.62
375.642	89.62
375.868	95.62
376.094	91.62
376.319	80.62
376.545	87.62
376.771	95.62
376.997	86.62
377.222	96.62
377.448	91.62
377.674	95.62
377.899	80.62
378.125	101.62
378.35	86.62
378.576	100.62
378.802	99.62
379.027	86.62
379.253	93.62
379.478	85.62
379.704	82.62
379.929	91.62
380.155	91.62
380.38	101.62
380.606	93.62
380.831	97.62
381.057	104.62
381.282	113.62
381.507	103.62
381.733	94.62
381.958	89.62
382.184	87.62
382.409	104.62
382.634	110.62
382.86	103.62
383.085	98.62
383.31	100.62
383.535	114.62
383.761	103.62
383.986	108.62
384.211	111.62
384.436	105.62
384.662	98.62
384.887	104.62
385.112	117.62
385.337	109.62
385.562	89.62
385.787	94.62
386.013	118.62
386.238	104.62
386.463	100.62
386.688	118.62
386.913	119.62
387.138	107.62
387.363	92.62
387.588	108.62
387.813	99.62
388.038	122.62
388.263	121.62
388.488	100.62
388.713	103.62
388.938	82.62
389.163	94.62
389.387	92.62
389.612	87.62
389.837	94.62
390.062	72.62
390.287	83.62
390.512	90.62
390.736	95.62
390.961	94.62
391.186	100.62
391.411	96.62
391.636	82.62
391.86	90.62
392.085	85.62
392.31	83.62
392.534	100.62
392.759	81.62
392.984	82.62
393.208	106.62
393.433	93.62
393.658	83.62
393.882	89.62
394.107	77.62
394.331	91.62
394.556	108.62
394.78	91.62
395.005	72.62
395.229	82.62
395.454	86.62
395.678	90.62
395.903	86.62
396.127	98.62
396.352	84.62
396.576	87.62
396.801	85.62
397.025	91.62
397.249	94.62
397.474	87.62
397.698	102.62
397.922	71.62
398.147	73.62
398.371	67.62
398.595	83.62
398.82	85.62
399.044	83.62
399.268	98.62
399.492	93.62
399.717	94.62
399.941	103.62
400.165	87.62
400.389	90.62
400.613	88.62
400.837	89.62
401.062	78.62
401.286	82.62
401.51	86.62
401.734	94.62
401.958	102.62
402.182	110.62
402.406	158.62
402.63	116.62
402.854	105.62
403.078	107.62
403.302	91.62
403.526	107.62
403.75	94.62
403.974	87.62
404.198	74.62
404.422	85.62
404.645	99.62
404.869	98.62
405.093	88.62
405.317	131.62
405.541	110.62
405.765	102.62
405.988	117.62
406.212	166.62
406.436	209.62
406.66	151.62
406.883	90.62
407.107	97.62
407.331	88.62
407.555	118.62
407.778	95.62
408.002	88.62
408.226	96.62
408.449	101.62
408.673	102.62
408.896	91.62
409.12	91.62
409.344	91.62
409.567	95.62
409.791	67.62
410.014	81.62
410.238	95.62
410.461	88.62
410.685	97.62
410.908	102.62
411.132	117.62
411.355	96.62
411.578	94.62
411.802	92.62
412.025	97.62
412.249	98.62
412.472	108.62
412.695	117.62
412.919	99.62
413.142	87.62
413.365	75.62
413.589	81.62
413.812	91.62
414.035	96.62
414.258	107.62
414.482	85.62
414.705	85.62
414.928	90.62
415.151	92.62
415.374	96.62
415.597	97.62
415.821	103.62
416.044	81.62
416.267	89.62
416.49	84.62
416.713	91.62
416.936	93.62
417.159	97.62
417.382	85.62
417.605	91.62
417.828	99.62
418.051	106.62
418.274	90.62
418.497	97.62
418.72	95.62
418.943	102.62
419.166	95.62
419.389	92.62
419.611	91.62
419.834	93.62
420.057	88.62
420.28	83.62
420.503	77.62
420.726	98.62
420.948	85.62
421.171	94.62
421.394	90.62
421.617	94.62
421.839	83.62
422.062	89.62
422.285	101.62
422.507	88.62
422.73	113.62
422.953	115.62
423.175	98.62
423.398	89.62
423.621	89.62
423.843	87.62
424.066	81.62
424.288	91.62
424.511	89.62
424.733	102.62
424.956	117.62
425.178	108.62
425.401	92.62
425.623	114.62
425.846	103.62
426.068	93.62
426.291	83.62
426.513	86.62
426.735	81.62
426.958	86.62
427.18	96.62
427.402	153.62
427.625	196.62
427.847	174.62
428.069	188.62
428.292	107.62
428.514	94.62
428.736	79.62
428.958	103.62
429.181	94.62
429.403	86.62
429.625	88.62
429.847	93.62
430.069	99.62
430.292	95.62
430.514	81.62
430.736	89.62
430.958	83.62
431.18	83.62
431.402	85.62
431.624	82.62
431.846	99.62
432.068	102.62
432.29	85.62
432.512	88.62
432.734	78.62
432.956	91.62
433.178	110.62
433.4	113.62
433.622	97.62
433.844	95.62
434.066	86.62
434.287	99.62
434.509	90.62
434.731	95.62
434.953	81.62
435.175	108.62
435.397	91.62
435.618	91.62
435.84	104.62
436.062	132.62
436.284	131.62
436.505	102.62
436.727	105.62
436.949	99.62
437.17	103.62
437.392	91.62
437.614	87.62
437.835	99.62
438.057	119.62
438.278	104.62
438.5	122.62
438.721	132.62
438.943	126.62
439.165	85.62
439.386	86.62
439.608	91.62
439.829	100.62
440.05	127.62
440.272	134.62
440.493	105.62
440.715	87.62
440.936	81.62
441.158	73.62
441.379	95.62
441.6	93.62
441.822	115.62
442.043	82.62
442.264	105.62
442.486	102.62
442.707	94.62
442.928	100.62
443.149	144.62
443.371	131.62
443.592	111.62
443.813	119.62
444.034	111.62
444.255	90.62
444.476	95.62
444.698	77.62
444.919	95.62
445.14	135.62
445.361	130.62
445.582	130.62
445.803	141.62
446.024	143.62
446.245	155.62
446.466	130.62
446.687	89.62
446.908	104.62
447.129	82.62
447.35	74.62
447.571	102.62
447.792	96.62
448.013	102.62
448.234	106.62
448.455	110.62
448.675	117.62
448.896	125.62
449.117	104.62
449.338	102.62
449.559	143.62
449.779	141.62
450	100.62
450.221	104.62
450.442	98.62
450.662	100.62
450.883	92.62
451.104	105.62
451.324	98.62
451.545	102.62
451.766	75.62
451.986	86.62
452.207	85.62
452.428	81.62
452.648	89.62
452.869	116.62
453.089	100.62
453.31	112.62
453.53	88.62
453.751	78.62
453.971	106.62
454.192	122.62
454.412	91.62
454.633	103.62
454.853	97.62
455.073	88.62
455.294	101.62
455.514	109.62
455.734	107.62
455.955	86.62
456.175	81.62
456.395	86.62
456.616	77.62
456.836	87.62
457.056	72.62
457.276	82.62
457.497	96.62
457.717	101.62
457.937	81.62
458.157	81.62
458.377	107.62
458.598	117.62
458.818	148.62
459.038	169.62
459.258	113.62
459.478	91.62
459.698	90.62
459.918	88.62
460.138	87.62
460.358	66.62
460.578	94.62
460.798	88.62
461.018	93.62
461.238	83.62
461.458	73.62
461.678	94.62
461.898	81.62
462.118	79.62
462.338	84.62
462.558	93.62
462.777	82.62
462.997	86.62
463.217	93.62
463.437	93.62
463.657	87.62
463.876	81.62
464.096	86.62
464.316	91.62
464.536	88.62
464.755	87.62
464.975	122.62
465.195	175.62
465.414	161.62
465.634	84.62
465.854	110.62
466.073	107.62
466.293	94.62
466.512	81.62
466.732	86.62
466.951	88.62
467.171	97.62
467.391	98.62
467.61	116.62
467.829	142.62
468.049	267.62
468.268	357.62
468.488	130.62
468.707	97.62
468.927	81.62
469.146	79.62
469.365	97.62
469.585	80.62
469.804	95.62
470.023	100.62
470.243	96.62
470.462	102.62
470.681	99.62
470.901	99.62
471.12	90.62
471.339	107.62
471.558	98.62
471.777	121.62
471.997	168.62
472.216	487.62
472.435	1019.62
472.654	282.62
472.873	106.62
473.092	102.62
473.311	102.62
473.53	79.62
473.749	92.62
473.968	97.62
474.187	107.62
474.406	105.62
474.625	90.62
474.844	79.62
475.063	104.62
475.282	82.62
475.501	83.62
475.72	103.62
475.939	87.62
476.158	82.62
476.377	86.62
476.596	103.62
476.814	82.62
477.033	105.62
477.252	81.62
477.471	91.62
477.69	90.62
477.908	80.62
478.127	89.62
478.346	102.62
478.564	83.62
478.783	100.62
479.002	101.62
479.22	96.62
479.439	109.62
479.658	101.62
479.876	106.62
480.095	99.62
480.313	111.62
480.532	117.62
480.751	159.62
480.969	497.62
481.188	1799.62
481.406	1033.62
481.624	199.62
481.843	125.62
482.061	86.62
482.28	85.62
482.498	95.62
482.717	101.62
482.935	100.62
483.153	79.62
483.372	75.62
483.59	89.62
483.808	82.62
484.027	89.62
484.245	95.62
484.463	95.62
484.681	100.62
484.9	90.62
485.118	93.62
485.336	86.62
485.554	106.62
485.772	112.62
485.99	89.62
486.209	99.62
486.427	105.62
486.645	117.62
486.863	111.62
487.081	106.62
487.299	105.62
487.517	90.62
487.735	102.62
487.953	101.62
488.171	103.62
488.389	86.62
488.607	99.62
488.825	95.62
489.043	90.62
489.261	89.62
489.479	81.62
489.696	86.62
489.914	97.62
490.132	89.62
490.35	90.62
490.568	96.62
490.786	85.62
491.003	70.62
491.221	77.62
491.439	110.62
491.657	96.62
491.874	88.62
492.092	82.62
492.31	87.62
492.527	89.62
492.745	100.62
492.963	91.62
493.18	93.62
493.398	100.62
493.615	85.62
493.833	89.62
494.05	85.62
494.268	85.62
494.485	91.62
494.703	82.62
494.92	95.62
495.138	97.62
495.355	92.62
495.573	96.62
495.79	89.62
496.008	104.62
496.225	86.62
496.442	74.62
496.66	86.62
496.877	96.62
497.094	81.62
497.312	87.62
497.529	80.62
497.746	99.62
497.963	86.62
498.181	91.62
498.398	101.62
498.615	119.62
498.832	107.62
499.049	98.62
499.267	106.62
499.484	92.62
499.701	95.62
499.918	81.62
500.135	89.62
500.352	101.62
500.569	87.62
500.786	90.62
501.003	97.62
501.22	86.62
501.437	88.62
501.654	111.62
501.871	97.62
502.088	98.62
502.305	86.62
502.522	101.62
502.739	80.62
502.956	93.62
503.172	83.62
503.389	93.62
503.606	97.62
503.823	114.62
504.04	102.62
504.256	86.62
504.473	90.62
504.69	87.62
504.907	100.62
505.123	98.62
505.34	96.62
505.557	87.62
505.773	95.62
505.99	91.62
506.207	83.62
506.423	78.62
506.64	86.62
506.856	88.62
507.073	86.62
507.289	93.62
507.506	105.62
507.722	112.62
507.939	89.62
508.155	94.62
508.372	93.62
508.588	93.62
508.805	102.62
509.021	96.62
509.238	107.62
509.454	84.62
509.67	90.62
509.887	101.62
510.103	125.62
510.319	194.62
510.536	634.62
510.752	2001.62
510.968	577.62
511.184	147.62
511.401	126.62
511.617	101.62
511.833	98.62
512.049	98.62
512.265	102.62
512.481	99.62
512.698	91.62
512.914	92.62
513.13	106.62
513.346	97.62
513.562	92.62
513.778	109.62
513.994	102.62
