Data from Circ_1989_H10_HRD10591_00062.txt Node
Date: Wed Jan 03 12:01:34 EST 2024
User: Yrep
Spectrometer: HR+D1059
Trigger mode: 1
Integration Time (sec): 1.000000E-1
Scans to average: 1
Electric dark correction enabled: true
Nonlinearity correction enabled: false
Boxcar width: 0
XAxis mode: Wavelengths
Number of Pixels in Spectrum: 2048
>>>>>Begin Spectral Data<<<<<
223.165	-4.5
223.4	-4.5
223.635	-4.5
223.869	-15.5
224.104	-7.5
224.338	-15.5
224.573	-21.5
224.808	-20.5
225.042	-19.5
225.277	-13.5
225.511	-5.5
225.746	16.5
225.98	25.5
226.215	-0.5
226.449	6.5
226.683	19.5
226.918	15.5
227.152	40.5
227.387	39.5
227.621	31.5
227.856	45.5
228.09	43.5
228.324	51.5
228.559	48.5
228.793	50.5
229.027	55.5
229.262	66.5
229.496	71.5
229.73	68.5
229.964	86.5
230.199	67.5
230.433	75.5
230.667	68.5
230.901	77.5
231.136	86.5
231.37	71.5
231.604	82.5
231.838	78.5
232.072	75.5
232.306	89.5
232.541	51.5
232.775	84.5
233.009	84.5
233.243	80.5
233.477	91.5
233.711	84.5
233.945	90.5
234.179	95.5
234.413	82.5
234.647	68.5
234.881	61.5
235.115	67.5
235.349	68.5
235.583	86.5
235.817	74.5
236.051	75.5
236.285	79.5
236.519	78.5
236.753	79.5
236.987	71.5
237.221	80.5
237.455	84.5
237.689	76.5
237.922	67.5
238.156	68.5
238.39	75.5
238.624	80.5
238.858	82.5
239.091	76.5
239.325	63.5
239.559	69.5
239.793	74.5
240.027	74.5
240.26	77.5
240.494	71.5
240.728	70.5
240.961	77.5
241.195	74.5
241.429	76.5
241.662	79.5
241.896	80.5
242.13	87.5
242.363	76.5
242.597	75.5
242.83	79.5
243.064	76.5
243.298	73.5
243.531	82.5
243.765	76.5
243.998	75.5
244.232	86.5
244.465	84.5
244.699	67.5
244.932	78.5
245.166	88.5
245.399	78.5
245.633	89.5
245.866	85.5
246.099	72.5
246.333	83.5
246.566	76.5
246.8	86.5
247.033	65.5
247.266	63.5
247.5	70.5
247.733	76.5
247.966	70.5
248.2	80.5
248.433	80.5
248.666	70.5
248.899	77.5
249.133	93.5
249.366	87.5
249.599	97.5
249.832	79.5
250.066	69.5
250.299	78.5
250.532	80.5
250.765	72.5
250.998	82.5
251.231	68.5
251.465	70.5
251.698	90.5
251.931	75.5
252.164	81.5
252.397	80.5
252.63	79.5
252.863	66.5
253.096	70.5
253.329	81.5
253.562	74.5
253.795	74.5
254.028	91.5
254.261	84.5
254.494	78.5
254.727	63.5
254.96	82.5
255.193	67.5
255.426	83.5
255.659	71.5
255.892	91.5
256.124	93.5
256.357	88.5
256.59	88.5
256.823	67.5
257.056	99.5
257.289	82.5
257.521	86.5
257.754	78.5
257.987	77.5
258.22	80.5
258.452	90.5
258.685	82.5
258.918	72.5
259.151	80.5
259.383	79.5
259.616	75.5
259.849	84.5
260.081	78.5
260.314	91.5
260.547	82.5
260.779	83.5
261.012	97.5
261.244	84.5
261.477	85.5
261.71	76.5
261.942	101.5
262.175	106.5
262.407	86.5
262.64	76.5
262.872	72.5
263.105	82.5
263.337	86.5
263.57	99.5
263.802	91.5
264.035	84.5
264.267	82.5
264.499	74.5
264.732	78.5
264.964	85.5
265.197	89.5
265.429	74.5
265.661	68.5
265.894	72.5
266.126	70.5
266.358	81.5
266.591	76.5
266.823	86.5
267.055	83.5
267.287	88.5
267.52	85.5
267.752	92.5
267.984	83.5
268.216	67.5
268.448	88.5
268.681	90.5
268.913	92.5
269.145	78.5
269.377	80.5
269.609	85.5
269.841	92.5
270.073	80.5
270.306	84.5
270.538	81.5
270.77	64.5
271.002	88.5
271.234	78.5
271.466	79.5
271.698	91.5
271.93	90.5
272.162	69.5
272.394	87.5
272.626	62.5
272.858	88.5
273.09	88.5
273.322	79.5
273.553	77.5
273.785	85.5
274.017	82.5
274.249	92.5
274.481	81.5
274.713	90.5
274.945	100.5
275.176	83.5
275.408	83.5
275.64	95.5
275.872	94.5
276.104	78.5
276.335	85.5
276.567	88.5
276.799	100.5
277.031	100.5
277.262	119.5
277.494	86.5
277.726	66.5
277.957	92.5
278.189	77.5
278.421	86.5
278.652	86.5
278.884	78.5
279.115	76.5
279.347	86.5
279.579	86.5
279.81	82.5
280.042	103.5
280.273	120.5
280.505	88.5
280.736	79.5
280.968	90.5
281.199	94.5
281.431	89.5
281.662	79.5
281.894	89.5
282.125	92.5
282.356	100.5
282.588	114.5
282.819	106.5
283.051	81.5
283.282	87.5
283.513	79.5
283.745	81.5
283.976	79.5
284.207	87.5
284.439	93.5
284.67	87.5
284.901	79.5
285.132	88.5
285.364	82.5
285.595	94.5
285.826	83.5
286.057	82.5
286.288	95.5
286.52	88.5
286.751	81.5
286.982	92.5
287.213	93.5
287.444	81.5
287.675	83.5
287.906	92.5
288.138	87.5
288.369	84.5
288.6	88.5
288.831	90.5
289.062	88.5
289.293	80.5
289.524	91.5
289.755	77.5
289.986	80.5
290.217	85.5
290.448	84.5
290.679	84.5
290.91	82.5
291.141	95.5
291.371	94.5
291.602	97.5
291.833	87.5
292.064	80.5
292.295	83.5
292.526	88.5
292.757	88.5
292.987	94.5
293.218	85.5
293.449	86.5
293.68	91.5
293.91	71.5
294.141	87.5
294.372	84.5
294.603	87.5
294.833	99.5
295.064	89.5
295.295	93.5
295.525	98.5
295.756	101.5
295.987	84.5
296.217	109.5
296.448	97.5
296.679	83.5
296.909	86.5
297.14	78.5
297.37	81.5
297.601	90.5
297.831	88.5
298.062	83.5
298.292	90.5
298.523	81.5
298.753	84.5
298.984	96.5
299.214	87.5
299.445	96.5
299.675	96.5
299.905	94.5
300.136	76.5
300.366	76.5
300.597	88.5
300.827	82.5
301.057	98.5
301.288	89.5
301.518	80.5
301.748	93.5
301.979	106.5
302.209	91.5
302.439	70.5
302.669	84.5
302.9	76.5
303.13	91.5
303.36	88.5
303.59	91.5
303.82	93.5
304.051	89.5
304.281	81.5
304.511	89.5
304.741	87.5
304.971	98.5
305.201	92.5
305.431	98.5
305.661	84.5
305.891	93.5
306.121	86.5
306.352	101.5
306.582	82.5
306.812	91.5
307.042	105.5
307.272	100.5
307.502	119.5
307.731	103.5
307.961	106.5
308.191	69.5
308.421	82.5
308.651	74.5
308.881	93.5
309.111	97.5
309.341	94.5
309.571	97.5
309.8	94.5
310.03	92.5
310.26	85.5
310.49	82.5
310.72	107.5
310.949	91.5
311.179	91.5
311.409	93.5
311.639	93.5
311.868	83.5
312.098	90.5
312.328	95.5
312.557	113.5
312.787	98.5
313.017	106.5
313.246	91.5
313.476	93.5
313.706	96.5
313.935	94.5
314.165	93.5
314.394	86.5
314.624	92.5
314.853	86.5
315.083	107.5
315.312	70.5
315.542	77.5
315.771	98.5
316.001	86.5
316.23	92.5
316.46	108.5
316.689	88.5
316.919	98.5
317.148	93.5
317.377	95.5
317.607	90.5
317.836	84.5
318.065	84.5
318.295	75.5
318.524	91.5
318.753	83.5
318.983	101.5
319.212	114.5
319.441	94.5
319.67	90.5
319.9	83.5
320.129	97.5
320.358	96.5
320.587	80.5
320.816	84.5
321.046	107.5
321.275	103.5
321.504	81.5
321.733	99.5
321.962	91.5
322.191	90.5
322.42	93.5
322.649	102.5
322.878	109.5
323.108	98.5
323.337	95.5
323.566	120.5
323.795	143.5
324.024	156.5
324.253	302.5
324.482	638.5
324.71	1341.5
324.939	1733.5
325.168	647.5
325.397	212.5
325.626	148.5
325.855	133.5
326.084	116.5
326.313	124.5
326.542	133.5
326.77	198.5
326.999	366.5
327.228	777.5
327.457	1377.5
327.686	1130.5
327.914	360.5
328.143	260.5
328.372	272.5
328.6	168.5
328.829	118.5
329.058	120.5
329.287	113.5
329.515	117.5
329.744	134.5
329.972	214.5
330.201	365.5
330.43	500.5
330.658	243.5
330.887	143.5
331.115	130.5
331.344	108.5
331.572	103.5
331.801	97.5
332.03	99.5
332.258	106.5
332.486	94.5
332.715	101.5
332.943	89.5
333.172	93.5
333.4	100.5
333.629	111.5
333.857	132.5
334.085	207.5
334.314	335.5
334.542	646.5
334.771	587.5
334.999	197.5
335.227	122.5
335.455	104.5
335.684	111.5
335.912	87.5
336.14	99.5
336.369	98.5
336.597	95.5
336.825	95.5
337.053	85.5
337.281	80.5
337.51	87.5
337.738	95.5
337.966	83.5
338.194	93.5
338.422	103.5
338.65	89.5
338.878	104.5
339.106	94.5
339.334	75.5
339.562	81.5
339.79	90.5
340.018	78.5
340.246	95.5
340.474	102.5
340.702	91.5
340.93	90.5
341.158	94.5
341.386	110.5
341.614	81.5
341.842	85.5
342.07	90.5
342.298	90.5
342.526	102.5
342.754	85.5
342.981	88.5
343.209	83.5
343.437	100.5
343.665	71.5
343.893	83.5
344.12	94.5
344.348	93.5
344.576	82.5
344.804	81.5
345.031	96.5
345.259	96.5
345.487	94.5
345.714	107.5
345.942	74.5
346.17	96.5
346.397	94.5
346.625	92.5
346.853	83.5
347.08	96.5
347.308	87.5
347.535	100.5
347.763	89.5
347.99	105.5
348.218	93.5
348.445	94.5
348.673	85.5
348.9	72.5
349.128	92.5
349.355	85.5
349.583	79.5
349.81	91.5
350.037	91.5
350.265	94.5
350.492	85.5
350.72	94.5
350.947	89.5
351.174	104.5
351.402	97.5
351.629	101.5
351.856	115.5
352.083	106.5
352.311	101.5
352.538	110.5
352.765	102.5
352.992	118.5
353.22	107.5
353.447	93.5
353.674	99.5
353.901	101.5
354.128	96.5
354.355	89.5
354.583	91.5
354.81	91.5
355.037	111.5
355.264	92.5
355.491	104.5
355.718	99.5
355.945	88.5
356.172	87.5
356.399	84.5
356.626	97.5
356.853	86.5
357.08	94.5
357.307	90.5
357.534	96.5
357.761	85.5
357.988	94.5
358.215	95.5
358.441	78.5
358.668	86.5
358.895	79.5
359.122	82.5
359.349	80.5
359.576	99.5
359.802	81.5
360.029	89.5
360.256	106.5
360.483	97.5
360.709	78.5
360.936	78.5
361.163	95.5
361.39	86.5
361.616	88.5
361.843	78.5
362.07	99.5
362.296	94.5
362.523	84.5
362.749	82.5
362.976	80.5
363.203	89.5
363.429	94.5
363.656	98.5
363.882	76.5
364.109	91.5
364.335	85.5
364.562	84.5
364.788	90.5
365.015	87.5
365.241	87.5
365.468	100.5
365.694	102.5
365.92	96.5
366.147	79.5
366.373	80.5
366.599	85.5
366.826	85.5
367.052	75.5
367.278	94.5
367.505	90.5
367.731	90.5
367.957	83.5
368.184	82.5
368.41	78.5
368.636	93.5
368.862	104.5
369.089	84.5
369.315	89.5
369.541	86.5
369.767	80.5
369.993	106.5
370.219	94.5
370.445	84.5
370.672	75.5
370.898	96.5
371.124	92.5
371.35	81.5
371.576	93.5
371.802	82.5
372.028	88.5
372.254	79.5
372.48	79.5
372.706	69.5
372.932	88.5
373.158	87.5
373.384	94.5
373.61	86.5
373.835	80.5
374.061	95.5
374.287	86.5
374.513	75.5
374.739	95.5
374.965	87.5
375.191	93.5
375.416	98.5
375.642	97.5
375.868	84.5
376.094	102.5
376.319	67.5
376.545	83.5
376.771	81.5
376.997	86.5
377.222	82.5
377.448	86.5
377.674	87.5
377.899	91.5
378.125	90.5
378.35	88.5
378.576	89.5
378.802	86.5
379.027	95.5
379.253	80.5
379.478	87.5
379.704	99.5
379.929	79.5
380.155	100.5
380.38	79.5
380.606	97.5
380.831	84.5
381.057	83.5
381.282	91.5
381.507	90.5
381.733	85.5
381.958	86.5
382.184	102.5
382.409	82.5
382.634	94.5
382.86	100.5
383.085	110.5
383.31	102.5
383.535	92.5
383.761	93.5
383.986	104.5
384.211	87.5
384.436	89.5
384.662	98.5
384.887	95.5
385.112	103.5
385.337	97.5
385.562	99.5
385.787	99.5
386.013	123.5
386.238	109.5
386.463	102.5
386.688	91.5
386.913	100.5
387.138	109.5
387.363	85.5
387.588	105.5
387.813	80.5
388.038	93.5
388.263	108.5
388.488	104.5
388.713	83.5
388.938	94.5
389.163	80.5
389.387	98.5
389.612	89.5
389.837	90.5
390.062	83.5
390.287	101.5
390.512	90.5
390.736	94.5
390.961	93.5
391.186	88.5
391.411	89.5
391.636	91.5
391.86	99.5
392.085	82.5
392.31	91.5
392.534	97.5
392.759	93.5
392.984	78.5
393.208	96.5
393.433	91.5
393.658	86.5
393.882	77.5
394.107	80.5
394.331	86.5
394.556	96.5
394.78	85.5
395.005	80.5
395.229	80.5
395.454	75.5
395.678	87.5
395.903	91.5
396.127	83.5
396.352	80.5
396.576	94.5
396.801	86.5
397.025	97.5
397.249	87.5
397.474	93.5
397.698	69.5
397.922	74.5
398.147	85.5
398.371	84.5
398.595	82.5
398.82	79.5
399.044	80.5
399.268	80.5
399.492	81.5
399.717	88.5
399.941	86.5
400.165	88.5
400.389	71.5
400.613	78.5
400.837	74.5
401.062	89.5
401.286	83.5
401.51	95.5
401.734	89.5
401.958	93.5
402.182	108.5
402.406	115.5
402.63	102.5
402.854	103.5
403.078	80.5
403.302	78.5
403.526	87.5
403.75	82.5
403.974	90.5
404.198	78.5
404.422	97.5
404.645	88.5
404.869	101.5
405.093	104.5
405.317	99.5
405.541	93.5
405.765	91.5
405.988	106.5
406.212	142.5
406.436	168.5
406.66	123.5
406.883	88.5
407.107	74.5
407.331	95.5
407.555	99.5
407.778	91.5
408.002	98.5
408.226	86.5
408.449	79.5
408.673	90.5
408.896	84.5
409.12	79.5
409.344	70.5
409.567	84.5
409.791	78.5
410.014	91.5
410.238	102.5
410.461	88.5
410.685	78.5
410.908	84.5
411.132	92.5
411.355	100.5
411.578	74.5
411.802	78.5
412.025	93.5
412.249	83.5
412.472	93.5
412.695	106.5
412.919	101.5
413.142	92.5
413.365	87.5
413.589	80.5
413.812	95.5
414.035	101.5
414.258	99.5
414.482	99.5
414.705	84.5
414.928	93.5
415.151	97.5
415.374	99.5
415.597	79.5
415.821	83.5
416.044	76.5
416.267	92.5
416.49	93.5
416.713	84.5
416.936	78.5
417.159	92.5
417.382	86.5
417.605	94.5
417.828	85.5
418.051	103.5
418.274	92.5
418.497	87.5
418.72	71.5
418.943	68.5
419.166	81.5
419.389	77.5
419.611	82.5
419.834	92.5
420.057	98.5
420.28	78.5
420.503	82.5
420.726	99.5
420.948	95.5
421.171	82.5
421.394	103.5
421.617	84.5
421.839	82.5
422.062	72.5
422.285	84.5
422.507	83.5
422.73	93.5
422.953	92.5
423.175	78.5
423.398	93.5
423.621	87.5
423.843	85.5
424.066	86.5
424.288	87.5
424.511	91.5
424.733	103.5
424.956	111.5
425.178	79.5
425.401	84.5
425.623	92.5
425.846	90.5
426.068	87.5
426.291	94.5
426.513	95.5
426.735	96.5
426.958	98.5
427.18	94.5
427.402	129.5
427.625	140.5
427.847	131.5
428.069	139.5
428.292	84.5
428.514	93.5
428.736	78.5
428.958	80.5
429.181	76.5
429.403	67.5
429.625	99.5
429.847	95.5
430.069	88.5
430.292	87.5
430.514	74.5
430.736	88.5
430.958	69.5
431.18	84.5
431.402	87.5
431.624	79.5
431.846	91.5
432.068	87.5
432.29	79.5
432.512	90.5
432.734	84.5
432.956	97.5
433.178	100.5
433.4	93.5
433.622	77.5
433.844	87.5
434.066	99.5
434.287	90.5
434.509	92.5
434.731	86.5
434.953	80.5
435.175	89.5
435.397	79.5
435.618	86.5
435.84	96.5
436.062	109.5
436.284	111.5
436.505	102.5
436.727	98.5
436.949	86.5
437.17	85.5
437.392	78.5
437.614	98.5
437.835	88.5
438.057	115.5
438.278	103.5
438.5	99.5
438.721	121.5
438.943	111.5
439.165	85.5
439.386	78.5
439.608	99.5
439.829	90.5
440.05	109.5
440.272	110.5
440.493	81.5
440.715	89.5
440.936	97.5
441.158	92.5
441.379	74.5
441.6	85.5
441.822	96.5
442.043	103.5
442.264	102.5
442.486	102.5
442.707	82.5
442.928	80.5
443.149	103.5
443.371	115.5
443.592	100.5
443.813	90.5
444.034	94.5
444.255	85.5
444.476	87.5
444.698	80.5
444.919	86.5
445.14	111.5
445.361	107.5
445.582	103.5
445.803	125.5
446.024	135.5
446.245	126.5
446.466	100.5
446.687	76.5
446.908	88.5
447.129	101.5
447.35	84.5
447.571	77.5
447.792	98.5
448.013	93.5
448.234	98.5
448.455	97.5
448.675	106.5
448.896	98.5
449.117	99.5
449.338	95.5
449.559	107.5
449.779	116.5
450	95.5
450.221	83.5
450.442	81.5
450.662	91.5
450.883	98.5
451.104	102.5
451.324	94.5
451.545	83.5
451.766	84.5
451.986	87.5
452.207	82.5
452.428	100.5
452.648	90.5
452.869	94.5
453.089	96.5
453.31	99.5
453.53	85.5
453.751	99.5
453.971	86.5
454.192	99.5
454.412	97.5
454.633	84.5
454.853	85.5
455.073	79.5
455.294	87.5
455.514	91.5
455.734	94.5
455.955	66.5
456.175	84.5
456.395	80.5
456.616	82.5
456.836	86.5
457.056	89.5
457.276	80.5
457.497	87.5
457.717	87.5
457.937	106.5
458.157	90.5
458.377	83.5
458.598	83.5
458.818	110.5
459.038	117.5
459.258	107.5
459.478	82.5
459.698	87.5
459.918	82.5
460.138	83.5
460.358	74.5
460.578	92.5
460.798	84.5
461.018	84.5
461.238	94.5
461.458	88.5
461.678	95.5
461.898	80.5
462.118	96.5
462.338	94.5
462.558	84.5
462.777	89.5
462.997	94.5
463.217	92.5
463.437	75.5
463.657	88.5
463.876	95.5
464.096	93.5
464.316	95.5
464.536	108.5
464.755	76.5
464.975	93.5
465.195	131.5
465.414	112.5
465.634	92.5
465.854	63.5
466.073	81.5
466.293	86.5
466.512	78.5
466.732	88.5
466.951	80.5
467.171	89.5
467.391	94.5
467.61	94.5
467.829	126.5
468.049	236.5
468.268	312.5
468.488	121.5
468.707	97.5
468.927	85.5
469.146	84.5
469.365	91.5
469.585	89.5
469.804	89.5
470.023	78.5
470.243	88.5
470.462	95.5
470.681	96.5
470.901	96.5
471.12	79.5
471.339	84.5
471.558	88.5
471.777	104.5
471.997	141.5
472.216	452.5
472.435	860.5
472.654	245.5
472.873	116.5
473.092	84.5
473.311	106.5
473.53	84.5
473.749	89.5
473.968	78.5
474.187	94.5
474.406	83.5
474.625	94.5
474.844	80.5
475.063	83.5
475.282	74.5
475.501	98.5
475.72	94.5
475.939	83.5
476.158	97.5
476.377	82.5
476.596	92.5
476.814	82.5
477.033	74.5
477.252	96.5
477.471	102.5
477.69	87.5
477.908	101.5
478.127	89.5
478.346	82.5
478.564	89.5
478.783	83.5
479.002	87.5
479.22	79.5
479.439	95.5
479.658	93.5
479.876	96.5
480.095	93.5
480.313	111.5
480.532	109.5
480.751	161.5
480.969	444.5
481.188	1552.5
481.406	868.5
481.624	183.5
481.843	109.5
482.061	91.5
482.28	94.5
482.498	84.5
482.717	88.5
482.935	63.5
483.153	84.5
483.372	80.5
483.59	81.5
483.808	85.5
484.027	93.5
484.245	85.5
484.463	84.5
484.681	88.5
484.9	96.5
485.118	97.5
485.336	96.5
485.554	87.5
485.772	86.5
485.99	90.5
486.209	108.5
486.427	111.5
486.645	117.5
486.863	108.5
487.081	93.5
487.299	94.5
487.517	91.5
487.735	98.5
487.953	82.5
488.171	94.5
488.389	94.5
488.607	87.5
488.825	99.5
489.043	87.5
489.261	101.5
489.479	82.5
489.696	93.5
489.914	93.5
490.132	96.5
490.35	78.5
490.568	97.5
490.786	84.5
491.003	87.5
491.221	69.5
491.439	80.5
491.657	92.5
491.874	96.5
492.092	77.5
492.31	93.5
492.527	98.5
492.745	93.5
492.963	96.5
493.18	77.5
493.398	94.5
493.615	81.5
493.833	95.5
494.05	94.5
494.268	87.5
494.485	100.5
494.703	90.5
494.92	89.5
495.138	86.5
495.355	85.5
495.573	100.5
495.79	86.5
496.008	90.5
496.225	94.5
496.442	91.5
496.66	80.5
496.877	97.5
497.094	74.5
497.312	79.5
497.529	96.5
497.746	104.5
497.963	81.5
498.181	84.5
498.398	105.5
498.615	103.5
498.832	101.5
499.049	83.5
499.267	91.5
499.484	87.5
499.701	92.5
499.918	93.5
500.135	83.5
500.352	90.5
500.569	76.5
500.786	99.5
501.003	85.5
501.22	72.5
501.437	99.5
501.654	79.5
501.871	95.5
502.088	78.5
502.305	93.5
502.522	83.5
502.739	91.5
502.956	98.5
503.172	91.5
503.389	84.5
503.606	95.5
503.823	90.5
504.04	80.5
504.256	87.5
504.473	93.5
504.69	84.5
504.907	86.5
505.123	91.5
505.34	89.5
505.557	78.5
505.773	84.5
505.99	85.5
506.207	85.5
506.423	88.5
506.64	95.5
506.856	87.5
507.073	77.5
507.289	92.5
507.506	86.5
507.722	86.5
507.939	95.5
508.155	94.5
508.372	82.5
508.588	75.5
508.805	100.5
509.021	109.5
509.238	92.5
509.454	82.5
509.67	98.5
509.887	104.5
510.103	126.5
510.319	157.5
510.536	545.5
510.752	1582.5
510.968	477.5
511.184	136.5
511.401	94.5
511.617	91.5
511.833	88.5
512.049	85.5
512.265	90.5
512.481	84.5
512.698	76.5
512.914	80.5
513.13	82.5
513.346	96.5
513.562	100.5
513.778	110.5
513.994	87.5
514.21	99.5
514.426	110.5
514.642	126.5
514.858	117.5
515.074	140.5
515.29	319.5
515.506	961.5
515.721	378.5
515.937	143.5
516.153	101.5
516.369	103.5
516.585	88.5
516.801	102.5
517.016	82.5
517.232	77.5
517.448	91.5
517.664	91.5
517.879	95.5
518.095	84.5
518.311	91.5
518.527	99.5
518.742	90.5
518.958	84.5
519.173	91.5
519.389	87.5
519.605	78.5
519.82	79.5
520.036	85.5
520.251	100.5
520.467	108.5
520.682	102.5
520.898	100.5
521.113	94.5
521.329	136.5
521.544	159.5
521.76	398.5
521.975	1564.5
522.19	973.5
522.406	234.5
522.621	108.5
522.836	92.5
523.052	80.5
523.267	86.5
523.482	84.5
523.698	85.5
523.913	111.5
524.128	101.5
524.343	85.5
524.559	89.5
524.774	84.5
524.989	87.5
525.204	83.5
525.419	87.5
525.634	84.5
525.849	90.5
526.064	86.5
526.28	99.5
526.495	92.5
526.71	98.5
526.925	80.5
527.14	84.5
527.355	92.5
527.57	83.5
527.785	98.5
527.999	84.5
528.214	83.5
528.429	82.5
528.644	90.5
528.859	91.5
529.074	101.5
529.289	106.5
529.503	136.5
529.718	101.5
529.933	87.5
530.148	82.5
530.363	95.5
530.577	75.5
530.792	74.5
531.007	88.5
531.221	85.5
531.436	95.5
531.651	93.5
531.865	96.5
532.08	92.5
532.295	84.5
532.509	84.5
532.724	87.5
532.938	94.5
533.153	83.5
533.367	84.5
533.582	79.5
533.796	90.5
534.011	85.5
534.225	85.5
534.44	94.5
534.654	90.5
534.868	88.5
535.083	84.5
535.297	87.5
535.511	79.5
535.726	94.5
535.94	89.5
536.154	84.5
536.369	86.5
536.583	86.5
