Data from Circ_1989_H10_HRD10591_00100.txt Node
Date: Wed Jan 03 12:01:41 EST 2024
User: Yrep
Spectrometer: HR+D1059
Trigger mode: 1
Integration Time (sec): 1.000000E-1
Scans to average: 1
Electric dark correction enabled: true
Nonlinearity correction enabled: false
Boxcar width: 0
XAxis mode: Wavelengths
Number of Pixels in Spectrum: 2048
>>>>>Begin Spectral Data<<<<<
223.165	-17.5
223.4	-17.5
223.635	-17.5
223.869	-7.5
224.104	-18.5
224.338	-0.5
224.573	-24.5
224.808	-13.5
225.042	-4.5
225.277	-2.5
225.511	-10.5
225.746	2.5
225.98	15.5
226.215	0.5
226.449	12.5
226.683	13.5
226.918	21.5
227.152	33.5
227.387	39.5
227.621	46.5
227.856	62.5
228.09	54.5
228.324	68.5
228.559	66.5
228.793	61.5
229.027	61.5
229.262	61.5
229.496	83.5
229.73	103.5
229.964	114.5
230.199	79.5
230.433	81.5
230.667	82.5
230.901	92.5
231.136	76.5
231.37	78.5
231.604	82.5
231.838	73.5
232.072	96.5
232.306	83.5
232.541	80.5
232.775	90.5
233.009	79.5
233.243	73.5
233.477	98.5
233.711	62.5
233.945	79.5
234.179	82.5
234.413	80.5
234.647	80.5
234.881	94.5
235.115	82.5
235.349	89.5
235.583	89.5
235.817	68.5
236.051	68.5
236.285	79.5
236.519	72.5
236.753	76.5
236.987	65.5
237.221	102.5
237.455	98.5
237.689	85.5
237.922	76.5
238.156	76.5
238.39	76.5
238.624	70.5
238.858	71.5
239.091	85.5
239.325	84.5
239.559	87.5
239.793	81.5
240.027	69.5
240.26	80.5
240.494	90.5
240.728	78.5
240.961	84.5
241.195	70.5
241.429	76.5
241.662	83.5
241.896	78.5
242.13	69.5
242.363	90.5
242.597	60.5
242.83	83.5
243.064	75.5
243.298	81.5
243.531	60.5
243.765	76.5
243.998	88.5
244.232	96.5
244.465	87.5
244.699	82.5
244.932	76.5
245.166	83.5
245.399	88.5
245.633	76.5
245.866	71.5
246.099	82.5
246.333	83.5
246.566	79.5
246.8	79.5
247.033	78.5
247.266	89.5
247.5	74.5
247.733	84.5
247.966	84.5
248.2	78.5
248.433	91.5
248.666	83.5
248.899	79.5
249.133	93.5
249.366	102.5
249.599	108.5
249.832	81.5
250.066	95.5
250.299	92.5
250.532	88.5
250.765	84.5
250.998	86.5
251.231	88.5
251.465	80.5
251.698	80.5
251.931	79.5
252.164	84.5
252.397	92.5
252.63	80.5
252.863	77.5
253.096	85.5
253.329	80.5
253.562	84.5
253.795	71.5
254.028	73.5
254.261	87.5
254.494	80.5
254.727	89.5
254.96	73.5
255.193	79.5
255.426	82.5
255.659	60.5
255.892	96.5
256.124	96.5
256.357	84.5
256.59	81.5
256.823	93.5
257.056	98.5
257.289	89.5
257.521	100.5
257.754	88.5
257.987	90.5
258.22	82.5
258.452	100.5
258.685	103.5
258.918	84.5
259.151	82.5
259.383	84.5
259.616	75.5
259.849	71.5
260.081	80.5
260.314	94.5
260.547	93.5
260.779	97.5
261.012	114.5
261.244	106.5
261.477	100.5
261.71	112.5
261.942	135.5
262.175	164.5
262.407	100.5
262.64	92.5
262.872	84.5
263.105	81.5
263.337	74.5
263.57	90.5
263.802	95.5
264.035	82.5
264.267	89.5
264.499	91.5
264.732	79.5
264.964	81.5
265.197	87.5
265.429	95.5
265.661	92.5
265.894	77.5
266.126	90.5
266.358	69.5
266.591	72.5
266.823	83.5
267.055	85.5
267.287	89.5
267.52	80.5
267.752	84.5
267.984	65.5
268.216	78.5
268.448	93.5
268.681	91.5
268.913	90.5
269.145	80.5
269.377	81.5
269.609	84.5
269.841	97.5
270.073	95.5
270.306	89.5
270.538	74.5
270.77	85.5
271.002	91.5
271.234	93.5
271.466	93.5
271.698	97.5
271.93	89.5
272.162	97.5
272.394	94.5
272.626	100.5
272.858	92.5
273.09	96.5
273.322	86.5
273.553	77.5
273.785	82.5
274.017	87.5
274.249	93.5
274.481	83.5
274.713	101.5
274.945	92.5
275.176	88.5
275.408	96.5
275.64	99.5
275.872	119.5
276.104	106.5
276.335	109.5
276.567	126.5
276.799	156.5
277.031	184.5
277.262	196.5
277.494	166.5
277.726	105.5
277.957	89.5
278.189	97.5
278.421	88.5
278.652	94.5
278.884	84.5
279.115	89.5
279.347	93.5
279.579	111.5
279.81	121.5
280.042	221.5
280.273	294.5
280.505	215.5
280.736	107.5
280.968	108.5
281.199	97.5
281.431	84.5
281.662	83.5
281.894	83.5
282.125	95.5
282.356	141.5
282.588	187.5
282.819	118.5
283.051	88.5
283.282	81.5
283.513	97.5
283.745	89.5
283.976	99.5
284.207	94.5
284.439	93.5
284.67	90.5
284.901	104.5
285.132	93.5
285.364	86.5
285.595	96.5
285.826	92.5
286.057	96.5
286.288	71.5
286.52	83.5
286.751	84.5
286.982	83.5
287.213	79.5
287.444	76.5
287.675	95.5
287.906	90.5
288.138	86.5
288.369	87.5
288.6	99.5
288.831	86.5
289.062	90.5
289.293	100.5
289.524	84.5
289.755	81.5
289.986	83.5
290.217	78.5
290.448	96.5
290.679	101.5
290.91	86.5
291.141	90.5
291.371	100.5
291.602	94.5
291.833	90.5
292.064	93.5
292.295	86.5
292.526	91.5
292.757	93.5
292.987	97.5
293.218	100.5
293.449	80.5
293.68	90.5
293.91	95.5
294.141	91.5
294.372	93.5
294.603	87.5
294.833	93.5
295.064	86.5
295.295	86.5
295.525	96.5
295.756	95.5
295.987	116.5
296.217	171.5
296.448	154.5
296.679	100.5
296.909	95.5
297.14	101.5
297.37	95.5
297.601	88.5
297.831	85.5
298.062	86.5
298.292	90.5
298.523	96.5
298.753	97.5
298.984	84.5
299.214	96.5
299.445	105.5
299.675	90.5
299.905	84.5
300.136	79.5
300.366	93.5
300.597	105.5
300.827	102.5
301.057	104.5
301.288	115.5
301.518	96.5
301.748	100.5
301.979	118.5
302.209	100.5
302.439	110.5
302.669	97.5
302.9	102.5
303.13	97.5
303.36	119.5
303.59	152.5
303.82	160.5
304.051	110.5
304.281	94.5
304.511	93.5
304.741	93.5
304.971	82.5
305.201	94.5
305.431	88.5
305.661	98.5
305.891	103.5
306.121	107.5
306.352	127.5
306.582	115.5
306.812	113.5
307.042	123.5
307.272	178.5
307.502	181.5
307.731	179.5
307.961	131.5
308.191	94.5
308.421	105.5
308.651	99.5
308.881	101.5
309.111	99.5
309.341	104.5
309.571	109.5
309.8	88.5
310.03	117.5
310.26	108.5
310.49	99.5
310.72	111.5
310.949	134.5
311.179	114.5
311.409	112.5
311.639	112.5
311.868	105.5
312.098	115.5
312.328	104.5
312.557	108.5
312.787	132.5
313.017	124.5
313.246	106.5
313.476	103.5
313.706	88.5
313.935	109.5
314.165	104.5
314.394	104.5
314.624	97.5
314.853	113.5
315.083	105.5
315.312	104.5
315.542	110.5
315.771	88.5
316.001	95.5
316.23	101.5
316.46	109.5
316.689	92.5
316.919	103.5
317.148	106.5
317.377	100.5
317.607	113.5
317.836	104.5
318.065	92.5
318.295	89.5
318.524	93.5
318.753	90.5
318.983	101.5
319.212	117.5
319.441	122.5
319.67	123.5
319.9	112.5
320.129	89.5
320.358	103.5
320.587	113.5
320.816	103.5
321.046	111.5
321.275	109.5
321.504	108.5
321.733	104.5
321.962	101.5
322.191	102.5
322.42	119.5
322.649	119.5
322.878	134.5
323.108	153.5
323.337	150.5
323.566	167.5
323.795	192.5
324.024	276.5
324.253	573.5
324.482	1191.5
324.71	2653.5
324.939	3616.5
325.168	1281.5
325.397	342.5
325.626	183.5
325.855	144.5
326.084	156.5
326.313	156.5
326.542	196.5
326.77	301.5
326.999	636.5
327.228	1376.5
327.457	2641.5
327.686	2063.5
327.914	675.5
328.143	606.5
328.372	764.5
328.6	423.5
328.829	195.5
329.058	208.5
329.287	225.5
329.515	205.5
329.744	274.5
329.972	565.5
330.201	1165.5
330.43	1732.5
330.658	746.5
330.887	332.5
331.115	220.5
331.344	142.5
331.572	129.5
331.801	140.5
332.03	143.5
332.258	114.5
332.486	116.5
332.715	114.5
332.943	131.5
333.172	132.5
333.4	134.5
333.629	180.5
333.857	253.5
334.085	480.5
334.314	1068.5
334.542	2115.5
334.771	2022.5
334.999	511.5
335.227	192.5
335.455	131.5
335.684	124.5
335.912	119.5
336.14	105.5
336.369	111.5
336.597	99.5
336.825	125.5
337.053	109.5
337.281	107.5
337.51	99.5
337.738	97.5
337.966	102.5
338.194	105.5
338.422	109.5
338.65	105.5
338.878	111.5
339.106	99.5
339.334	96.5
339.562	81.5
339.79	80.5
340.018	87.5
340.246	106.5
340.474	111.5
340.702	98.5
340.93	108.5
341.158	108.5
341.386	114.5
341.614	111.5
341.842	96.5
342.07	111.5
342.298	93.5
342.526	96.5
342.754	105.5
342.981	107.5
343.209	101.5
343.437	105.5
343.665	82.5
343.893	101.5
344.12	86.5
344.348	86.5
344.576	89.5
344.804	93.5
345.031	111.5
345.259	119.5
345.487	102.5
345.714	110.5
345.942	112.5
346.17	110.5
346.397	97.5
346.625	103.5
346.853	97.5
347.08	108.5
347.308	90.5
347.535	109.5
347.763	113.5
347.99	111.5
348.218	113.5
348.445	120.5
348.673	135.5
348.9	102.5
349.128	103.5
349.355	109.5
349.583	101.5
349.81	97.5
350.037	94.5
350.265	107.5
350.492	109.5
350.72	111.5
350.947	121.5
351.174	137.5
351.402	132.5
351.629	104.5
351.856	114.5
352.083	115.5
352.311	120.5
352.538	133.5
352.765	113.5
352.992	126.5
353.22	112.5
353.447	125.5
353.674	118.5
353.901	99.5
354.128	89.5
354.355	91.5
354.583	101.5
354.81	102.5
355.037	102.5
355.264	97.5
355.491	92.5
355.718	86.5
355.945	87.5
356.172	114.5
356.399	108.5
356.626	94.5
356.853	88.5
357.08	91.5
357.307	108.5
357.534	85.5
357.761	80.5
357.988	106.5
358.215	89.5
358.441	85.5
358.668	81.5
358.895	93.5
359.122	107.5
359.349	76.5
359.576	106.5
359.802	125.5
360.029	162.5
360.256	151.5
360.483	116.5
360.709	86.5
360.936	105.5
361.163	96.5
361.39	99.5
361.616	113.5
361.843	96.5
362.07	98.5
362.296	112.5
362.523	102.5
362.749	105.5
362.976	103.5
363.203	97.5
363.429	106.5
363.656	109.5
363.882	88.5
364.109	95.5
364.335	93.5
364.562	95.5
364.788	93.5
365.015	90.5
365.241	108.5
365.468	125.5
365.694	121.5
365.92	112.5
366.147	108.5
366.373	108.5
366.599	85.5
366.826	98.5
367.052	92.5
367.278	99.5
367.505	91.5
367.731	91.5
367.957	85.5
368.184	102.5
368.41	103.5
368.636	124.5
368.862	132.5
369.089	128.5
369.315	112.5
369.541	114.5
369.767	102.5
369.993	90.5
370.219	103.5
370.445	103.5
370.672	85.5
370.898	81.5
371.124	96.5
371.35	90.5
371.576	100.5
371.802	94.5
372.028	89.5
372.254	89.5
372.48	89.5
372.706	90.5
372.932	96.5
373.158	98.5
373.384	87.5
373.61	99.5
373.835	95.5
374.061	81.5
374.287	82.5
374.513	100.5
374.739	97.5
374.965	95.5
375.191	87.5
375.416	94.5
375.642	94.5
375.868	93.5
376.094	91.5
376.319	85.5
376.545	96.5
376.771	98.5
376.997	87.5
377.222	90.5
377.448	102.5
377.674	102.5
377.899	92.5
378.125	91.5
378.35	97.5
378.576	82.5
378.802	90.5
379.027	96.5
379.253	97.5
379.478	122.5
379.704	99.5
379.929	112.5
380.155	104.5
380.38	105.5
380.606	98.5
380.831	91.5
381.057	113.5
381.282	111.5
381.507	101.5
381.733	96.5
381.958	100.5
382.184	102.5
382.409	102.5
382.634	113.5
382.86	94.5
383.085	88.5
383.31	94.5
383.535	102.5
383.761	105.5
383.986	100.5
384.211	70.5
384.436	109.5
384.662	101.5
384.887	108.5
385.112	102.5
385.337	102.5
385.562	102.5
385.787	95.5
386.013	100.5
386.238	126.5
386.463	92.5
386.688	117.5
386.913	97.5
387.138	106.5
387.363	87.5
387.588	103.5
387.813	101.5
388.038	110.5
388.263	106.5
388.488	105.5
388.713	108.5
388.938	94.5
389.163	93.5
389.387	94.5
389.612	77.5
389.837	70.5
390.062	92.5
390.287	103.5
390.512	91.5
390.736	106.5
390.961	98.5
391.186	96.5
391.411	103.5
391.636	90.5
391.86	84.5
392.085	85.5
392.31	81.5
392.534	77.5
392.759	106.5
392.984	86.5
393.208	88.5
393.433	104.5
393.658	90.5
393.882	64.5
394.107	90.5
394.331	92.5
394.556	82.5
394.78	99.5
395.005	87.5
395.229	82.5
395.454	81.5
395.678	95.5
395.903	91.5
396.127	90.5
396.352	88.5
396.576	96.5
396.801	104.5
397.025	101.5
397.249	85.5
397.474	89.5
397.698	100.5
397.922	87.5
398.147	95.5
398.371	99.5
398.595	87.5
398.82	91.5
399.044	101.5
399.268	85.5
399.492	96.5
399.717	87.5
399.941	93.5
400.165	92.5
400.389	100.5
400.613	104.5
400.837	94.5
401.062	90.5
401.286	101.5
401.51	98.5
401.734	97.5
401.958	122.5
402.182	142.5
402.406	201.5
402.63	154.5
402.854	106.5
403.078	106.5
403.302	89.5
403.526	91.5
403.75	101.5
403.974	96.5
404.198	109.5
404.422	107.5
404.645	101.5
404.869	113.5
405.093	136.5
405.317	172.5
405.541	143.5
405.765	119.5
405.988	163.5
406.212	210.5
406.436	307.5
406.66	233.5
406.883	123.5
407.107	99.5
407.331	117.5
407.555	107.5
407.778	113.5
408.002	98.5
408.226	100.5
408.449	81.5
408.673	89.5
408.896	97.5
409.12	112.5
409.344	96.5
409.567	88.5
409.791	93.5
410.014	98.5
410.238	98.5
410.461	100.5
410.685	96.5
410.908	102.5
411.132	110.5
411.355	102.5
411.578	88.5
411.802	82.5
412.025	101.5
412.249	108.5
412.472	131.5
412.695	149.5
412.919	112.5
413.142	104.5
413.365	103.5
413.589	97.5
413.812	83.5
414.035	95.5
414.258	98.5
414.482	86.5
414.705	99.5
414.928	93.5
415.151	91.5
415.374	96.5
415.597	90.5
415.821	103.5
416.044	101.5
416.267	80.5
416.49	99.5
416.713	93.5
416.936	99.5
417.159	96.5
417.382	109.5
417.605	104.5
417.828	124.5
418.051	116.5
418.274	89.5
418.497	82.5
418.72	100.5
418.943	92.5
419.166	87.5
419.389	102.5
419.611	86.5
419.834	98.5
420.057	92.5
420.28	110.5
420.503	103.5
420.726	92.5
420.948	90.5
421.171	101.5
421.394	101.5
421.617	89.5
421.839	92.5
422.062	89.5
422.285	90.5
422.507	114.5
422.73	126.5
422.953	106.5
423.175	92.5
423.398	90.5
423.621	80.5
423.843	89.5
424.066	100.5
424.288	89.5
424.511	100.5
424.733	100.5
424.956	130.5
425.178	106.5
425.401	117.5
425.623	105.5
425.846	93.5
426.068	98.5
426.291	102.5
426.513	93.5
426.735	96.5
426.958	132.5
427.18	132.5
427.402	192.5
427.625	296.5
427.847	286.5
428.069	262.5
428.292	146.5
428.514	104.5
428.736	104.5
428.958	78.5
429.181	84.5
429.403	95.5
429.625	82.5
429.847	107.5
430.069	108.5
430.292	124.5
430.514	104.5
430.736	96.5
430.958	90.5
431.18	79.5
431.402	104.5
431.624	96.5
431.846	84.5
432.068	94.5
432.29	89.5
432.512	90.5
432.734	92.5
432.956	100.5
433.178	99.5
433.4	111.5
433.622	109.5
433.844	103.5
434.066	109.5
434.287	101.5
434.509	83.5
434.731	89.5
434.953	76.5
435.175	97.5
435.397	107.5
435.618	95.5
435.84	117.5
436.062	148.5
436.284	157.5
436.505	121.5
436.727	116.5
436.949	104.5
437.17	99.5
437.392	96.5
437.614	114.5
437.835	132.5
438.057	162.5
438.278	155.5
438.5	106.5
438.721	164.5
438.943	123.5
439.165	90.5
439.386	90.5
439.608	104.5
439.829	129.5
440.05	190.5
440.272	215.5
440.493	135.5
440.715	100.5
440.936	102.5
441.158	98.5
441.379	93.5
441.6	117.5
441.822	111.5
442.043	104.5
442.264	119.5
442.486	128.5
442.707	99.5
442.928	134.5
443.149	213.5
443.371	202.5
443.592	133.5
443.813	140.5
444.034	132.5
444.255	99.5
444.476	96.5
444.698	108.5
444.919	99.5
445.14	130.5
445.361	154.5
445.582	152.5
445.803	209.5
446.024	192.5
446.245	190.5
446.466	155.5
446.687	88.5
446.908	83.5
447.129	89.5
447.35	100.5
447.571	85.5
447.792	103.5
448.013	123.5
448.234	123.5
448.455	110.5
448.675	149.5
448.896	159.5
449.117	114.5
449.338	124.5
449.559	157.5
449.779	185.5
450	104.5
450.221	97.5
450.442	96.5
450.662	100.5
450.883	120.5
451.104	144.5
451.324	113.5
451.545	116.5
451.766	108.5
451.986	95.5
452.207	84.5
452.428	89.5
452.648	123.5
452.869	135.5
453.089	145.5
453.31	131.5
453.53	106.5
453.751	115.5
453.971	134.5
454.192	153.5
454.412	112.5
454.633	82.5
454.853	90.5
455.073	100.5
455.294	106.5
455.514	114.5
455.734	102.5
455.955	98.5
456.175	91.5
456.395	85.5
456.616	86.5
456.836	98.5
457.056	91.5
457.276	96.5
457.497	87.5
457.717	84.5
457.937	84.5
458.157	93.5
458.377	110.5
458.598	136.5
458.818	229.5
459.038	245.5
459.258	160.5
459.478	104.5
459.698	86.5
459.918	86.5
460.138	72.5
460.358	91.5
460.578	85.5
460.798	101.5
461.018	106.5
461.238	93.5
461.458	90.5
461.678	96.5
461.898	85.5
462.118	94.5
462.338	105.5
462.558	95.5
462.777	102.5
462.997	100.5
463.217	112.5
463.437	89.5
463.657	112.5
463.876	103.5
464.096	80.5
464.316	103.5
464.536	112.5
464.755	102.5
464.975	143.5
465.195	261.5
465.414	262.5
465.634	118.5
465.854	95.5
466.073	98.5
466.293	110.5
466.512	97.5
466.732	96.5
466.951	93.5
467.171	112.5
467.391	110.5
467.61	151.5
467.829	228.5
468.049	618.5
468.268	925.5
468.488	237.5
468.707	111.5
468.927	90.5
469.146	100.5
469.365	100.5
469.585	92.5
469.804	118.5
470.023	110.5
470.243	105.5
470.462	129.5
470.681	153.5
470.901	119.5
471.12	104.5
471.339	113.5
471.558	130.5
471.777	157.5
471.997	298.5
472.216	1193.5
472.435	2869.5
472.654	655.5
472.873	192.5
473.092	125.5
473.311	102.5
473.53	84.5
473.749	94.5
473.968	113.5
474.187	123.5
474.406	124.5
474.625	99.5
474.844	88.5
475.063	104.5
475.282	100.5
475.501	98.5
475.72	88.5
475.939	88.5
476.158	105.5
476.377	96.5
476.596	103.5
476.814	116.5
477.033	111.5
477.252	100.5
477.471	90.5
477.69	98.5
477.908	93.5
478.127	96.5
478.346	78.5
478.564	100.5
478.783	100.5
479.002	115.5
479.22	107.5
479.439	117.5
479.658	144.5
479.876	148.5
480.095	128.5
480.313	143.5
480.532	166.5
480.751	318.5
480.969	1089.5
481.188	4823.5
481.406	2796.5
481.624	398.5
481.843	150.5
482.061	111.5
482.28	112.5
482.498	104.5
482.717	93.5
482.935	109.5
483.153	90.5
483.372	90.5
483.59	97.5
483.808	96.5
484.027	100.5
484.245	106.5
484.463	99.5
484.681	92.5
484.9	94.5
485.118	97.5
485.336	91.5
485.554	99.5
485.772	112.5
485.99	109.5
486.209	117.5
486.427	120.5
486.645	117.5
486.863	152.5
487.081	126.5
487.299	94.5
487.517	110.5
487.735	90.5
487.953	106.5
488.171	97.5
488.389	100.5
488.607	115.5
488.825	92.5
489.043	90.5
489.261	88.5
489.479	92.5
489.696	87.5
489.914	94.5
490.132	76.5
490.35	92.5
490.568	87.5
490.786	93.5
491.003	87.5
491.221	86.5
491.439	97.5
491.657	84.5
491.874	98.5
492.092	90.5
492.31	91.5
492.527	96.5
492.745	91.5
492.963	101.5
493.18	104.5
493.398	98.5
493.615	95.5
493.833	86.5
494.05	93.5
494.268	95.5
494.485	99.5
494.703	84.5
494.92	77.5
495.138	95.5
495.355	99.5
495.573	80.5
495.79	80.5
496.008	98.5
496.225	104.5
496.442	79.5
496.66	86.5
496.877	92.5
497.094	86.5
497.312	90.5
497.529	99.5
497.746	93.5
497.963	94.5
498.181	99.5
498.398	92.5
498.615	112.5
498.832	125.5
499.049	108.5
499.267	95.5
499.484	90.5
499.701	100.5
499.918	96.5
500.135	88.5
500.352	99.5
500.569	93.5
500.786	93.5
501.003	106.5
501.22	94.5
501.437	112.5
501.654	108.5
501.871	124.5
502.088	104.5
502.305	103.5
502.522	93.5
502.739	96.5
502.956	92.5
503.172	96.5
503.389	113.5
503.606	127.5
503.823	119.5
504.04	86.5
504.256	98.5
504.473	100.5
504.69	89.5
504.907	85.5
505.123	95.5
505.34	88.5
505.557	96.5
505.773	90.5
505.99	92.5
506.207	90.5
506.423	89.5
506.64	72.5
506.856	97.5
507.073	92.5
507.289	96.5
507.506	113.5
507.722	142.5
507.939	142.5
508.155	95.5
508.372	95.5
508.588	92.5
508.805	93.5
509.021	102.5
509.238	97.5
509.454	106.5
509.67	103.5
509.887	118.5
510.103	131.5
510.319	226.5
510.536	853.5
510.752	3148.5
510.968	826.5
511.184	184.5
511.401	133.5
511.617	102.5
511.833	121.5
512.049	86.5
512.265	94.5
512.481	104.5
512.698	100.5
512.914	90.5
513.13	98.5
513.346	104.5
513.562	113.5
513.778	109.5
513.994	116.5
514.21	121.5
514.426	141.5
514.642	206.5
514.858	172.5
515.074	239.5
515.29	770.5
515.506	2711.5
515.721	951.5
515.937	237.5
516.153	131.5
516.369	107.5
516.585	99.5
516.801	130.5
517.016	98.5
517.232	87.5
517.448	102.5
517.664	115.5
517.879	100.5
518.095	90.5
518.311	113.5
518.527	119.5
518.742	104.5
518.958	103.5
519.173	117.5
519.389	90.5
519.605	95.5
519.82	93.5
520.036	107.5
520.251	158.5
520.467	139.5
520.682	144.5
520.898	134.5
521.113	158.5
521.329	209.5
521.544	322.5
521.76	1012.5
521.975	4585.5
522.19	2700.5
522.406	540.5
522.621	168.5
522.836	132.5
523.052	133.5
523.267	106.5
523.482	99.5
523.698	121.5
523.913	152.5
524.128	113.5
524.343	105.5
524.559	100.5
524.774	87.5
524.989	96.5
525.204	124.5
525.419	117.5
525.634	96.5
525.849	87.5
526.064	108.5
526.28	94.5
526.495	96.5
526.71	91.5
526.925	84.5
527.14	78.5
527.355	86.5
527.57	81.5
527.785	96.5
527.999	94.5
528.214	94.5
528.429	105.5
528.644	93.5
528.859	102.5
529.074	112.5
529.289	169.5
529.503	305.5
529.718	141.5
529.933	104.5
530.148	83.5
530.363	88.5
