Data from Circ_1989_H10_HRD10591_00070.txt Node
Date: Wed Jan 03 12:01:35 EST 2024
User: Yrep
Spectrometer: HR+D1059
Trigger mode: 1
Integration Time (sec): 1.000000E-1
Scans to average: 1
Electric dark correction enabled: true
Nonlinearity correction enabled: false
Boxcar width: 0
XAxis mode: Wavelengths
Number of Pixels in Spectrum: 2048
>>>>>Begin Spectral Data<<<<<
223.165	-17.5
223.4	-17.5
223.635	-17.5
223.869	-22.5
224.104	-8.5
224.338	-22.5
224.573	-25.5
224.808	-9.5
225.042	-1.5
225.277	2.5
225.511	-7.5
225.746	5.5
225.98	14.5
226.215	18.5
226.449	16.5
226.683	22.5
226.918	10.5
227.152	24.5
227.387	36.5
227.621	35.5
227.856	51.5
228.09	35.5
228.324	45.5
228.559	58.5
228.793	48.5
229.027	57.5
229.262	60.5
229.496	72.5
229.73	86.5
229.964	74.5
230.199	61.5
230.433	69.5
230.667	65.5
230.901	65.5
231.136	78.5
231.37	81.5
231.604	87.5
231.838	83.5
232.072	87.5
232.306	85.5
232.541	80.5
232.775	81.5
233.009	72.5
233.243	86.5
233.477	93.5
233.711	85.5
233.945	82.5
234.179	73.5
234.413	79.5
234.647	82.5
234.881	79.5
235.115	73.5
235.349	83.5
235.583	80.5
235.817	89.5
236.051	86.5
236.285	93.5
236.519	85.5
236.753	84.5
236.987	97.5
237.221	71.5
237.455	87.5
237.689	76.5
237.922	65.5
238.156	82.5
238.39	63.5
238.624	78.5
238.858	72.5
239.091	74.5
239.325	69.5
239.559	69.5
239.793	84.5
240.027	82.5
240.26	79.5
240.494	93.5
240.728	69.5
240.961	58.5
241.195	77.5
241.429	78.5
241.662	78.5
241.896	69.5
242.13	72.5
242.363	67.5
242.597	78.5
242.83	80.5
243.064	73.5
243.298	76.5
243.531	96.5
243.765	78.5
243.998	63.5
244.232	86.5
244.465	83.5
244.699	84.5
244.932	77.5
245.166	76.5
245.399	85.5
245.633	84.5
245.866	86.5
246.099	76.5
246.333	72.5
246.566	64.5
246.8	90.5
247.033	69.5
247.266	65.5
247.5	74.5
247.733	77.5
247.966	72.5
248.2	68.5
248.433	83.5
248.666	71.5
248.899	89.5
249.133	80.5
249.366	91.5
249.599	97.5
249.832	87.5
250.066	89.5
250.299	82.5
250.532	92.5
250.765	90.5
250.998	81.5
251.231	80.5
251.465	73.5
251.698	82.5
251.931	86.5
252.164	89.5
252.397	77.5
252.63	80.5
252.863	81.5
253.096	74.5
253.329	103.5
253.562	84.5
253.795	90.5
254.028	96.5
254.261	92.5
254.494	90.5
254.727	80.5
254.96	101.5
255.193	86.5
255.426	81.5
255.659	86.5
255.892	89.5
256.124	86.5
256.357	83.5
256.59	94.5
256.823	102.5
257.056	86.5
257.289	84.5
257.521	86.5
257.754	68.5
257.987	61.5
258.22	78.5
258.452	95.5
258.685	96.5
258.918	88.5
259.151	74.5
259.383	72.5
259.616	82.5
259.849	88.5
260.081	87.5
260.314	81.5
260.547	82.5
260.779	68.5
261.012	91.5
261.244	86.5
261.477	87.5
261.71	79.5
261.942	98.5
262.175	105.5
262.407	93.5
262.64	90.5
262.872	85.5
263.105	81.5
263.337	79.5
263.57	86.5
263.802	89.5
264.035	82.5
264.267	101.5
264.499	71.5
264.732	92.5
264.964	83.5
265.197	93.5
265.429	78.5
265.661	94.5
265.894	94.5
266.126	81.5
266.358	80.5
266.591	84.5
266.823	86.5
267.055	90.5
267.287	88.5
267.52	83.5
267.752	91.5
267.984	81.5
268.216	78.5
268.448	84.5
268.681	89.5
268.913	93.5
269.145	73.5
269.377	97.5
269.609	94.5
269.841	90.5
270.073	75.5
270.306	74.5
270.538	85.5
270.77	86.5
271.002	80.5
271.234	79.5
271.466	91.5
271.698	72.5
271.93	70.5
272.162	90.5
272.394	83.5
272.626	85.5
272.858	91.5
273.09	94.5
273.322	81.5
273.553	78.5
273.785	92.5
274.017	76.5
274.249	99.5
274.481	95.5
274.713	90.5
274.945	82.5
275.176	80.5
275.408	93.5
275.64	99.5
275.872	107.5
276.104	95.5
276.335	79.5
276.567	73.5
276.799	115.5
277.031	117.5
277.262	109.5
277.494	107.5
277.726	89.5
277.957	79.5
278.189	89.5
278.421	88.5
278.652	84.5
278.884	79.5
279.115	72.5
279.347	90.5
279.579	96.5
279.81	94.5
280.042	113.5
280.273	137.5
280.505	102.5
280.736	96.5
280.968	98.5
281.199	82.5
281.431	77.5
281.662	87.5
281.894	92.5
282.125	89.5
282.356	115.5
282.588	132.5
282.819	92.5
283.051	92.5
283.282	81.5
283.513	95.5
283.745	86.5
283.976	78.5
284.207	95.5
284.439	90.5
284.67	90.5
284.901	94.5
285.132	81.5
285.364	88.5
285.595	90.5
285.826	90.5
286.057	92.5
286.288	82.5
286.52	83.5
286.751	81.5
286.982	87.5
287.213	82.5
287.444	90.5
287.675	100.5
287.906	87.5
288.138	80.5
288.369	74.5
288.6	94.5
288.831	99.5
289.062	97.5
289.293	87.5
289.524	96.5
289.755	81.5
289.986	95.5
290.217	88.5
290.448	72.5
290.679	83.5
290.91	103.5
291.141	77.5
291.371	85.5
291.602	90.5
291.833	95.5
292.064	81.5
292.295	83.5
292.526	94.5
292.757	85.5
292.987	84.5
293.218	90.5
293.449	85.5
293.68	95.5
293.91	98.5
294.141	83.5
294.372	87.5
294.603	98.5
294.833	83.5
295.064	66.5
295.295	92.5
295.525	81.5
295.756	89.5
295.987	88.5
296.217	116.5
296.448	103.5
296.679	96.5
296.909	90.5
297.14	99.5
297.37	93.5
297.601	97.5
297.831	77.5
298.062	90.5
298.292	94.5
298.523	86.5
298.753	77.5
298.984	85.5
299.214	95.5
299.445	96.5
299.675	105.5
299.905	102.5
300.136	73.5
300.366	83.5
300.597	77.5
300.827	93.5
301.057	97.5
301.288	97.5
301.518	83.5
301.748	84.5
301.979	90.5
302.209	89.5
302.439	89.5
302.669	98.5
302.9	100.5
303.13	95.5
303.36	86.5
303.59	113.5
303.82	106.5
304.051	99.5
304.281	79.5
304.511	84.5
304.741	97.5
304.971	83.5
305.201	88.5
305.431	81.5
305.661	93.5
305.891	84.5
306.121	90.5
306.352	97.5
306.582	87.5
306.812	99.5
307.042	107.5
307.272	115.5
307.502	130.5
307.731	119.5
307.961	108.5
308.191	103.5
308.421	92.5
308.651	88.5
308.881	97.5
309.111	94.5
309.341	117.5
309.571	100.5
309.8	89.5
310.03	96.5
310.26	101.5
310.49	96.5
310.72	105.5
310.949	96.5
311.179	96.5
311.409	95.5
311.639	105.5
311.868	85.5
312.098	94.5
312.328	102.5
312.557	109.5
312.787	98.5
313.017	89.5
313.246	94.5
313.476	88.5
313.706	94.5
313.935	93.5
314.165	88.5
314.394	104.5
314.624	88.5
314.853	97.5
315.083	91.5
315.312	92.5
315.542	90.5
315.771	96.5
316.001	88.5
316.23	93.5
316.46	86.5
316.689	86.5
316.919	88.5
317.148	90.5
317.377	93.5
317.607	103.5
317.836	96.5
318.065	92.5
318.295	96.5
318.524	107.5
318.753	87.5
318.983	88.5
319.212	95.5
319.441	104.5
319.67	106.5
319.9	92.5
320.129	94.5
320.358	95.5
320.587	90.5
320.816	94.5
321.046	93.5
321.275	109.5
321.504	92.5
321.733	96.5
321.962	86.5
322.191	93.5
322.42	103.5
322.649	115.5
322.878	102.5
323.108	122.5
323.337	135.5
323.566	128.5
323.795	136.5
324.024	184.5
324.253	344.5
324.482	704.5
324.71	1488.5
324.939	1976.5
325.168	713.5
325.397	215.5
325.626	144.5
325.855	117.5
326.084	130.5
326.313	133.5
326.542	149.5
326.77	201.5
326.999	419.5
327.228	830.5
327.457	1560.5
327.686	1252.5
327.914	378.5
328.143	293.5
328.372	311.5
328.6	191.5
328.829	138.5
329.058	127.5
329.287	142.5
329.515	136.5
329.744	157.5
329.972	244.5
330.201	426.5
330.43	591.5
330.658	274.5
330.887	171.5
331.115	146.5
331.344	111.5
331.572	112.5
331.801	112.5
332.03	106.5
332.258	103.5
332.486	96.5
332.715	85.5
332.943	108.5
333.172	99.5
333.4	108.5
333.629	114.5
333.857	149.5
334.085	242.5
334.314	401.5
334.542	737.5
334.771	708.5
334.999	228.5
335.227	129.5
335.455	101.5
335.684	104.5
335.912	98.5
336.14	105.5
336.369	106.5
336.597	94.5
336.825	101.5
337.053	85.5
337.281	97.5
337.51	109.5
337.738	93.5
337.966	94.5
338.194	103.5
338.422	91.5
338.65	107.5
338.878	84.5
339.106	95.5
339.334	98.5
339.562	86.5
339.79	95.5
340.018	89.5
340.246	92.5
340.474	76.5
340.702	86.5
340.93	94.5
341.158	90.5
341.386	99.5
341.614	106.5
341.842	96.5
342.07	98.5
342.298	87.5
342.526	85.5
342.754	94.5
342.981	102.5
343.209	94.5
343.437	89.5
343.665	90.5
343.893	79.5
344.12	94.5
344.348	101.5
344.576	84.5
344.804	76.5
345.031	92.5
345.259	101.5
345.487	104.5
345.714	84.5
345.942	85.5
346.17	73.5
346.397	84.5
346.625	80.5
346.853	101.5
347.08	95.5
347.308	92.5
347.535	90.5
347.763	96.5
347.99	110.5
348.218	96.5
348.445	103.5
348.673	102.5
348.9	110.5
349.128	98.5
349.355	84.5
349.583	88.5
349.81	98.5
350.037	93.5
350.265	87.5
350.492	84.5
350.72	96.5
350.947	100.5
351.174	86.5
351.402	112.5
351.629	96.5
351.856	95.5
352.083	101.5
352.311	104.5
352.538	101.5
352.765	115.5
352.992	114.5
353.22	113.5
353.447	98.5
353.674	115.5
353.901	91.5
354.128	90.5
354.355	91.5
354.583	94.5
354.81	91.5
355.037	106.5
355.264	109.5
355.491	96.5
355.718	92.5
355.945	86.5
356.172	96.5
356.399	89.5
356.626	96.5
356.853	107.5
357.08	90.5
357.307	89.5
357.534	106.5
357.761	90.5
357.988	101.5
358.215	96.5
358.441	100.5
358.668	97.5
358.895	92.5
359.122	108.5
359.349	96.5
359.576	96.5
359.802	95.5
360.029	119.5
360.256	98.5
360.483	99.5
360.709	96.5
360.936	91.5
361.163	100.5
361.39	87.5
361.616	90.5
361.843	91.5
362.07	99.5
362.296	106.5
362.523	89.5
362.749	101.5
362.976	89.5
363.203	96.5
363.429	91.5
363.656	88.5
363.882	97.5
364.109	90.5
364.335	86.5
364.562	90.5
364.788	95.5
365.015	90.5
365.241	114.5
365.468	107.5
365.694	100.5
365.92	94.5
366.147	91.5
366.373	101.5
366.599	97.5
366.826	82.5
367.052	101.5
367.278	102.5
367.505	89.5
367.731	87.5
367.957	96.5
368.184	80.5
368.41	112.5
368.636	108.5
368.862	116.5
369.089	100.5
369.315	73.5
369.541	88.5
369.767	101.5
369.993	100.5
370.219	82.5
370.445	92.5
370.672	88.5
370.898	96.5
371.124	81.5
371.35	94.5
371.576	83.5
371.802	87.5
372.028	94.5
372.254	102.5
372.48	97.5
372.706	83.5
372.932	76.5
373.158	78.5
373.384	92.5
373.61	93.5
373.835	93.5
374.061	89.5
374.287	94.5
374.513	110.5
374.739	96.5
374.965	83.5
375.191	84.5
375.416	99.5
375.642	91.5
375.868	92.5
376.094	106.5
376.319	91.5
376.545	91.5
376.771	85.5
376.997	83.5
377.222	81.5
377.448	110.5
377.674	89.5
377.899	84.5
378.125	90.5
378.35	96.5
378.576	86.5
378.802	94.5
379.027	91.5
379.253	84.5
379.478	93.5
379.704	93.5
379.929	113.5
380.155	86.5
380.38	97.5
380.606	102.5
380.831	105.5
381.057	98.5
381.282	89.5
381.507	83.5
381.733	89.5
381.958	76.5
382.184	94.5
382.409	95.5
382.634	93.5
382.86	105.5
383.085	90.5
383.31	106.5
383.535	110.5
383.761	105.5
383.986	96.5
384.211	103.5
384.436	93.5
384.662	87.5
384.887	88.5
385.112	100.5
385.337	96.5
385.562	95.5
385.787	103.5
386.013	100.5
386.238	100.5
386.463	93.5
386.688	116.5
386.913	112.5
387.138	101.5
387.363	103.5
387.588	102.5
387.813	99.5
388.038	114.5
388.263	116.5
388.488	112.5
388.713	96.5
388.938	88.5
389.163	97.5
389.387	101.5
389.612	94.5
389.837	105.5
390.062	94.5
390.287	100.5
390.512	99.5
390.736	103.5
390.961	78.5
391.186	89.5
391.411	81.5
391.636	98.5
391.86	89.5
392.085	75.5
392.31	94.5
392.534	90.5
392.759	89.5
392.984	85.5
393.208	97.5
393.433	92.5
393.658	103.5
393.882	104.5
394.107	90.5
394.331	89.5
394.556	79.5
394.78	97.5
395.005	94.5
395.229	94.5
395.454	90.5
395.678	88.5
395.903	93.5
396.127	92.5
396.352	88.5
396.576	83.5
396.801	81.5
397.025	77.5
397.249	84.5
397.474	96.5
397.698	86.5
397.922	86.5
398.147	83.5
398.371	95.5
398.595	99.5
398.82	107.5
399.044	88.5
399.268	73.5
399.492	72.5
399.717	79.5
399.941	96.5
400.165	79.5
400.389	99.5
400.613	84.5
400.837	80.5
401.062	93.5
401.286	97.5
401.51	104.5
401.734	84.5
401.958	87.5
402.182	104.5
402.406	129.5
402.63	108.5
402.854	88.5
403.078	82.5
403.302	87.5
403.526	93.5
403.75	84.5
403.974	94.5
404.198	89.5
404.422	102.5
404.645	86.5
404.869	87.5
405.093	105.5
405.317	114.5
405.541	100.5
405.765	97.5
405.988	96.5
406.212	147.5
406.436	192.5
406.66	136.5
406.883	81.5
407.107	97.5
407.331	94.5
407.555	101.5
407.778	98.5
408.002	76.5
408.226	103.5
408.449	89.5
408.673	96.5
408.896	94.5
409.12	88.5
409.344	76.5
409.567	93.5
409.791	80.5
410.014	114.5
410.238	90.5
410.461	100.5
410.685	89.5
410.908	100.5
411.132	103.5
411.355	100.5
411.578	108.5
411.802	95.5
412.025	104.5
412.249	104.5
412.472	98.5
412.695	122.5
412.919	115.5
413.142	97.5
413.365	102.5
413.589	76.5
413.812	85.5
414.035	86.5
414.258	94.5
414.482	94.5
414.705	101.5
414.928	82.5
415.151	99.5
415.374	100.5
415.597	98.5
415.821	89.5
416.044	93.5
416.267	94.5
416.49	89.5
416.713	87.5
416.936	83.5
417.159	89.5
417.382	100.5
417.605	94.5
417.828	91.5
418.051	106.5
418.274	90.5
418.497	104.5
418.72	94.5
418.943	94.5
419.166	88.5
419.389	91.5
419.611	100.5
419.834	71.5
420.057	84.5
420.28	94.5
420.503	86.5
420.726	85.5
420.948	100.5
421.171	100.5
421.394	95.5
421.617	87.5
421.839	89.5
422.062	86.5
422.285	88.5
422.507	104.5
422.73	100.5
422.953	86.5
423.175	89.5
423.398	94.5
423.621	84.5
423.843	95.5
424.066	88.5
424.288	88.5
424.511	81.5
424.733	98.5
424.956	104.5
425.178	94.5
425.401	92.5
425.623	106.5
425.846	83.5
426.068	114.5
426.291	82.5
426.513	85.5
426.735	100.5
426.958	94.5
427.18	97.5
427.402	143.5
427.625	175.5
427.847	156.5
428.069	165.5
428.292	91.5
428.514	89.5
428.736	96.5
428.958	88.5
429.181	93.5
429.403	86.5
429.625	90.5
429.847	88.5
430.069	97.5
430.292	100.5
430.514	87.5
430.736	93.5
430.958	85.5
431.18	81.5
431.402	66.5
431.624	86.5
431.846	92.5
432.068	90.5
432.29	80.5
432.512	79.5
432.734	85.5
432.956	92.5
433.178	94.5
433.4	84.5
433.622	98.5
433.844	93.5
434.066	92.5
434.287	94.5
434.509	88.5
434.731	90.5
434.953	93.5
435.175	86.5
435.397	88.5
435.618	90.5
435.84	79.5
436.062	123.5
436.284	125.5
436.505	94.5
436.727	109.5
436.949	83.5
437.17	100.5
437.392	79.5
437.614	73.5
437.835	112.5
438.057	113.5
438.278	110.5
438.5	101.5
438.721	106.5
438.943	105.5
439.165	92.5
439.386	95.5
439.608	94.5
439.829	93.5
440.05	120.5
440.272	118.5
440.493	101.5
440.715	85.5
440.936	89.5
441.158	89.5
441.379	87.5
441.6	86.5
441.822	85.5
442.043	92.5
442.264	99.5
442.486	91.5
442.707	96.5
442.928	87.5
443.149	115.5
443.371	117.5
443.592	97.5
443.813	108.5
444.034	109.5
444.255	84.5
444.476	77.5
444.698	89.5
444.919	83.5
445.14	124.5
445.361	110.5
445.582	108.5
445.803	133.5
446.024	119.5
446.245	148.5
446.466	101.5
446.687	92.5
446.908	79.5
447.129	88.5
447.35	85.5
447.571	78.5
447.792	95.5
448.013	85.5
448.234	99.5
448.455	119.5
448.675	107.5
448.896	122.5
449.117	91.5
449.338	102.5
449.559	127.5
449.779	128.5
450	98.5
450.221	112.5
450.442	94.5
450.662	101.5
450.883	111.5
451.104	99.5
451.324	97.5
451.545	87.5
451.766	83.5
451.986	92.5
452.207	102.5
452.428	90.5
452.648	82.5
452.869	103.5
453.089	107.5
453.31	106.5
453.53	96.5
453.751	101.5
453.971	108.5
454.192	96.5
454.412	89.5
454.633	87.5
454.853	97.5
455.073	88.5
455.294	98.5
455.514	107.5
455.734	97.5
455.955	90.5
456.175	86.5
456.395	91.5
456.616	88.5
456.836	92.5
457.056	73.5
457.276	92.5
457.497	84.5
457.717	83.5
457.937	90.5
458.157	84.5
458.377	87.5
458.598	90.5
458.818	122.5
459.038	160.5
459.258	110.5
459.478	101.5
459.698	92.5
459.918	85.5
460.138	90.5
460.358	96.5
460.578	100.5
460.798	94.5
461.018	89.5
461.238	101.5
461.458	95.5
461.678	80.5
461.898	94.5
462.118	74.5
462.338	85.5
462.558	88.5
462.777	102.5
462.997	77.5
463.217	81.5
463.437	98.5
463.657	80.5
463.876	85.5
464.096	78.5
464.316	100.5
464.536	94.5
464.755	113.5
464.975	117.5
465.195	155.5
465.414	145.5
465.634	99.5
465.854	94.5
466.073	84.5
466.293	82.5
466.512	92.5
466.732	99.5
466.951	82.5
467.171	79.5
467.391	89.5
467.61	101.5
467.829	140.5
468.049	298.5
468.268	360.5
468.488	125.5
468.707	83.5
468.927	80.5
469.146	79.5
469.365	92.5
469.585	78.5
469.804	86.5
470.023	107.5
470.243	98.5
470.462	120.5
470.681	105.5
470.901	100.5
471.12	98.5
471.339	103.5
471.558	117.5
471.777	109.5
471.997	179.5
472.216	524.5
472.435	1049.5
472.654	294.5
472.873	117.5
473.092	92.5
473.311	95.5
473.53	87.5
473.749	84.5
473.968	100.5
474.187	105.5
474.406	107.5
474.625	88.5
474.844	66.5
475.063	86.5
475.282	88.5
475.501	88.5
475.72	86.5
475.939	80.5
476.158	78.5
476.377	89.5
476.596	89.5
476.814	84.5
477.033	91.5
477.252	91.5
477.471	89.5
477.69	63.5
477.908	95.5
478.127	88.5
478.346	97.5
478.564	87.5
478.783	86.5
479.002	78.5
479.22	89.5
479.439	91.5
479.658	109.5
479.876	106.5
480.095	112.5
480.313	104.5
480.532	112.5
480.751	185.5
480.969	523.5
481.188	1874.5
481.406	1068.5
481.624	210.5
481.843	102.5
482.061	98.5
482.28	96.5
482.498	78.5
482.717	88.5
482.935	99.5
483.153	100.5
483.372	88.5
483.59	90.5
483.808	82.5
484.027	100.5
484.245	94.5
484.463	93.5
484.681	101.5
484.9	92.5
485.118	108.5
485.336	95.5
485.554	100.5
485.772	103.5
485.99	112.5
486.209	115.5
486.427	104.5
486.645	120.5
486.863	117.5
487.081	95.5
487.299	94.5
487.517	67.5
487.735	93.5
487.953	106.5
488.171	87.5
488.389	103.5
488.607	97.5
488.825	88.5
489.043	94.5
489.261	94.5
489.479	83.5
489.696	96.5
489.914	92.5
490.132	80.5
490.35	86.5
490.568	73.5
490.786	96.5
491.003	93.5
491.221	98.5
491.439	101.5
491.657	94.5
491.874	99.5
492.092	92.5
492.31	89.5
492.527	106.5
492.745	105.5
492.963	95.5
493.18	107.5
493.398	84.5
493.615	94.5
493.833	91.5
494.05	90.5
494.268	84.5
494.485	95.5
494.703	92.5
494.92	77.5
495.138	90.5
495.355	96.5
495.573	77.5
495.79	101.5
496.008	92.5
496.225	100.5
496.442	88.5
496.66	97.5
496.877	75.5
497.094	82.5
497.312	86.5
497.529	85.5
497.746	89.5
497.963	92.5
498.181	98.5
498.398	106.5
498.615	105.5
498.832	96.5
499.049	84.5
499.267	94.5
499.484	97.5
499.701	101.5
499.918	90.5
500.135	94.5
500.352	96.5
500.569	93.5
500.786	83.5
501.003	86.5
501.22	87.5
501.437	90.5
501.654	91.5
501.871	106.5
502.088	97.5
502.305	84.5
502.522	82.5
502.739	87.5
502.956	88.5
503.172	81.5
503.389	83.5
503.606	100.5
503.823	95.5
504.04	91.5
504.256	93.5
504.473	90.5
504.69	97.5
504.907	90.5
505.123	95.5
505.34	99.5
505.557	90.5
505.773	89.5
505.99	99.5
506.207	84.5
506.423	89.5
506.64	83.5
506.856	102.5
507.073	101.5
507.289	97.5
507.506	101.5
507.722	102.5
507.939	103.5
508.155	89.5
508.372	94.5
508.588	92.5
508.805	91.5
509.021	99.5
509.238	92.5
509.454	104.5
509.67	96.5
509.887	107.5
510.103	113.5
510.319	171.5
510.536	557.5
510.752	1668.5
510.968	494.5
511.184	135.5
511.401	122.5
511.617	86.5
511.833	85.5
512.049	96.5
512.265	84.5
512.481	101.5
512.698	91.5
512.914	105.5
513.13	113.5
513.346	90.5
513.562	97.5
513.778	90.5
513.994	89.5
514.21	88.5
514.426	115.5
514.642	129.5
514.858	120.5
515.074	128.5
515.29	338.5
515.506	1113.5
515.721	418.5
515.937	140.5
516.153	112.5
516.369	94.5
516.585	84.5
516.801	93.5
517.016	106.5
517.232	97.5
517.448	88.5
517.664	97.5
517.879	96.5
518.095	99.5
518.311	114.5
518.527	95.5
518.742	83.5
518.958	93.5
519.173	102.5
519.389	87.5
519.605	105.5
519.82	99.5
520.036	91.5
520.251	109.5
520.467	112.5
520.682	94.5
520.898	115.5
521.113	113.5
521.329	114.5
521.544	177.5
521.76	449.5
521.975	1864.5
522.19	1125.5
522.406	272.5
522.621	105.5
522.836	116.5
523.052	101.5
523.267	89.5
523.482	113.5
523.698	97.5
523.913	100.5
524.128	105.5
524.343	89.5
524.559	95.5
524.774	82.5
524.989	97.5
525.204	105.5
525.419	90.5
525.634	101.5
525.849	89.5
526.064	80.5
526.28	93.5
526.495	93.5
526.71	93.5
526.925	86.5
527.14	97.5
527.355	91.5
527.57	86.5
527.785	86.5
527.999	95.5
528.214	101.5
528.429	90.5
528.644	81.5
528.859	89.5
529.074	90.5
529.289	102.5
529.503	154.5
529.718	109.5
529.933	81.5
530.148	98.5
530.363	99.5
530.577	91.5
530.792	95.5
531.007	94.5
531.221	85.5
531.436	96.5
531.651	79.5
531.865	98.5
532.08	89.5
532.295	89.5
532.509	96.5
532.724	88.5
532.938	100.5
533.153	109.5
533.367	86.5
533.582	88.5
533.796	61.5
534.011	82.5
534.225	74.5
534.44	82.5
534.654	89.5
