Data from Circ_1989_H10_HRD10591_00030.txt Node
Date: Wed Jan 03 12:01:27 EST 2024
User: Yrep
Spectrometer: HR+D1059
Trigger mode: 1
Integration Time (sec): 1.000000E-1
Scans to average: 1
Electric dark correction enabled: true
Nonlinearity correction enabled: false
Boxcar width: 0
XAxis mode: Wavelengths
Number of Pixels in Spectrum: 2048
>>>>>Begin Spectral Data<<<<<
223.165	-17.31
223.4	-17.31
223.635	-17.31
223.869	-9.31
224.104	-19.31
224.338	-9.31
224.573	-14.31
224.808	-11.31
225.042	-2.31
225.277	-3.31
225.511	-17.31
225.746	-2.31
225.98	6.69
226.215	12.69
226.449	12.69
226.683	27.69
226.918	27.69
227.152	18.69
227.387	10.69
227.621	39.69
227.856	40.69
228.09	53.69
228.324	51.69
228.559	51.69
228.793	46.69
229.027	27.69
229.262	58.69
229.496	54.69
229.73	66.69
229.964	81.69
230.199	84.69
230.433	66.69
230.667	62.69
230.901	68.69
231.136	78.69
231.37	82.69
231.604	74.69
231.838	65.69
232.072	81.69
232.306	79.69
232.541	75.69
232.775	78.69
233.009	81.69
233.243	85.69
233.477	73.69
233.711	93.69
233.945	85.69
234.179	67.69
234.413	75.69
234.647	66.69
234.881	69.69
235.115	84.69
235.349	74.69
235.583	86.69
235.817	79.69
236.051	87.69
236.285	64.69
236.519	86.69
236.753	77.69
236.987	73.69
237.221	91.69
237.455	81.69
237.689	85.69
237.922	77.69
238.156	69.69
238.39	76.69
238.624	67.69
238.858	74.69
239.091	69.69
239.325	70.69
239.559	80.69
239.793	81.69
240.027	80.69
240.26	86.69
240.494	76.69
240.728	81.69
240.961	68.69
241.195	61.69
241.429	67.69
241.662	61.69
241.896	81.69
242.13	86.69
242.363	88.69
242.597	86.69
242.83	70.69
243.064	79.69
243.298	65.69
243.531	73.69
243.765	70.69
243.998	78.69
244.232	85.69
244.465	93.69
244.699	70.69
244.932	62.69
245.166	69.69
245.399	73.69
245.633	84.69
245.866	67.69
246.099	75.69
246.333	81.69
246.566	75.69
246.8	79.69
247.033	89.69
247.266	65.69
247.5	65.69
247.733	74.69
247.966	67.69
248.2	81.69
248.433	82.69
248.666	85.69
248.899	78.69
249.133	89.69
249.366	81.69
249.599	88.69
249.832	82.69
250.066	81.69
250.299	78.69
250.532	80.69
250.765	89.69
250.998	77.69
251.231	66.69
251.465	74.69
251.698	70.69
251.931	81.69
252.164	68.69
252.397	79.69
252.63	90.69
252.863	81.69
253.096	71.69
253.329	70.69
253.562	83.69
253.795	70.69
254.028	75.69
254.261	77.69
254.494	76.69
254.727	73.69
254.96	86.69
255.193	75.69
255.426	70.69
255.659	77.69
255.892	87.69
256.124	82.69
256.357	84.69
256.59	73.69
256.823	91.69
257.056	70.69
257.289	76.69
257.521	70.69
257.754	76.69
257.987	61.69
258.22	99.69
258.452	85.69
258.685	67.69
258.918	78.69
259.151	79.69
259.383	82.69
259.616	82.69
259.849	82.69
260.081	80.69
260.314	76.69
260.547	76.69
260.779	79.69
261.012	86.69
261.244	112.69
261.477	83.69
261.71	72.69
261.942	96.69
262.175	104.69
262.407	78.69
262.64	78.69
262.872	90.69
263.105	81.69
263.337	81.69
263.57	76.69
263.802	76.69
264.035	71.69
264.267	75.69
264.499	89.69
264.732	85.69
264.964	86.69
265.197	81.69
265.429	71.69
265.661	76.69
265.894	76.69
266.126	65.69
266.358	85.69
266.591	71.69
266.823	81.69
267.055	86.69
267.287	75.69
267.52	74.69
267.752	94.69
267.984	81.69
268.216	65.69
268.448	76.69
268.681	88.69
268.913	82.69
269.145	75.69
269.377	70.69
269.609	85.69
269.841	82.69
270.073	83.69
270.306	69.69
270.538	86.69
270.77	78.69
271.002	90.69
271.234	85.69
271.466	93.69
271.698	79.69
271.93	85.69
272.162	79.69
272.394	81.69
272.626	91.69
272.858	89.69
273.09	91.69
273.322	78.69
273.553	73.69
273.785	84.69
274.017	77.69
274.249	81.69
274.481	78.69
274.713	82.69
274.945	82.69
275.176	73.69
275.408	81.69
275.64	81.69
275.872	90.69
276.104	88.69
276.335	69.69
276.567	96.69
276.799	100.69
277.031	100.69
277.262	106.69
277.494	83.69
277.726	83.69
277.957	78.69
278.189	83.69
278.421	96.69
278.652	86.69
278.884	90.69
279.115	81.69
279.347	75.69
279.579	79.69
279.81	88.69
280.042	107.69
280.273	122.69
280.505	105.69
280.736	91.69
280.968	81.69
281.199	69.69
281.431	83.69
281.662	69.69
281.894	81.69
282.125	101.69
282.356	113.69
282.588	130.69
282.819	97.69
283.051	83.69
283.282	84.69
283.513	83.69
283.745	78.69
283.976	79.69
284.207	64.69
284.439	81.69
284.67	77.69
284.901	99.69
285.132	86.69
285.364	74.69
285.595	77.69
285.826	86.69
286.057	80.69
286.288	84.69
286.52	81.69
286.751	72.69
286.982	73.69
287.213	73.69
287.444	91.69
287.675	78.69
287.906	87.69
288.138	82.69
288.369	77.69
288.6	85.69
288.831	75.69
289.062	86.69
289.293	90.69
289.524	87.69
289.755	81.69
289.986	92.69
290.217	93.69
290.448	88.69
290.679	95.69
290.91	94.69
291.141	90.69
291.371	80.69
291.602	77.69
291.833	78.69
292.064	78.69
292.295	82.69
292.526	91.69
292.757	85.69
292.987	64.69
293.218	87.69
293.449	91.69
293.68	85.69
293.91	77.69
294.141	89.69
294.372	85.69
294.603	90.69
294.833	93.69
295.064	87.69
295.295	89.69
295.525	91.69
295.756	107.69
295.987	106.69
296.217	121.69
296.448	122.69
296.679	96.69
296.909	84.69
297.14	92.69
297.37	95.69
297.601	83.69
297.831	97.69
298.062	83.69
298.292	83.69
298.523	83.69
298.753	95.69
298.984	79.69
299.214	73.69
299.445	90.69
299.675	78.69
299.905	92.69
300.136	100.69
300.366	89.69
300.597	82.69
300.827	86.69
301.057	82.69
301.288	99.69
301.518	98.69
301.748	92.69
301.979	86.69
302.209	82.69
302.439	74.69
302.669	73.69
302.9	78.69
303.13	86.69
303.36	85.69
303.59	101.69
303.82	114.69
304.051	89.69
304.281	107.69
304.511	86.69
304.741	79.69
304.971	90.69
305.201	88.69
305.431	82.69
305.661	73.69
305.891	81.69
306.121	86.69
306.352	91.69
306.582	93.69
306.812	83.69
307.042	89.69
307.272	119.69
307.502	121.69
307.731	116.69
307.961	87.69
308.191	93.69
308.421	83.69
308.651	99.69
308.881	92.69
309.111	84.69
309.341	86.69
309.571	93.69
309.8	87.69
310.03	97.69
310.26	76.69
310.49	91.69
310.72	90.69
310.949	94.69
311.179	80.69
311.409	79.69
311.639	79.69
311.868	89.69
312.098	102.69
312.328	96.69
312.557	114.69
312.787	103.69
313.017	101.69
313.246	91.69
313.476	95.69
313.706	81.69
313.935	89.69
314.165	86.69
314.394	103.69
314.624	90.69
314.853	101.69
315.083	93.69
315.312	90.69
315.542	91.69
315.771	82.69
316.001	101.69
316.23	83.69
316.46	75.69
316.689	75.69
316.919	93.69
317.148	85.69
317.377	89.69
317.607	94.69
317.836	73.69
318.065	89.69
318.295	84.69
318.524	77.69
318.753	73.69
318.983	85.69
319.212	90.69
319.441	105.69
319.67	103.69
319.9	101.69
320.129	81.69
320.358	97.69
320.587	89.69
320.816	90.69
321.046	92.69
321.275	105.69
321.504	94.69
321.733	101.69
321.962	85.69
322.191	89.69
322.42	98.69
322.649	107.69
322.878	92.69
323.108	113.69
323.337	114.69
323.566	108.69
323.795	147.69
324.024	179.69
324.253	330.69
324.482	691.69
324.71	1383.69
324.939	1849.69
325.168	706.69
325.397	207.69
325.626	145.69
325.855	117.69
326.084	132.69
326.313	114.69
326.542	130.69
326.77	196.69
326.999	389.69
327.228	765.69
327.457	1408.69
327.686	1179.69
327.914	356.69
328.143	267.69
328.372	281.69
328.6	188.69
328.829	125.69
329.058	130.69
329.287	139.69
329.515	100.69
329.744	132.69
329.972	203.69
330.201	347.69
330.43	473.69
330.658	228.69
330.887	154.69
331.115	111.69
331.344	94.69
331.572	91.69
331.801	93.69
332.03	87.69
332.258	85.69
332.486	95.69
332.715	103.69
332.943	90.69
333.172	112.69
333.4	95.69
333.629	112.69
333.857	130.69
334.085	191.69
334.314	342.69
334.542	573.69
334.771	549.69
334.999	196.69
335.227	109.69
335.455	91.69
335.684	95.69
335.912	94.69
336.14	112.69
336.369	101.69
336.597	95.69
336.825	97.69
337.053	95.69
337.281	96.69
337.51	100.69
337.738	97.69
337.966	95.69
338.194	93.69
338.422	91.69
338.65	81.69
338.878	98.69
339.106	79.69
339.334	83.69
339.562	81.69
339.79	79.69
340.018	79.69
340.246	84.69
340.474	84.69
340.702	83.69
340.93	81.69
341.158	92.69
341.386	91.69
341.614	93.69
341.842	91.69
342.07	94.69
342.298	99.69
342.526	92.69
342.754	75.69
342.981	83.69
343.209	90.69
343.437	99.69
343.665	89.69
343.893	87.69
344.12	98.69
344.348	86.69
344.576	94.69
344.804	74.69
345.031	100.69
345.259	107.69
345.487	98.69
345.714	91.69
345.942	86.69
346.17	101.69
346.397	89.69
346.625	103.69
346.853	85.69
347.08	79.69
347.308	104.69
347.535	89.69
347.763	91.69
347.99	101.69
348.218	92.69
348.445	91.69
348.673	98.69
348.9	93.69
349.128	86.69
349.355	97.69
349.583	91.69
349.81	83.69
350.037	92.69
350.265	80.69
350.492	99.69
350.72	92.69
350.947	98.69
351.174	111.69
351.402	103.69
351.629	96.69
351.856	87.69
352.083	91.69
352.311	93.69
352.538	97.69
352.765	98.69
352.992	95.69
353.22	98.69
353.447	103.69
353.674	97.69
353.901	97.69
354.128	89.69
354.355	98.69
354.583	91.69
354.81	85.69
355.037	93.69
355.264	100.69
355.491	90.69
355.718	90.69
355.945	91.69
356.172	93.69
356.399	84.69
356.626	97.69
356.853	89.69
357.08	91.69
357.307	87.69
357.534	90.69
357.761	92.69
357.988	75.69
358.215	90.69
358.441	84.69
358.668	79.69
358.895	93.69
359.122	89.69
359.349	88.69
359.576	103.69
359.802	89.69
360.029	110.69
360.256	98.69
360.483	84.69
360.709	85.69
360.936	101.69
361.163	101.69
361.39	98.69
361.616	88.69
361.843	85.69
362.07	86.69
362.296	100.69
362.523	97.69
362.749	87.69
362.976	75.69
363.203	90.69
363.429	93.69
363.656	93.69
363.882	88.69
364.109	89.69
364.335	91.69
364.562	96.69
364.788	85.69
365.015	95.69
365.241	97.69
365.468	99.69
365.694	92.69
365.92	101.69
366.147	85.69
366.373	71.69
366.599	98.69
366.826	80.69
367.052	86.69
367.278	104.69
367.505	100.69
367.731	82.69
367.957	83.69
368.184	82.69
368.41	96.69
368.636	97.69
368.862	100.69
369.089	102.69
369.315	84.69
369.541	89.69
369.767	95.69
369.993	93.69
370.219	78.69
370.445	65.69
370.672	80.69
370.898	87.69
371.124	82.69
371.35	84.69
371.576	95.69
371.802	92.69
372.028	86.69
372.254	89.69
372.48	95.69
372.706	90.69
372.932	99.69
373.158	79.69
373.384	96.69
373.61	85.69
373.835	103.69
374.061	94.69
374.287	85.69
374.513	83.69
374.739	91.69
374.965	95.69
375.191	90.69
375.416	94.69
375.642	87.69
375.868	94.69
376.094	91.69
376.319	72.69
376.545	90.69
376.771	83.69
376.997	87.69
377.222	79.69
377.448	84.69
377.674	77.69
377.899	75.69
378.125	87.69
378.35	100.69
378.576	87.69
378.802	89.69
379.027	81.69
379.253	92.69
379.478	104.69
379.704	90.69
379.929	91.69
380.155	100.69
380.38	91.69
380.606	92.69
380.831	96.69
381.057	89.69
381.282	89.69
381.507	85.69
381.733	84.69
381.958	101.69
382.184	99.69
382.409	101.69
382.634	101.69
382.86	101.69
383.085	100.69
383.31	97.69
383.535	98.69
383.761	91.69
383.986	95.69
384.211	84.69
384.436	103.69
384.662	96.69
384.887	102.69
385.112	117.69
385.337	90.69
385.562	113.69
385.787	106.69
386.013	102.69
386.238	97.69
386.463	112.69
386.688	125.69
386.913	105.69
387.138	99.69
387.363	105.69
387.588	92.69
387.813	89.69
388.038	112.69
388.263	117.69
388.488	109.69
388.713	102.69
388.938	81.69
389.163	93.69
389.387	91.69
389.612	91.69
389.837	84.69
390.062	89.69
390.287	91.69
390.512	93.69
390.736	90.69
390.961	91.69
391.186	89.69
391.411	100.69
391.636	89.69
391.86	85.69
392.085	93.69
392.31	84.69
392.534	89.69
392.759	93.69
392.984	94.69
393.208	85.69
393.433	103.69
393.658	87.69
393.882	84.69
394.107	77.69
394.331	81.69
394.556	81.69
394.78	96.69
395.005	80.69
395.229	93.69
395.454	72.69
395.678	85.69
395.903	86.69
396.127	81.69
396.352	82.69
396.576	82.69
396.801	90.69
397.025	98.69
397.249	97.69
397.474	88.69
397.698	81.69
397.922	85.69
398.147	83.69
398.371	83.69
398.595	80.69
398.82	87.69
399.044	80.69
399.268	89.69
399.492	85.69
399.717	89.69
399.941	77.69
400.165	97.69
400.389	83.69
400.613	84.69
400.837	90.69
401.062	87.69
401.286	93.69
401.51	89.69
401.734	93.69
401.958	106.69
402.182	107.69
402.406	140.69
402.63	111.69
402.854	94.69
403.078	71.69
403.302	75.69
403.526	92.69
403.75	89.69
403.974	84.69
404.198	88.69
404.422	75.69
404.645	97.69
404.869	85.69
405.093	93.69
405.317	89.69
405.541	106.69
405.765	89.69
405.988	110.69
406.212	137.69
406.436	181.69
406.66	129.69
406.883	94.69
407.107	90.69
407.331	96.69
407.555	90.69
407.778	103.69
408.002	86.69
408.226	76.69
408.449	82.69
408.673	66.69
408.896	90.69
409.12	80.69
409.344	83.69
409.567	82.69
409.791	83.69
410.014	80.69
410.238	96.69
410.461	81.69
410.685	90.69
410.908	90.69
411.132	87.69
411.355	97.69
411.578	87.69
411.802	85.69
412.025	74.69
412.249	85.69
412.472	92.69
412.695	101.69
412.919	94.69
413.142	79.69
413.365	87.69
413.589	91.69
413.812	89.69
414.035	75.69
414.258	93.69
414.482	77.69
414.705	81.69
414.928	99.69
415.151	99.69
415.374	89.69
415.597	84.69
415.821	100.69
416.044	82.69
416.267	92.69
416.49	93.69
416.713	80.69
416.936	91.69
417.159	94.69
417.382	84.69
417.605	89.69
417.828	98.69
418.051	89.69
418.274	89.69
418.497	83.69
418.72	71.69
418.943	91.69
419.166	91.69
419.389	77.69
419.611	92.69
419.834	88.69
420.057	92.69
420.28	83.69
420.503	81.69
420.726	75.69
420.948	83.69
421.171	93.69
421.394	90.69
421.617	86.69
421.839	83.69
422.062	84.69
422.285	90.69
422.507	91.69
422.73	106.69
422.953	81.69
423.175	88.69
423.398	72.69
423.621	70.69
423.843	86.69
424.066	91.69
424.288	65.69
424.511	83.69
424.733	91.69
424.956	95.69
425.178	103.69
425.401	98.69
425.623	100.69
425.846	73.69
426.068	73.69
426.291	82.69
426.513	61.69
426.735	97.69
426.958	78.69
427.18	90.69
427.402	133.69
427.625	145.69
427.847	154.69
428.069	157.69
428.292	99.69
428.514	82.69
428.736	75.69
428.958	81.69
429.181	90.69
429.403	96.69
429.625	74.69
429.847	92.69
430.069	87.69
430.292	89.69
430.514	81.69
430.736	97.69
430.958	78.69
431.18	75.69
431.402	79.69
431.624	81.69
431.846	81.69
432.068	96.69
432.29	90.69
432.512	90.69
432.734	87.69
432.956	77.69
433.178	99.69
433.4	87.69
433.622	86.69
433.844	83.69
434.066	96.69
434.287	79.69
434.509	90.69
434.731	89.69
434.953	83.69
435.175	94.69
435.397	76.69
435.618	76.69
435.84	110.69
436.062	101.69
436.284	103.69
436.505	104.69
436.727	99.69
436.949	75.69
437.17	79.69
437.392	86.69
437.614	93.69
437.835	94.69
438.057	119.69
438.278	110.69
438.5	99.69
438.721	99.69
438.943	85.69
439.165	87.69
439.386	89.69
439.608	73.69
439.829	90.69
440.05	105.69
440.272	112.69
440.493	101.69
440.715	82.69
440.936	97.69
441.158	87.69
441.379	84.69
441.6	82.69
441.822	81.69
442.043	83.69
442.264	87.69
442.486	100.69
442.707	93.69
442.928	102.69
443.149	117.69
443.371	113.69
443.592	95.69
443.813	109.69
444.034	85.69
444.255	91.69
444.476	92.69
444.698	85.69
444.919	89.69
445.14	134.69
445.361	114.69
445.582	102.69
445.803	128.69
446.024	134.69
446.245	130.69
446.466	93.69
446.687	95.69
446.908	83.69
447.129	75.69
447.35	92.69
447.571	94.69
447.792	85.69
448.013	84.69
448.234	101.69
448.455	88.69
448.675	123.69
448.896	98.69
449.117	88.69
449.338	87.69
449.559	123.69
449.779	123.69
450	92.69
450.221	102.69
450.442	93.69
450.662	87.69
450.883	96.69
451.104	102.69
451.324	99.69
451.545	75.69
451.766	87.69
451.986	89.69
452.207	81.69
452.428	93.69
452.648	91.69
452.869	90.69
453.089	103.69
453.31	95.69
453.53	89.69
453.751	88.69
453.971	98.69
454.192	91.69
454.412	92.69
454.633	92.69
454.853	78.69
455.073	81.69
455.294	83.69
455.514	91.69
455.734	77.69
455.955	66.69
456.175	81.69
456.395	91.69
456.616	79.69
456.836	83.69
457.056	75.69
457.276	98.69
457.497	83.69
457.717	90.69
457.937	85.69
458.157	86.69
458.377	88.69
458.598	97.69
458.818	132.69
459.038	140.69
459.258	115.69
459.478	87.69
459.698	75.69
459.918	79.69
460.138	93.69
460.358	90.69
460.578	74.69
460.798	83.69
461.018	84.69
461.238	84.69
461.458	92.69
461.678	90.69
461.898	87.69
462.118	75.69
462.338	83.69
462.558	88.69
462.777	66.69
462.997	83.69
463.217	100.69
463.437	77.69
463.657	83.69
463.876	92.69
464.096	92.69
464.316	87.69
464.536	72.69
464.755	84.69
464.975	93.69
465.195	142.69
465.414	143.69
465.634	88.69
465.854	84.69
466.073	86.69
466.293	84.69
466.512	89.69
466.732	83.69
466.951	81.69
467.171	94.69
467.391	103.69
467.61	107.69
467.829	124.69
468.049	222.69
468.268	303.69
468.488	115.69
468.707	89.69
468.927	85.69
469.146	94.69
469.365	81.69
469.585	95.69
469.804	89.69
470.023	95.69
470.243	97.69
470.462	87.69
470.681	106.69
470.901	106.69
471.12	75.69
471.339	93.69
471.558	97.69
471.777	113.69
471.997	155.69
472.216	402.69
472.435	821.69
472.654	231.69
472.873	102.69
473.092	93.69
473.311	105.69
473.53	91.69
473.749	78.69
473.968	84.69
474.187	93.69
474.406	92.69
474.625	95.69
474.844	93.69
475.063	80.69
475.282	86.69
475.501	88.69
475.72	83.69
475.939	80.69
476.158	79.69
476.377	69.69
476.596	64.69
476.814	76.69
477.033	87.69
477.252	92.69
477.471	96.69
477.69	95.69
477.908	73.69
478.127	89.69
478.346	91.69
478.564	69.69
478.783	85.69
479.002	95.69
479.22	102.69
479.439	91.69
479.658	91.69
479.876	90.69
480.095	89.69
480.313	94.69
480.532	108.69
480.751	143.69
480.969	377.69
481.188	1403.69
481.406	827.69
481.624	167.69
481.843	102.69
482.061	89.69
482.28	103.69
482.498	98.69
482.717	83.69
482.935	86.69
483.153	84.69
483.372	89.69
483.59	86.69
483.808	77.69
484.027	81.69
484.245	82.69
484.463	101.69
484.681	93.69
484.9	85.69
485.118	86.69
485.336	82.69
485.554	90.69
485.772	95.69
485.99	102.69
486.209	90.69
486.427	112.69
486.645	109.69
486.863	109.69
487.081	100.69
487.299	110.69
487.517	88.69
487.735	88.69
487.953	89.69
488.171	87.69
488.389	93.69
488.607	84.69
488.825	89.69
489.043	69.69
489.261	93.69
489.479	77.69
489.696	73.69
489.914	86.69
490.132	85.69
490.35	85.69
490.568	96.69
490.786	89.69
491.003	81.69
491.221	90.69
491.439	85.69
491.657	67.69
491.874	90.69
492.092	88.69
492.31	77.69
492.527	89.69
492.745	90.69
492.963	88.69
493.18	95.69
493.398	83.69
493.615	94.69
493.833	100.69
494.05	88.69
494.268	78.69
494.485	78.69
494.703	91.69
494.92	90.69
495.138	80.69
495.355	86.69
495.573	82.69
495.79	92.69
496.008	89.69
496.225	80.69
496.442	99.69
496.66	82.69
496.877	85.69
497.094	91.69
497.312	81.69
497.529	80.69
497.746	76.69
497.963	87.69
498.181	76.69
498.398	91.69
498.615	109.69
498.832	91.69
499.049	92.69
499.267	100.69
499.484	78.69
499.701	76.69
499.918	87.69
500.135	83.69
500.352	89.69
500.569	101.69
500.786	84.69
501.003	78.69
501.22	93.69
501.437	90.69
501.654	92.69
501.871	94.69
502.088	94.69
502.305	107.69
502.522	87.69
502.739	94.69
502.956	88.69
503.172	87.69
503.389	84.69
503.606	116.69
503.823	102.69
504.04	81.69
504.256	100.69
504.473	82.69
504.69	75.69
504.907	81.69
505.123	73.69
505.34	98.69
505.557	81.69
505.773	91.69
505.99	86.69
506.207	73.69
506.423	93.69
506.64	98.69
506.856	93.69
507.073	81.69
507.289	86.69
507.506	88.69
507.722	109.69
507.939	107.69
508.155	82.69
508.372	79.69
508.588	86.69
508.805	77.69
509.021	90.69
509.238	89.69
509.454	87.69
509.67	97.69
509.887	98.69
510.103	109.69
510.319	183.69
510.536	619.69
510.752	1942.69
510.968	548.69
511.184	137.69
511.401	108.69
511.617	101.69
511.833	86.69
512.049	94.69
512.265	88.69
512.481	84.69
512.698	77.69
512.914	84.69
513.13	86.69
513.346	95.69
513.562	96.69
513.778	91.69
513.994	83.69
514.21	101.69
514.426	107.69
514.642	129.69
514.858	122.69
515.074	146.69
515.29	378.69
515.506	1227.69
515.721	453.69
515.937	129.69
516.153	106.69
516.369	103.69
516.585	85.69
