Data from Circ_1989_H10_HRD10591_00097.txt Node
Date: Wed Jan 03 12:01:41 EST 2024
User: Yrep
Spectrometer: HR+D1059
Trigger mode: 1
Integration Time (sec): 1.000000E-1
Scans to average: 1
Electric dark correction enabled: true
Nonlinearity correction enabled: false
Boxcar width: 0
XAxis mode: Wavelengths
Number of Pixels in Spectrum: 2048
>>>>>Begin Spectral Data<<<<<
223.165	-24.69
223.4	-24.69
223.635	-24.69
223.869	-2.69
224.104	-0.69
224.338	-21.69
224.573	-8.69
224.808	-14.69
225.042	-25.69
225.277	-6.69
225.511	0.31
225.746	-1.69
225.98	-0.69
226.215	15.31
226.449	19.31
226.683	14.31
226.918	30.31
227.152	28.31
227.387	39.31
227.621	43.31
227.856	50.31
228.09	49.31
228.324	58.31
228.559	50.31
228.793	38.31
229.027	61.31
229.262	67.31
229.496	73.31
229.73	86.31
229.964	78.31
230.199	74.31
230.433	76.31
230.667	96.31
230.901	75.31
231.136	84.31
231.37	78.31
231.604	72.31
231.838	72.31
232.072	68.31
232.306	90.31
232.541	73.31
232.775	95.31
233.009	85.31
233.243	74.31
233.477	78.31
233.711	75.31
233.945	83.31
234.179	71.31
234.413	86.31
234.647	87.31
234.881	86.31
235.115	89.31
235.349	85.31
235.583	77.31
235.817	81.31
236.051	83.31
236.285	68.31
236.519	80.31
236.753	70.31
236.987	77.31
237.221	80.31
237.455	84.31
237.689	73.31
237.922	66.31
238.156	73.31
238.39	79.31
238.624	87.31
238.858	81.31
239.091	76.31
239.325	73.31
239.559	58.31
239.793	79.31
240.027	86.31
240.26	94.31
240.494	81.31
240.728	81.31
240.961	70.31
241.195	74.31
241.429	73.31
241.662	79.31
241.896	86.31
242.13	78.31
242.363	70.31
242.597	76.31
242.83	82.31
243.064	68.31
243.298	78.31
243.531	76.31
243.765	82.31
243.998	86.31
244.232	95.31
244.465	74.31
244.699	87.31
244.932	59.31
245.166	77.31
245.399	87.31
245.633	82.31
245.866	79.31
246.099	73.31
246.333	76.31
246.566	76.31
246.8	75.31
247.033	86.31
247.266	88.31
247.5	77.31
247.733	77.31
247.966	73.31
248.2	74.31
248.433	81.31
248.666	86.31
248.899	90.31
249.133	93.31
249.366	92.31
249.599	108.31
249.832	90.31
250.066	86.31
250.299	82.31
250.532	90.31
250.765	83.31
250.998	74.31
251.231	73.31
251.465	72.31
251.698	74.31
251.931	79.31
252.164	78.31
252.397	69.31
252.63	76.31
252.863	85.31
253.096	73.31
253.329	91.31
253.562	84.31
253.795	82.31
254.028	81.31
254.261	82.31
254.494	72.31
254.727	88.31
254.96	80.31
255.193	76.31
255.426	92.31
255.659	94.31
255.892	91.31
256.124	80.31
256.357	80.31
256.59	86.31
256.823	104.31
257.056	84.31
257.289	87.31
257.521	79.31
257.754	93.31
257.987	80.31
258.22	98.31
258.452	88.31
258.685	90.31
258.918	78.31
259.151	73.31
259.383	77.31
259.616	96.31
259.849	84.31
260.081	88.31
260.314	97.31
260.547	97.31
260.779	96.31
261.012	96.31
261.244	98.31
261.477	108.31
261.71	96.31
261.942	120.31
262.175	116.31
262.407	82.31
262.64	80.31
262.872	92.31
263.105	81.31
263.337	81.31
263.57	83.31
263.802	73.31
264.035	84.31
264.267	76.31
264.499	87.31
264.732	98.31
264.964	80.31
265.197	82.31
265.429	96.31
265.661	84.31
265.894	76.31
266.126	81.31
266.358	80.31
266.591	78.31
266.823	66.31
267.055	74.31
267.287	108.31
267.52	61.31
267.752	79.31
267.984	85.31
268.216	84.31
268.448	92.31
268.681	85.31
268.913	96.31
269.145	78.31
269.377	86.31
269.609	81.31
269.841	82.31
270.073	78.31
270.306	81.31
270.538	93.31
270.77	93.31
271.002	95.31
271.234	96.31
271.466	102.31
271.698	78.31
271.93	81.31
272.162	83.31
272.394	74.31
272.626	86.31
272.858	92.31
273.09	79.31
273.322	64.31
273.553	73.31
273.785	85.31
274.017	84.31
274.249	68.31
274.481	98.31
274.713	79.31
274.945	92.31
275.176	98.31
275.408	97.31
275.64	90.31
275.872	91.31
276.104	89.31
276.335	91.31
276.567	89.31
276.799	102.31
277.031	128.31
277.262	146.31
277.494	119.31
277.726	98.31
277.957	83.31
278.189	95.31
278.421	98.31
278.652	99.31
278.884	89.31
279.115	101.31
279.347	92.31
279.579	104.31
279.81	105.31
280.042	138.31
280.273	152.31
280.505	121.31
280.736	81.31
280.968	95.31
281.199	95.31
281.431	93.31
281.662	102.31
281.894	95.31
282.125	102.31
282.356	117.31
282.588	130.31
282.819	115.31
283.051	92.31
283.282	70.31
283.513	98.31
283.745	78.31
283.976	86.31
284.207	85.31
284.439	85.31
284.67	102.31
284.901	69.31
285.132	83.31
285.364	96.31
285.595	101.31
285.826	98.31
286.057	92.31
286.288	79.31
286.52	76.31
286.751	76.31
286.982	94.31
287.213	84.31
287.444	82.31
287.675	99.31
287.906	82.31
288.138	95.31
288.369	100.31
288.6	87.31
288.831	92.31
289.062	98.31
289.293	100.31
289.524	86.31
289.755	91.31
289.986	80.31
290.217	95.31
290.448	79.31
290.679	94.31
290.91	95.31
291.141	84.31
291.371	82.31
291.602	86.31
291.833	88.31
292.064	93.31
292.295	86.31
292.526	100.31
292.757	88.31
292.987	91.31
293.218	103.31
293.449	87.31
293.68	97.31
293.91	85.31
294.141	98.31
294.372	84.31
294.603	104.31
294.833	83.31
295.064	94.31
295.295	85.31
295.525	89.31
295.756	92.31
295.987	115.31
296.217	132.31
296.448	110.31
296.679	98.31
296.909	82.31
297.14	93.31
297.37	84.31
297.601	86.31
297.831	84.31
298.062	98.31
298.292	98.31
298.523	69.31
298.753	92.31
298.984	86.31
299.214	86.31
299.445	93.31
299.675	90.31
299.905	92.31
300.136	81.31
300.366	86.31
300.597	97.31
300.827	89.31
301.057	94.31
301.288	99.31
301.518	101.31
301.748	86.31
301.979	103.31
302.209	102.31
302.439	103.31
302.669	76.31
302.9	78.31
303.13	94.31
303.36	97.31
303.59	116.31
303.82	111.31
304.051	80.31
304.281	90.31
304.511	95.31
304.741	79.31
304.971	88.31
305.201	87.31
305.431	87.31
305.661	89.31
305.891	88.31
306.121	99.31
306.352	98.31
306.582	95.31
306.812	104.31
307.042	95.31
307.272	120.31
307.502	135.31
307.731	146.31
307.961	128.31
308.191	96.31
308.421	86.31
308.651	101.31
308.881	102.31
309.111	86.31
309.341	103.31
309.571	88.31
309.8	95.31
310.03	94.31
310.26	96.31
310.49	93.31
310.72	91.31
310.949	109.31
311.179	85.31
311.409	94.31
311.639	100.31
311.868	100.31
312.098	81.31
312.328	92.31
312.557	104.31
312.787	111.31
313.017	104.31
313.246	84.31
313.476	86.31
313.706	95.31
313.935	93.31
314.165	97.31
314.394	100.31
314.624	94.31
314.853	96.31
315.083	87.31
315.312	91.31
315.542	98.31
315.771	88.31
316.001	84.31
316.23	84.31
316.46	74.31
316.689	87.31
316.919	90.31
317.148	108.31
317.377	103.31
317.607	94.31
317.836	82.31
318.065	83.31
318.295	97.31
318.524	95.31
318.753	82.31
318.983	101.31
319.212	97.31
319.441	110.31
319.67	110.31
319.9	106.31
320.129	94.31
320.358	96.31
320.587	96.31
320.816	102.31
321.046	100.31
321.275	95.31
321.504	96.31
321.733	90.31
321.962	94.31
322.191	98.31
322.42	106.31
322.649	104.31
322.878	103.31
323.108	109.31
323.337	114.31
323.566	134.31
323.795	146.31
324.024	204.31
324.253	414.31
324.482	891.31
324.71	1853.31
324.939	2452.31
325.168	876.31
325.397	247.31
325.626	151.31
325.855	144.31
326.084	133.31
326.313	136.31
326.542	170.31
326.77	240.31
326.999	498.31
327.228	1015.31
327.457	1905.31
327.686	1551.31
327.914	470.31
328.143	377.31
328.372	441.31
328.6	239.31
328.829	147.31
329.058	145.31
329.287	143.31
329.515	136.31
329.744	193.31
329.972	318.31
330.201	609.31
330.43	868.31
330.658	397.31
330.887	198.31
331.115	151.31
331.344	124.31
331.572	113.31
331.801	126.31
332.03	99.31
332.258	108.31
332.486	94.31
332.715	103.31
332.943	101.31
333.172	103.31
333.4	116.31
333.629	135.31
333.857	159.31
334.085	294.31
334.314	594.31
334.542	1104.31
334.771	1032.31
334.999	302.31
335.227	133.31
335.455	119.31
335.684	117.31
335.912	98.31
336.14	102.31
336.369	106.31
336.597	114.31
336.825	115.31
337.053	93.31
337.281	89.31
337.51	94.31
337.738	110.31
337.966	98.31
338.194	98.31
338.422	84.31
338.65	103.31
338.878	87.31
339.106	97.31
339.334	99.31
339.562	98.31
339.79	91.31
340.018	86.31
340.246	100.31
340.474	82.31
340.702	96.31
340.93	88.31
341.158	91.31
341.386	90.31
341.614	79.31
341.842	105.31
342.07	92.31
342.298	98.31
342.526	90.31
342.754	87.31
342.981	97.31
343.209	86.31
343.437	106.31
343.665	96.31
343.893	100.31
344.12	93.31
344.348	87.31
344.576	85.31
344.804	102.31
345.031	108.31
345.259	96.31
345.487	97.31
345.714	103.31
345.942	92.31
346.17	95.31
346.397	106.31
346.625	93.31
346.853	97.31
347.08	83.31
347.308	82.31
347.535	102.31
347.763	103.31
347.99	102.31
348.218	108.31
348.445	101.31
348.673	96.31
348.9	83.31
349.128	81.31
349.355	89.31
349.583	102.31
349.81	90.31
350.037	92.31
350.265	106.31
350.492	82.31
350.72	95.31
350.947	96.31
351.174	101.31
351.402	113.31
351.629	103.31
351.856	98.31
352.083	115.31
352.311	113.31
352.538	108.31
352.765	103.31
352.992	113.31
353.22	104.31
353.447	100.31
353.674	90.31
353.901	87.31
354.128	95.31
354.355	101.31
354.583	102.31
354.81	105.31
355.037	91.31
355.264	82.31
355.491	80.31
355.718	91.31
355.945	86.31
356.172	92.31
356.399	98.31
356.626	88.31
356.853	95.31
357.08	94.31
357.307	90.31
357.534	90.31
357.761	90.31
357.988	93.31
358.215	99.31
358.441	112.31
358.668	98.31
358.895	98.31
359.122	87.31
359.349	103.31
359.576	96.31
359.802	104.31
360.029	108.31
360.256	112.31
360.483	91.31
360.709	88.31
360.936	100.31
361.163	99.31
361.39	86.31
361.616	104.31
361.843	90.31
362.07	105.31
362.296	80.31
362.523	92.31
362.749	89.31
362.976	70.31
363.203	82.31
363.429	93.31
363.656	105.31
363.882	78.31
364.109	96.31
364.335	89.31
364.562	88.31
364.788	104.31
365.015	92.31
365.241	88.31
365.468	120.31
365.694	103.31
365.92	103.31
366.147	105.31
366.373	104.31
366.599	88.31
366.826	110.31
367.052	106.31
367.278	90.31
367.505	98.31
367.731	90.31
367.957	68.31
368.184	93.31
368.41	90.31
368.636	112.31
368.862	101.31
369.089	96.31
369.315	86.31
369.541	88.31
369.767	94.31
369.993	96.31
370.219	86.31
370.445	87.31
370.672	79.31
370.898	86.31
371.124	78.31
371.35	98.31
371.576	90.31
371.802	84.31
372.028	87.31
372.254	87.31
372.48	101.31
372.706	94.31
372.932	85.31
373.158	92.31
373.384	87.31
373.61	93.31
373.835	100.31
374.061	96.31
374.287	89.31
374.513	99.31
374.739	80.31
374.965	93.31
375.191	81.31
375.416	84.31
375.642	81.31
375.868	90.31
376.094	78.31
376.319	99.31
376.545	87.31
376.771	92.31
376.997	92.31
377.222	83.31
377.448	94.31
377.674	100.31
377.899	82.31
378.125	100.31
378.35	96.31
378.576	77.31
378.802	84.31
379.027	96.31
379.253	92.31
379.478	89.31
379.704	90.31
379.929	86.31
380.155	84.31
380.38	78.31
380.606	107.31
380.831	93.31
381.057	92.31
381.282	103.31
381.507	112.31
381.733	105.31
381.958	80.31
382.184	104.31
382.409	94.31
382.634	97.31
382.86	95.31
383.085	84.31
383.31	85.31
383.535	94.31
383.761	93.31
383.986	82.31
384.211	110.31
384.436	98.31
384.662	95.31
384.887	100.31
385.112	103.31
385.337	99.31
385.562	100.31
385.787	112.31
386.013	113.31
386.238	115.31
386.463	109.31
386.688	100.31
386.913	96.31
387.138	89.31
387.363	93.31
387.588	99.31
387.813	80.31
388.038	92.31
388.263	93.31
388.488	106.31
388.713	83.31
388.938	85.31
389.163	94.31
389.387	89.31
389.612	109.31
389.837	97.31
390.062	87.31
390.287	105.31
390.512	94.31
390.736	84.31
390.961	81.31
391.186	105.31
391.411	99.31
391.636	83.31
391.86	101.31
392.085	98.31
392.31	82.31
392.534	74.31
392.759	100.31
392.984	77.31
393.208	94.31
393.433	100.31
393.658	96.31
393.882	84.31
394.107	87.31
394.331	84.31
394.556	70.31
394.78	97.31
395.005	93.31
395.229	95.31
395.454	97.31
395.678	84.31
395.903	86.31
396.127	85.31
396.352	92.31
396.576	89.31
396.801	73.31
397.025	87.31
397.249	84.31
397.474	98.31
397.698	70.31
397.922	81.31
398.147	72.31
398.371	86.31
398.595	85.31
398.82	97.31
399.044	84.31
399.268	81.31
399.492	88.31
399.717	101.31
399.941	92.31
400.165	102.31
400.389	96.31
400.613	93.31
400.837	84.31
401.062	88.31
401.286	79.31
401.51	85.31
401.734	84.31
401.958	102.31
402.182	120.31
402.406	153.31
402.63	127.31
402.854	91.31
403.078	90.31
403.302	72.31
403.526	71.31
403.75	86.31
403.974	89.31
404.198	85.31
404.422	87.31
404.645	90.31
404.869	98.31
405.093	117.31
405.317	134.31
405.541	136.31
405.765	100.31
405.988	105.31
406.212	160.31
406.436	224.31
406.66	135.31
406.883	110.31
407.107	83.31
407.331	92.31
407.555	113.31
407.778	88.31
408.002	101.31
408.226	90.31
408.449	82.31
408.673	82.31
408.896	89.31
409.12	92.31
409.344	96.31
409.567	74.31
409.791	97.31
410.014	103.31
410.238	85.31
410.461	92.31
410.685	109.31
410.908	93.31
411.132	90.31
411.355	96.31
411.578	86.31
411.802	102.31
412.025	94.31
412.249	86.31
412.472	118.31
412.695	122.31
412.919	116.31
413.142	92.31
413.365	87.31
413.589	74.31
413.812	98.31
414.035	96.31
414.258	86.31
414.482	99.31
414.705	100.31
414.928	96.31
415.151	97.31
415.374	98.31
415.597	76.31
415.821	71.31
416.044	92.31
416.267	86.31
416.49	98.31
416.713	93.31
416.936	81.31
417.159	73.31
417.382	94.31
417.605	87.31
417.828	92.31
418.051	93.31
418.274	81.31
418.497	87.31
418.72	88.31
418.943	82.31
419.166	90.31
419.389	96.31
419.611	87.31
419.834	85.31
420.057	99.31
420.28	93.31
420.503	84.31
420.726	96.31
420.948	103.31
421.171	96.31
421.394	94.31
421.617	96.31
421.839	91.31
422.062	86.31
422.285	84.31
422.507	95.31
422.73	89.31
422.953	95.31
423.175	88.31
423.398	84.31
423.621	99.31
423.843	71.31
424.066	74.31
424.288	84.31
424.511	98.31
424.733	86.31
424.956	113.31
425.178	83.31
425.401	108.31
425.623	96.31
425.846	97.31
426.068	96.31
426.291	89.31
426.513	88.31
426.735	79.31
426.958	101.31
427.18	111.31
427.402	150.31
427.625	210.31
427.847	190.31
428.069	195.31
428.292	114.31
428.514	97.31
428.736	87.31
428.958	90.31
429.181	76.31
429.403	77.31
429.625	87.31
429.847	93.31
430.069	117.31
430.292	88.31
430.514	80.31
430.736	96.31
430.958	90.31
431.18	83.31
431.402	88.31
431.624	88.31
431.846	79.31
432.068	78.31
432.29	83.31
432.512	97.31
432.734	89.31
432.956	108.31
433.178	96.31
433.4	107.31
433.622	95.31
433.844	89.31
434.066	89.31
434.287	96.31
434.509	86.31
434.731	74.31
434.953	89.31
435.175	88.31
435.397	87.31
435.618	96.31
435.84	105.31
436.062	124.31
436.284	113.31
436.505	107.31
436.727	114.31
436.949	99.31
437.17	84.31
437.392	77.31
437.614	82.31
437.835	114.31
438.057	106.31
438.278	113.31
438.5	98.31
438.721	112.31
438.943	119.31
439.165	93.31
439.386	102.31
439.608	84.31
439.829	106.31
440.05	132.31
440.272	163.31
440.493	107.31
440.715	102.31
440.936	92.31
441.158	100.31
441.379	92.31
441.6	92.31
441.822	104.31
442.043	90.31
442.264	99.31
442.486	105.31
442.707	97.31
442.928	102.31
443.149	146.31
443.371	134.31
443.592	116.31
443.813	117.31
444.034	115.31
444.255	94.31
444.476	104.31
444.698	76.31
444.919	85.31
445.14	118.31
445.361	118.31
445.582	134.31
445.803	165.31
446.024	157.31
446.245	151.31
446.466	126.31
446.687	94.31
446.908	81.31
447.129	91.31
447.35	91.31
447.571	89.31
447.792	81.31
448.013	86.31
448.234	109.31
448.455	105.31
448.675	119.31
448.896	133.31
449.117	99.31
449.338	101.31
449.559	143.31
449.779	140.31
450	112.31
450.221	92.31
450.442	89.31
450.662	93.31
450.883	117.31
451.104	107.31
451.324	89.31
451.545	78.31
451.766	96.31
451.986	93.31
452.207	88.31
452.428	90.31
452.648	105.31
452.869	113.31
453.089	124.31
453.31	120.31
453.53	97.31
453.751	92.31
453.971	109.31
454.192	117.31
454.412	106.31
454.633	96.31
454.853	88.31
455.073	89.31
455.294	86.31
455.514	95.31
455.734	87.31
455.955	70.31
456.175	73.31
456.395	84.31
456.616	83.31
456.836	76.31
457.056	80.31
457.276	79.31
457.497	99.31
457.717	86.31
457.937	73.31
458.157	91.31
458.377	81.31
458.598	116.31
458.818	152.31
459.038	197.31
459.258	133.31
459.478	91.31
459.698	100.31
459.918	95.31
460.138	92.31
460.358	80.31
460.578	101.31
460.798	91.31
461.018	72.31
461.238	82.31
461.458	84.31
461.678	90.31
461.898	81.31
462.118	91.31
462.338	104.31
462.558	87.31
462.777	79.31
462.997	86.31
463.217	100.31
463.437	92.31
463.657	103.31
463.876	101.31
464.096	88.31
464.316	92.31
464.536	101.31
464.755	88.31
464.975	93.31
465.195	182.31
465.414	152.31
465.634	100.31
465.854	95.31
466.073	101.31
466.293	77.31
466.512	81.31
466.732	93.31
466.951	82.31
467.171	95.31
467.391	102.31
467.61	121.31
467.829	174.31
468.049	350.31
468.268	537.31
468.488	145.31
468.707	86.31
468.927	100.31
469.146	80.31
469.365	93.31
469.585	101.31
469.804	115.31
470.023	94.31
470.243	96.31
470.462	114.31
470.681	106.31
470.901	92.31
471.12	102.31
471.339	94.31
471.558	90.31
471.777	131.31
471.997	207.31
472.216	720.31
472.435	1577.31
472.654	390.31
472.873	146.31
473.092	119.31
473.311	90.31
473.53	92.31
473.749	98.31
473.968	105.31
474.187	104.31
474.406	105.31
474.625	105.31
474.844	80.31
475.063	84.31
475.282	91.31
475.501	88.31
475.72	97.31
475.939	92.31
476.158	98.31
476.377	103.31
476.596	86.31
476.814	84.31
477.033	99.31
477.252	102.31
477.471	100.31
477.69	99.31
477.908	112.31
478.127	87.31
478.346	84.31
478.564	103.31
478.783	97.31
479.002	103.31
479.22	103.31
479.439	105.31
479.658	124.31
479.876	119.31
480.095	108.31
480.313	132.31
480.532	132.31
480.751	208.31
480.969	697.31
481.188	2800.31
481.406	1588.31
481.624	261.31
481.843	129.31
482.061	85.31
482.28	99.31
482.498	90.31
482.717	95.31
482.935	102.31
483.153	93.31
483.372	85.31
483.59	93.31
483.808	87.31
484.027	86.31
484.245	89.31
484.463	88.31
484.681	111.31
484.9	95.31
485.118	102.31
485.336	98.31
485.554	110.31
485.772	101.31
485.99	102.31
486.209	105.31
486.427	100.31
486.645	109.31
486.863	121.31
487.081	100.31
487.299	109.31
487.517	102.31
487.735	98.31
487.953	101.31
488.171	110.31
488.389	101.31
488.607	99.31
488.825	98.31
489.043	88.31
489.261	102.31
489.479	96.31
489.696	100.31
489.914	86.31
490.132	81.31
490.35	80.31
490.568	89.31
490.786	97.31
491.003	93.31
491.221	98.31
491.439	94.31
491.657	109.31
491.874	82.31
492.092	88.31
492.31	85.31
492.527	73.31
492.745	95.31
492.963	84.31
493.18	79.31
493.398	97.31
493.615	105.31
493.833	100.31
494.05	108.31
494.268	92.31
494.485	96.31
494.703	88.31
494.92	88.31
495.138	87.31
495.355	81.31
495.573	81.31
495.79	100.31
496.008	91.31
496.225	81.31
496.442	87.31
496.66	92.31
496.877	82.31
497.094	88.31
497.312	82.31
497.529	96.31
497.746	89.31
497.963	71.31
498.181	100.31
498.398	92.31
498.615	102.31
498.832	100.31
499.049	83.31
499.267	103.31
499.484	84.31
499.701	93.31
499.918	85.31
500.135	81.31
500.352	100.31
500.569	92.31
500.786	92.31
501.003	100.31
501.22	83.31
501.437	94.31
501.654	92.31
501.871	115.31
502.088	94.31
502.305	94.31
502.522	94.31
502.739	82.31
502.956	90.31
503.172	87.31
503.389	104.31
503.606	113.31
503.823	111.31
504.04	92.31
504.256	93.31
504.473	93.31
504.69	80.31
504.907	105.31
505.123	93.31
505.34	88.31
505.557	92.31
505.773	92.31
505.99	96.31
506.207	83.31
506.423	89.31
506.64	94.31
506.856	81.31
507.073	97.31
507.289	78.31
507.506	91.31
507.722	120.31
507.939	119.31
508.155	92.31
508.372	95.31
508.588	102.31
508.805	105.31
509.021	96.31
509.238	93.31
509.454	92.31
509.67	99.31
509.887	111.31
510.103	126.31
510.319	187.31
510.536	640.31
510.752	2071.31
510.968	590.31
511.184	148.31
511.401	112.31
511.617	85.31
511.833	85.31
512.049	92.31
512.265	83.31
512.481	98.31
512.698	98.31
512.914	101.31
513.13	93.31
513.346	96.31
513.562	105.31
513.778	90.31
513.994	104.31
514.21	92.31
514.426	121.31
