Data from Circ_1989_H10_HRD10591_00076.txt Node
Date: Wed Jan 03 12:01:36 EST 2024
User: Yrep
Spectrometer: HR+D1059
Trigger mode: 1
Integration Time (sec): 1.000000E-1
Scans to average: 1
Electric dark correction enabled: true
Nonlinearity correction enabled: false
Boxcar width: 0
XAxis mode: Wavelengths
Number of Pixels in Spectrum: 2048
>>>>>Begin Spectral Data<<<<<
223.165	-18.5
223.4	-18.5
223.635	-18.5
223.869	-10.5
224.104	-24.5
224.338	-16.5
224.573	-27.5
224.808	-4.5
225.042	-1.5
225.277	-12.5
225.511	-2.5
225.746	-8.5
225.98	13.5
226.215	-1.5
226.449	17.5
226.683	25.5
226.918	22.5
227.152	49.5
227.387	39.5
227.621	50.5
227.856	50.5
228.09	47.5
228.324	60.5
228.559	58.5
228.793	60.5
229.027	64.5
229.262	65.5
229.496	58.5
229.73	90.5
229.964	95.5
230.199	77.5
230.433	69.5
230.667	61.5
230.901	68.5
231.136	86.5
231.37	79.5
231.604	87.5
231.838	71.5
232.072	72.5
232.306	85.5
232.541	83.5
232.775	81.5
233.009	75.5
233.243	72.5
233.477	77.5
233.711	77.5
233.945	72.5
234.179	77.5
234.413	70.5
234.647	73.5
234.881	75.5
235.115	79.5
235.349	72.5
235.583	75.5
235.817	71.5
236.051	77.5
236.285	79.5
236.519	82.5
236.753	65.5
236.987	75.5
237.221	78.5
237.455	86.5
237.689	99.5
237.922	74.5
238.156	75.5
238.39	86.5
238.624	83.5
238.858	72.5
239.091	72.5
239.325	70.5
239.559	77.5
239.793	72.5
240.027	87.5
240.26	78.5
240.494	87.5
240.728	67.5
240.961	81.5
241.195	61.5
241.429	71.5
241.662	90.5
241.896	62.5
242.13	93.5
242.363	71.5
242.597	72.5
242.83	85.5
243.064	64.5
243.298	72.5
243.531	87.5
243.765	79.5
243.998	87.5
244.232	79.5
244.465	85.5
244.699	77.5
244.932	73.5
245.166	88.5
245.399	78.5
245.633	67.5
245.866	71.5
246.099	87.5
246.333	82.5
246.566	86.5
246.8	88.5
247.033	71.5
247.266	76.5
247.5	86.5
247.733	81.5
247.966	71.5
248.2	78.5
248.433	73.5
248.666	75.5
248.899	80.5
249.133	72.5
249.366	84.5
249.599	112.5
249.832	91.5
250.066	71.5
250.299	79.5
250.532	91.5
250.765	83.5
250.998	85.5
251.231	82.5
251.465	78.5
251.698	89.5
251.931	76.5
252.164	87.5
252.397	72.5
252.63	100.5
252.863	93.5
253.096	66.5
253.329	92.5
253.562	91.5
253.795	77.5
254.028	97.5
254.261	64.5
254.494	83.5
254.727	83.5
254.96	80.5
255.193	85.5
255.426	79.5
255.659	77.5
255.892	81.5
256.124	83.5
256.357	79.5
256.59	73.5
256.823	77.5
257.056	84.5
257.289	94.5
257.521	88.5
257.754	91.5
257.987	77.5
258.22	93.5
258.452	72.5
258.685	94.5
258.918	83.5
259.151	65.5
259.383	88.5
259.616	85.5
259.849	84.5
260.081	87.5
260.314	92.5
260.547	90.5
260.779	87.5
261.012	88.5
261.244	100.5
261.477	107.5
261.71	111.5
261.942	99.5
262.175	133.5
262.407	104.5
262.64	85.5
262.872	98.5
263.105	85.5
263.337	81.5
263.57	78.5
263.802	72.5
264.035	76.5
264.267	87.5
264.499	90.5
264.732	78.5
264.964	75.5
265.197	80.5
265.429	91.5
265.661	83.5
265.894	72.5
266.126	83.5
266.358	77.5
266.591	79.5
266.823	73.5
267.055	84.5
267.287	96.5
267.52	84.5
267.752	76.5
267.984	82.5
268.216	95.5
268.448	97.5
268.681	88.5
268.913	95.5
269.145	88.5
269.377	76.5
269.609	79.5
269.841	88.5
270.073	101.5
270.306	84.5
270.538	72.5
270.77	88.5
271.002	89.5
271.234	80.5
271.466	88.5
271.698	95.5
271.93	96.5
272.162	76.5
272.394	95.5
272.626	78.5
272.858	91.5
273.09	80.5
273.322	99.5
273.553	72.5
273.785	83.5
274.017	81.5
274.249	91.5
274.481	86.5
274.713	80.5
274.945	76.5
275.176	94.5
275.408	91.5
275.64	105.5
275.872	111.5
276.104	96.5
276.335	92.5
276.567	114.5
276.799	129.5
277.031	132.5
277.262	135.5
277.494	103.5
277.726	95.5
277.957	78.5
278.189	84.5
278.421	91.5
278.652	88.5
278.884	95.5
279.115	83.5
279.347	88.5
279.579	93.5
279.81	98.5
280.042	135.5
280.273	189.5
280.505	127.5
280.736	94.5
280.968	88.5
281.199	83.5
281.431	78.5
281.662	79.5
281.894	79.5
282.125	100.5
282.356	117.5
282.588	144.5
282.819	121.5
283.051	97.5
283.282	77.5
283.513	74.5
283.745	88.5
283.976	89.5
284.207	88.5
284.439	95.5
284.67	96.5
284.901	88.5
285.132	88.5
285.364	92.5
285.595	91.5
285.826	85.5
286.057	84.5
286.288	88.5
286.52	97.5
286.751	93.5
286.982	77.5
287.213	85.5
287.444	88.5
287.675	81.5
287.906	86.5
288.138	79.5
288.369	94.5
288.6	88.5
288.831	94.5
289.062	88.5
289.293	77.5
289.524	91.5
289.755	88.5
289.986	87.5
290.217	93.5
290.448	91.5
290.679	86.5
290.91	80.5
291.141	90.5
291.371	91.5
291.602	89.5
291.833	88.5
292.064	87.5
292.295	91.5
292.526	89.5
292.757	101.5
292.987	94.5
293.218	96.5
293.449	83.5
293.68	83.5
293.91	96.5
294.141	92.5
294.372	89.5
294.603	87.5
294.833	95.5
295.064	84.5
295.295	104.5
295.525	92.5
295.756	85.5
295.987	108.5
296.217	123.5
296.448	123.5
296.679	87.5
296.909	100.5
297.14	85.5
297.37	105.5
297.601	96.5
297.831	78.5
298.062	94.5
298.292	89.5
298.523	106.5
298.753	83.5
298.984	89.5
299.214	109.5
299.445	96.5
299.675	105.5
299.905	111.5
300.136	97.5
300.366	88.5
300.597	91.5
300.827	89.5
301.057	104.5
301.288	100.5
301.518	97.5
301.748	85.5
301.979	97.5
302.209	110.5
302.439	89.5
302.669	93.5
302.9	89.5
303.13	104.5
303.36	112.5
303.59	105.5
303.82	104.5
304.051	103.5
304.281	97.5
304.511	95.5
304.741	81.5
304.971	80.5
305.201	81.5
305.431	81.5
305.661	83.5
305.891	94.5
306.121	82.5
306.352	105.5
306.582	106.5
306.812	96.5
307.042	95.5
307.272	131.5
307.502	144.5
307.731	149.5
307.961	120.5
308.191	85.5
308.421	94.5
308.651	81.5
308.881	91.5
309.111	94.5
309.341	103.5
309.571	95.5
309.8	104.5
310.03	104.5
310.26	117.5
310.49	98.5
310.72	103.5
310.949	98.5
311.179	93.5
311.409	101.5
311.639	110.5
311.868	88.5
312.098	107.5
312.328	115.5
312.557	116.5
312.787	112.5
313.017	109.5
313.246	111.5
313.476	105.5
313.706	86.5
313.935	91.5
314.165	96.5
314.394	99.5
314.624	93.5
314.853	100.5
315.083	104.5
315.312	88.5
315.542	82.5
315.771	93.5
316.001	85.5
316.23	94.5
316.46	102.5
316.689	108.5
316.919	96.5
317.148	83.5
317.377	96.5
317.607	94.5
317.836	90.5
318.065	88.5
318.295	87.5
318.524	94.5
318.753	88.5
318.983	95.5
319.212	96.5
319.441	103.5
319.67	104.5
319.9	86.5
320.129	89.5
320.358	100.5
320.587	96.5
320.816	84.5
321.046	93.5
321.275	96.5
321.504	109.5
321.733	103.5
321.962	100.5
322.191	111.5
322.42	101.5
322.649	103.5
322.878	114.5
323.108	121.5
323.337	120.5
323.566	136.5
323.795	156.5
324.024	203.5
324.253	401.5
324.482	850.5
324.71	1807.5
324.939	2547.5
325.168	926.5
325.397	262.5
325.626	159.5
325.855	132.5
326.084	122.5
326.313	136.5
326.542	155.5
326.77	252.5
326.999	488.5
327.228	988.5
327.457	1931.5
327.686	1537.5
327.914	483.5
328.143	360.5
328.372	435.5
328.6	283.5
328.829	167.5
329.058	145.5
329.287	152.5
329.515	130.5
329.744	204.5
329.972	331.5
330.201	650.5
330.43	935.5
330.658	426.5
330.887	211.5
331.115	159.5
331.344	113.5
331.572	115.5
331.801	110.5
332.03	124.5
332.258	96.5
332.486	86.5
332.715	100.5
332.943	93.5
333.172	110.5
333.4	124.5
333.629	140.5
333.857	177.5
334.085	283.5
334.314	578.5
334.542	1114.5
334.771	1056.5
334.999	303.5
335.227	146.5
335.455	126.5
335.684	107.5
335.912	93.5
336.14	107.5
336.369	103.5
336.597	103.5
336.825	100.5
337.053	90.5
337.281	115.5
337.51	83.5
337.738	87.5
337.966	79.5
338.194	105.5
338.422	88.5
338.65	112.5
338.878	98.5
339.106	105.5
339.334	95.5
339.562	88.5
339.79	89.5
340.018	92.5
340.246	88.5
340.474	101.5
340.702	106.5
340.93	98.5
341.158	107.5
341.386	107.5
341.614	95.5
341.842	99.5
342.07	89.5
342.298	80.5
342.526	97.5
342.754	103.5
342.981	87.5
343.209	79.5
343.437	84.5
343.665	73.5
343.893	85.5
344.12	98.5
344.348	71.5
344.576	91.5
344.804	91.5
345.031	105.5
345.259	88.5
345.487	107.5
345.714	89.5
345.942	88.5
346.17	88.5
346.397	93.5
346.625	77.5
346.853	85.5
347.08	94.5
347.308	87.5
347.535	85.5
347.763	89.5
347.99	105.5
348.218	101.5
348.445	104.5
348.673	108.5
348.9	97.5
349.128	108.5
349.355	95.5
349.583	94.5
349.81	100.5
350.037	94.5
350.265	101.5
350.492	91.5
350.72	96.5
350.947	111.5
351.174	105.5
351.402	114.5
351.629	96.5
351.856	107.5
352.083	102.5
352.311	103.5
352.538	108.5
352.765	101.5
352.992	100.5
353.22	117.5
353.447	93.5
353.674	93.5
353.901	105.5
354.128	87.5
354.355	62.5
354.583	101.5
354.81	83.5
355.037	81.5
355.264	94.5
355.491	107.5
355.718	92.5
355.945	104.5
356.172	94.5
356.399	95.5
356.626	88.5
356.853	94.5
357.08	102.5
357.307	86.5
357.534	97.5
357.761	87.5
357.988	91.5
358.215	85.5
358.441	94.5
358.668	92.5
358.895	95.5
359.122	110.5
359.349	97.5
359.576	96.5
359.802	101.5
360.029	112.5
360.256	125.5
360.483	96.5
360.709	88.5
360.936	87.5
361.163	106.5
361.39	90.5
361.616	98.5
361.843	97.5
362.07	104.5
362.296	89.5
362.523	91.5
362.749	93.5
362.976	99.5
363.203	100.5
363.429	86.5
363.656	89.5
363.882	78.5
364.109	107.5
364.335	97.5
364.562	94.5
364.788	89.5
365.015	98.5
365.241	105.5
365.468	110.5
365.694	108.5
365.92	97.5
366.147	91.5
366.373	94.5
366.599	100.5
366.826	101.5
367.052	95.5
367.278	99.5
367.505	101.5
367.731	87.5
367.957	84.5
368.184	98.5
368.41	110.5
368.636	109.5
368.862	127.5
369.089	105.5
369.315	102.5
369.541	92.5
369.767	93.5
369.993	88.5
370.219	107.5
370.445	87.5
370.672	99.5
370.898	73.5
371.124	103.5
371.35	97.5
371.576	97.5
371.802	82.5
372.028	77.5
372.254	81.5
372.48	93.5
372.706	90.5
372.932	87.5
373.158	81.5
373.384	108.5
373.61	98.5
373.835	84.5
374.061	89.5
374.287	89.5
374.513	89.5
374.739	82.5
374.965	96.5
375.191	88.5
375.416	94.5
375.642	96.5
375.868	98.5
376.094	85.5
376.319	83.5
376.545	83.5
376.771	88.5
376.997	95.5
377.222	85.5
377.448	87.5
377.674	87.5
377.899	74.5
378.125	82.5
378.35	102.5
378.576	80.5
378.802	94.5
379.027	96.5
379.253	88.5
379.478	109.5
379.704	95.5
379.929	91.5
380.155	85.5
380.38	100.5
380.606	88.5
380.831	93.5
381.057	101.5
381.282	91.5
381.507	100.5
381.733	104.5
381.958	101.5
382.184	94.5
382.409	99.5
382.634	85.5
382.86	108.5
383.085	99.5
383.31	96.5
383.535	95.5
383.761	92.5
383.986	93.5
384.211	93.5
384.436	92.5
384.662	96.5
384.887	94.5
385.112	93.5
385.337	104.5
385.562	104.5
385.787	114.5
386.013	103.5
386.238	117.5
386.463	112.5
386.688	116.5
386.913	102.5
387.138	105.5
387.363	93.5
387.588	104.5
387.813	96.5
388.038	105.5
388.263	114.5
388.488	99.5
388.713	95.5
388.938	102.5
389.163	97.5
389.387	108.5
389.612	100.5
389.837	95.5
390.062	89.5
390.287	98.5
390.512	99.5
390.736	79.5
390.961	91.5
391.186	100.5
391.411	94.5
391.636	95.5
391.86	95.5
392.085	92.5
392.31	85.5
392.534	102.5
392.759	91.5
392.984	88.5
393.208	89.5
393.433	96.5
393.658	85.5
393.882	76.5
394.107	66.5
394.331	90.5
394.556	81.5
394.78	77.5
395.005	91.5
395.229	88.5
395.454	95.5
395.678	99.5
395.903	96.5
396.127	93.5
396.352	84.5
396.576	92.5
396.801	88.5
397.025	92.5
397.249	89.5
397.474	97.5
397.698	79.5
397.922	98.5
398.147	85.5
398.371	92.5
398.595	75.5
398.82	88.5
399.044	91.5
399.268	83.5
399.492	82.5
399.717	100.5
399.941	95.5
400.165	79.5
400.389	81.5
400.613	87.5
400.837	96.5
401.062	90.5
401.286	96.5
401.51	103.5
401.734	99.5
401.958	93.5
402.182	127.5
402.406	158.5
402.63	129.5
402.854	103.5
403.078	90.5
403.302	85.5
403.526	88.5
403.75	78.5
403.974	94.5
404.198	95.5
404.422	94.5
404.645	97.5
404.869	85.5
405.093	94.5
405.317	120.5
405.541	113.5
405.765	110.5
405.988	130.5
406.212	173.5
406.436	238.5
406.66	175.5
406.883	116.5
407.107	93.5
407.331	99.5
407.555	89.5
407.778	107.5
408.002	88.5
408.226	77.5
408.449	100.5
408.673	100.5
408.896	93.5
409.12	87.5
409.344	99.5
409.567	91.5
409.791	82.5
410.014	85.5
410.238	90.5
410.461	83.5
410.685	86.5
410.908	93.5
411.132	108.5
411.355	102.5
411.578	96.5
411.802	80.5
412.025	101.5
412.249	87.5
412.472	107.5
412.695	117.5
412.919	111.5
413.142	83.5
413.365	88.5
413.589	83.5
413.812	91.5
414.035	107.5
414.258	90.5
414.482	90.5
414.705	84.5
414.928	86.5
415.151	92.5
415.374	86.5
415.597	80.5
415.821	85.5
416.044	98.5
416.267	89.5
416.49	102.5
416.713	84.5
416.936	92.5
417.159	80.5
417.382	90.5
417.605	93.5
417.828	94.5
418.051	115.5
418.274	93.5
418.497	96.5
418.72	73.5
418.943	103.5
419.166	70.5
419.389	109.5
419.611	94.5
419.834	80.5
420.057	86.5
420.28	84.5
420.503	96.5
420.726	112.5
420.948	101.5
421.171	86.5
421.394	100.5
421.617	105.5
421.839	85.5
422.062	78.5
422.285	103.5
422.507	105.5
422.73	104.5
422.953	88.5
423.175	82.5
423.398	79.5
423.621	105.5
423.843	77.5
424.066	86.5
424.288	89.5
424.511	103.5
424.733	108.5
424.956	109.5
425.178	97.5
425.401	103.5
425.623	95.5
425.846	96.5
426.068	93.5
426.291	101.5
426.513	83.5
426.735	88.5
426.958	103.5
427.18	103.5
427.402	156.5
427.625	203.5
427.847	187.5
428.069	169.5
428.292	112.5
428.514	83.5
428.736	93.5
428.958	94.5
429.181	80.5
429.403	90.5
429.625	100.5
429.847	98.5
430.069	101.5
430.292	98.5
430.514	85.5
430.736	104.5
430.958	79.5
431.18	86.5
431.402	80.5
431.624	81.5
431.846	86.5
432.068	89.5
432.29	83.5
432.512	92.5
432.734	75.5
432.956	86.5
433.178	81.5
433.4	102.5
433.622	95.5
433.844	91.5
434.066	97.5
434.287	95.5
434.509	93.5
434.731	88.5
434.953	90.5
435.175	87.5
435.397	91.5
435.618	105.5
435.84	111.5
436.062	116.5
436.284	119.5
436.505	97.5
436.727	102.5
436.949	86.5
437.17	92.5
437.392	81.5
437.614	86.5
437.835	100.5
438.057	128.5
438.278	124.5
438.5	96.5
438.721	118.5
438.943	108.5
439.165	96.5
439.386	98.5
439.608	97.5
439.829	93.5
440.05	140.5
440.272	165.5
440.493	114.5
440.715	95.5
440.936	105.5
441.158	91.5
441.379	94.5
441.6	104.5
441.822	108.5
442.043	99.5
442.264	113.5
442.486	98.5
442.707	88.5
442.928	115.5
443.149	146.5
443.371	139.5
443.592	121.5
443.813	107.5
444.034	105.5
444.255	81.5
444.476	80.5
444.698	96.5
444.919	90.5
445.14	126.5
445.361	119.5
445.582	124.5
445.803	155.5
446.024	155.5
446.245	157.5
446.466	121.5
446.687	80.5
446.908	91.5
447.129	97.5
447.35	86.5
447.571	98.5
447.792	92.5
448.013	97.5
448.234	108.5
448.455	87.5
448.675	113.5
448.896	108.5
449.117	107.5
449.338	112.5
449.559	152.5
449.779	129.5
450	107.5
450.221	91.5
450.442	75.5
450.662	94.5
450.883	106.5
451.104	125.5
451.324	113.5
451.545	80.5
451.766	89.5
451.986	101.5
452.207	98.5
452.428	81.5
452.648	97.5
452.869	117.5
453.089	124.5
453.31	134.5
453.53	97.5
453.751	88.5
453.971	99.5
454.192	100.5
454.412	91.5
454.633	100.5
454.853	88.5
455.073	89.5
455.294	94.5
455.514	83.5
455.734	104.5
455.955	95.5
456.175	71.5
456.395	83.5
456.616	88.5
456.836	87.5
457.056	96.5
457.276	78.5
457.497	70.5
457.717	99.5
457.937	82.5
458.157	86.5
458.377	105.5
458.598	100.5
458.818	169.5
459.038	179.5
459.258	123.5
459.478	95.5
459.698	94.5
459.918	96.5
460.138	84.5
460.358	88.5
460.578	88.5
460.798	98.5
461.018	98.5
461.238	93.5
461.458	76.5
461.678	79.5
461.898	89.5
462.118	92.5
462.338	86.5
462.558	80.5
462.777	97.5
462.997	102.5
463.217	110.5
463.437	96.5
463.657	84.5
463.876	76.5
464.096	94.5
464.316	91.5
464.536	96.5
464.755	100.5
464.975	105.5
465.195	190.5
465.414	178.5
465.634	103.5
465.854	86.5
466.073	103.5
466.293	88.5
466.512	79.5
466.732	94.5
466.951	83.5
467.171	89.5
467.391	96.5
467.61	131.5
467.829	155.5
468.049	388.5
468.268	545.5
468.488	155.5
468.707	93.5
468.927	92.5
469.146	98.5
469.365	88.5
469.585	99.5
469.804	92.5
470.023	97.5
470.243	95.5
470.462	102.5
470.681	124.5
470.901	95.5
471.12	86.5
471.339	95.5
471.558	108.5
471.777	122.5
471.997	210.5
472.216	724.5
472.435	1622.5
472.654	403.5
472.873	141.5
473.092	96.5
473.311	95.5
473.53	90.5
473.749	87.5
473.968	93.5
474.187	109.5
474.406	96.5
474.625	99.5
474.844	92.5
475.063	83.5
475.282	103.5
475.501	95.5
475.72	85.5
475.939	91.5
476.158	109.5
476.377	89.5
476.596	99.5
476.814	95.5
477.033	96.5
477.252	96.5
477.471	92.5
477.69	83.5
477.908	80.5
478.127	87.5
478.346	87.5
478.564	101.5
478.783	83.5
479.002	96.5
479.22	107.5
479.439	111.5
479.658	111.5
479.876	100.5
480.095	98.5
480.313	118.5
480.532	142.5
480.751	219.5
480.969	667.5
481.188	2750.5
481.406	1641.5
481.624	255.5
481.843	128.5
482.061	95.5
482.28	100.5
482.498	93.5
482.717	91.5
482.935	92.5
483.153	93.5
483.372	96.5
483.59	92.5
483.808	92.5
484.027	96.5
484.245	85.5
484.463	85.5
484.681	103.5
484.9	115.5
485.118	99.5
485.336	105.5
485.554	81.5
485.772	95.5
485.99	103.5
486.209	109.5
486.427	120.5
486.645	107.5
486.863	119.5
487.081	116.5
487.299	111.5
487.517	93.5
487.735	94.5
487.953	98.5
488.171	88.5
488.389	104.5
488.607	104.5
488.825	92.5
489.043	87.5
489.261	98.5
489.479	76.5
489.696	95.5
489.914	85.5
490.132	111.5
490.35	98.5
490.568	82.5
490.786	90.5
491.003	76.5
491.221	97.5
491.439	103.5
491.657	97.5
491.874	97.5
492.092	107.5
492.31	109.5
492.527	96.5
492.745	103.5
492.963	94.5
493.18	80.5
493.398	92.5
493.615	100.5
493.833	89.5
494.05	71.5
494.268	80.5
494.485	80.5
494.703	84.5
494.92	101.5
495.138	94.5
495.355	83.5
495.573	92.5
495.79	102.5
496.008	100.5
496.225	92.5
496.442	96.5
496.66	97.5
496.877	97.5
497.094	94.5
497.312	104.5
497.529	85.5
497.746	81.5
497.963	97.5
498.181	96.5
498.398	95.5
498.615	110.5
498.832	111.5
499.049	89.5
499.267	99.5
499.484	95.5
499.701	96.5
499.918	97.5
500.135	82.5
500.352	101.5
500.569	83.5
500.786	93.5
501.003	95.5
501.22	92.5
501.437	87.5
501.654	114.5
501.871	123.5
502.088	94.5
502.305	85.5
502.522	86.5
502.739	88.5
502.956	98.5
503.172	88.5
503.389	98.5
503.606	120.5
503.823	104.5
504.04	97.5
504.256	101.5
504.473	95.5
504.69	88.5
504.907	88.5
505.123	82.5
505.34	97.5
505.557	85.5
505.773	98.5
505.99	97.5
506.207	104.5
506.423	105.5
506.64	92.5
506.856	79.5
507.073	90.5
507.289	84.5
507.506	97.5
507.722	117.5
507.939	121.5
508.155	87.5
508.372	94.5
508.588	89.5
508.805	86.5
509.021	86.5
509.238	99.5
509.454	92.5
509.67	97.5
509.887	100.5
510.103	109.5
510.319	203.5
510.536	681.5
510.752	2280.5
510.968	626.5
511.184	148.5
511.401	101.5
511.617	95.5
511.833	91.5
512.049	102.5
512.265	95.5
512.481	103.5
512.698	85.5
512.914	93.5
513.13	87.5
513.346	85.5
513.562	96.5
513.778	92.5
513.994	102.5
514.21	96.5
514.426	110.5
514.642	142.5
514.858	121.5
515.074	181.5
515.29	516.5
515.506	1686.5
515.721	624.5
515.937	167.5
516.153	114.5
516.369	104.5
516.585	107.5
516.801	119.5
517.016	97.5
517.232	88.5
517.448	88.5
517.664	89.5
517.879	95.5
518.095	83.5
518.311	99.5
518.527	96.5
518.742	95.5
518.958	92.5
519.173	105.5
519.389	97.5
519.605	98.5
519.82	92.5
520.036	117.5
520.251	131.5
520.467	121.5
520.682	100.5
520.898	101.5
521.113	125.5
521.329	153.5
521.544	231.5
521.76	641.5
521.975	2843.5
522.19	1697.5
522.406	352.5
522.621	132.5
522.836	97.5
523.052	85.5
523.267	84.5
523.482	101.5
523.698	99.5
523.913	131.5
524.128	118.5
524.343	83.5
524.559	94.5
524.774	94.5
524.989	101.5
525.204	114.5
525.419	83.5
525.634	87.5
525.849	91.5
526.064	93.5
526.28	95.5
526.495	97.5
526.71	96.5
526.925	83.5
527.14	71.5
527.355	81.5
527.57	85.5
527.785	89.5
527.999	89.5
528.214	80.5
528.429	96.5
528.644	94.5
528.859	88.5
529.074	103.5
529.289	133.5
529.503	184.5
529.718	111.5
529.933	81.5
530.148	94.5
530.363	99.5
530.577	100.5
530.792	95.5
531.007	80.5
531.221	95.5
531.436	81.5
531.651	81.5
531.865	88.5
532.08	92.5
532.295	101.5
532.509	86.5
532.724	85.5
532.938	93.5
533.153	89.5
533.367	95.5
533.582	102.5
