Data from Circ_1989_H10_HRD10591_00016.txt Node
Date: Wed Jan 03 12:01:24 EST 2024
User: Yrep
Spectrometer: HR+D1059
Trigger mode: 1
Integration Time (sec): 1.000000E-1
Scans to average: 1
Electric dark correction enabled: true
Nonlinearity correction enabled: false
Boxcar width: 0
XAxis mode: Wavelengths
Number of Pixels in Spectrum: 2048
>>>>>Begin Spectral Data<<<<<
223.165	-15.19
223.4	-15.19
223.635	-15.19
223.869	-19.19
224.104	-17.19
224.338	4.81
224.573	-11.19
224.808	1.81
225.042	1.81
225.277	-8.19
225.511	-16.19
225.746	0.81
225.98	-1.19
226.215	5.81
226.449	17.81
226.683	15.81
226.918	14.81
227.152	24.81
227.387	26.81
227.621	43.81
227.856	29.81
228.09	51.81
228.324	37.81
228.559	59.81
228.793	47.81
229.027	57.81
229.262	57.81
229.496	63.81
229.73	69.81
229.964	84.81
230.199	69.81
230.433	69.81
230.667	69.81
230.901	73.81
231.136	85.81
231.37	73.81
231.604	85.81
231.838	94.81
232.072	77.81
232.306	84.81
232.541	85.81
232.775	76.81
233.009	79.81
233.243	66.81
233.477	71.81
233.711	74.81
233.945	76.81
234.179	75.81
234.413	92.81
234.647	90.81
234.881	76.81
235.115	77.81
235.349	78.81
235.583	77.81
235.817	60.81
236.051	75.81
236.285	78.81
236.519	70.81
236.753	82.81
236.987	73.81
237.221	73.81
237.455	69.81
237.689	94.81
237.922	73.81
238.156	70.81
238.39	60.81
238.624	70.81
238.858	65.81
239.091	64.81
239.325	70.81
239.559	60.81
239.793	93.81
240.027	76.81
240.26	73.81
240.494	73.81
240.728	66.81
240.961	65.81
241.195	79.81
241.429	81.81
241.662	77.81
241.896	86.81
242.13	70.81
242.363	83.81
242.597	94.81
242.83	81.81
243.064	60.81
243.298	80.81
243.531	83.81
243.765	77.81
243.998	79.81
244.232	81.81
244.465	75.81
244.699	93.81
244.932	75.81
245.166	75.81
245.399	74.81
245.633	64.81
245.866	70.81
246.099	74.81
246.333	77.81
246.566	74.81
246.8	70.81
247.033	75.81
247.266	65.81
247.5	75.81
247.733	84.81
247.966	71.81
248.2	89.81
248.433	56.81
248.666	79.81
248.899	92.81
249.133	79.81
249.366	85.81
249.599	87.81
249.832	76.81
250.066	73.81
250.299	87.81
250.532	80.81
250.765	74.81
250.998	82.81
251.231	80.81
251.465	84.81
251.698	64.81
251.931	82.81
252.164	94.81
252.397	91.81
252.63	82.81
252.863	66.81
253.096	74.81
253.329	75.81
253.562	84.81
253.795	79.81
254.028	86.81
254.261	76.81
254.494	77.81
254.727	81.81
254.96	84.81
255.193	86.81
255.426	86.81
255.659	81.81
255.892	85.81
256.124	83.81
256.357	81.81
256.59	80.81
256.823	77.81
257.056	75.81
257.289	72.81
257.521	81.81
257.754	82.81
257.987	92.81
258.22	88.81
258.452	96.81
258.685	83.81
258.918	85.81
259.151	91.81
259.383	89.81
259.616	74.81
259.849	93.81
260.081	94.81
260.314	94.81
260.547	82.81
260.779	82.81
261.012	91.81
261.244	89.81
261.477	98.81
261.71	96.81
261.942	99.81
262.175	96.81
262.407	82.81
262.64	80.81
262.872	66.81
263.105	81.81
263.337	94.81
263.57	78.81
263.802	83.81
264.035	79.81
264.267	81.81
264.499	74.81
264.732	77.81
264.964	69.81
265.197	77.81
265.429	83.81
265.661	93.81
265.894	80.81
266.126	84.81
266.358	91.81
266.591	75.81
266.823	70.81
267.055	71.81
267.287	69.81
267.52	88.81
267.752	87.81
267.984	82.81
268.216	81.81
268.448	73.81
268.681	83.81
268.913	73.81
269.145	70.81
269.377	84.81
269.609	76.81
269.841	79.81
270.073	61.81
270.306	92.81
270.538	83.81
270.77	83.81
271.002	84.81
271.234	73.81
271.466	89.81
271.698	85.81
271.93	75.81
272.162	89.81
272.394	82.81
272.626	69.81
272.858	89.81
273.09	80.81
273.322	94.81
273.553	91.81
273.785	73.81
274.017	85.81
274.249	77.81
274.481	83.81
274.713	78.81
274.945	86.81
275.176	80.81
275.408	85.81
275.64	86.81
275.872	88.81
276.104	81.81
276.335	79.81
276.567	89.81
276.799	104.81
277.031	107.81
277.262	106.81
277.494	95.81
277.726	92.81
277.957	94.81
278.189	86.81
278.421	71.81
278.652	86.81
278.884	85.81
279.115	77.81
279.347	70.81
279.579	85.81
279.81	78.81
280.042	98.81
280.273	120.81
280.505	104.81
280.736	87.81
280.968	86.81
281.199	76.81
281.431	79.81
281.662	88.81
281.894	90.81
282.125	88.81
282.356	102.81
282.588	118.81
282.819	92.81
283.051	74.81
283.282	62.81
283.513	88.81
283.745	89.81
283.976	89.81
284.207	86.81
284.439	71.81
284.67	77.81
284.901	81.81
285.132	91.81
285.364	85.81
285.595	80.81
285.826	80.81
286.057	94.81
286.288	95.81
286.52	67.81
286.751	67.81
286.982	67.81
287.213	85.81
287.444	86.81
287.675	78.81
287.906	82.81
288.138	85.81
288.369	71.81
288.6	100.81
288.831	76.81
289.062	84.81
289.293	93.81
289.524	102.81
289.755	90.81
289.986	79.81
290.217	79.81
290.448	106.81
290.679	90.81
290.91	88.81
291.141	92.81
291.371	92.81
291.602	70.81
291.833	98.81
292.064	85.81
292.295	94.81
292.526	84.81
292.757	89.81
292.987	77.81
293.218	94.81
293.449	90.81
293.68	93.81
293.91	83.81
294.141	81.81
294.372	94.81
294.603	87.81
294.833	93.81
295.064	98.81
295.295	89.81
295.525	96.81
295.756	104.81
295.987	119.81
296.217	143.81
296.448	100.81
296.679	98.81
296.909	97.81
297.14	91.81
297.37	78.81
297.601	90.81
297.831	96.81
298.062	90.81
298.292	90.81
298.523	93.81
298.753	81.81
298.984	89.81
299.214	98.81
299.445	81.81
299.675	93.81
299.905	75.81
300.136	68.81
300.366	78.81
300.597	88.81
300.827	94.81
301.057	104.81
301.288	98.81
301.518	92.81
301.748	84.81
301.979	103.81
302.209	80.81
302.439	91.81
302.669	86.81
302.9	90.81
303.13	91.81
303.36	98.81
303.59	94.81
303.82	111.81
304.051	92.81
304.281	90.81
304.511	85.81
304.741	93.81
304.971	82.81
305.201	82.81
305.431	89.81
305.661	85.81
305.891	92.81
306.121	89.81
306.352	97.81
306.582	90.81
306.812	97.81
307.042	83.81
307.272	103.81
307.502	99.81
307.731	91.81
307.961	101.81
308.191	108.81
308.421	91.81
308.651	91.81
308.881	95.81
309.111	88.81
309.341	78.81
309.571	86.81
309.8	81.81
310.03	95.81
310.26	80.81
310.49	85.81
310.72	81.81
310.949	110.81
311.179	95.81
311.409	93.81
311.639	96.81
311.868	93.81
312.098	91.81
312.328	109.81
312.557	98.81
312.787	102.81
313.017	101.81
313.246	110.81
313.476	82.81
313.706	96.81
313.935	89.81
314.165	104.81
314.394	98.81
314.624	88.81
314.853	89.81
315.083	92.81
315.312	85.81
315.542	79.81
315.771	81.81
316.001	99.81
316.23	109.81
316.46	86.81
316.689	75.81
316.919	94.81
317.148	86.81
317.377	97.81
317.607	87.81
317.836	93.81
318.065	99.81
318.295	76.81
318.524	91.81
318.753	80.81
318.983	69.81
319.212	109.81
319.441	104.81
319.67	82.81
319.9	83.81
320.129	96.81
320.358	96.81
320.587	102.81
320.816	99.81
321.046	93.81
321.275	102.81
321.504	97.81
321.733	72.81
321.962	89.81
322.191	93.81
322.42	110.81
322.649	98.81
322.878	104.81
323.108	103.81
323.337	112.81
323.566	110.81
323.795	115.81
324.024	169.81
324.253	311.81
324.482	638.81
324.71	1283.81
324.939	1697.81
325.168	664.81
325.397	200.81
325.626	128.81
325.855	120.81
326.084	123.81
326.313	127.81
326.542	132.81
326.77	205.81
326.999	358.81
327.228	693.81
327.457	1359.81
327.686	1095.81
327.914	317.81
328.143	216.81
328.372	223.81
328.6	159.81
328.829	121.81
329.058	114.81
329.287	104.81
329.515	107.81
329.744	134.81
329.972	177.81
330.201	261.81
330.43	366.81
330.658	195.81
330.887	137.81
331.115	119.81
331.344	101.81
331.572	83.81
331.801	88.81
332.03	77.81
332.258	100.81
332.486	103.81
332.715	85.81
332.943	98.81
333.172	105.81
333.4	88.81
333.629	101.81
333.857	118.81
334.085	162.81
334.314	267.81
334.542	454.81
334.771	446.81
334.999	175.81
335.227	104.81
335.455	99.81
335.684	95.81
335.912	93.81
336.14	102.81
336.369	82.81
336.597	86.81
336.825	94.81
337.053	96.81
337.281	93.81
337.51	85.81
337.738	89.81
337.966	96.81
338.194	86.81
338.422	81.81
338.65	95.81
338.878	79.81
339.106	93.81
339.334	93.81
339.562	85.81
339.79	73.81
340.018	97.81
340.246	92.81
340.474	95.81
340.702	94.81
340.93	82.81
341.158	95.81
341.386	79.81
341.614	91.81
341.842	73.81
342.07	102.81
342.298	86.81
342.526	78.81
342.754	71.81
342.981	96.81
343.209	79.81
343.437	86.81
343.665	80.81
343.893	78.81
344.12	82.81
344.348	98.81
344.576	108.81
344.804	88.81
345.031	88.81
345.259	92.81
345.487	89.81
345.714	85.81
345.942	98.81
346.17	84.81
346.397	85.81
346.625	97.81
346.853	92.81
347.08	98.81
347.308	90.81
347.535	87.81
347.763	86.81
347.99	86.81
348.218	99.81
348.445	96.81
348.673	98.81
348.9	108.81
349.128	106.81
349.355	85.81
349.583	83.81
349.81	90.81
350.037	93.81
350.265	81.81
350.492	84.81
350.72	98.81
350.947	88.81
351.174	111.81
351.402	115.81
351.629	101.81
351.856	107.81
352.083	101.81
352.311	89.81
352.538	102.81
352.765	106.81
352.992	120.81
353.22	90.81
353.447	87.81
353.674	90.81
353.901	96.81
354.128	107.81
354.355	100.81
354.583	75.81
354.81	80.81
355.037	92.81
355.264	98.81
355.491	83.81
355.718	100.81
355.945	97.81
356.172	85.81
356.399	86.81
356.626	92.81
356.853	101.81
357.08	97.81
357.307	98.81
357.534	89.81
357.761	74.81
357.988	92.81
358.215	85.81
358.441	86.81
358.668	99.81
358.895	91.81
359.122	88.81
359.349	99.81
359.576	87.81
359.802	94.81
360.029	103.81
360.256	94.81
360.483	88.81
360.709	89.81
360.936	105.81
361.163	94.81
361.39	90.81
361.616	82.81
361.843	84.81
362.07	97.81
362.296	86.81
362.523	92.81
362.749	98.81
362.976	83.81
363.203	67.81
363.429	85.81
363.656	87.81
363.882	74.81
364.109	86.81
364.335	99.81
364.562	83.81
364.788	85.81
365.015	85.81
365.241	103.81
365.468	107.81
365.694	88.81
365.92	103.81
366.147	93.81
366.373	93.81
366.599	84.81
366.826	86.81
367.052	84.81
367.278	86.81
367.505	89.81
367.731	78.81
367.957	88.81
368.184	91.81
368.41	100.81
368.636	97.81
368.862	114.81
369.089	99.81
369.315	89.81
369.541	94.81
369.767	95.81
369.993	85.81
370.219	86.81
370.445	73.81
370.672	83.81
370.898	99.81
371.124	82.81
371.35	81.81
371.576	69.81
371.802	97.81
372.028	86.81
372.254	89.81
372.48	77.81
372.706	90.81
372.932	85.81
373.158	101.81
373.384	95.81
373.61	72.81
373.835	99.81
374.061	91.81
374.287	90.81
374.513	82.81
374.739	96.81
374.965	70.81
375.191	82.81
375.416	85.81
375.642	72.81
375.868	88.81
376.094	95.81
376.319	71.81
376.545	93.81
376.771	103.81
376.997	86.81
377.222	89.81
377.448	95.81
377.674	87.81
377.899	95.81
378.125	80.81
378.35	69.81
378.576	104.81
378.802	106.81
379.027	99.81
379.253	105.81
379.478	106.81
379.704	87.81
379.929	94.81
380.155	91.81
380.38	103.81
380.606	94.81
380.831	101.81
381.057	98.81
381.282	91.81
381.507	96.81
381.733	84.81
381.958	84.81
382.184	93.81
382.409	99.81
382.634	99.81
382.86	99.81
383.085	100.81
383.31	95.81
383.535	113.81
383.761	98.81
383.986	99.81
384.211	113.81
384.436	117.81
384.662	112.81
384.887	109.81
385.112	111.81
385.337	109.81
385.562	91.81
385.787	109.81
386.013	83.81
386.238	115.81
386.463	99.81
386.688	113.81
386.913	104.81
387.138	126.81
387.363	104.81
387.588	101.81
387.813	102.81
388.038	118.81
388.263	118.81
388.488	110.81
388.713	101.81
388.938	82.81
389.163	91.81
389.387	97.81
389.612	88.81
389.837	76.81
390.062	81.81
390.287	95.81
390.512	90.81
390.736	76.81
390.961	86.81
391.186	87.81
391.411	93.81
391.636	85.81
391.86	83.81
392.085	80.81
392.31	90.81
392.534	80.81
392.759	90.81
392.984	93.81
393.208	85.81
393.433	97.81
393.658	99.81
393.882	78.81
394.107	84.81
394.331	91.81
394.556	85.81
394.78	82.81
395.005	85.81
395.229	79.81
395.454	89.81
395.678	84.81
395.903	88.81
396.127	73.81
396.352	81.81
396.576	91.81
396.801	106.81
397.025	91.81
397.249	95.81
397.474	92.81
397.698	98.81
397.922	85.81
398.147	83.81
398.371	79.81
398.595	77.81
398.82	71.81
399.044	97.81
399.268	89.81
399.492	92.81
399.717	81.81
399.941	86.81
400.165	97.81
400.389	81.81
400.613	89.81
400.837	74.81
401.062	88.81
401.286	113.81
401.51	93.81
401.734	70.81
401.958	92.81
402.182	114.81
402.406	132.81
402.63	118.81
402.854	87.81
403.078	79.81
403.302	85.81
403.526	75.81
403.75	87.81
403.974	92.81
404.198	86.81
404.422	92.81
404.645	88.81
404.869	97.81
405.093	97.81
405.317	89.81
405.541	103.81
405.765	93.81
405.988	94.81
406.212	144.81
406.436	190.81
406.66	129.81
406.883	100.81
407.107	94.81
407.331	104.81
407.555	90.81
407.778	94.81
408.002	85.81
408.226	83.81
408.449	90.81
408.673	89.81
408.896	82.81
409.12	77.81
409.344	95.81
409.567	78.81
409.791	77.81
410.014	101.81
410.238	92.81
410.461	92.81
410.685	87.81
410.908	79.81
411.132	102.81
411.355	90.81
411.578	85.81
411.802	81.81
412.025	82.81
412.249	92.81
412.472	98.81
412.695	101.81
412.919	86.81
413.142	82.81
413.365	86.81
413.589	95.81
413.812	86.81
414.035	93.81
414.258	91.81
414.482	82.81
414.705	88.81
414.928	94.81
415.151	69.81
415.374	97.81
415.597	83.81
415.821	90.81
416.044	91.81
416.267	94.81
416.49	80.81
416.713	89.81
416.936	90.81
417.159	85.81
417.382	81.81
417.605	96.81
417.828	95.81
418.051	76.81
418.274	87.81
418.497	73.81
418.72	79.81
418.943	87.81
419.166	84.81
419.389	102.81
419.611	79.81
419.834	83.81
420.057	87.81
420.28	89.81
420.503	85.81
420.726	76.81
420.948	88.81
421.171	88.81
421.394	93.81
421.617	87.81
421.839	90.81
422.062	91.81
422.285	89.81
422.507	100.81
422.73	114.81
422.953	93.81
423.175	73.81
423.398	76.81
423.621	89.81
423.843	79.81
424.066	77.81
424.288	86.81
424.511	83.81
424.733	90.81
424.956	99.81
425.178	87.81
425.401	87.81
425.623	95.81
425.846	84.81
426.068	83.81
426.291	76.81
426.513	86.81
426.735	79.81
426.958	81.81
427.18	96.81
427.402	115.81
427.625	139.81
427.847	135.81
428.069	148.81
428.292	85.81
428.514	83.81
428.736	89.81
428.958	85.81
429.181	91.81
429.403	74.81
429.625	79.81
429.847	80.81
430.069	93.81
430.292	87.81
430.514	82.81
430.736	86.81
430.958	86.81
431.18	81.81
431.402	69.81
431.624	83.81
431.846	99.81
432.068	89.81
432.29	63.81
432.512	70.81
432.734	73.81
432.956	82.81
433.178	100.81
433.4	89.81
433.622	83.81
433.844	83.81
434.066	92.81
434.287	89.81
434.509	83.81
434.731	98.81
434.953	79.81
435.175	94.81
435.397	93.81
435.618	86.81
435.84	96.81
436.062	113.81
436.284	105.81
436.505	98.81
436.727	71.81
436.949	75.81
437.17	75.81
437.392	94.81
437.614	90.81
437.835	99.81
438.057	92.81
438.278	99.81
438.5	90.81
438.721	101.81
438.943	101.81
439.165	83.81
439.386	90.81
439.608	88.81
439.829	80.81
440.05	102.81
440.272	108.81
440.493	96.81
440.715	58.81
440.936	71.81
441.158	89.81
441.379	98.81
441.6	88.81
441.822	87.81
442.043	87.81
442.264	95.81
442.486	94.81
442.707	91.81
442.928	87.81
443.149	118.81
443.371	117.81
443.592	105.81
443.813	90.81
444.034	96.81
444.255	90.81
444.476	80.81
444.698	91.81
444.919	89.81
445.14	131.81
445.361	108.81
445.582	110.81
445.803	118.81
446.024	115.81
446.245	124.81
446.466	97.81
446.687	75.81
446.908	83.81
447.129	91.81
447.35	82.81
447.571	88.81
447.792	85.81
448.013	95.81
448.234	85.81
448.455	84.81
448.675	102.81
448.896	101.81
449.117	94.81
449.338	95.81
449.559	99.81
449.779	101.81
450	86.81
450.221	81.81
450.442	81.81
450.662	81.81
450.883	104.81
451.104	106.81
451.324	95.81
451.545	85.81
451.766	92.81
451.986	90.81
452.207	84.81
452.428	89.81
452.648	94.81
452.869	113.81
453.089	99.81
453.31	107.81
453.53	98.81
453.751	85.81
453.971	85.81
454.192	92.81
454.412	77.81
454.633	66.81
454.853	78.81
455.073	73.81
455.294	82.81
455.514	83.81
455.734	76.81
455.955	77.81
456.175	81.81
456.395	80.81
456.616	78.81
456.836	75.81
457.056	79.81
457.276	90.81
457.497	91.81
457.717	74.81
457.937	91.81
458.157	86.81
458.377	84.81
458.598	100.81
458.818	131.81
459.038	137.81
459.258	96.81
459.478	85.81
459.698	95.81
459.918	81.81
460.138	88.81
460.358	79.81
460.578	90.81
460.798	79.81
461.018	89.81
461.238	81.81
461.458	86.81
461.678	83.81
461.898	80.81
462.118	87.81
462.338	85.81
462.558	81.81
462.777	98.81
462.997	87.81
463.217	81.81
463.437	79.81
463.657	86.81
463.876	85.81
464.096	86.81
464.316	93.81
464.536	83.81
464.755	91.81
464.975	97.81
465.195	149.81
465.414	127.81
465.634	75.81
465.854	76.81
466.073	82.81
466.293	83.81
466.512	80.81
466.732	90.81
466.951	94.81
467.171	99.81
467.391	86.81
467.61	104.81
467.829	106.81
468.049	194.81
468.268	239.81
468.488	118.81
468.707	80.81
468.927	84.81
469.146	98.81
469.365	87.81
469.585	92.81
469.804	82.81
470.023	96.81
470.243	81.81
470.462	87.81
470.681	91.81
470.901	84.81
471.12	85.81
471.339	87.81
471.558	93.81
471.777	94.81
471.997	131.81
472.216	350.81
472.435	633.81
472.654	189.81
472.873	96.81
473.092	85.81
473.311	91.81
473.53	81.81
473.749	86.81
473.968	102.81
474.187	91.81
474.406	72.81
474.625	81.81
474.844	94.81
475.063	89.81
475.282	85.81
475.501	82.81
475.72	82.81
475.939	89.81
476.158	86.81
476.377	89.81
476.596	78.81
476.814	83.81
477.033	85.81
477.252	99.81
477.471	87.81
477.69	77.81
477.908	81.81
478.127	88.81
478.346	93.81
478.564	78.81
478.783	106.81
479.002	87.81
479.22	91.81
479.439	89.81
479.658	88.81
479.876	93.81
480.095	89.81
480.313	97.81
480.532	100.81
480.751	130.81
480.969	317.81
481.188	1110.81
481.406	660.81
481.624	172.81
481.843	93.81
482.061	77.81
482.28	84.81
482.498	86.81
482.717	81.81
482.935	86.81
483.153	78.81
483.372	84.81
483.59	76.81
483.808	102.81
484.027	103.81
484.245	77.81
484.463	85.81
484.681	70.81
484.9	96.81
485.118	94.81
485.336	90.81
485.554	87.81
485.772	101.81
485.99	97.81
486.209	98.81
486.427	110.81
486.645	107.81
486.863	104.81
487.081	102.81
487.299	84.81
487.517	94.81
487.735	101.81
487.953	101.81
488.171	102.81
488.389	93.81
488.607	105.81
488.825	75.81
489.043	96.81
489.261	91.81
489.479	92.81
489.696	81.81
489.914	84.81
490.132	78.81
490.35	82.81
490.568	91.81
490.786	82.81
491.003	77.81
491.221	82.81
491.439	86.81
491.657	86.81
491.874	82.81
492.092	81.81
492.31	82.81
492.527	86.81
492.745	76.81
492.963	79.81
493.18	93.81
493.398	91.81
493.615	81.81
493.833	99.81
494.05	84.81
494.268	78.81
494.485	87.81
494.703	80.81
494.92	95.81
495.138	92.81
495.355	71.81
495.573	82.81
495.79	86.81
496.008	96.81
496.225	97.81
496.442	66.81
496.66	95.81
496.877	98.81
497.094	87.81
497.312	93.81
497.529	87.81
497.746	102.81
497.963	77.81
498.181	87.81
498.398	87.81
498.615	92.81
498.832	105.81
499.049	78.81
499.267	90.81
499.484	83.81
499.701	79.81
499.918	99.81
500.135	84.81
500.352	87.81
500.569	91.81
500.786	96.81
501.003	85.81
501.22	89.81
501.437	86.81
501.654	94.81
501.871	102.81
502.088	79.81
502.305	86.81
502.522	96.81
502.739	81.81
502.956	72.81
503.172	85.81
503.389	84.81
503.606	105.81
503.823	95.81
504.04	86.81
504.256	101.81
504.473	76.81
504.69	95.81
504.907	94.81
505.123	86.81
505.34	83.81
505.557	81.81
505.773	80.81
505.99	99.81
506.207	86.81
506.423	91.81
506.64	91.81
506.856	99.81
507.073	94.81
507.289	92.81
507.506	89.81
507.722	111.81
507.939	93.81
508.155	88.81
508.372	90.81
508.588	87.81
508.805	79.81
509.021	99.81
509.238	97.81
509.454	94.81
509.67	100.81
509.887	94.81
510.103	121.81
510.319	168.81
510.536	563.81
510.752	1797.81
510.968	518.81
511.184	125.81
511.401	105.81
511.617	83.81
511.833	70.81
512.049	86.81
512.265	85.81
512.481	82.81
512.698	82.81
512.914	90.81
513.13	88.81
513.346	94.81
513.562	87.81
513.778	88.81
513.994	85.81
514.21	99.81
514.426	106.81
514.642	127.81
514.858	114.81
515.074	139.81
515.29	343.81
515.506	1066.81
515.721	423.81
515.937	123.81
516.153	110.81
516.369	100.81
516.585	90.81
516.801	94.81
