Data from Circ_1989_H10_HRD10591_00031.txt Node
Date: Wed Jan 03 12:01:27 EST 2024
User: Yrep
Spectrometer: HR+D1059
Trigger mode: 1
Integration Time (sec): 1.000000E-1
Scans to average: 1
Electric dark correction enabled: true
Nonlinearity correction enabled: false
Boxcar width: 0
XAxis mode: Wavelengths
Number of Pixels in Spectrum: 2048
>>>>>Begin Spectral Data<<<<<
223.165	-14.88
223.4	-14.88
223.635	-14.88
223.869	-12.88
224.104	-28.88
224.338	-11.88
224.573	-16.88
224.808	-13.88
225.042	-12.88
225.277	-7.88
225.511	3.12
225.746	6.12
225.98	-0.88
226.215	13.12
226.449	16.12
226.683	14.12
226.918	30.12
227.152	38.12
227.387	42.12
227.621	29.12
227.856	37.12
228.09	36.12
228.324	45.12
228.559	52.12
228.793	57.12
229.027	55.12
229.262	66.12
229.496	73.12
229.73	77.12
229.964	79.12
230.199	84.12
230.433	85.12
230.667	77.12
230.901	81.12
231.136	79.12
231.37	77.12
231.604	79.12
231.838	81.12
232.072	84.12
232.306	91.12
232.541	83.12
232.775	69.12
233.009	85.12
233.243	70.12
233.477	77.12
233.711	75.12
233.945	84.12
234.179	84.12
234.413	71.12
234.647	84.12
234.881	84.12
235.115	86.12
235.349	77.12
235.583	83.12
235.817	67.12
236.051	79.12
236.285	79.12
236.519	64.12
236.753	65.12
236.987	67.12
237.221	76.12
237.455	76.12
237.689	78.12
237.922	77.12
238.156	88.12
238.39	68.12
238.624	79.12
238.858	65.12
239.091	82.12
239.325	80.12
239.559	68.12
239.793	72.12
240.027	71.12
240.26	90.12
240.494	73.12
240.728	72.12
240.961	85.12
241.195	72.12
241.429	75.12
241.662	77.12
241.896	89.12
242.13	75.12
242.363	73.12
242.597	82.12
242.83	76.12
243.064	73.12
243.298	74.12
243.531	88.12
243.765	70.12
243.998	67.12
244.232	74.12
244.465	79.12
244.699	81.12
244.932	73.12
245.166	81.12
245.399	75.12
245.633	78.12
245.866	73.12
246.099	98.12
246.333	98.12
246.566	72.12
246.8	69.12
247.033	79.12
247.266	85.12
247.5	67.12
247.733	78.12
247.966	86.12
248.2	64.12
248.433	63.12
248.666	67.12
248.899	75.12
249.133	72.12
249.366	88.12
249.599	99.12
249.832	93.12
250.066	76.12
250.299	83.12
250.532	79.12
250.765	79.12
250.998	83.12
251.231	65.12
251.465	87.12
251.698	77.12
251.931	88.12
252.164	80.12
252.397	67.12
252.63	63.12
252.863	77.12
253.096	83.12
253.329	69.12
253.562	67.12
253.795	84.12
254.028	73.12
254.261	74.12
254.494	77.12
254.727	84.12
254.96	77.12
255.193	73.12
255.426	86.12
255.659	84.12
255.892	95.12
256.124	87.12
256.357	93.12
256.59	87.12
256.823	76.12
257.056	95.12
257.289	84.12
257.521	81.12
257.754	84.12
257.987	86.12
258.22	88.12
258.452	90.12
258.685	87.12
258.918	78.12
259.151	80.12
259.383	84.12
259.616	76.12
259.849	70.12
260.081	86.12
260.314	86.12
260.547	78.12
260.779	69.12
261.012	81.12
261.244	93.12
261.477	86.12
261.71	92.12
261.942	121.12
262.175	130.12
262.407	91.12
262.64	82.12
262.872	70.12
263.105	69.12
263.337	72.12
263.57	78.12
263.802	86.12
264.035	76.12
264.267	83.12
264.499	86.12
264.732	88.12
264.964	74.12
265.197	80.12
265.429	86.12
265.661	88.12
265.894	89.12
266.126	99.12
266.358	102.12
266.591	80.12
266.823	77.12
267.055	81.12
267.287	86.12
267.52	91.12
267.752	88.12
267.984	90.12
268.216	72.12
268.448	93.12
268.681	94.12
268.913	94.12
269.145	89.12
269.377	82.12
269.609	82.12
269.841	88.12
270.073	100.12
270.306	87.12
270.538	92.12
270.77	90.12
271.002	74.12
271.234	83.12
271.466	91.12
271.698	94.12
271.93	97.12
272.162	93.12
272.394	84.12
272.626	80.12
272.858	85.12
273.09	80.12
273.322	92.12
273.553	89.12
273.785	85.12
274.017	87.12
274.249	83.12
274.481	88.12
274.713	93.12
274.945	75.12
275.176	86.12
275.408	79.12
275.64	84.12
275.872	95.12
276.104	88.12
276.335	83.12
276.567	83.12
276.799	109.12
277.031	125.12
277.262	100.12
277.494	93.12
277.726	75.12
277.957	86.12
278.189	78.12
278.421	82.12
278.652	76.12
278.884	84.12
279.115	92.12
279.347	93.12
279.579	96.12
279.81	94.12
280.042	102.12
280.273	118.12
280.505	109.12
280.736	72.12
280.968	71.12
281.199	70.12
281.431	89.12
281.662	77.12
281.894	97.12
282.125	89.12
282.356	94.12
282.588	124.12
282.819	105.12
283.051	99.12
283.282	91.12
283.513	80.12
283.745	89.12
283.976	94.12
284.207	78.12
284.439	94.12
284.67	82.12
284.901	94.12
285.132	100.12
285.364	83.12
285.595	80.12
285.826	84.12
286.057	96.12
286.288	84.12
286.52	73.12
286.751	88.12
286.982	85.12
287.213	84.12
287.444	95.12
287.675	85.12
287.906	99.12
288.138	93.12
288.369	82.12
288.6	75.12
288.831	100.12
289.062	91.12
289.293	66.12
289.524	87.12
289.755	78.12
289.986	80.12
290.217	80.12
290.448	79.12
290.679	97.12
290.91	89.12
291.141	77.12
291.371	86.12
291.602	79.12
291.833	91.12
292.064	87.12
292.295	76.12
292.526	88.12
292.757	85.12
292.987	83.12
293.218	81.12
293.449	88.12
293.68	89.12
293.91	83.12
294.141	83.12
294.372	87.12
294.603	94.12
294.833	85.12
295.064	81.12
295.295	97.12
295.525	77.12
295.756	105.12
295.987	100.12
296.217	109.12
296.448	110.12
296.679	94.12
296.909	93.12
297.14	97.12
297.37	83.12
297.601	75.12
297.831	95.12
298.062	87.12
298.292	87.12
298.523	84.12
298.753	87.12
298.984	93.12
299.214	89.12
299.445	94.12
299.675	91.12
299.905	93.12
300.136	95.12
300.366	97.12
300.597	81.12
300.827	103.12
301.057	93.12
301.288	105.12
301.518	84.12
301.748	91.12
301.979	92.12
302.209	94.12
302.439	87.12
302.669	82.12
302.9	93.12
303.13	97.12
303.36	83.12
303.59	95.12
303.82	104.12
304.051	105.12
304.281	96.12
304.511	99.12
304.741	97.12
304.971	89.12
305.201	93.12
305.431	94.12
305.661	100.12
305.891	86.12
306.121	89.12
306.352	106.12
306.582	93.12
306.812	100.12
307.042	95.12
307.272	103.12
307.502	119.12
307.731	114.12
307.961	97.12
308.191	97.12
308.421	84.12
308.651	96.12
308.881	102.12
309.111	82.12
309.341	95.12
309.571	96.12
309.8	101.12
310.03	91.12
310.26	93.12
310.49	93.12
310.72	89.12
310.949	94.12
311.179	102.12
311.409	85.12
311.639	91.12
311.868	95.12
312.098	98.12
312.328	91.12
312.557	97.12
312.787	102.12
313.017	102.12
313.246	96.12
313.476	94.12
313.706	97.12
313.935	106.12
314.165	99.12
314.394	94.12
314.624	95.12
314.853	100.12
315.083	98.12
315.312	93.12
315.542	96.12
315.771	81.12
316.001	98.12
316.23	88.12
316.46	82.12
316.689	86.12
316.919	81.12
317.148	85.12
317.377	76.12
317.607	78.12
317.836	93.12
318.065	88.12
318.295	88.12
318.524	84.12
318.753	94.12
318.983	87.12
319.212	103.12
319.441	99.12
319.67	98.12
319.9	93.12
320.129	93.12
320.358	94.12
320.587	84.12
320.816	101.12
321.046	102.12
321.275	95.12
321.504	94.12
321.733	93.12
321.962	99.12
322.191	93.12
322.42	93.12
322.649	107.12
322.878	112.12
323.108	108.12
323.337	110.12
323.566	129.12
323.795	146.12
324.024	183.12
324.253	335.12
324.482	655.12
324.71	1315.12
324.939	1819.12
325.168	669.12
325.397	207.12
325.626	135.12
325.855	109.12
326.084	112.12
326.313	126.12
326.542	132.12
326.77	212.12
326.999	385.12
327.228	758.12
327.457	1428.12
327.686	1131.12
327.914	360.12
328.143	249.12
328.372	271.12
328.6	176.12
328.829	116.12
329.058	120.12
329.287	125.12
329.515	113.12
329.744	134.12
329.972	213.12
330.201	335.12
330.43	475.12
330.658	251.12
330.887	163.12
331.115	123.12
331.344	118.12
331.572	96.12
331.801	109.12
332.03	107.12
332.258	103.12
332.486	91.12
332.715	81.12
332.943	92.12
333.172	107.12
333.4	112.12
333.629	121.12
333.857	143.12
334.085	200.12
334.314	334.12
334.542	615.12
334.771	553.12
334.999	192.12
335.227	119.12
335.455	102.12
335.684	106.12
335.912	99.12
336.14	107.12
336.369	109.12
336.597	82.12
336.825	88.12
337.053	92.12
337.281	104.12
337.51	94.12
337.738	100.12
337.966	78.12
338.194	88.12
338.422	83.12
338.65	82.12
338.878	89.12
339.106	85.12
339.334	98.12
339.562	91.12
339.79	96.12
340.018	81.12
340.246	102.12
340.474	83.12
340.702	105.12
340.93	86.12
341.158	99.12
341.386	70.12
341.614	99.12
341.842	92.12
342.07	97.12
342.298	83.12
342.526	93.12
342.754	85.12
342.981	89.12
343.209	81.12
343.437	106.12
343.665	81.12
343.893	88.12
344.12	97.12
344.348	94.12
344.576	83.12
344.804	89.12
345.031	81.12
345.259	104.12
345.487	93.12
345.714	83.12
345.942	83.12
346.17	90.12
346.397	89.12
346.625	100.12
346.853	99.12
347.08	98.12
347.308	103.12
347.535	88.12
347.763	94.12
347.99	100.12
348.218	94.12
348.445	96.12
348.673	105.12
348.9	94.12
349.128	97.12
349.355	83.12
349.583	92.12
349.81	93.12
350.037	85.12
350.265	81.12
350.492	87.12
350.72	85.12
350.947	98.12
351.174	105.12
351.402	101.12
351.629	103.12
351.856	89.12
352.083	105.12
352.311	100.12
352.538	104.12
352.765	104.12
352.992	119.12
353.22	96.12
353.447	112.12
353.674	96.12
353.901	83.12
354.128	84.12
354.355	104.12
354.583	87.12
354.81	90.12
355.037	93.12
355.264	98.12
355.491	98.12
355.718	89.12
355.945	96.12
356.172	87.12
356.399	89.12
356.626	67.12
356.853	107.12
357.08	88.12
357.307	105.12
357.534	89.12
357.761	83.12
357.988	92.12
358.215	115.12
358.441	96.12
358.668	95.12
358.895	90.12
359.122	89.12
359.349	96.12
359.576	91.12
359.802	96.12
360.029	121.12
360.256	95.12
360.483	98.12
360.709	81.12
360.936	96.12
361.163	94.12
361.39	86.12
361.616	95.12
361.843	96.12
362.07	99.12
362.296	100.12
362.523	100.12
362.749	88.12
362.976	89.12
363.203	96.12
363.429	80.12
363.656	86.12
363.882	83.12
364.109	84.12
364.335	85.12
364.562	89.12
364.788	96.12
365.015	97.12
365.241	98.12
365.468	100.12
365.694	105.12
365.92	99.12
366.147	88.12
366.373	73.12
366.599	81.12
366.826	89.12
367.052	96.12
367.278	89.12
367.505	86.12
367.731	87.12
367.957	90.12
368.184	112.12
368.41	99.12
368.636	120.12
368.862	112.12
369.089	108.12
369.315	102.12
369.541	97.12
369.767	77.12
369.993	93.12
370.219	99.12
370.445	87.12
370.672	95.12
370.898	86.12
371.124	82.12
371.35	83.12
371.576	81.12
371.802	80.12
372.028	80.12
372.254	92.12
372.48	91.12
372.706	78.12
372.932	93.12
373.158	91.12
373.384	85.12
373.61	84.12
373.835	89.12
374.061	88.12
374.287	99.12
374.513	81.12
374.739	95.12
374.965	81.12
375.191	80.12
375.416	80.12
375.642	89.12
375.868	91.12
376.094	96.12
376.319	92.12
376.545	90.12
376.771	83.12
376.997	89.12
377.222	80.12
377.448	101.12
377.674	99.12
377.899	93.12
378.125	88.12
378.35	76.12
378.576	85.12
378.802	91.12
379.027	103.12
379.253	84.12
379.478	90.12
379.704	99.12
379.929	106.12
380.155	94.12
380.38	96.12
380.606	92.12
380.831	98.12
381.057	108.12
381.282	91.12
381.507	88.12
381.733	87.12
381.958	90.12
382.184	108.12
382.409	101.12
382.634	93.12
382.86	103.12
383.085	98.12
383.31	86.12
383.535	102.12
383.761	107.12
383.986	89.12
384.211	104.12
384.436	86.12
384.662	92.12
384.887	100.12
385.112	117.12
385.337	101.12
385.562	108.12
385.787	112.12
386.013	112.12
386.238	99.12
386.463	103.12
386.688	105.12
386.913	95.12
387.138	105.12
387.363	105.12
387.588	86.12
387.813	101.12
388.038	108.12
388.263	107.12
388.488	90.12
388.713	87.12
388.938	93.12
389.163	92.12
389.387	114.12
389.612	91.12
389.837	84.12
390.062	85.12
390.287	96.12
390.512	86.12
390.736	85.12
390.961	84.12
391.186	83.12
391.411	99.12
391.636	80.12
391.86	75.12
392.085	81.12
392.31	90.12
392.534	80.12
392.759	90.12
392.984	88.12
393.208	101.12
393.433	99.12
393.658	84.12
393.882	81.12
394.107	71.12
394.331	95.12
394.556	90.12
394.78	84.12
395.005	74.12
395.229	79.12
395.454	84.12
395.678	79.12
395.903	74.12
396.127	82.12
396.352	90.12
396.576	98.12
396.801	100.12
397.025	89.12
397.249	85.12
397.474	82.12
397.698	72.12
397.922	93.12
398.147	88.12
398.371	79.12
398.595	86.12
398.82	88.12
399.044	100.12
399.268	81.12
399.492	78.12
399.717	86.12
399.941	89.12
400.165	94.12
400.389	87.12
400.613	95.12
400.837	87.12
401.062	86.12
401.286	84.12
401.51	87.12
401.734	86.12
401.958	89.12
402.182	98.12
402.406	132.12
402.63	115.12
402.854	102.12
403.078	81.12
403.302	82.12
403.526	82.12
403.75	91.12
403.974	79.12
404.198	88.12
404.422	80.12
404.645	83.12
404.869	89.12
405.093	95.12
405.317	88.12
405.541	110.12
405.765	101.12
405.988	103.12
406.212	144.12
406.436	187.12
406.66	136.12
406.883	101.12
407.107	104.12
407.331	96.12
407.555	102.12
407.778	102.12
408.002	99.12
408.226	79.12
408.449	97.12
408.673	84.12
408.896	110.12
409.12	92.12
409.344	71.12
409.567	73.12
409.791	72.12
410.014	103.12
410.238	92.12
410.461	87.12
410.685	91.12
410.908	83.12
411.132	104.12
411.355	93.12
411.578	92.12
411.802	100.12
412.025	95.12
412.249	98.12
412.472	103.12
412.695	113.12
412.919	88.12
413.142	81.12
413.365	91.12
413.589	92.12
413.812	93.12
414.035	94.12
414.258	83.12
414.482	96.12
414.705	70.12
414.928	89.12
415.151	88.12
415.374	93.12
415.597	97.12
415.821	90.12
416.044	93.12
416.267	88.12
416.49	84.12
416.713	78.12
416.936	84.12
417.159	66.12
417.382	92.12
417.605	95.12
417.828	87.12
418.051	96.12
418.274	91.12
418.497	93.12
418.72	87.12
418.943	83.12
419.166	95.12
419.389	92.12
419.611	96.12
419.834	93.12
420.057	92.12
420.28	77.12
420.503	84.12
420.726	92.12
420.948	80.12
421.171	87.12
421.394	88.12
421.617	98.12
421.839	84.12
422.062	94.12
422.285	82.12
422.507	108.12
422.73	110.12
422.953	93.12
423.175	71.12
423.398	95.12
423.621	95.12
423.843	88.12
424.066	86.12
424.288	85.12
424.511	87.12
424.733	105.12
424.956	100.12
425.178	90.12
425.401	111.12
425.623	109.12
425.846	91.12
426.068	92.12
426.291	91.12
426.513	88.12
426.735	93.12
426.958	83.12
427.18	100.12
427.402	132.12
427.625	147.12
427.847	150.12
428.069	146.12
428.292	107.12
428.514	91.12
428.736	87.12
428.958	81.12
429.181	92.12
429.403	78.12
429.625	91.12
429.847	92.12
430.069	114.12
430.292	89.12
430.514	90.12
430.736	87.12
430.958	89.12
431.18	79.12
431.402	81.12
431.624	75.12
431.846	66.12
432.068	88.12
432.29	79.12
432.512	85.12
432.734	80.12
432.956	85.12
433.178	106.12
433.4	98.12
433.622	94.12
433.844	102.12
434.066	90.12
434.287	84.12
434.509	91.12
434.731	84.12
434.953	81.12
435.175	64.12
435.397	78.12
435.618	95.12
435.84	93.12
436.062	120.12
436.284	121.12
436.505	98.12
436.727	99.12
436.949	84.12
437.17	92.12
437.392	89.12
437.614	77.12
437.835	104.12
438.057	109.12
438.278	114.12
438.5	93.12
438.721	119.12
438.943	102.12
439.165	93.12
439.386	99.12
439.608	81.12
439.829	101.12
440.05	120.12
440.272	141.12
440.493	112.12
440.715	72.12
440.936	89.12
441.158	77.12
441.379	80.12
441.6	102.12
441.822	89.12
442.043	93.12
442.264	115.12
442.486	97.12
442.707	100.12
442.928	116.12
443.149	113.12
443.371	120.12
443.592	95.12
443.813	113.12
444.034	102.12
444.255	85.12
444.476	64.12
444.698	86.12
444.919	84.12
445.14	128.12
445.361	116.12
445.582	112.12
445.803	120.12
446.024	131.12
446.245	129.12
446.466	108.12
446.687	79.12
446.908	94.12
447.129	86.12
447.35	80.12
447.571	93.12
447.792	85.12
448.013	79.12
448.234	102.12
448.455	90.12
448.675	101.12
448.896	120.12
449.117	97.12
449.338	109.12
449.559	135.12
449.779	112.12
450	86.12
450.221	84.12
450.442	79.12
450.662	88.12
450.883	105.12
451.104	92.12
451.324	89.12
451.545	89.12
451.766	94.12
451.986	85.12
452.207	84.12
452.428	72.12
452.648	99.12
452.869	100.12
453.089	108.12
453.31	105.12
453.53	95.12
453.751	89.12
453.971	83.12
454.192	99.12
454.412	86.12
454.633	71.12
454.853	82.12
455.073	76.12
455.294	84.12
455.514	100.12
455.734	95.12
455.955	80.12
456.175	93.12
456.395	90.12
456.616	76.12
456.836	94.12
457.056	78.12
457.276	87.12
457.497	89.12
457.717	85.12
457.937	87.12
458.157	84.12
458.377	108.12
458.598	98.12
458.818	145.12
459.038	138.12
459.258	97.12
459.478	78.12
459.698	73.12
459.918	83.12
460.138	81.12
460.358	88.12
460.578	94.12
460.798	90.12
461.018	76.12
461.238	88.12
461.458	92.12
461.678	67.12
461.898	84.12
462.118	80.12
462.338	79.12
462.558	77.12
462.777	78.12
462.997	92.12
463.217	81.12
463.437	94.12
463.657	83.12
463.876	91.12
464.096	91.12
464.316	94.12
464.536	94.12
464.755	95.12
464.975	92.12
465.195	155.12
465.414	143.12
465.634	95.12
465.854	75.12
466.073	93.12
466.293	85.12
466.512	87.12
466.732	98.12
466.951	96.12
467.171	81.12
467.391	84.12
467.61	95.12
467.829	131.12
468.049	221.12
468.268	305.12
468.488	121.12
468.707	84.12
468.927	97.12
469.146	87.12
469.365	85.12
469.585	96.12
469.804	91.12
470.023	94.12
470.243	101.12
470.462	97.12
470.681	101.12
470.901	91.12
471.12	87.12
471.339	93.12
471.558	98.12
471.777	102.12
471.997	170.12
472.216	415.12
472.435	788.12
472.654	240.12
472.873	115.12
473.092	94.12
473.311	89.12
473.53	78.12
473.749	96.12
473.968	104.12
474.187	85.12
474.406	104.12
474.625	98.12
474.844	92.12
475.063	68.12
475.282	67.12
475.501	80.12
475.72	93.12
475.939	96.12
476.158	83.12
476.377	97.12
476.596	96.12
476.814	86.12
477.033	79.12
477.252	85.12
477.471	86.12
477.69	102.12
477.908	97.12
478.127	92.12
478.346	79.12
478.564	96.12
478.783	94.12
479.002	97.12
479.22	89.12
479.439	84.12
479.658	94.12
479.876	93.12
480.095	99.12
480.313	104.12
480.532	123.12
480.751	155.12
480.969	389.12
481.188	1408.12
481.406	840.12
481.624	172.12
481.843	96.12
482.061	98.12
482.28	91.12
482.498	83.12
482.717	90.12
482.935	81.12
483.153	75.12
483.372	85.12
483.59	95.12
483.808	89.12
484.027	94.12
484.245	96.12
484.463	91.12
484.681	85.12
484.9	93.12
485.118	95.12
485.336	100.12
485.554	110.12
485.772	107.12
485.99	97.12
486.209	106.12
486.427	100.12
486.645	113.12
486.863	108.12
487.081	82.12
487.299	102.12
487.517	96.12
487.735	83.12
487.953	83.12
488.171	84.12
488.389	96.12
488.607	88.12
488.825	97.12
489.043	89.12
489.261	87.12
489.479	95.12
489.696	88.12
489.914	71.12
490.132	97.12
490.35	93.12
490.568	89.12
490.786	99.12
491.003	95.12
491.221	78.12
491.439	92.12
491.657	97.12
491.874	105.12
492.092	85.12
492.31	91.12
492.527	84.12
492.745	72.12
492.963	92.12
493.18	90.12
493.398	86.12
493.615	107.12
493.833	83.12
494.05	84.12
494.268	77.12
494.485	83.12
494.703	96.12
494.92	91.12
495.138	99.12
495.355	95.12
495.573	81.12
495.79	79.12
496.008	91.12
496.225	82.12
496.442	87.12
496.66	91.12
496.877	79.12
497.094	99.12
497.312	87.12
497.529	89.12
497.746	87.12
497.963	100.12
498.181	90.12
498.398	92.12
498.615	109.12
498.832	97.12
499.049	86.12
499.267	92.12
499.484	91.12
499.701	80.12
499.918	87.12
500.135	88.12
500.352	75.12
500.569	85.12
500.786	83.12
501.003	103.12
501.22	91.12
501.437	95.12
501.654	92.12
501.871	109.12
502.088	79.12
502.305	84.12
502.522	88.12
502.739	92.12
502.956	95.12
503.172	89.12
503.389	99.12
503.606	96.12
503.823	88.12
504.04	96.12
504.256	88.12
504.473	90.12
504.69	101.12
504.907	83.12
505.123	99.12
505.34	86.12
505.557	81.12
505.773	89.12
505.99	71.12
506.207	85.12
506.423	84.12
506.64	80.12
506.856	90.12
507.073	86.12
507.289	94.12
507.506	98.12
507.722	109.12
507.939	111.12
508.155	88.12
508.372	94.12
508.588	96.12
508.805	92.12
509.021	91.12
509.238	110.12
509.454	95.12
509.67	91.12
509.887	90.12
510.103	121.12
510.319	179.12
510.536	561.12
510.752	1713.12
510.968	520.12
511.184	136.12
511.401	109.12
511.617	104.12
511.833	102.12
512.049	92.12
512.265	110.12
512.481	95.12
512.698	102.12
512.914	80.12
513.13	84.12
513.346	79.12
513.562	100.12
513.778	103.12
513.994	96.12
514.21	109.12
514.426	117.12
514.642	112.12
514.858	121.12
515.074	132.12
515.29	349.12
515.506	1101.12
515.721	415.12
515.937	126.12
