Data from Circ_1989_H10_HRD10591_00054.txt Node
Date: Wed Jan 03 12:01:32 EST 2024
User: Yrep
Spectrometer: HR+D1059
Trigger mode: 1
Integration Time (sec): 1.000000E-1
Scans to average: 1
Electric dark correction enabled: true
Nonlinearity correction enabled: false
Boxcar width: 0
XAxis mode: Wavelengths
Number of Pixels in Spectrum: 2048
>>>>>Begin Spectral Data<<<<<
223.165	-10.25
223.4	-10.25
223.635	-10.25
223.869	-27.25
224.104	-26.25
224.338	-17.25
224.573	-19.25
224.808	-20.25
225.042	-13.25
225.277	-3.25
225.511	-6.25
225.746	2.75
225.98	10.75
226.215	7.75
226.449	17.75
226.683	36.75
226.918	37.75
227.152	29.75
227.387	30.75
227.621	48.75
227.856	36.75
228.09	50.75
228.324	53.75
228.559	59.75
228.793	58.75
229.027	55.75
229.262	75.75
229.496	54.75
229.73	68.75
229.964	89.75
230.199	69.75
230.433	67.75
230.667	77.75
230.901	83.75
231.136	80.75
231.37	79.75
231.604	89.75
231.838	79.75
232.072	77.75
232.306	74.75
232.541	93.75
232.775	92.75
233.009	79.75
233.243	80.75
233.477	74.75
233.711	70.75
233.945	64.75
234.179	81.75
234.413	80.75
234.647	70.75
234.881	85.75
235.115	89.75
235.349	80.75
235.583	90.75
235.817	70.75
236.051	93.75
236.285	81.75
236.519	79.75
236.753	71.75
236.987	79.75
237.221	84.75
237.455	82.75
237.689	69.75
237.922	73.75
238.156	56.75
238.39	79.75
238.624	74.75
238.858	75.75
239.091	74.75
239.325	71.75
239.559	70.75
239.793	84.75
240.027	79.75
240.26	75.75
240.494	83.75
240.728	71.75
240.961	72.75
241.195	69.75
241.429	83.75
241.662	83.75
241.896	58.75
242.13	81.75
242.363	68.75
242.597	88.75
242.83	79.75
243.064	80.75
243.298	89.75
243.531	74.75
243.765	88.75
243.998	79.75
244.232	73.75
244.465	73.75
244.699	78.75
244.932	77.75
245.166	84.75
245.399	83.75
245.633	88.75
245.866	80.75
246.099	87.75
246.333	91.75
246.566	78.75
246.8	80.75
247.033	71.75
247.266	74.75
247.5	88.75
247.733	77.75
247.966	78.75
248.2	67.75
248.433	86.75
248.666	83.75
248.899	75.75
249.133	70.75
249.366	90.75
249.599	75.75
249.832	83.75
250.066	85.75
250.299	69.75
250.532	88.75
250.765	86.75
250.998	77.75
251.231	81.75
251.465	69.75
251.698	96.75
251.931	81.75
252.164	78.75
252.397	89.75
252.63	89.75
252.863	66.75
253.096	74.75
253.329	78.75
253.562	100.75
253.795	95.75
254.028	83.75
254.261	68.75
254.494	61.75
254.727	85.75
254.96	80.75
255.193	72.75
255.426	89.75
255.659	79.75
255.892	101.75
256.124	81.75
256.357	68.75
256.59	79.75
256.823	76.75
257.056	86.75
257.289	83.75
257.521	74.75
257.754	79.75
257.987	80.75
258.22	85.75
258.452	82.75
258.685	77.75
258.918	90.75
259.151	91.75
259.383	82.75
259.616	84.75
259.849	91.75
260.081	79.75
260.314	71.75
260.547	91.75
260.779	76.75
261.012	72.75
261.244	91.75
261.477	97.75
261.71	109.75
261.942	96.75
262.175	115.75
262.407	88.75
262.64	88.75
262.872	81.75
263.105	87.75
263.337	86.75
263.57	82.75
263.802	67.75
264.035	81.75
264.267	78.75
264.499	84.75
264.732	105.75
264.964	92.75
265.197	72.75
265.429	81.75
265.661	87.75
265.894	85.75
266.126	83.75
266.358	74.75
266.591	90.75
266.823	89.75
267.055	85.75
267.287	98.75
267.52	70.75
267.752	76.75
267.984	87.75
268.216	80.75
268.448	73.75
268.681	77.75
268.913	85.75
269.145	95.75
269.377	94.75
269.609	99.75
269.841	98.75
270.073	93.75
270.306	93.75
270.538	72.75
270.77	84.75
271.002	86.75
271.234	83.75
271.466	93.75
271.698	97.75
271.93	96.75
272.162	89.75
272.394	81.75
272.626	77.75
272.858	79.75
273.09	79.75
273.322	85.75
273.553	87.75
273.785	89.75
274.017	82.75
274.249	89.75
274.481	88.75
274.713	83.75
274.945	73.75
275.176	81.75
275.408	95.75
275.64	89.75
275.872	91.75
276.104	89.75
276.335	78.75
276.567	95.75
276.799	110.75
277.031	107.75
277.262	109.75
277.494	95.75
277.726	78.75
277.957	91.75
278.189	94.75
278.421	83.75
278.652	96.75
278.884	88.75
279.115	84.75
279.347	98.75
279.579	77.75
279.81	93.75
280.042	119.75
280.273	127.75
280.505	96.75
280.736	93.75
280.968	87.75
281.199	75.75
281.431	98.75
281.662	79.75
281.894	90.75
282.125	92.75
282.356	115.75
282.588	125.75
282.819	109.75
283.051	94.75
283.282	87.75
283.513	94.75
283.745	96.75
283.976	100.75
284.207	98.75
284.439	80.75
284.67	83.75
284.901	88.75
285.132	82.75
285.364	90.75
285.595	88.75
285.826	83.75
286.057	84.75
286.288	84.75
286.52	84.75
286.751	96.75
286.982	89.75
287.213	84.75
287.444	89.75
287.675	93.75
287.906	97.75
288.138	84.75
288.369	93.75
288.6	97.75
288.831	80.75
289.062	86.75
289.293	100.75
289.524	81.75
289.755	95.75
289.986	88.75
290.217	82.75
290.448	80.75
290.679	91.75
290.91	85.75
291.141	91.75
291.371	89.75
291.602	80.75
291.833	86.75
292.064	82.75
292.295	90.75
292.526	98.75
292.757	90.75
292.987	88.75
293.218	93.75
293.449	90.75
293.68	114.75
293.91	102.75
294.141	105.75
294.372	84.75
294.603	88.75
294.833	103.75
295.064	92.75
295.295	80.75
295.525	95.75
295.756	93.75
295.987	90.75
296.217	121.75
296.448	115.75
296.679	99.75
296.909	92.75
297.14	97.75
297.37	98.75
297.601	85.75
297.831	93.75
298.062	94.75
298.292	88.75
298.523	92.75
298.753	105.75
298.984	77.75
299.214	87.75
299.445	88.75
299.675	97.75
299.905	104.75
300.136	98.75
300.366	83.75
300.597	95.75
300.827	94.75
301.057	80.75
301.288	91.75
301.518	78.75
301.748	82.75
301.979	104.75
302.209	98.75
302.439	95.75
302.669	89.75
302.9	87.75
303.13	71.75
303.36	105.75
303.59	115.75
303.82	107.75
304.051	87.75
304.281	84.75
304.511	92.75
304.741	98.75
304.971	84.75
305.201	88.75
305.431	109.75
305.661	90.75
305.891	87.75
306.121	83.75
306.352	111.75
306.582	112.75
306.812	105.75
307.042	95.75
307.272	111.75
307.502	114.75
307.731	117.75
307.961	96.75
308.191	101.75
308.421	85.75
308.651	95.75
308.881	90.75
309.111	90.75
309.341	97.75
309.571	99.75
309.8	86.75
310.03	107.75
310.26	101.75
310.49	97.75
310.72	103.75
310.949	91.75
311.179	98.75
311.409	85.75
311.639	90.75
311.868	96.75
312.098	84.75
312.328	99.75
312.557	97.75
312.787	89.75
313.017	108.75
313.246	86.75
313.476	100.75
313.706	92.75
313.935	93.75
314.165	95.75
314.394	99.75
314.624	88.75
314.853	101.75
315.083	90.75
315.312	85.75
315.542	85.75
315.771	100.75
316.001	97.75
316.23	91.75
316.46	91.75
316.689	88.75
316.919	74.75
317.148	86.75
317.377	97.75
317.607	98.75
317.836	85.75
318.065	89.75
318.295	85.75
318.524	87.75
318.753	85.75
318.983	88.75
319.212	93.75
319.441	98.75
319.67	98.75
319.9	94.75
320.129	88.75
320.358	94.75
320.587	93.75
320.816	92.75
321.046	104.75
321.275	91.75
321.504	100.75
321.733	90.75
321.962	89.75
322.191	100.75
322.42	105.75
322.649	112.75
322.878	117.75
323.108	104.75
323.337	118.75
323.566	113.75
323.795	152.75
324.024	182.75
324.253	283.75
324.482	612.75
324.71	1211.75
324.939	1589.75
325.168	614.75
325.397	200.75
325.626	121.75
325.855	121.75
326.084	120.75
326.313	124.75
326.542	128.75
326.77	191.75
326.999	352.75
327.228	698.75
327.457	1257.75
327.686	989.75
327.914	315.75
328.143	247.75
328.372	249.75
328.6	176.75
328.829	119.75
329.058	112.75
329.287	124.75
329.515	121.75
329.744	125.75
329.972	193.75
330.201	345.75
330.43	443.75
330.658	241.75
330.887	143.75
331.115	126.75
331.344	94.75
331.572	100.75
331.801	122.75
332.03	105.75
332.258	106.75
332.486	111.75
332.715	108.75
332.943	101.75
333.172	91.75
333.4	98.75
333.629	117.75
333.857	125.75
334.085	185.75
334.314	339.75
334.542	562.75
334.771	505.75
334.999	213.75
335.227	119.75
335.455	124.75
335.684	93.75
335.912	99.75
336.14	101.75
336.369	98.75
336.597	116.75
336.825	89.75
337.053	105.75
337.281	91.75
337.51	92.75
337.738	94.75
337.966	87.75
338.194	93.75
338.422	88.75
338.65	93.75
338.878	94.75
339.106	86.75
339.334	102.75
339.562	97.75
339.79	101.75
340.018	86.75
340.246	98.75
340.474	100.75
340.702	94.75
340.93	102.75
341.158	102.75
341.386	94.75
341.614	101.75
341.842	98.75
342.07	87.75
342.298	88.75
342.526	89.75
342.754	98.75
342.981	110.75
343.209	70.75
343.437	113.75
343.665	94.75
343.893	80.75
344.12	92.75
344.348	84.75
344.576	85.75
344.804	94.75
345.031	88.75
345.259	84.75
345.487	104.75
345.714	106.75
345.942	108.75
346.17	98.75
346.397	85.75
346.625	89.75
346.853	83.75
347.08	104.75
347.308	87.75
347.535	87.75
347.763	112.75
347.99	94.75
348.218	101.75
348.445	100.75
348.673	109.75
348.9	85.75
349.128	97.75
349.355	102.75
349.583	104.75
349.81	105.75
350.037	91.75
350.265	86.75
350.492	89.75
350.72	97.75
350.947	85.75
351.174	113.75
351.402	97.75
351.629	102.75
351.856	96.75
352.083	98.75
352.311	113.75
352.538	110.75
352.765	108.75
352.992	112.75
353.22	97.75
353.447	96.75
353.674	95.75
353.901	102.75
354.128	98.75
354.355	81.75
354.583	83.75
354.81	95.75
355.037	88.75
355.264	93.75
355.491	94.75
355.718	67.75
355.945	86.75
356.172	90.75
356.399	92.75
356.626	86.75
356.853	89.75
357.08	89.75
357.307	82.75
357.534	84.75
357.761	85.75
357.988	102.75
358.215	94.75
358.441	84.75
358.668	91.75
358.895	91.75
359.122	93.75
359.349	79.75
359.576	66.75
359.802	87.75
360.029	96.75
360.256	110.75
360.483	93.75
360.709	80.75
360.936	85.75
361.163	89.75
361.39	86.75
361.616	106.75
361.843	115.75
362.07	89.75
362.296	97.75
362.523	84.75
362.749	97.75
362.976	86.75
363.203	105.75
363.429	81.75
363.656	95.75
363.882	74.75
364.109	83.75
364.335	105.75
364.562	81.75
364.788	99.75
365.015	98.75
365.241	87.75
365.468	95.75
365.694	102.75
365.92	90.75
366.147	94.75
366.373	83.75
366.599	89.75
366.826	83.75
367.052	88.75
367.278	85.75
367.505	89.75
367.731	77.75
367.957	89.75
368.184	97.75
368.41	99.75
368.636	106.75
368.862	97.75
369.089	97.75
369.315	100.75
369.541	80.75
369.767	83.75
369.993	83.75
370.219	79.75
370.445	78.75
370.672	92.75
370.898	86.75
371.124	78.75
371.35	82.75
371.576	85.75
371.802	95.75
372.028	84.75
372.254	91.75
372.48	90.75
372.706	90.75
372.932	88.75
373.158	97.75
373.384	102.75
373.61	69.75
373.835	96.75
374.061	81.75
374.287	90.75
374.513	92.75
374.739	102.75
374.965	86.75
375.191	99.75
375.416	108.75
375.642	99.75
375.868	94.75
376.094	77.75
376.319	83.75
376.545	82.75
376.771	88.75
376.997	86.75
377.222	81.75
377.448	96.75
377.674	76.75
377.899	88.75
378.125	74.75
378.35	73.75
378.576	89.75
378.802	96.75
379.027	85.75
379.253	93.75
379.478	89.75
379.704	91.75
379.929	93.75
380.155	97.75
380.38	93.75
380.606	109.75
380.831	86.75
381.057	103.75
381.282	81.75
381.507	79.75
381.733	94.75
381.958	93.75
382.184	102.75
382.409	96.75
382.634	109.75
382.86	115.75
383.085	107.75
383.31	106.75
383.535	114.75
383.761	98.75
383.986	99.75
384.211	103.75
384.436	94.75
384.662	104.75
384.887	106.75
385.112	101.75
385.337	91.75
385.562	105.75
385.787	101.75
386.013	105.75
386.238	115.75
386.463	106.75
386.688	117.75
386.913	102.75
387.138	113.75
387.363	101.75
387.588	105.75
387.813	93.75
388.038	95.75
388.263	109.75
388.488	99.75
388.713	93.75
388.938	95.75
389.163	96.75
389.387	85.75
389.612	100.75
389.837	95.75
390.062	82.75
390.287	96.75
390.512	99.75
390.736	99.75
390.961	100.75
391.186	89.75
391.411	93.75
391.636	75.75
391.86	98.75
392.085	82.75
392.31	83.75
392.534	84.75
392.759	95.75
392.984	101.75
393.208	81.75
393.433	88.75
393.658	94.75
393.882	82.75
394.107	86.75
394.331	73.75
394.556	96.75
394.78	93.75
395.005	98.75
395.229	84.75
395.454	91.75
395.678	74.75
395.903	85.75
396.127	79.75
396.352	86.75
396.576	80.75
396.801	88.75
397.025	92.75
397.249	81.75
397.474	89.75
397.698	77.75
397.922	94.75
398.147	82.75
398.371	77.75
398.595	83.75
398.82	78.75
399.044	86.75
399.268	78.75
399.492	90.75
399.717	90.75
399.941	92.75
400.165	91.75
400.389	90.75
400.613	72.75
400.837	90.75
401.062	92.75
401.286	97.75
401.51	79.75
401.734	80.75
401.958	81.75
402.182	111.75
402.406	127.75
402.63	112.75
402.854	85.75
403.078	75.75
403.302	83.75
403.526	87.75
403.75	94.75
403.974	90.75
404.198	95.75
404.422	93.75
404.645	85.75
404.869	89.75
405.093	96.75
405.317	96.75
405.541	108.75
405.765	85.75
405.988	107.75
406.212	134.75
406.436	167.75
406.66	117.75
406.883	104.75
407.107	83.75
407.331	97.75
407.555	85.75
407.778	86.75
408.002	81.75
408.226	100.75
408.449	80.75
408.673	86.75
408.896	94.75
409.12	92.75
409.344	82.75
409.567	101.75
409.791	85.75
410.014	95.75
410.238	89.75
410.461	85.75
410.685	107.75
410.908	112.75
411.132	97.75
411.355	96.75
411.578	88.75
411.802	90.75
412.025	93.75
412.249	98.75
412.472	87.75
412.695	104.75
412.919	89.75
413.142	87.75
413.365	93.75
413.589	90.75
413.812	87.75
414.035	87.75
414.258	105.75
414.482	91.75
414.705	83.75
414.928	101.75
415.151	95.75
415.374	91.75
415.597	95.75
415.821	83.75
416.044	86.75
416.267	93.75
416.49	85.75
416.713	84.75
416.936	88.75
417.159	74.75
417.382	71.75
417.605	94.75
417.828	86.75
418.051	95.75
418.274	95.75
418.497	92.75
418.72	80.75
418.943	94.75
419.166	79.75
419.389	99.75
419.611	92.75
419.834	86.75
420.057	101.75
420.28	95.75
420.503	92.75
420.726	97.75
420.948	82.75
421.171	88.75
421.394	75.75
421.617	95.75
421.839	92.75
422.062	83.75
422.285	94.75
422.507	88.75
422.73	84.75
422.953	73.75
423.175	87.75
423.398	86.75
423.621	86.75
423.843	88.75
424.066	82.75
424.288	97.75
424.511	91.75
424.733	87.75
424.956	100.75
425.178	99.75
425.401	94.75
425.623	97.75
425.846	77.75
426.068	86.75
426.291	86.75
426.513	99.75
426.735	90.75
426.958	96.75
427.18	102.75
427.402	105.75
427.625	137.75
427.847	122.75
428.069	128.75
428.292	102.75
428.514	91.75
428.736	77.75
428.958	84.75
429.181	81.75
429.403	98.75
429.625	80.75
429.847	99.75
430.069	93.75
430.292	97.75
430.514	86.75
430.736	67.75
430.958	102.75
431.18	82.75
431.402	80.75
431.624	94.75
431.846	85.75
432.068	77.75
432.29	91.75
432.512	84.75
432.734	87.75
432.956	87.75
433.178	91.75
433.4	89.75
433.622	85.75
433.844	101.75
434.066	95.75
434.287	74.75
434.509	82.75
434.731	99.75
434.953	96.75
435.175	90.75
435.397	99.75
435.618	75.75
435.84	102.75
436.062	112.75
436.284	106.75
436.505	102.75
436.727	105.75
436.949	81.75
437.17	94.75
437.392	97.75
437.614	87.75
437.835	101.75
438.057	112.75
438.278	105.75
438.5	100.75
438.721	107.75
438.943	91.75
439.165	90.75
439.386	89.75
439.608	91.75
439.829	96.75
440.05	120.75
440.272	113.75
440.493	91.75
440.715	93.75
440.936	86.75
441.158	89.75
441.379	105.75
441.6	93.75
441.822	97.75
442.043	87.75
442.264	89.75
442.486	91.75
442.707	94.75
442.928	102.75
443.149	114.75
443.371	116.75
443.592	92.75
443.813	97.75
444.034	83.75
444.255	80.75
444.476	93.75
444.698	86.75
444.919	91.75
445.14	130.75
445.361	122.75
445.582	113.75
445.803	111.75
446.024	107.75
446.245	121.75
446.466	106.75
446.687	90.75
446.908	101.75
447.129	80.75
447.35	73.75
447.571	79.75
447.792	99.75
448.013	88.75
448.234	76.75
448.455	92.75
448.675	94.75
448.896	107.75
449.117	97.75
449.338	101.75
449.559	109.75
449.779	119.75
450	91.75
450.221	88.75
450.442	78.75
450.662	102.75
450.883	99.75
451.104	105.75
451.324	96.75
451.545	90.75
451.766	91.75
451.986	90.75
452.207	96.75
452.428	94.75
452.648	99.75
452.869	96.75
453.089	91.75
453.31	109.75
453.53	80.75
453.751	86.75
453.971	97.75
454.192	93.75
454.412	78.75
454.633	95.75
454.853	85.75
455.073	79.75
455.294	98.75
455.514	85.75
455.734	92.75
455.955	97.75
456.175	94.75
456.395	90.75
456.616	93.75
456.836	75.75
457.056	79.75
457.276	74.75
457.497	83.75
457.717	77.75
457.937	89.75
458.157	102.75
458.377	83.75
458.598	102.75
458.818	122.75
459.038	137.75
459.258	98.75
459.478	86.75
459.698	89.75
459.918	85.75
460.138	90.75
460.358	72.75
460.578	87.75
460.798	91.75
461.018	74.75
461.238	85.75
461.458	85.75
461.678	84.75
461.898	77.75
462.118	82.75
462.338	72.75
462.558	81.75
462.777	86.75
462.997	98.75
463.217	75.75
463.437	89.75
463.657	81.75
463.876	85.75
464.096	77.75
464.316	101.75
464.536	93.75
464.755	90.75
464.975	128.75
465.195	130.75
465.414	135.75
465.634	77.75
465.854	87.75
466.073	81.75
466.293	82.75
466.512	80.75
466.732	83.75
466.951	88.75
467.171	88.75
467.391	85.75
467.61	99.75
467.829	121.75
468.049	241.75
468.268	290.75
468.488	125.75
468.707	87.75
468.927	72.75
469.146	92.75
469.365	73.75
469.585	75.75
469.804	101.75
470.023	93.75
470.243	81.75
470.462	97.75
470.681	101.75
470.901	89.75
471.12	91.75
471.339	98.75
471.558	93.75
471.777	101.75
471.997	148.75
472.216	429.75
472.435	814.75
472.654	246.75
472.873	126.75
473.092	99.75
473.311	85.75
473.53	93.75
473.749	87.75
473.968	88.75
474.187	96.75
474.406	90.75
474.625	104.75
474.844	94.75
475.063	82.75
475.282	82.75
475.501	82.75
475.72	94.75
475.939	84.75
476.158	84.75
476.377	89.75
476.596	94.75
476.814	95.75
477.033	90.75
477.252	90.75
477.471	86.75
477.69	93.75
477.908	87.75
478.127	88.75
478.346	98.75
478.564	88.75
478.783	97.75
479.002	79.75
479.22	97.75
479.439	90.75
479.658	116.75
479.876	91.75
480.095	89.75
480.313	88.75
480.532	128.75
480.751	150.75
480.969	417.75
481.188	1441.75
481.406	828.75
481.624	167.75
481.843	115.75
482.061	86.75
482.28	95.75
482.498	86.75
482.717	103.75
482.935	91.75
483.153	82.75
483.372	94.75
483.59	81.75
483.808	86.75
484.027	110.75
484.245	89.75
484.463	81.75
484.681	86.75
484.9	89.75
485.118	83.75
485.336	78.75
485.554	78.75
485.772	100.75
485.99	127.75
486.209	116.75
486.427	103.75
486.645	109.75
486.863	107.75
487.081	93.75
487.299	97.75
487.517	100.75
487.735	97.75
487.953	82.75
488.171	73.75
488.389	80.75
488.607	98.75
488.825	98.75
489.043	87.75
489.261	94.75
489.479	67.75
489.696	101.75
489.914	96.75
490.132	90.75
490.35	92.75
490.568	79.75
490.786	98.75
491.003	90.75
491.221	86.75
491.439	81.75
491.657	98.75
491.874	101.75
492.092	90.75
492.31	94.75
492.527	89.75
492.745	89.75
492.963	89.75
493.18	84.75
493.398	90.75
493.615	97.75
493.833	77.75
494.05	83.75
494.268	80.75
494.485	100.75
494.703	86.75
494.92	91.75
495.138	98.75
495.355	89.75
495.573	92.75
495.79	89.75
496.008	97.75
496.225	83.75
496.442	93.75
496.66	100.75
496.877	94.75
497.094	89.75
497.312	87.75
497.529	85.75
497.746	103.75
497.963	88.75
498.181	74.75
498.398	95.75
498.615	101.75
498.832	97.75
499.049	79.75
499.267	83.75
499.484	88.75
499.701	87.75
499.918	90.75
500.135	91.75
500.352	72.75
500.569	81.75
500.786	97.75
501.003	101.75
501.22	80.75
501.437	89.75
501.654	115.75
501.871	99.75
502.088	94.75
502.305	86.75
502.522	88.75
502.739	79.75
502.956	91.75
503.172	106.75
503.389	95.75
503.606	96.75
503.823	103.75
504.04	77.75
504.256	91.75
504.473	97.75
504.69	88.75
504.907	94.75
505.123	94.75
505.34	94.75
505.557	91.75
505.773	99.75
505.99	110.75
506.207	77.75
506.423	89.75
506.64	90.75
506.856	102.75
507.073	74.75
507.289	91.75
507.506	96.75
507.722	110.75
507.939	93.75
508.155	82.75
508.372	87.75
508.588	94.75
508.805	109.75
509.021	86.75
509.238	81.75
509.454	93.75
509.67	97.75
509.887	99.75
510.103	110.75
510.319	165.75
510.536	538.75
510.752	1605.75
510.968	481.75
511.184	136.75
511.401	106.75
511.617	97.75
511.833	75.75
512.049	81.75
512.265	89.75
512.481	80.75
512.698	89.75
512.914	96.75
513.13	91.75
513.346	85.75
513.562	92.75
513.778	87.75
513.994	102.75
514.21	97.75
514.426	93.75
514.642	123.75
514.858	102.75
515.074	133.75
515.29	326.75
515.506	961.75
515.721	371.75
515.937	136.75
