Data from Circ_1989_H10_HRD10591_00013.txt Node
Date: Wed Jan 03 12:01:24 EST 2024
User: Yrep
Spectrometer: HR+D1059
Trigger mode: 1
Integration Time (sec): 1.000000E-1
Scans to average: 1
Electric dark correction enabled: true
Nonlinearity correction enabled: false
Boxcar width: 0
XAxis mode: Wavelengths
Number of Pixels in Spectrum: 2048
>>>>>Begin Spectral Data<<<<<
223.165	-15.5
223.4	-15.5
223.635	-15.5
223.869	-14.5
224.104	-41.5
224.338	-11.5
224.573	-21.5
224.808	-11.5
225.042	-0.5
225.277	-3.5
225.511	-6.5
225.746	10.5
225.98	9.5
226.215	-4.5
226.449	13.5
226.683	26.5
226.918	19.5
227.152	51.5
227.387	28.5
227.621	29.5
227.856	51.5
228.09	49.5
228.324	40.5
228.559	55.5
228.793	65.5
229.027	58.5
229.262	53.5
229.496	72.5
229.73	92.5
229.964	79.5
230.199	86.5
230.433	76.5
230.667	63.5
230.901	84.5
231.136	81.5
231.37	94.5
231.604	89.5
231.838	82.5
232.072	93.5
232.306	78.5
232.541	79.5
232.775	79.5
233.009	79.5
233.243	72.5
233.477	66.5
233.711	62.5
233.945	90.5
234.179	74.5
234.413	75.5
234.647	84.5
234.881	87.5
235.115	87.5
235.349	81.5
235.583	73.5
235.817	81.5
236.051	69.5
236.285	84.5
236.519	85.5
236.753	86.5
236.987	73.5
237.221	82.5
237.455	97.5
237.689	70.5
237.922	87.5
238.156	82.5
238.39	64.5
238.624	79.5
238.858	86.5
239.091	79.5
239.325	67.5
239.559	81.5
239.793	88.5
240.027	79.5
240.26	77.5
240.494	69.5
240.728	93.5
240.961	70.5
241.195	94.5
241.429	74.5
241.662	90.5
241.896	95.5
242.13	77.5
242.363	69.5
242.597	72.5
242.83	74.5
243.064	72.5
243.298	75.5
243.531	84.5
243.765	85.5
243.998	82.5
244.232	95.5
244.465	81.5
244.699	79.5
244.932	75.5
245.166	82.5
245.399	72.5
245.633	77.5
245.866	79.5
246.099	84.5
246.333	86.5
246.566	77.5
246.8	89.5
247.033	75.5
247.266	68.5
247.5	63.5
247.733	79.5
247.966	81.5
248.2	90.5
248.433	81.5
248.666	84.5
248.899	74.5
249.133	79.5
249.366	83.5
249.599	93.5
249.832	93.5
250.066	83.5
250.299	95.5
250.532	94.5
250.765	77.5
250.998	78.5
251.231	85.5
251.465	90.5
251.698	84.5
251.931	81.5
252.164	79.5
252.397	78.5
252.63	79.5
252.863	61.5
253.096	89.5
253.329	93.5
253.562	82.5
253.795	84.5
254.028	86.5
254.261	83.5
254.494	60.5
254.727	80.5
254.96	77.5
255.193	70.5
255.426	69.5
255.659	90.5
255.892	83.5
256.124	80.5
256.357	82.5
256.59	71.5
256.823	81.5
257.056	94.5
257.289	81.5
257.521	92.5
257.754	84.5
257.987	80.5
258.22	83.5
258.452	93.5
258.685	99.5
258.918	84.5
259.151	77.5
259.383	74.5
259.616	77.5
259.849	94.5
260.081	72.5
260.314	82.5
260.547	95.5
260.779	80.5
261.012	99.5
261.244	88.5
261.477	89.5
261.71	97.5
261.942	110.5
262.175	97.5
262.407	83.5
262.64	87.5
262.872	81.5
263.105	85.5
263.337	87.5
263.57	104.5
263.802	87.5
264.035	98.5
264.267	89.5
264.499	70.5
264.732	81.5
264.964	78.5
265.197	81.5
265.429	90.5
265.661	91.5
265.894	78.5
266.126	85.5
266.358	72.5
266.591	91.5
266.823	84.5
267.055	79.5
267.287	82.5
267.52	78.5
267.752	86.5
267.984	80.5
268.216	96.5
268.448	77.5
268.681	79.5
268.913	83.5
269.145	79.5
269.377	85.5
269.609	85.5
269.841	82.5
270.073	86.5
270.306	99.5
270.538	90.5
270.77	87.5
271.002	88.5
271.234	78.5
271.466	78.5
271.698	88.5
271.93	83.5
272.162	95.5
272.394	92.5
272.626	98.5
272.858	87.5
273.09	75.5
273.322	88.5
273.553	77.5
273.785	92.5
274.017	96.5
274.249	93.5
274.481	82.5
274.713	82.5
274.945	95.5
275.176	91.5
275.408	71.5
275.64	97.5
275.872	104.5
276.104	100.5
276.335	90.5
276.567	91.5
276.799	105.5
277.031	101.5
277.262	107.5
277.494	99.5
277.726	93.5
277.957	86.5
278.189	82.5
278.421	90.5
278.652	91.5
278.884	95.5
279.115	83.5
279.347	84.5
279.579	96.5
279.81	103.5
280.042	107.5
280.273	105.5
280.505	96.5
280.736	103.5
280.968	89.5
281.199	80.5
281.431	86.5
281.662	89.5
281.894	85.5
282.125	88.5
282.356	111.5
282.588	123.5
282.819	96.5
283.051	92.5
283.282	90.5
283.513	74.5
283.745	89.5
283.976	86.5
284.207	89.5
284.439	88.5
284.67	87.5
284.901	91.5
285.132	83.5
285.364	96.5
285.595	85.5
285.826	84.5
286.057	101.5
286.288	80.5
286.52	88.5
286.751	91.5
286.982	94.5
287.213	74.5
287.444	89.5
287.675	89.5
287.906	99.5
288.138	98.5
288.369	67.5
288.6	93.5
288.831	106.5
289.062	99.5
289.293	95.5
289.524	62.5
289.755	81.5
289.986	81.5
290.217	95.5
290.448	92.5
290.679	99.5
290.91	106.5
291.141	88.5
291.371	85.5
291.602	86.5
291.833	84.5
292.064	70.5
292.295	82.5
292.526	100.5
292.757	78.5
292.987	94.5
293.218	99.5
293.449	78.5
293.68	90.5
293.91	100.5
294.141	91.5
294.372	91.5
294.603	99.5
294.833	109.5
295.064	93.5
295.295	89.5
295.525	96.5
295.756	86.5
295.987	94.5
296.217	122.5
296.448	109.5
296.679	73.5
296.909	99.5
297.14	89.5
297.37	85.5
297.601	81.5
297.831	85.5
298.062	88.5
298.292	83.5
298.523	90.5
298.753	84.5
298.984	102.5
299.214	87.5
299.445	98.5
299.675	81.5
299.905	105.5
300.136	94.5
300.366	94.5
300.597	97.5
300.827	91.5
301.057	74.5
301.288	97.5
301.518	84.5
301.748	88.5
301.979	93.5
302.209	85.5
302.439	89.5
302.669	85.5
302.9	92.5
303.13	96.5
303.36	103.5
303.59	106.5
303.82	103.5
304.051	86.5
304.281	86.5
304.511	99.5
304.741	88.5
304.971	84.5
305.201	102.5
305.431	92.5
305.661	84.5
305.891	97.5
306.121	97.5
306.352	96.5
306.582	107.5
306.812	101.5
307.042	88.5
307.272	97.5
307.502	115.5
307.731	119.5
307.961	114.5
308.191	92.5
308.421	107.5
308.651	100.5
308.881	99.5
309.111	85.5
309.341	102.5
309.571	111.5
309.8	94.5
310.03	89.5
310.26	93.5
310.49	100.5
310.72	97.5
310.949	94.5
311.179	97.5
311.409	100.5
311.639	97.5
311.868	98.5
312.098	98.5
312.328	91.5
312.557	103.5
312.787	96.5
313.017	112.5
313.246	97.5
313.476	107.5
313.706	83.5
313.935	107.5
314.165	100.5
314.394	98.5
314.624	105.5
314.853	103.5
315.083	97.5
315.312	79.5
315.542	93.5
315.771	91.5
316.001	93.5
316.23	86.5
316.46	95.5
316.689	93.5
316.919	89.5
317.148	102.5
317.377	107.5
317.607	95.5
317.836	80.5
318.065	97.5
318.295	82.5
318.524	92.5
318.753	93.5
318.983	106.5
319.212	105.5
319.441	118.5
319.67	111.5
319.9	100.5
320.129	101.5
320.358	99.5
320.587	101.5
320.816	102.5
321.046	99.5
321.275	89.5
321.504	94.5
321.733	111.5
321.962	91.5
322.191	91.5
322.42	88.5
322.649	103.5
322.878	95.5
323.108	110.5
323.337	113.5
323.566	116.5
323.795	139.5
324.024	178.5
324.253	307.5
324.482	599.5
324.71	1232.5
324.939	1589.5
325.168	600.5
325.397	209.5
325.626	117.5
325.855	118.5
326.084	105.5
326.313	132.5
326.542	132.5
326.77	192.5
326.999	347.5
327.228	712.5
327.457	1266.5
327.686	1034.5
327.914	317.5
328.143	219.5
328.372	221.5
328.6	161.5
328.829	117.5
329.058	118.5
329.287	136.5
329.515	122.5
329.744	145.5
329.972	175.5
330.201	286.5
330.43	361.5
330.658	215.5
330.887	134.5
331.115	113.5
331.344	95.5
331.572	113.5
331.801	105.5
332.03	116.5
332.258	99.5
332.486	99.5
332.715	97.5
332.943	89.5
333.172	93.5
333.4	102.5
333.629	112.5
333.857	122.5
334.085	181.5
334.314	278.5
334.542	472.5
334.771	433.5
334.999	175.5
335.227	124.5
335.455	95.5
335.684	97.5
335.912	92.5
336.14	101.5
336.369	103.5
336.597	110.5
336.825	117.5
337.053	97.5
337.281	81.5
337.51	98.5
337.738	82.5
337.966	90.5
338.194	81.5
338.422	102.5
338.65	100.5
338.878	88.5
339.106	83.5
339.334	90.5
339.562	94.5
339.79	90.5
340.018	85.5
340.246	102.5
340.474	99.5
340.702	97.5
340.93	87.5
341.158	91.5
341.386	92.5
341.614	88.5
341.842	104.5
342.07	96.5
342.298	110.5
342.526	87.5
342.754	82.5
342.981	79.5
343.209	92.5
343.437	105.5
343.665	88.5
343.893	96.5
344.12	77.5
344.348	83.5
344.576	96.5
344.804	81.5
345.031	96.5
345.259	112.5
345.487	94.5
345.714	104.5
345.942	105.5
346.17	90.5
346.397	113.5
346.625	87.5
346.853	95.5
347.08	96.5
347.308	87.5
347.535	85.5
347.763	96.5
347.99	97.5
348.218	103.5
348.445	99.5
348.673	105.5
348.9	89.5
349.128	82.5
349.355	101.5
349.583	90.5
349.81	100.5
350.037	99.5
350.265	96.5
350.492	98.5
350.72	101.5
350.947	108.5
351.174	113.5
351.402	112.5
351.629	103.5
351.856	100.5
352.083	107.5
352.311	111.5
352.538	107.5
352.765	117.5
352.992	103.5
353.22	97.5
353.447	110.5
353.674	101.5
353.901	100.5
354.128	101.5
354.355	92.5
354.583	99.5
354.81	104.5
355.037	97.5
355.264	81.5
355.491	86.5
355.718	92.5
355.945	104.5
356.172	104.5
356.399	101.5
356.626	103.5
356.853	91.5
357.08	94.5
357.307	104.5
357.534	95.5
357.761	90.5
357.988	93.5
358.215	101.5
358.441	95.5
358.668	103.5
358.895	104.5
359.122	100.5
359.349	97.5
359.576	102.5
359.802	100.5
360.029	109.5
360.256	91.5
360.483	94.5
360.709	83.5
360.936	91.5
361.163	80.5
361.39	82.5
361.616	84.5
361.843	83.5
362.07	87.5
362.296	90.5
362.523	91.5
362.749	94.5
362.976	100.5
363.203	103.5
363.429	81.5
363.656	91.5
363.882	85.5
364.109	92.5
364.335	90.5
364.562	78.5
364.788	103.5
365.015	96.5
365.241	97.5
365.468	101.5
365.694	104.5
365.92	80.5
366.147	83.5
366.373	77.5
366.599	81.5
366.826	106.5
367.052	92.5
367.278	87.5
367.505	96.5
367.731	79.5
367.957	81.5
368.184	81.5
368.41	120.5
368.636	114.5
368.862	114.5
369.089	107.5
369.315	93.5
369.541	82.5
369.767	95.5
369.993	93.5
370.219	98.5
370.445	87.5
370.672	99.5
370.898	100.5
371.124	91.5
371.35	94.5
371.576	87.5
371.802	93.5
372.028	96.5
372.254	81.5
372.48	100.5
372.706	97.5
372.932	96.5
373.158	98.5
373.384	107.5
373.61	95.5
373.835	96.5
374.061	99.5
374.287	99.5
374.513	89.5
374.739	96.5
374.965	80.5
375.191	81.5
375.416	94.5
375.642	91.5
375.868	109.5
376.094	89.5
376.319	98.5
376.545	87.5
376.771	100.5
376.997	102.5
377.222	100.5
377.448	93.5
377.674	92.5
377.899	86.5
378.125	97.5
378.35	104.5
378.576	91.5
378.802	101.5
379.027	107.5
379.253	96.5
379.478	98.5
379.704	95.5
379.929	104.5
380.155	92.5
380.38	94.5
380.606	110.5
380.831	97.5
381.057	116.5
381.282	113.5
381.507	100.5
381.733	96.5
381.958	95.5
382.184	100.5
382.409	105.5
382.634	104.5
382.86	97.5
383.085	109.5
383.31	111.5
383.535	103.5
383.761	102.5
383.986	115.5
384.211	109.5
384.436	107.5
384.662	116.5
384.887	121.5
385.112	123.5
385.337	111.5
385.562	113.5
385.787	122.5
386.013	122.5
386.238	128.5
386.463	127.5
386.688	131.5
386.913	112.5
387.138	130.5
387.363	131.5
387.588	112.5
387.813	101.5
388.038	119.5
388.263	139.5
388.488	121.5
388.713	112.5
388.938	89.5
389.163	101.5
389.387	95.5
389.612	89.5
389.837	94.5
390.062	91.5
390.287	87.5
390.512	95.5
390.736	106.5
390.961	97.5
391.186	81.5
391.411	104.5
391.636	82.5
391.86	86.5
392.085	102.5
392.31	94.5
392.534	77.5
392.759	82.5
392.984	82.5
393.208	87.5
393.433	123.5
393.658	88.5
393.882	74.5
394.107	98.5
394.331	94.5
394.556	102.5
394.78	102.5
395.005	84.5
395.229	81.5
395.454	89.5
395.678	93.5
395.903	89.5
396.127	84.5
396.352	101.5
396.576	95.5
396.801	94.5
397.025	102.5
397.249	89.5
397.474	98.5
397.698	93.5
397.922	99.5
398.147	93.5
398.371	78.5
398.595	85.5
398.82	91.5
399.044	80.5
399.268	69.5
399.492	80.5
399.717	86.5
399.941	90.5
400.165	90.5
400.389	87.5
400.613	93.5
400.837	91.5
401.062	85.5
401.286	81.5
401.51	93.5
401.734	85.5
401.958	95.5
402.182	114.5
402.406	134.5
402.63	99.5
402.854	102.5
403.078	97.5
403.302	84.5
403.526	90.5
403.75	88.5
403.974	91.5
404.198	97.5
404.422	101.5
404.645	79.5
404.869	95.5
405.093	95.5
405.317	107.5
405.541	89.5
405.765	113.5
405.988	104.5
406.212	135.5
406.436	185.5
406.66	129.5
406.883	96.5
407.107	85.5
407.331	90.5
407.555	84.5
407.778	78.5
408.002	94.5
408.226	89.5
408.449	98.5
408.673	83.5
408.896	86.5
409.12	81.5
409.344	101.5
409.567	105.5
409.791	87.5
410.014	81.5
410.238	81.5
410.461	90.5
410.685	95.5
410.908	101.5
411.132	99.5
411.355	100.5
411.578	87.5
411.802	85.5
412.025	99.5
412.249	85.5
412.472	105.5
412.695	103.5
412.919	105.5
413.142	93.5
413.365	87.5
413.589	83.5
413.812	85.5
414.035	92.5
414.258	74.5
414.482	85.5
414.705	101.5
414.928	93.5
415.151	100.5
415.374	90.5
415.597	93.5
415.821	95.5
416.044	91.5
416.267	81.5
416.49	89.5
416.713	95.5
416.936	98.5
417.159	94.5
417.382	94.5
417.605	84.5
417.828	88.5
418.051	94.5
418.274	87.5
418.497	84.5
418.72	71.5
418.943	89.5
419.166	102.5
419.389	83.5
419.611	86.5
419.834	87.5
420.057	90.5
420.28	84.5
420.503	92.5
420.726	93.5
420.948	85.5
421.171	97.5
421.394	110.5
421.617	89.5
421.839	111.5
422.062	99.5
422.285	85.5
422.507	77.5
422.73	95.5
422.953	100.5
423.175	90.5
423.398	87.5
423.621	80.5
423.843	77.5
424.066	84.5
424.288	94.5
424.511	99.5
424.733	88.5
424.956	86.5
425.178	97.5
425.401	94.5
425.623	95.5
425.846	92.5
426.068	90.5
426.291	88.5
426.513	97.5
426.735	100.5
426.958	97.5
427.18	96.5
427.402	117.5
427.625	142.5
427.847	130.5
428.069	139.5
428.292	106.5
428.514	87.5
428.736	89.5
428.958	94.5
429.181	86.5
429.403	79.5
429.625	98.5
429.847	90.5
430.069	89.5
430.292	83.5
430.514	79.5
430.736	79.5
430.958	107.5
431.18	93.5
431.402	90.5
431.624	89.5
431.846	84.5
432.068	87.5
432.29	88.5
432.512	103.5
432.734	89.5
432.956	83.5
433.178	88.5
433.4	100.5
433.622	94.5
433.844	97.5
434.066	95.5
434.287	98.5
434.509	103.5
434.731	89.5
434.953	78.5
435.175	91.5
435.397	99.5
435.618	102.5
435.84	90.5
436.062	111.5
436.284	95.5
436.505	98.5
436.727	84.5
436.949	85.5
437.17	82.5
437.392	85.5
437.614	94.5
437.835	104.5
438.057	118.5
438.278	116.5
438.5	99.5
438.721	113.5
438.943	96.5
439.165	98.5
439.386	95.5
439.608	87.5
439.829	94.5
440.05	120.5
440.272	126.5
440.493	87.5
440.715	89.5
440.936	87.5
441.158	78.5
441.379	98.5
441.6	90.5
441.822	90.5
442.043	94.5
442.264	98.5
442.486	93.5
442.707	93.5
442.928	97.5
443.149	106.5
443.371	116.5
443.592	107.5
443.813	91.5
444.034	98.5
444.255	95.5
444.476	83.5
444.698	91.5
444.919	81.5
445.14	124.5
445.361	114.5
445.582	110.5
445.803	121.5
446.024	113.5
446.245	120.5
446.466	105.5
446.687	89.5
446.908	90.5
447.129	89.5
447.35	93.5
447.571	85.5
447.792	98.5
448.013	100.5
448.234	102.5
448.455	94.5
448.675	111.5
448.896	113.5
449.117	102.5
449.338	99.5
449.559	115.5
449.779	112.5
450	93.5
450.221	89.5
450.442	90.5
450.662	78.5
450.883	83.5
451.104	86.5
451.324	86.5
451.545	90.5
451.766	94.5
451.986	87.5
452.207	80.5
452.428	91.5
452.648	99.5
452.869	108.5
453.089	107.5
453.31	113.5
453.53	89.5
453.751	101.5
453.971	102.5
454.192	86.5
454.412	105.5
454.633	83.5
454.853	80.5
455.073	78.5
455.294	98.5
455.514	86.5
455.734	95.5
455.955	86.5
456.175	100.5
456.395	92.5
456.616	88.5
456.836	81.5
457.056	76.5
457.276	81.5
457.497	93.5
457.717	87.5
457.937	92.5
458.157	88.5
458.377	95.5
458.598	87.5
458.818	125.5
459.038	143.5
459.258	109.5
459.478	97.5
459.698	89.5
459.918	79.5
460.138	71.5
460.358	81.5
460.578	89.5
460.798	89.5
461.018	89.5
461.238	63.5
461.458	73.5
461.678	83.5
461.898	90.5
462.118	99.5
462.338	87.5
462.558	93.5
462.777	79.5
462.997	78.5
463.217	87.5
463.437	87.5
463.657	93.5
463.876	91.5
464.096	101.5
464.316	92.5
464.536	82.5
464.755	98.5
464.975	110.5
465.195	130.5
465.414	132.5
465.634	100.5
465.854	91.5
466.073	83.5
466.293	81.5
466.512	85.5
466.732	90.5
466.951	85.5
467.171	99.5
467.391	88.5
467.61	115.5
467.829	106.5
468.049	190.5
468.268	253.5
468.488	123.5
468.707	103.5
468.927	77.5
469.146	82.5
469.365	86.5
469.585	81.5
469.804	74.5
470.023	84.5
470.243	86.5
470.462	99.5
470.681	109.5
470.901	81.5
471.12	88.5
471.339	98.5
471.558	91.5
471.777	98.5
471.997	146.5
472.216	333.5
472.435	637.5
472.654	202.5
472.873	96.5
473.092	95.5
473.311	89.5
473.53	85.5
473.749	103.5
473.968	101.5
474.187	100.5
474.406	87.5
474.625	87.5
474.844	93.5
475.063	98.5
475.282	81.5
475.501	99.5
475.72	86.5
475.939	68.5
476.158	97.5
476.377	94.5
476.596	83.5
476.814	86.5
477.033	81.5
477.252	74.5
477.471	85.5
477.69	96.5
477.908	104.5
478.127	103.5
478.346	100.5
478.564	84.5
478.783	83.5
479.002	89.5
479.22	104.5
479.439	98.5
479.658	104.5
479.876	97.5
480.095	104.5
480.313	116.5
480.532	120.5
480.751	122.5
480.969	319.5
481.188	1057.5
481.406	635.5
481.624	163.5
481.843	99.5
482.061	94.5
482.28	97.5
482.498	80.5
482.717	101.5
482.935	85.5
483.153	84.5
483.372	86.5
483.59	94.5
483.808	101.5
484.027	90.5
484.245	97.5
484.463	82.5
484.681	103.5
484.9	96.5
485.118	87.5
485.336	99.5
485.554	103.5
485.772	98.5
485.99	116.5
486.209	112.5
486.427	107.5
486.645	114.5
486.863	116.5
487.081	94.5
487.299	97.5
487.517	95.5
487.735	97.5
487.953	94.5
488.171	106.5
488.389	102.5
488.607	97.5
488.825	101.5
489.043	97.5
489.261	87.5
489.479	99.5
489.696	99.5
489.914	94.5
490.132	85.5
490.35	106.5
490.568	101.5
490.786	96.5
491.003	89.5
491.221	105.5
491.439	86.5
491.657	88.5
491.874	87.5
492.092	89.5
492.31	94.5
492.527	102.5
492.745	90.5
492.963	95.5
493.18	101.5
493.398	94.5
493.615	99.5
493.833	96.5
494.05	93.5
494.268	84.5
494.485	69.5
494.703	92.5
494.92	85.5
495.138	105.5
495.355	79.5
495.573	98.5
495.79	91.5
496.008	92.5
496.225	94.5
496.442	94.5
496.66	94.5
496.877	91.5
497.094	86.5
497.312	97.5
497.529	86.5
497.746	100.5
497.963	83.5
498.181	87.5
498.398	85.5
498.615	93.5
498.832	117.5
499.049	98.5
499.267	90.5
499.484	98.5
499.701	85.5
499.918	98.5
500.135	84.5
500.352	86.5
500.569	88.5
500.786	111.5
501.003	81.5
501.22	96.5
501.437	87.5
501.654	100.5
501.871	101.5
502.088	70.5
502.305	81.5
502.522	91.5
502.739	93.5
502.956	90.5
503.172	91.5
503.389	107.5
503.606	104.5
503.823	97.5
504.04	98.5
504.256	95.5
504.473	91.5
504.69	100.5
504.907	106.5
505.123	86.5
505.34	86.5
505.557	91.5
505.773	79.5
505.99	83.5
506.207	105.5
506.423	90.5
506.64	74.5
506.856	100.5
507.073	85.5
507.289	98.5
507.506	113.5
507.722	112.5
507.939	98.5
508.155	94.5
508.372	83.5
508.588	100.5
508.805	97.5
509.021	90.5
509.238	99.5
509.454	96.5
509.67	102.5
509.887	107.5
510.103	118.5
510.319	178.5
510.536	558.5
510.752	1664.5
510.968	478.5
511.184	134.5
511.401	121.5
511.617	113.5
511.833	94.5
512.049	89.5
512.265	88.5
512.481	94.5
512.698	87.5
512.914	95.5
513.13	100.5
513.346	102.5
513.562	86.5
513.778	103.5
513.994	107.5
514.21	98.5
514.426	114.5
514.642	106.5
514.858	128.5
515.074	136.5
515.29	343.5
515.506	1023.5
515.721	388.5
515.937	127.5
516.153	94.5
516.369	99.5
516.585	95.5
516.801	89.5
517.016	94.5
517.232	89.5
517.448	85.5
517.664	91.5
517.879	87.5
518.095	105.5
518.311	81.5
518.527	93.5
518.742	117.5
518.958	89.5
519.173	90.5
519.389	91.5
519.605	94.5
519.82	98.5
520.036	103.5
520.251	110.5
520.467	97.5
520.682	101.5
520.898	114.5
521.113	122.5
521.329	129.5
521.544	177.5
521.76	421.5
521.975	1689.5
522.19	1043.5
522.406	251.5
522.621	112.5
522.836	96.5
523.052	95.5
523.267	103.5
523.482	91.5
523.698	88.5
523.913	109.5
524.128	103.5
524.343	94.5
524.559	93.5
524.774	87.5
524.989	95.5
525.204	108.5
525.419	104.5
525.634	82.5
525.849	86.5
526.064	106.5
526.28	101.5
526.495	77.5
526.71	89.5
526.925	99.5
527.14	84.5
527.355	86.5
527.57	87.5
527.785	89.5
527.999	89.5
528.214	84.5
528.429	97.5
528.644	82.5
528.859	78.5
529.074	108.5
529.289	113.5
529.503	149.5
529.718	104.5
529.933	96.5
530.148	87.5
530.363	75.5
530.577	81.5
530.792	83.5
531.007	107.5
531.221	100.5
531.436	89.5
531.651	73.5
531.865	89.5
532.08	102.5
532.295	99.5
532.509	77.5
532.724	92.5
532.938	96.5
533.153	97.5
533.367	97.5
533.582	104.5
533.796	99.5
534.011	72.5
534.225	95.5
534.44	93.5
