Data from Circ_1989_H10_HRD10591_00094.txt Node
Date: Wed Jan 03 12:01:40 EST 2024
User: Yrep
Spectrometer: HR+D1059
Trigger mode: 1
Integration Time (sec): 1.000000E-1
Scans to average: 1
Electric dark correction enabled: true
Nonlinearity correction enabled: false
Boxcar width: 0
XAxis mode: Wavelengths
Number of Pixels in Spectrum: 2048
>>>>>Begin Spectral Data<<<<<
223.165	-25.19
223.4	-25.19
223.635	-25.19
223.869	-18.19
224.104	-7.19
224.338	-23.19
224.573	-26.19
224.808	-9.19
225.042	-12.19
225.277	-2.19
225.511	10.81
225.746	1.81
225.98	0.81
226.215	10.81
226.449	14.81
226.683	20.81
226.918	34.81
227.152	28.81
227.387	37.81
227.621	28.81
227.856	42.81
228.09	48.81
228.324	39.81
228.559	46.81
228.793	57.81
229.027	47.81
229.262	56.81
229.496	67.81
229.73	86.81
229.964	84.81
230.199	68.81
230.433	80.81
230.667	84.81
230.901	81.81
231.136	89.81
231.37	77.81
231.604	77.81
231.838	84.81
232.072	86.81
232.306	88.81
232.541	83.81
232.775	83.81
233.009	73.81
233.243	68.81
233.477	79.81
233.711	78.81
233.945	84.81
234.179	77.81
234.413	83.81
234.647	94.81
234.881	78.81
235.115	60.81
235.349	70.81
235.583	80.81
235.817	74.81
236.051	79.81
236.285	80.81
236.519	78.81
236.753	76.81
236.987	65.81
237.221	86.81
237.455	86.81
237.689	73.81
237.922	79.81
238.156	87.81
238.39	62.81
238.624	82.81
238.858	94.81
239.091	67.81
239.325	66.81
239.559	74.81
239.793	80.81
240.027	88.81
240.26	77.81
240.494	68.81
240.728	76.81
240.961	80.81
241.195	77.81
241.429	60.81
241.662	67.81
241.896	77.81
242.13	72.81
242.363	59.81
242.597	78.81
242.83	65.81
243.064	72.81
243.298	72.81
243.531	81.81
243.765	74.81
243.998	66.81
244.232	77.81
244.465	76.81
244.699	92.81
244.932	78.81
245.166	83.81
245.399	80.81
245.633	78.81
245.866	80.81
246.099	82.81
246.333	84.81
246.566	83.81
246.8	77.81
247.033	86.81
247.266	66.81
247.5	79.81
247.733	81.81
247.966	84.81
248.2	74.81
248.433	72.81
248.666	73.81
248.899	74.81
249.133	90.81
249.366	103.81
249.599	104.81
249.832	85.81
250.066	76.81
250.299	79.81
250.532	92.81
250.765	93.81
250.998	68.81
251.231	77.81
251.465	86.81
251.698	74.81
251.931	94.81
252.164	81.81
252.397	74.81
252.63	65.81
252.863	70.81
253.096	86.81
253.329	65.81
253.562	65.81
253.795	73.81
254.028	78.81
254.261	84.81
254.494	69.81
254.727	86.81
254.96	87.81
255.193	87.81
255.426	63.81
255.659	80.81
255.892	76.81
256.124	81.81
256.357	72.81
256.59	81.81
256.823	83.81
257.056	89.81
257.289	69.81
257.521	80.81
257.754	82.81
257.987	73.81
258.22	92.81
258.452	90.81
258.685	80.81
258.918	83.81
259.151	89.81
259.383	72.81
259.616	74.81
259.849	78.81
260.081	89.81
260.314	62.81
260.547	81.81
260.779	85.81
261.012	88.81
261.244	80.81
261.477	83.81
261.71	84.81
261.942	99.81
262.175	113.81
262.407	106.81
262.64	85.81
262.872	68.81
263.105	77.81
263.337	99.81
263.57	88.81
263.802	86.81
264.035	82.81
264.267	84.81
264.499	83.81
264.732	87.81
264.964	87.81
265.197	81.81
265.429	81.81
265.661	87.81
265.894	74.81
266.126	84.81
266.358	83.81
266.591	83.81
266.823	85.81
267.055	77.81
267.287	83.81
267.52	80.81
267.752	78.81
267.984	83.81
268.216	64.81
268.448	68.81
268.681	90.81
268.913	87.81
269.145	84.81
269.377	88.81
269.609	84.81
269.841	91.81
270.073	82.81
270.306	68.81
270.538	80.81
270.77	79.81
271.002	85.81
271.234	78.81
271.466	77.81
271.698	86.81
271.93	75.81
272.162	82.81
272.394	88.81
272.626	85.81
272.858	82.81
273.09	76.81
273.322	80.81
273.553	86.81
273.785	83.81
274.017	91.81
274.249	76.81
274.481	89.81
274.713	90.81
274.945	94.81
275.176	82.81
275.408	90.81
275.64	96.81
275.872	90.81
276.104	85.81
276.335	91.81
276.567	86.81
276.799	105.81
277.031	113.81
277.262	108.81
277.494	102.81
277.726	83.81
277.957	97.81
278.189	78.81
278.421	84.81
278.652	91.81
278.884	75.81
279.115	82.81
279.347	85.81
279.579	108.81
279.81	101.81
280.042	116.81
280.273	148.81
280.505	112.81
280.736	96.81
280.968	84.81
281.199	93.81
281.431	106.81
281.662	78.81
281.894	68.81
282.125	98.81
282.356	101.81
282.588	126.81
282.819	123.81
283.051	91.81
283.282	90.81
283.513	89.81
283.745	98.81
283.976	80.81
284.207	86.81
284.439	78.81
284.67	77.81
284.901	72.81
285.132	76.81
285.364	99.81
285.595	79.81
285.826	86.81
286.057	94.81
286.288	85.81
286.52	82.81
286.751	80.81
286.982	88.81
287.213	89.81
287.444	75.81
287.675	84.81
287.906	78.81
288.138	91.81
288.369	99.81
288.6	91.81
288.831	88.81
289.062	78.81
289.293	92.81
289.524	84.81
289.755	85.81
289.986	84.81
290.217	72.81
290.448	79.81
290.679	91.81
290.91	92.81
291.141	80.81
291.371	105.81
291.602	86.81
291.833	82.81
292.064	79.81
292.295	82.81
292.526	82.81
292.757	80.81
292.987	102.81
293.218	92.81
293.449	95.81
293.68	104.81
293.91	88.81
294.141	89.81
294.372	89.81
294.603	87.81
294.833	89.81
295.064	93.81
295.295	85.81
295.525	74.81
295.756	94.81
295.987	104.81
296.217	125.81
296.448	113.81
296.679	93.81
296.909	87.81
297.14	90.81
297.37	81.81
297.601	74.81
297.831	99.81
298.062	77.81
298.292	92.81
298.523	96.81
298.753	72.81
298.984	90.81
299.214	82.81
299.445	89.81
299.675	100.81
299.905	86.81
300.136	80.81
300.366	97.81
300.597	84.81
300.827	89.81
301.057	91.81
301.288	84.81
301.518	99.81
301.748	96.81
301.979	103.81
302.209	85.81
302.439	88.81
302.669	78.81
302.9	82.81
303.13	107.81
303.36	95.81
303.59	106.81
303.82	110.81
304.051	96.81
304.281	79.81
304.511	88.81
304.741	74.81
304.971	77.81
305.201	102.81
305.431	82.81
305.661	89.81
305.891	84.81
306.121	95.81
306.352	92.81
306.582	93.81
306.812	101.81
307.042	97.81
307.272	118.81
307.502	133.81
307.731	122.81
307.961	101.81
308.191	94.81
308.421	98.81
308.651	100.81
308.881	88.81
309.111	107.81
309.341	87.81
309.571	94.81
309.8	91.81
310.03	91.81
310.26	93.81
310.49	99.81
310.72	79.81
310.949	93.81
311.179	97.81
311.409	97.81
311.639	85.81
311.868	104.81
312.098	99.81
312.328	99.81
312.557	89.81
312.787	93.81
313.017	99.81
313.246	99.81
313.476	83.81
313.706	84.81
313.935	91.81
314.165	90.81
314.394	96.81
314.624	92.81
314.853	85.81
315.083	86.81
315.312	93.81
315.542	74.81
315.771	83.81
316.001	89.81
316.23	87.81
316.46	75.81
316.689	81.81
316.919	98.81
317.148	84.81
317.377	89.81
317.607	92.81
317.836	99.81
318.065	79.81
318.295	88.81
318.524	78.81
318.753	97.81
318.983	98.81
319.212	91.81
319.441	88.81
319.67	91.81
319.9	92.81
320.129	97.81
320.358	99.81
320.587	93.81
320.816	80.81
321.046	87.81
321.275	96.81
321.504	96.81
321.733	93.81
321.962	91.81
322.191	105.81
322.42	91.81
322.649	95.81
322.878	111.81
323.108	107.81
323.337	127.81
323.566	138.81
323.795	138.81
324.024	170.81
324.253	352.81
324.482	751.81
324.71	1590.81
324.939	2117.81
325.168	755.81
325.397	230.81
325.626	154.81
325.855	118.81
326.084	110.81
326.313	129.81
326.542	152.81
326.77	200.81
326.999	422.81
327.228	882.81
327.457	1625.81
327.686	1318.81
327.914	414.81
328.143	300.81
328.372	334.81
328.6	231.81
328.829	138.81
329.058	139.81
329.287	141.81
329.515	128.81
329.744	164.81
329.972	263.81
330.201	488.81
330.43	689.81
330.658	323.81
330.887	166.81
331.115	122.81
331.344	102.81
331.572	97.81
331.801	106.81
332.03	109.81
332.258	101.81
332.486	106.81
332.715	102.81
332.943	89.81
333.172	102.81
333.4	93.81
333.629	120.81
333.857	156.81
334.085	232.81
334.314	466.81
334.542	877.81
334.771	810.81
334.999	230.81
335.227	120.81
335.455	91.81
335.684	95.81
335.912	98.81
336.14	96.81
336.369	94.81
336.597	96.81
336.825	99.81
337.053	90.81
337.281	84.81
337.51	91.81
337.738	92.81
337.966	93.81
338.194	107.81
338.422	100.81
338.65	89.81
338.878	83.81
339.106	81.81
339.334	100.81
339.562	94.81
339.79	76.81
340.018	94.81
340.246	84.81
340.474	85.81
340.702	95.81
340.93	95.81
341.158	79.81
341.386	98.81
341.614	83.81
341.842	93.81
342.07	93.81
342.298	75.81
342.526	101.81
342.754	98.81
342.981	91.81
343.209	90.81
343.437	96.81
343.665	93.81
343.893	80.81
344.12	100.81
344.348	98.81
344.576	91.81
344.804	104.81
345.031	84.81
345.259	95.81
345.487	93.81
345.714	82.81
345.942	106.81
346.17	91.81
346.397	74.81
346.625	90.81
346.853	76.81
347.08	91.81
347.308	86.81
347.535	90.81
347.763	95.81
347.99	95.81
348.218	109.81
348.445	106.81
348.673	91.81
348.9	85.81
349.128	95.81
349.355	86.81
349.583	94.81
349.81	96.81
350.037	86.81
350.265	91.81
350.492	94.81
350.72	97.81
350.947	84.81
351.174	107.81
351.402	115.81
351.629	110.81
351.856	97.81
352.083	96.81
352.311	106.81
352.538	95.81
352.765	100.81
352.992	114.81
353.22	117.81
353.447	92.81
353.674	96.81
353.901	94.81
354.128	88.81
354.355	89.81
354.583	78.81
354.81	92.81
355.037	104.81
355.264	90.81
355.491	78.81
355.718	81.81
355.945	92.81
356.172	100.81
356.399	85.81
356.626	84.81
356.853	92.81
357.08	94.81
357.307	94.81
357.534	100.81
357.761	96.81
357.988	84.81
358.215	84.81
358.441	79.81
358.668	68.81
358.895	87.81
359.122	76.81
359.349	78.81
359.576	84.81
359.802	99.81
360.029	104.81
360.256	130.81
360.483	88.81
360.709	87.81
360.936	78.81
361.163	86.81
361.39	101.81
361.616	90.81
361.843	91.81
362.07	90.81
362.296	98.81
362.523	89.81
362.749	91.81
362.976	95.81
363.203	86.81
363.429	76.81
363.656	83.81
363.882	69.81
364.109	104.81
364.335	102.81
364.562	99.81
364.788	78.81
365.015	102.81
365.241	97.81
365.468	90.81
365.694	100.81
365.92	90.81
366.147	88.81
366.373	85.81
366.599	90.81
366.826	82.81
367.052	98.81
367.278	80.81
367.505	86.81
367.731	90.81
367.957	83.81
368.184	92.81
368.41	100.81
368.636	90.81
368.862	100.81
369.089	108.81
369.315	90.81
369.541	83.81
369.767	75.81
369.993	86.81
370.219	90.81
370.445	88.81
370.672	93.81
370.898	89.81
371.124	82.81
371.35	78.81
371.576	78.81
371.802	84.81
372.028	84.81
372.254	85.81
372.48	92.81
372.706	91.81
372.932	77.81
373.158	69.81
373.384	87.81
373.61	76.81
373.835	78.81
374.061	94.81
374.287	89.81
374.513	75.81
374.739	84.81
374.965	76.81
375.191	74.81
375.416	62.81
375.642	68.81
375.868	86.81
376.094	90.81
376.319	84.81
376.545	90.81
376.771	80.81
376.997	80.81
377.222	92.81
377.448	84.81
377.674	81.81
377.899	84.81
378.125	86.81
378.35	89.81
378.576	74.81
378.802	84.81
379.027	69.81
379.253	96.81
379.478	76.81
379.704	102.81
379.929	76.81
380.155	92.81
380.38	81.81
380.606	89.81
380.831	89.81
381.057	103.81
381.282	90.81
381.507	104.81
381.733	89.81
381.958	108.81
382.184	100.81
382.409	90.81
382.634	77.81
382.86	99.81
383.085	88.81
383.31	94.81
383.535	92.81
383.761	99.81
383.986	110.81
384.211	83.81
384.436	88.81
384.662	86.81
384.887	91.81
385.112	90.81
385.337	90.81
385.562	87.81
385.787	106.81
386.013	99.81
386.238	96.81
386.463	92.81
386.688	83.81
386.913	94.81
387.138	89.81
387.363	98.81
387.588	94.81
387.813	106.81
388.038	103.81
388.263	105.81
388.488	107.81
388.713	81.81
388.938	97.81
389.163	94.81
389.387	84.81
389.612	87.81
389.837	88.81
390.062	86.81
390.287	86.81
390.512	82.81
390.736	64.81
390.961	85.81
391.186	64.81
391.411	88.81
391.636	96.81
391.86	63.81
392.085	70.81
392.31	70.81
392.534	78.81
392.759	77.81
392.984	80.81
393.208	98.81
393.433	90.81
393.658	84.81
393.882	89.81
394.107	83.81
394.331	92.81
394.556	89.81
394.78	91.81
395.005	89.81
395.229	68.81
395.454	82.81
395.678	74.81
395.903	75.81
396.127	96.81
396.352	76.81
396.576	82.81
396.801	80.81
397.025	85.81
397.249	90.81
397.474	100.81
397.698	81.81
397.922	82.81
398.147	84.81
398.371	75.81
398.595	82.81
398.82	100.81
399.044	90.81
399.268	95.81
399.492	86.81
399.717	70.81
399.941	81.81
400.165	86.81
400.389	79.81
400.613	82.81
400.837	76.81
401.062	86.81
401.286	82.81
401.51	91.81
401.734	92.81
401.958	90.81
402.182	113.81
402.406	127.81
402.63	112.81
402.854	91.81
403.078	79.81
403.302	84.81
403.526	108.81
403.75	85.81
403.974	86.81
404.198	78.81
404.422	91.81
404.645	94.81
404.869	95.81
405.093	105.81
405.317	118.81
405.541	111.81
405.765	88.81
405.988	98.81
406.212	159.81
406.436	198.81
406.66	122.81
406.883	98.81
407.107	81.81
407.331	89.81
407.555	114.81
407.778	91.81
408.002	86.81
408.226	85.81
408.449	67.81
408.673	72.81
408.896	72.81
409.12	78.81
409.344	85.81
409.567	74.81
409.791	91.81
410.014	101.81
410.238	96.81
410.461	76.81
410.685	98.81
410.908	94.81
411.132	91.81
411.355	94.81
411.578	90.81
411.802	83.81
412.025	83.81
412.249	81.81
412.472	82.81
412.695	112.81
412.919	96.81
413.142	75.81
413.365	86.81
413.589	94.81
413.812	94.81
414.035	83.81
414.258	76.81
414.482	84.81
414.705	78.81
414.928	81.81
415.151	86.81
415.374	80.81
415.597	77.81
415.821	71.81
416.044	88.81
416.267	88.81
416.49	93.81
416.713	83.81
416.936	94.81
417.159	84.81
417.382	80.81
417.605	92.81
417.828	88.81
418.051	89.81
418.274	79.81
418.497	84.81
418.72	89.81
418.943	93.81
419.166	97.81
419.389	92.81
419.611	80.81
419.834	88.81
420.057	87.81
420.28	83.81
420.503	88.81
420.726	80.81
420.948	82.81
421.171	95.81
421.394	79.81
421.617	88.81
421.839	79.81
422.062	76.81
422.285	97.81
422.507	98.81
422.73	94.81
422.953	106.81
423.175	89.81
423.398	77.81
423.621	76.81
423.843	83.81
424.066	77.81
424.288	83.81
424.511	107.81
424.733	102.81
424.956	104.81
425.178	96.81
425.401	98.81
425.623	95.81
425.846	90.81
426.068	77.81
426.291	81.81
426.513	86.81
426.735	75.81
426.958	110.81
427.18	105.81
427.402	123.81
427.625	158.81
427.847	166.81
428.069	186.81
428.292	99.81
428.514	92.81
428.736	84.81
428.958	69.81
429.181	86.81
429.403	93.81
429.625	77.81
429.847	87.81
430.069	88.81
430.292	89.81
430.514	98.81
430.736	73.81
430.958	89.81
431.18	86.81
431.402	82.81
431.624	81.81
431.846	82.81
432.068	70.81
432.29	80.81
432.512	85.81
432.734	86.81
432.956	91.81
433.178	84.81
433.4	85.81
433.622	98.81
433.844	86.81
434.066	76.81
434.287	79.81
434.509	77.81
434.731	91.81
434.953	77.81
435.175	91.81
435.397	98.81
435.618	83.81
435.84	102.81
436.062	104.81
436.284	102.81
436.505	81.81
436.727	104.81
436.949	94.81
437.17	97.81
437.392	92.81
437.614	92.81
437.835	105.81
438.057	117.81
438.278	102.81
438.5	112.81
438.721	101.81
438.943	110.81
439.165	92.81
439.386	96.81
439.608	98.81
439.829	89.81
440.05	118.81
440.272	127.81
440.493	99.81
440.715	85.81
440.936	75.81
441.158	89.81
441.379	93.81
441.6	82.81
441.822	79.81
442.043	96.81
442.264	91.81
442.486	90.81
442.707	77.81
442.928	94.81
443.149	121.81
443.371	116.81
443.592	84.81
443.813	107.81
444.034	87.81
444.255	86.81
444.476	83.81
444.698	96.81
444.919	73.81
445.14	112.81
445.361	122.81
445.582	115.81
445.803	122.81
446.024	119.81
446.245	130.81
446.466	98.81
446.687	100.81
446.908	89.81
447.129	83.81
447.35	83.81
447.571	79.81
447.792	90.81
448.013	101.81
448.234	100.81
448.455	91.81
448.675	99.81
448.896	92.81
449.117	89.81
449.338	99.81
449.559	136.81
449.779	115.81
450	72.81
450.221	88.81
450.442	80.81
450.662	83.81
450.883	76.81
451.104	104.81
451.324	95.81
451.545	88.81
451.766	69.81
451.986	82.81
452.207	80.81
452.428	92.81
452.648	102.81
452.869	99.81
453.089	100.81
453.31	100.81
453.53	65.81
453.751	78.81
453.971	92.81
454.192	95.81
454.412	92.81
454.633	88.81
454.853	93.81
455.073	73.81
455.294	89.81
455.514	96.81
455.734	90.81
455.955	95.81
456.175	91.81
456.395	76.81
456.616	89.81
456.836	78.81
457.056	75.81
457.276	88.81
457.497	72.81
457.717	81.81
457.937	84.81
458.157	82.81
458.377	67.81
458.598	95.81
458.818	125.81
459.038	153.81
459.258	106.81
459.478	82.81
459.698	93.81
459.918	74.81
460.138	85.81
460.358	88.81
460.578	80.81
460.798	88.81
461.018	83.81
461.238	82.81
461.458	89.81
461.678	95.81
461.898	83.81
462.118	86.81
462.338	77.81
462.558	75.81
462.777	106.81
462.997	93.81
463.217	87.81
463.437	81.81
463.657	78.81
463.876	97.81
464.096	91.81
464.316	84.81
464.536	91.81
464.755	106.81
464.975	97.81
465.195	148.81
465.414	154.81
465.634	79.81
465.854	88.81
466.073	69.81
466.293	84.81
466.512	74.81
466.732	80.81
466.951	77.81
467.171	96.81
467.391	80.81
467.61	108.81
467.829	142.81
468.049	330.81
468.268	443.81
468.488	147.81
468.707	102.81
468.927	87.81
469.146	95.81
469.365	88.81
469.585	89.81
469.804	80.81
470.023	100.81
470.243	76.81
470.462	94.81
470.681	108.81
470.901	89.81
471.12	104.81
471.339	101.81
471.558	108.81
471.777	118.81
471.997	195.81
472.216	610.81
472.435	1268.81
472.654	323.81
472.873	129.81
473.092	86.81
473.311	94.81
473.53	105.81
473.749	84.81
473.968	86.81
474.187	98.81
474.406	84.81
474.625	80.81
474.844	72.81
475.063	79.81
475.282	91.81
475.501	88.81
475.72	78.81
475.939	90.81
476.158	77.81
476.377	72.81
476.596	88.81
476.814	100.81
477.033	98.81
477.252	101.81
477.471	81.81
477.69	84.81
477.908	92.81
478.127	85.81
478.346	84.81
478.564	93.81
478.783	103.81
479.002	89.81
479.22	84.81
479.439	99.81
479.658	93.81
479.876	99.81
480.095	98.81
480.313	98.81
480.532	126.81
480.751	194.81
480.969	571.81
481.188	2214.81
481.406	1272.81
481.624	215.81
481.843	103.81
482.061	98.81
482.28	85.81
482.498	80.81
482.717	84.81
482.935	107.81
483.153	94.81
483.372	93.81
483.59	80.81
483.808	91.81
484.027	89.81
484.245	86.81
484.463	91.81
484.681	85.81
484.9	92.81
485.118	93.81
485.336	106.81
485.554	92.81
485.772	84.81
485.99	98.81
486.209	88.81
486.427	113.81
486.645	105.81
486.863	115.81
487.081	102.81
487.299	92.81
487.517	92.81
487.735	99.81
487.953	82.81
488.171	94.81
488.389	103.81
488.607	90.81
488.825	82.81
489.043	96.81
489.261	112.81
489.479	82.81
489.696	82.81
489.914	81.81
490.132	81.81
490.35	81.81
490.568	94.81
490.786	87.81
491.003	93.81
491.221	89.81
491.439	86.81
491.657	86.81
491.874	103.81
492.092	96.81
492.31	85.81
492.527	66.81
492.745	93.81
492.963	75.81
493.18	93.81
493.398	104.81
493.615	84.81
493.833	81.81
494.05	78.81
494.268	88.81
494.485	91.81
494.703	89.81
494.92	92.81
495.138	100.81
495.355	77.81
495.573	62.81
495.79	83.81
496.008	94.81
496.225	80.81
496.442	79.81
496.66	86.81
496.877	84.81
497.094	88.81
497.312	85.81
497.529	79.81
497.746	100.81
497.963	92.81
498.181	87.81
498.398	104.81
498.615	115.81
498.832	98.81
499.049	74.81
499.267	94.81
499.484	86.81
499.701	78.81
499.918	82.81
500.135	102.81
500.352	87.81
500.569	87.81
500.786	93.81
501.003	82.81
501.22	86.81
501.437	81.81
501.654	89.81
501.871	99.81
502.088	77.81
502.305	83.81
502.522	92.81
502.739	92.81
502.956	104.81
503.172	88.81
503.389	89.81
503.606	87.81
503.823	79.81
504.04	102.81
504.256	95.81
504.473	94.81
504.69	99.81
504.907	90.81
505.123	86.81
505.34	83.81
505.557	85.81
505.773	99.81
505.99	83.81
506.207	83.81
506.423	114.81
506.64	96.81
506.856	91.81
507.073	86.81
507.289	97.81
507.506	99.81
507.722	101.81
507.939	104.81
508.155	87.81
508.372	89.81
508.588	107.81
508.805	98.81
509.021	94.81
509.238	77.81
509.454	89.81
509.67	93.81
509.887	95.81
510.103	126.81
510.319	164.81
510.536	605.81
510.752	1842.81
510.968	522.81
511.184	149.81
511.401	109.81
511.617	87.81
511.833	100.81
512.049	98.81
512.265	91.81
512.481	81.81
512.698	85.81
512.914	91.81
513.13	97.81
513.346	95.81
513.562	92.81
513.778	100.81
513.994	96.81
514.21	88.81
514.426	117.81
514.642	125.81
514.858	118.81
515.074	146.81
515.29	398.81
515.506	1292.81
515.721	471.81
515.937	146.81
516.153	103.81
516.369	93.81
