Data from Circ_1989_H10_HRD10591_00020.txt Node
Date: Wed Jan 03 12:01:25 EST 2024
User: Yrep
Spectrometer: HR+D1059
Trigger mode: 1
Integration Time (sec): 1.000000E-1
Scans to average: 1
Electric dark correction enabled: true
Nonlinearity correction enabled: false
Boxcar width: 0
XAxis mode: Wavelengths
Number of Pixels in Spectrum: 2048
>>>>>Begin Spectral Data<<<<<
223.165	-22.62
223.4	-22.62
223.635	-22.62
223.869	-9.62
224.104	-25.62
224.338	-10.62
224.573	-21.62
224.808	1.38
225.042	5.38
225.277	-6.62
225.511	6.38
225.746	-8.62
225.98	-0.62
226.215	7.38
226.449	20.38
226.683	16.38
226.918	17.38
227.152	31.38
227.387	40.38
227.621	42.38
227.856	51.38
228.09	49.38
228.324	46.38
228.559	63.38
228.793	63.38
229.027	68.38
229.262	72.38
229.496	78.38
229.73	73.38
229.964	85.38
230.199	81.38
230.433	80.38
230.667	72.38
230.901	70.38
231.136	70.38
231.37	85.38
231.604	81.38
231.838	80.38
232.072	70.38
232.306	85.38
232.541	69.38
232.775	85.38
233.009	77.38
233.243	81.38
233.477	95.38
233.711	98.38
233.945	74.38
234.179	83.38
234.413	75.38
234.647	97.38
234.881	81.38
235.115	83.38
235.349	72.38
235.583	86.38
235.817	81.38
236.051	77.38
236.285	76.38
236.519	86.38
236.753	79.38
236.987	80.38
237.221	94.38
237.455	89.38
237.689	79.38
237.922	80.38
238.156	79.38
238.39	86.38
238.624	78.38
238.858	89.38
239.091	70.38
239.325	84.38
239.559	70.38
239.793	83.38
240.027	78.38
240.26	74.38
240.494	76.38
240.728	77.38
240.961	77.38
241.195	80.38
241.429	69.38
241.662	68.38
241.896	77.38
242.13	69.38
242.363	71.38
242.597	95.38
242.83	87.38
243.064	76.38
243.298	82.38
243.531	69.38
243.765	87.38
243.998	81.38
244.232	85.38
244.465	69.38
244.699	84.38
244.932	89.38
245.166	86.38
245.399	84.38
245.633	81.38
245.866	80.38
246.099	78.38
246.333	79.38
246.566	85.38
246.8	86.38
247.033	69.38
247.266	76.38
247.5	71.38
247.733	84.38
247.966	68.38
248.2	79.38
248.433	82.38
248.666	97.38
248.899	88.38
249.133	76.38
249.366	87.38
249.599	88.38
249.832	85.38
250.066	73.38
250.299	76.38
250.532	80.38
250.765	76.38
250.998	82.38
251.231	55.38
251.465	90.38
251.698	94.38
251.931	80.38
252.164	80.38
252.397	86.38
252.63	84.38
252.863	85.38
253.096	91.38
253.329	83.38
253.562	81.38
253.795	82.38
254.028	71.38
254.261	90.38
254.494	80.38
254.727	84.38
254.96	79.38
255.193	78.38
255.426	90.38
255.659	88.38
255.892	80.38
256.124	80.38
256.357	81.38
256.59	90.38
256.823	64.38
257.056	79.38
257.289	82.38
257.521	73.38
257.754	76.38
257.987	66.38
258.22	89.38
258.452	83.38
258.685	90.38
258.918	80.38
259.151	86.38
259.383	85.38
259.616	74.38
259.849	86.38
260.081	81.38
260.314	84.38
260.547	88.38
260.779	68.38
261.012	87.38
261.244	92.38
261.477	97.38
261.71	107.38
261.942	99.38
262.175	116.38
262.407	76.38
262.64	84.38
262.872	88.38
263.105	95.38
263.337	92.38
263.57	84.38
263.802	82.38
264.035	82.38
264.267	80.38
264.499	76.38
264.732	80.38
264.964	85.38
265.197	83.38
265.429	80.38
265.661	97.38
265.894	84.38
266.126	86.38
266.358	88.38
266.591	91.38
266.823	76.38
267.055	80.38
267.287	80.38
267.52	83.38
267.752	82.38
267.984	98.38
268.216	90.38
268.448	85.38
268.681	92.38
268.913	95.38
269.145	91.38
269.377	72.38
269.609	74.38
269.841	72.38
270.073	84.38
270.306	89.38
270.538	87.38
270.77	74.38
271.002	89.38
271.234	94.38
271.466	84.38
271.698	87.38
271.93	91.38
272.162	88.38
272.394	89.38
272.626	85.38
272.858	82.38
273.09	80.38
273.322	76.38
273.553	80.38
273.785	90.38
274.017	88.38
274.249	67.38
274.481	99.38
274.713	72.38
274.945	85.38
275.176	80.38
275.408	84.38
275.64	93.38
275.872	106.38
276.104	90.38
276.335	89.38
276.567	88.38
276.799	111.38
277.031	104.38
277.262	109.38
277.494	103.38
277.726	96.38
277.957	77.38
278.189	92.38
278.421	102.38
278.652	82.38
278.884	77.38
279.115	72.38
279.347	80.38
279.579	86.38
279.81	98.38
280.042	113.38
280.273	133.38
280.505	119.38
280.736	100.38
280.968	83.38
281.199	80.38
281.431	88.38
281.662	89.38
281.894	72.38
282.125	88.38
282.356	112.38
282.588	143.38
282.819	114.38
283.051	98.38
283.282	72.38
283.513	84.38
283.745	89.38
283.976	95.38
284.207	73.38
284.439	88.38
284.67	69.38
284.901	85.38
285.132	78.38
285.364	81.38
285.595	81.38
285.826	98.38
286.057	88.38
286.288	76.38
286.52	76.38
286.751	88.38
286.982	83.38
287.213	95.38
287.444	99.38
287.675	82.38
287.906	87.38
288.138	90.38
288.369	98.38
288.6	88.38
288.831	83.38
289.062	84.38
289.293	96.38
289.524	105.38
289.755	95.38
289.986	78.38
290.217	80.38
290.448	91.38
290.679	86.38
290.91	93.38
291.141	105.38
291.371	98.38
291.602	84.38
291.833	76.38
292.064	85.38
292.295	98.38
292.526	99.38
292.757	86.38
292.987	89.38
293.218	81.38
293.449	74.38
293.68	97.38
293.91	92.38
294.141	79.38
294.372	90.38
294.603	80.38
294.833	101.38
295.064	92.38
295.295	95.38
295.525	103.38
295.756	101.38
295.987	100.38
296.217	121.38
296.448	118.38
296.679	82.38
296.909	92.38
297.14	92.38
297.37	82.38
297.601	86.38
297.831	102.38
298.062	90.38
298.292	90.38
298.523	79.38
298.753	98.38
298.984	94.38
299.214	94.38
299.445	89.38
299.675	106.38
299.905	90.38
300.136	91.38
300.366	72.38
300.597	103.38
300.827	92.38
301.057	97.38
301.288	106.38
301.518	90.38
301.748	102.38
301.979	107.38
302.209	94.38
302.439	100.38
302.669	94.38
302.9	92.38
303.13	87.38
303.36	106.38
303.59	99.38
303.82	101.38
304.051	96.38
304.281	87.38
304.511	85.38
304.741	82.38
304.971	80.38
305.201	69.38
305.431	89.38
305.661	92.38
305.891	92.38
306.121	102.38
306.352	116.38
306.582	96.38
306.812	84.38
307.042	110.38
307.272	116.38
307.502	114.38
307.731	119.38
307.961	97.38
308.191	95.38
308.421	104.38
308.651	95.38
308.881	89.38
309.111	94.38
309.341	90.38
309.571	104.38
309.8	97.38
310.03	93.38
310.26	107.38
310.49	94.38
310.72	96.38
310.949	109.38
311.179	102.38
311.409	88.38
311.639	90.38
311.868	102.38
312.098	109.38
312.328	105.38
312.557	87.38
312.787	100.38
313.017	94.38
313.246	108.38
313.476	95.38
313.706	107.38
313.935	93.38
314.165	100.38
314.394	107.38
314.624	90.38
314.853	87.38
315.083	95.38
315.312	88.38
315.542	81.38
315.771	100.38
316.001	99.38
316.23	96.38
316.46	91.38
316.689	100.38
316.919	80.38
317.148	99.38
317.377	95.38
317.607	90.38
317.836	80.38
318.065	94.38
318.295	91.38
318.524	86.38
318.753	95.38
318.983	100.38
319.212	106.38
319.441	112.38
319.67	96.38
319.9	72.38
320.129	105.38
320.358	100.38
320.587	106.38
320.816	85.38
321.046	88.38
321.275	97.38
321.504	94.38
321.733	95.38
321.962	76.38
322.191	105.38
322.42	95.38
322.649	106.38
322.878	111.38
323.108	91.38
323.337	120.38
323.566	144.38
323.795	157.38
324.024	178.38
324.253	360.38
324.482	770.38
324.71	1584.38
324.939	2188.38
325.168	796.38
325.397	254.38
325.626	158.38
325.855	143.38
326.084	125.38
326.313	140.38
326.542	168.38
326.77	222.38
326.999	408.38
327.228	889.38
327.457	1636.38
327.686	1327.38
327.914	401.38
328.143	293.38
328.372	307.38
328.6	206.38
328.829	136.38
329.058	142.38
329.287	144.38
329.515	120.38
329.744	152.38
329.972	213.38
330.201	396.38
330.43	540.38
330.658	282.38
330.887	180.38
331.115	140.38
331.344	98.38
331.572	98.38
331.801	109.38
332.03	119.38
332.258	92.38
332.486	94.38
332.715	105.38
332.943	98.38
333.172	95.38
333.4	110.38
333.629	122.38
333.857	153.38
334.085	213.38
334.314	408.38
334.542	676.38
334.771	624.38
334.999	201.38
335.227	113.38
335.455	85.38
335.684	96.38
335.912	112.38
336.14	114.38
336.369	98.38
336.597	101.38
336.825	98.38
337.053	109.38
337.281	104.38
337.51	88.38
337.738	94.38
337.966	101.38
338.194	88.38
338.422	99.38
338.65	85.38
338.878	92.38
339.106	96.38
339.334	99.38
339.562	90.38
339.79	103.38
340.018	80.38
340.246	103.38
340.474	103.38
340.702	79.38
340.93	90.38
341.158	105.38
341.386	104.38
341.614	97.38
341.842	79.38
342.07	92.38
342.298	80.38
342.526	72.38
342.754	86.38
342.981	89.38
343.209	86.38
343.437	98.38
343.665	100.38
343.893	89.38
344.12	81.38
344.348	88.38
344.576	93.38
344.804	96.38
345.031	102.38
345.259	84.38
345.487	93.38
345.714	94.38
345.942	90.38
346.17	103.38
346.397	104.38
346.625	108.38
346.853	86.38
347.08	88.38
347.308	91.38
347.535	95.38
347.763	104.38
347.99	98.38
348.218	104.38
348.445	90.38
348.673	98.38
348.9	79.38
349.128	93.38
349.355	83.38
349.583	94.38
349.81	99.38
350.037	101.38
350.265	92.38
350.492	100.38
350.72	83.38
350.947	92.38
351.174	111.38
351.402	101.38
351.629	110.38
351.856	100.38
352.083	101.38
352.311	96.38
352.538	118.38
352.765	103.38
352.992	119.38
353.22	97.38
353.447	105.38
353.674	90.38
353.901	100.38
354.128	105.38
354.355	106.38
354.583	101.38
354.81	110.38
355.037	92.38
355.264	97.38
355.491	94.38
355.718	103.38
355.945	88.38
356.172	99.38
356.399	90.38
356.626	94.38
356.853	101.38
357.08	79.38
357.307	86.38
357.534	99.38
357.761	89.38
357.988	109.38
358.215	96.38
358.441	98.38
358.668	95.38
358.895	91.38
359.122	86.38
359.349	97.38
359.576	89.38
359.802	106.38
360.029	109.38
360.256	115.38
360.483	105.38
360.709	75.38
360.936	101.38
361.163	94.38
361.39	97.38
361.616	89.38
361.843	96.38
362.07	98.38
362.296	103.38
362.523	104.38
362.749	95.38
362.976	94.38
363.203	86.38
363.429	85.38
363.656	82.38
363.882	94.38
364.109	87.38
364.335	106.38
364.562	85.38
364.788	92.38
365.015	93.38
365.241	111.38
365.468	89.38
365.694	92.38
365.92	100.38
366.147	85.38
366.373	95.38
366.599	71.38
366.826	71.38
367.052	91.38
367.278	92.38
367.505	74.38
367.731	93.38
367.957	96.38
368.184	85.38
368.41	97.38
368.636	113.38
368.862	122.38
369.089	107.38
369.315	92.38
369.541	88.38
369.767	90.38
369.993	97.38
370.219	80.38
370.445	96.38
370.672	96.38
370.898	85.38
371.124	83.38
371.35	82.38
371.576	101.38
371.802	93.38
372.028	90.38
372.254	110.38
372.48	94.38
372.706	94.38
372.932	103.38
373.158	87.38
373.384	93.38
373.61	84.38
373.835	90.38
374.061	93.38
374.287	99.38
374.513	89.38
374.739	85.38
374.965	75.38
375.191	80.38
375.416	89.38
375.642	97.38
375.868	104.38
376.094	88.38
376.319	82.38
376.545	92.38
376.771	93.38
376.997	91.38
377.222	93.38
377.448	102.38
377.674	85.38
377.899	84.38
378.125	99.38
378.35	88.38
378.576	92.38
378.802	80.38
379.027	89.38
379.253	96.38
379.478	99.38
379.704	110.38
379.929	93.38
380.155	106.38
380.38	89.38
380.606	94.38
380.831	92.38
381.057	99.38
381.282	97.38
381.507	92.38
381.733	106.38
381.958	86.38
382.184	104.38
382.409	103.38
382.634	107.38
382.86	98.38
383.085	98.38
383.31	101.38
383.535	114.38
383.761	96.38
383.986	95.38
384.211	105.38
384.436	105.38
384.662	94.38
384.887	105.38
385.112	117.38
385.337	99.38
385.562	115.38
385.787	120.38
386.013	110.38
386.238	120.38
386.463	127.38
386.688	109.38
386.913	117.38
387.138	119.38
387.363	104.38
387.588	95.38
387.813	103.38
388.038	117.38
388.263	121.38
388.488	125.38
388.713	87.38
388.938	89.38
389.163	86.38
389.387	98.38
389.612	81.38
389.837	84.38
390.062	95.38
390.287	84.38
390.512	100.38
390.736	89.38
390.961	92.38
391.186	84.38
391.411	84.38
391.636	92.38
391.86	87.38
392.085	93.38
392.31	78.38
392.534	96.38
392.759	84.38
392.984	110.38
393.208	100.38
393.433	102.38
393.658	95.38
393.882	95.38
394.107	90.38
394.331	76.38
394.556	98.38
394.78	94.38
395.005	98.38
395.229	93.38
395.454	95.38
395.678	83.38
395.903	87.38
396.127	107.38
396.352	89.38
396.576	87.38
396.801	90.38
397.025	96.38
397.249	100.38
397.474	97.38
397.698	84.38
397.922	98.38
398.147	82.38
398.371	77.38
398.595	93.38
398.82	94.38
399.044	84.38
399.268	92.38
399.492	87.38
399.717	89.38
399.941	101.38
400.165	99.38
400.389	91.38
400.613	97.38
400.837	86.38
401.062	90.38
401.286	85.38
401.51	97.38
401.734	90.38
401.958	104.38
402.182	123.38
402.406	126.38
402.63	111.38
402.854	96.38
403.078	96.38
403.302	83.38
403.526	89.38
403.75	81.38
403.974	100.38
404.198	96.38
404.422	103.38
404.645	86.38
404.869	100.38
405.093	91.38
405.317	113.38
405.541	105.38
405.765	100.38
405.988	129.38
406.212	152.38
406.436	218.38
406.66	151.38
406.883	90.38
407.107	116.38
407.331	79.38
407.555	105.38
407.778	94.38
408.002	97.38
408.226	85.38
408.449	81.38
408.673	71.38
408.896	100.38
409.12	98.38
409.344	92.38
409.567	102.38
409.791	91.38
410.014	97.38
410.238	98.38
410.461	86.38
410.685	89.38
410.908	97.38
411.132	116.38
411.355	107.38
411.578	82.38
411.802	93.38
412.025	101.38
412.249	98.38
412.472	88.38
412.695	106.38
412.919	105.38
413.142	97.38
413.365	101.38
413.589	79.38
413.812	92.38
414.035	97.38
414.258	102.38
414.482	86.38
414.705	86.38
414.928	88.38
415.151	87.38
415.374	93.38
415.597	90.38
415.821	84.38
416.044	90.38
416.267	97.38
416.49	71.38
416.713	86.38
416.936	86.38
417.159	90.38
417.382	93.38
417.605	99.38
417.828	93.38
418.051	100.38
418.274	86.38
418.497	81.38
418.72	86.38
418.943	89.38
419.166	83.38
419.389	78.38
419.611	92.38
419.834	90.38
420.057	94.38
420.28	89.38
420.503	92.38
420.726	90.38
420.948	98.38
421.171	100.38
421.394	97.38
421.617	94.38
421.839	71.38
422.062	93.38
422.285	101.38
422.507	100.38
422.73	97.38
422.953	102.38
423.175	97.38
423.398	100.38
423.621	87.38
423.843	93.38
424.066	72.38
424.288	97.38
424.511	93.38
424.733	94.38
424.956	101.38
425.178	100.38
425.401	116.38
425.623	106.38
425.846	92.38
426.068	109.38
426.291	94.38
426.513	88.38
426.735	82.38
426.958	90.38
427.18	100.38
427.402	141.38
427.625	176.38
427.847	170.38
428.069	153.38
428.292	94.38
428.514	88.38
428.736	93.38
428.958	78.38
429.181	94.38
429.403	89.38
429.625	86.38
429.847	91.38
430.069	104.38
430.292	86.38
430.514	82.38
430.736	93.38
430.958	93.38
431.18	96.38
431.402	87.38
431.624	81.38
431.846	91.38
432.068	91.38
432.29	99.38
432.512	90.38
432.734	109.38
432.956	96.38
433.178	102.38
433.4	110.38
433.622	99.38
433.844	89.38
434.066	85.38
434.287	98.38
434.509	95.38
434.731	89.38
434.953	85.38
435.175	85.38
435.397	92.38
435.618	103.38
435.84	104.38
436.062	121.38
436.284	101.38
436.505	111.38
436.727	104.38
436.949	86.38
437.17	100.38
437.392	96.38
437.614	95.38
437.835	108.38
438.057	116.38
438.278	108.38
438.5	106.38
438.721	128.38
438.943	94.38
439.165	89.38
439.386	92.38
439.608	86.38
439.829	102.38
440.05	129.38
440.272	160.38
440.493	94.38
440.715	95.38
440.936	90.38
441.158	72.38
441.379	88.38
441.6	95.38
441.822	93.38
442.043	90.38
442.264	96.38
442.486	101.38
442.707	95.38
442.928	106.38
443.149	131.38
443.371	146.38
443.592	108.38
443.813	121.38
444.034	101.38
444.255	101.38
444.476	93.38
444.698	92.38
444.919	87.38
445.14	138.38
445.361	115.38
445.582	125.38
445.803	142.38
446.024	120.38
446.245	128.38
446.466	117.38
446.687	100.38
446.908	87.38
447.129	92.38
447.35	83.38
447.571	92.38
447.792	94.38
448.013	89.38
448.234	102.38
448.455	98.38
448.675	111.38
448.896	129.38
449.117	99.38
449.338	87.38
449.559	106.38
449.779	128.38
450	86.38
450.221	94.38
450.442	92.38
450.662	90.38
450.883	113.38
451.104	105.38
451.324	96.38
451.545	112.38
451.766	66.38
451.986	94.38
452.207	74.38
452.428	94.38
452.648	117.38
452.869	97.38
453.089	111.38
453.31	117.38
453.53	101.38
453.751	91.38
453.971	108.38
454.192	111.38
454.412	93.38
454.633	88.38
454.853	84.38
455.073	95.38
455.294	79.38
455.514	102.38
455.734	78.38
455.955	82.38
456.175	94.38
456.395	77.38
456.616	87.38
456.836	88.38
457.056	78.38
457.276	86.38
457.497	101.38
457.717	88.38
457.937	82.38
458.157	88.38
458.377	81.38
458.598	104.38
458.818	145.38
459.038	162.38
459.258	112.38
459.478	95.38
459.698	87.38
459.918	87.38
460.138	88.38
460.358	84.38
460.578	94.38
460.798	85.38
461.018	89.38
461.238	95.38
461.458	72.38
461.678	87.38
461.898	84.38
462.118	88.38
462.338	90.38
462.558	89.38
462.777	84.38
462.997	84.38
463.217	96.38
463.437	95.38
463.657	79.38
463.876	80.38
464.096	89.38
464.316	92.38
464.536	81.38
464.755	99.38
464.975	94.38
465.195	152.38
465.414	160.38
465.634	101.38
465.854	77.38
466.073	102.38
466.293	81.38
466.512	89.38
466.732	97.38
466.951	90.38
467.171	81.38
467.391	88.38
467.61	97.38
467.829	133.38
468.049	257.38
468.268	344.38
468.488	132.38
468.707	102.38
468.927	85.38
469.146	90.38
469.365	78.38
469.585	88.38
469.804	82.38
470.023	104.38
470.243	87.38
470.462	85.38
470.681	114.38
470.901	113.38
471.12	93.38
471.339	89.38
471.558	85.38
471.777	109.38
471.997	165.38
472.216	449.38
472.435	946.38
472.654	261.38
472.873	124.38
473.092	100.38
473.311	101.38
473.53	98.38
473.749	89.38
473.968	88.38
474.187	111.38
474.406	95.38
474.625	85.38
474.844	88.38
475.063	83.38
475.282	82.38
475.501	80.38
475.72	92.38
475.939	80.38
476.158	84.38
476.377	92.38
476.596	90.38
476.814	88.38
477.033	88.38
477.252	97.38
477.471	96.38
477.69	82.38
477.908	92.38
478.127	92.38
478.346	73.38
478.564	96.38
478.783	96.38
479.002	95.38
479.22	92.38
479.439	106.38
479.658	104.38
479.876	102.38
480.095	100.38
480.313	113.38
480.532	110.38
480.751	169.38
480.969	443.38
481.188	1653.38
481.406	967.38
481.624	188.38
481.843	114.38
482.061	94.38
482.28	89.38
482.498	91.38
482.717	94.38
482.935	89.38
483.153	88.38
483.372	94.38
483.59	101.38
483.808	88.38
484.027	83.38
484.245	84.38
484.463	90.38
484.681	100.38
484.9	95.38
485.118	101.38
485.336	108.38
485.554	88.38
485.772	113.38
485.99	106.38
486.209	97.38
486.427	89.38
486.645	101.38
486.863	126.38
487.081	95.38
487.299	104.38
487.517	93.38
487.735	84.38
487.953	97.38
488.171	98.38
488.389	97.38
488.607	102.38
488.825	92.38
489.043	104.38
489.261	92.38
489.479	91.38
489.696	91.38
489.914	106.38
490.132	94.38
490.35	93.38
490.568	89.38
490.786	106.38
491.003	84.38
491.221	85.38
491.439	93.38
491.657	84.38
491.874	90.38
492.092	88.38
492.31	85.38
492.527	89.38
492.745	95.38
492.963	104.38
493.18	96.38
493.398	96.38
493.615	85.38
493.833	112.38
494.05	84.38
494.268	103.38
494.485	85.38
494.703	86.38
494.92	89.38
495.138	82.38
495.355	94.38
495.573	90.38
495.79	97.38
496.008	86.38
496.225	89.38
496.442	88.38
496.66	93.38
496.877	86.38
497.094	89.38
497.312	94.38
497.529	100.38
497.746	81.38
497.963	86.38
498.181	101.38
498.398	94.38
498.615	105.38
498.832	94.38
499.049	88.38
499.267	78.38
499.484	82.38
499.701	87.38
499.918	84.38
500.135	80.38
500.352	89.38
500.569	92.38
500.786	92.38
501.003	101.38
501.22	94.38
501.437	83.38
501.654	94.38
501.871	117.38
502.088	91.38
502.305	90.38
502.522	93.38
502.739	90.38
502.956	101.38
503.172	109.38
503.389	91.38
503.606	113.38
503.823	106.38
504.04	83.38
504.256	89.38
504.473	83.38
504.69	109.38
504.907	99.38
505.123	97.38
505.34	74.38
505.557	83.38
505.773	89.38
505.99	101.38
506.207	92.38
506.423	86.38
506.64	87.38
506.856	94.38
507.073	85.38
507.289	80.38
507.506	100.38
507.722	101.38
507.939	119.38
508.155	86.38
508.372	93.38
508.588	108.38
508.805	107.38
509.021	89.38
509.238	109.38
509.454	90.38
509.67	106.38
509.887	109.38
510.103	148.38
510.319	201.38
510.536	683.38
510.752	2208.38
510.968	631.38
511.184	148.38
511.401	109.38
511.617	103.38
511.833	104.38
512.049	94.38
512.265	85.38
512.481	94.38
512.698	105.38
512.914	103.38
513.13	109.38
513.346	92.38
513.562	82.38
513.778	96.38
513.994	102.38
514.21	110.38
514.426	107.38
514.642	129.38
