Data from Circ_1989_H10_HRD10591_00061.txt Node
Date: Wed Jan 03 12:01:33 EST 2024
User: Yrep
Spectrometer: HR+D1059
Trigger mode: 1
Integration Time (sec): 1.000000E-1
Scans to average: 1
Electric dark correction enabled: true
Nonlinearity correction enabled: false
Boxcar width: 0
XAxis mode: Wavelengths
Number of Pixels in Spectrum: 2048
>>>>>Begin Spectral Data<<<<<
223.165	-24.94
223.4	-24.94
223.635	-24.94
223.869	-17.94
224.104	-18.94
224.338	-8.94
224.573	-18.94
224.808	-0.94
225.042	-14.94
225.277	4.06
225.511	-0.94
225.746	7.06
225.98	-2.94
226.215	12.06
226.449	9.06
226.683	24.06
226.918	18.06
227.152	35.06
227.387	30.06
227.621	47.06
227.856	48.06
228.09	38.06
228.324	45.06
228.559	45.06
228.793	157.06
229.027	457.06
229.262	532.06
229.496	612.06
229.73	820.06
229.964	875.06
230.199	563.06
230.433	485.06
230.667	489.06
230.901	471.06
231.136	467.06
231.37	469.06
231.604	493.06
231.838	474.06
232.072	471.06
232.306	473.06
232.541	492.06
232.775	492.06
233.009	495.06
233.243	492.06
233.477	507.06
233.711	510.06
233.945	546.06
234.179	547.06
234.413	530.06
234.647	527.06
234.881	553.06
235.115	553.06
235.349	564.06
235.583	604.06
235.817	617.06
236.051	673.06
236.285	657.06
236.519	644.06
236.753	731.06
236.987	952.06
237.221	1459.06
237.455	1583.06
237.689	922.06
237.922	767.06
238.156	752.06
238.39	716.06
238.624	696.06
238.858	693.06
239.091	686.06
239.325	696.06
239.559	732.06
239.793	753.06
240.027	809.06
240.26	993.06
240.494	1022.06
240.728	1021.06
240.961	948.06
241.195	876.06
241.429	850.06
241.662	860.06
241.896	852.06
242.13	859.06
242.363	835.06
242.597	888.06
242.83	912.06
243.064	914.06
243.298	918.06
243.531	932.06
243.765	926.06
243.998	940.06
244.232	952.06
244.465	947.06
244.699	1004.06
244.932	974.06
245.166	983.06
245.399	995.06
245.633	1008.06
245.866	1003.06
246.099	1027.06
246.333	1043.06
246.566	1058.06
246.8	1084.06
247.033	1126.06
247.266	1168.06
247.5	1223.06
247.733	1297.06
247.966	1234.06
248.2	1260.06
248.433	1231.06
248.666	1348.06
248.899	1513.06
249.133	1596.06
249.366	1614.06
249.599	1564.06
249.832	1525.06
250.066	1713.06
250.299	2215.06
250.532	2917.06
250.765	2827.06
250.998	2463.06
251.231	2055.06
251.465	1765.06
251.698	1668.06
251.931	1625.06
252.164	1565.06
252.397	1631.06
252.63	1623.06
252.863	1714.06
253.096	1809.06
253.329	1881.06
253.562	1728.06
253.795	1723.06
254.028	1759.06
254.261	1804.06
254.494	2067.06
254.727	2411.06
254.96	2491.06
255.193	2272.06
255.426	2311.06
255.659	2739.06
255.892	3956.06
256.124	5200.06
256.357	4310.06
256.59	3071.06
256.823	2529.06
257.056	2248.06
257.289	2102.06
257.521	2024.06
257.754	1974.06
257.987	1886.06
258.22	1831.06
258.452	1855.06
258.685	1841.06
258.918	1796.06
259.151	1823.06
259.383	1869.06
259.616	1875.06
259.849	1954.06
260.081	2172.06
260.314	2265.06
260.547	2175.06
260.779	2021.06
261.012	1940.06
261.244	1943.06
261.477	1869.06
261.71	1891.06
261.942	1937.06
262.175	1956.06
262.407	1907.06
262.64	1829.06
262.872	1848.06
263.105	1816.06
263.337	1852.06
263.57	1812.06
263.802	1845.06
264.035	1819.06
264.267	1829.06
264.499	1850.06
264.732	1807.06
264.964	1844.06
265.197	1883.06
265.429	1881.06
265.661	1885.06
265.894	1883.06
266.126	1918.06
266.358	1939.06
266.591	1968.06
266.823	2043.06
267.055	2030.06
267.287	2017.06
267.52	2012.06
267.752	2014.06
267.984	2042.06
268.216	2068.06
268.448	2125.06
268.681	2156.06
268.913	2272.06
269.145	2530.06
269.377	2489.06
269.609	2384.06
269.841	2383.06
270.073	2488.06
270.306	2799.06
270.538	2872.06
270.77	2705.06
271.002	2548.06
271.234	2615.06
271.466	2761.06
271.698	2883.06
271.93	2879.06
272.162	2872.06
272.394	2734.06
272.626	2604.06
272.858	2550.06
273.09	2452.06
273.322	2460.06
273.553	2356.06
273.785	2452.06
274.017	2443.06
274.249	2497.06
274.481	2511.06
274.713	2549.06
274.945	2562.06
275.176	2597.06
275.408	2557.06
275.64	2632.06
275.872	2654.06
276.104	2692.06
276.335	2697.06
276.567	2829.06
276.799	3012.06
277.031	3406.06
277.262	3597.06
277.494	3314.06
277.726	3015.06
277.957	2885.06
278.189	2808.06
278.421	2757.06
278.652	2773.06
278.884	2752.06
279.115	2716.06
279.347	2779.06
279.579	2837.06
279.81	2943.06
280.042	3117.06
280.273	3288.06
280.505	3159.06
280.736	2947.06
280.968	2895.06
281.199	2842.06
281.431	2840.06
281.662	2818.06
281.894	2802.06
282.125	2893.06
282.356	3033.06
282.588	3116.06
282.819	2951.06
283.051	2821.06
283.282	2801.06
283.513	2845.06
283.745	2876.06
283.976	2909.06
284.207	2848.06
284.439	2851.06
284.67	2890.06
284.901	2833.06
285.132	2807.06
285.364	2853.06
285.595	2862.06
285.826	2880.06
286.057	2954.06
286.288	2915.06
286.52	2934.06
286.751	2915.06
286.982	2990.06
287.213	2976.06
287.444	2984.06
287.675	3065.06
287.906	3141.06
288.138	3226.06
288.369	3149.06
288.6	3111.06
288.831	3103.06
289.062	3120.06
289.293	3029.06
289.524	3053.06
289.755	3024.06
289.986	3051.06
290.217	3083.06
290.448	3059.06
290.679	3077.06
290.91	3066.06
291.141	3025.06
291.371	3031.06
291.602	3039.06
291.833	3034.06
292.064	3042.06
292.295	3004.06
292.526	3049.06
292.757	2999.06
292.987	3027.06
293.218	2958.06
293.449	3034.06
293.68	3048.06
293.91	3063.06
294.141	3012.06
294.372	3035.06
294.603	2983.06
294.833	3051.06
295.064	3061.06
295.295	3084.06
295.525	3101.06
295.756	3162.06
295.987	3244.06
296.217	3405.06
296.448	3340.06
296.679	3230.06
296.909	3169.06
297.14	3157.06
297.37	3179.06
297.601	3293.06
297.831	3198.06
298.062	3242.06
298.292	3235.06
298.523	3313.06
298.753	3302.06
298.984	3292.06
299.214	3269.06
299.445	3257.06
299.675	3287.06
299.905	3321.06
300.136	3343.06
300.366	3355.06
300.597	3338.06
300.827	3445.06
301.057	3567.06
301.288	3612.06
301.518	3545.06
301.748	3607.06
301.979	3638.06
302.209	3648.06
302.439	3612.06
302.669	3516.06
302.9	3529.06
303.13	3444.06
303.36	3594.06
303.59	3694.06
303.82	3761.06
304.051	3680.06
304.281	3599.06
304.511	3510.06
304.741	3539.06
304.971	3511.06
305.201	3452.06
305.431	3482.06
305.661	3574.06
305.891	3496.06
306.121	3445.06
306.352	3600.06
306.582	3530.06
306.812	3477.06
307.042	3626.06
307.272	3710.06
307.502	3770.06
307.731	3770.06
307.961	3642.06
308.191	3554.06
308.421	3524.06
308.651	3572.06
308.881	3548.06
309.111	3597.06
309.341	3641.06
309.571	3707.06
309.8	3803.06
310.03	3914.06
310.26	3903.06
310.49	3882.06
310.72	4071.06
310.949	4085.06
311.179	4056.06
311.409	3872.06
311.639	3903.06
311.868	3947.06
312.098	3930.06
312.328	4022.06
312.557	4191.06
312.787	4348.06
313.017	4244.06
313.246	4048.06
313.476	3991.06
313.706	3994.06
313.935	4179.06
314.165	4239.06
314.394	4273.06
314.624	4146.06
314.853	4087.06
315.083	4080.06
315.312	3984.06
315.542	3950.06
315.771	3903.06
316.001	3927.06
316.23	3874.06
316.46	3921.06
316.689	4014.06
316.919	4052.06
317.148	4087.06
317.377	4103.06
317.607	4020.06
317.836	4010.06
318.065	3979.06
318.295	3987.06
318.524	4013.06
318.753	4002.06
318.983	4026.06
319.212	4055.06
319.441	4121.06
319.67	4036.06
319.9	3993.06
320.129	4014.06
320.358	4073.06
320.587	4100.06
320.816	4159.06
321.046	4175.06
321.275	4182.06
321.504	4167.06
321.733	4233.06
321.962	4294.06
322.191	4383.06
322.42	4539.06
322.649	4607.06
322.878	4829.06
323.108	4881.06
323.337	5087.06
323.566	5289.06
323.795	5654.06
324.024	6279.06
324.253	8383.06
324.482	12563.06
324.71	15621.06
324.939	15621.06
325.168	14153.06
325.397	7332.06
325.626	5931.06
325.855	5521.06
326.084	5464.06
326.313	5504.06
326.542	5751.06
326.77	6591.06
326.999	8316.06
327.228	12312.06
327.457	15621.06
327.686	15298.06
327.914	9827.06
328.143	9531.06
328.372	9954.06
328.6	8208.06
328.829	7164.06
329.058	7359.06
329.287	7446.06
329.515	7497.06
329.744	8361.06
329.972	10518.06
330.201	13387.06
330.43	14363.06
330.658	11075.06
330.887	8825.06
331.115	7538.06
331.344	6724.06
331.572	6392.06
331.801	6394.06
332.03	6323.06
332.258	6251.06
332.486	6309.06
332.715	6459.06
332.943	6750.06
333.172	7115.06
333.4	7645.06
333.629	8277.06
333.857	9590.06
334.085	11785.06
334.314	14493.06
334.542	15621.06
334.771	15621.06
334.999	10683.06
335.227	8262.06
335.455	7287.06
335.684	6691.06
335.912	6334.06
336.14	6057.06
336.369	5949.06
336.597	5912.06
336.825	5836.06
337.053	5615.06
337.281	5408.06
337.51	5373.06
337.738	5348.06
337.966	5271.06
338.194	5272.06
338.422	5056.06
338.65	5038.06
338.878	4971.06
339.106	4951.06
339.334	4886.06
339.562	4855.06
339.79	4804.06
340.018	4852.06
340.246	4790.06
340.474	4804.06
340.702	4721.06
340.93	4781.06
341.158	4807.06
341.386	4763.06
341.614	4833.06
341.842	4745.06
342.07	4627.06
342.298	4582.06
342.526	4560.06
342.754	4570.06
342.981	4596.06
343.209	4661.06
343.437	4909.06
343.665	5152.06
343.893	5385.06
344.12	5370.06
344.348	5226.06
344.576	5018.06
344.804	5047.06
345.031	4989.06
345.259	4924.06
345.487	4743.06
345.714	4626.06
345.942	4540.06
346.17	4445.06
346.397	4448.06
346.625	4526.06
346.853	4459.06
347.08	4425.06
347.308	4431.06
347.535	4613.06
347.763	4648.06
347.99	4548.06
348.218	4599.06
348.445	4598.06
348.673	4552.06
348.9	4376.06
349.128	4331.06
349.355	4317.06
349.583	4332.06
349.81	4388.06
350.037	4280.06
350.265	4295.06
350.492	4293.06
350.72	4327.06
350.947	4393.06
351.174	4448.06
351.402	4540.06
351.629	4394.06
351.856	4410.06
352.083	4618.06
352.311	4553.06
352.538	4590.06
352.765	4483.06
352.992	4413.06
353.22	4351.06
353.447	4319.06
353.674	4325.06
353.901	4192.06
354.128	4207.06
354.355	4188.06
354.583	4196.06
354.81	4105.06
355.037	4209.06
355.264	4111.06
355.491	4112.06
355.718	4194.06
355.945	4169.06
356.172	4112.06
356.399	4141.06
356.626	4145.06
356.853	4162.06
357.08	4141.06
357.307	4137.06
357.534	4124.06
357.761	4156.06
357.988	4222.06
358.215	4109.06
358.441	4180.06
358.668	4163.06
358.895	4279.06
359.122	4334.06
359.349	4353.06
359.576	4525.06
359.802	4722.06
360.029	4949.06
360.256	4888.06
360.483	4648.06
360.709	4464.06
360.936	4434.06
361.163	4450.06
361.39	4501.06
361.616	4495.06
361.843	4408.06
362.07	4465.06
362.296	4513.06
362.523	4362.06
362.749	4467.06
362.976	4359.06
363.203	4337.06
363.429	4297.06
363.656	4339.06
363.882	4249.06
364.109	4218.06
364.335	4285.06
364.562	4241.06
364.788	4276.06
365.015	4244.06
365.241	4215.06
365.468	4299.06
365.694	4350.06
365.92	4344.06
366.147	4273.06
366.373	4235.06
366.599	4295.06
366.826	4236.06
367.052	4281.06
367.278	4266.06
367.505	4286.06
367.731	4386.06
367.957	4292.06
368.184	4364.06
368.41	4427.06
368.636	4465.06
368.862	4489.06
369.089	4355.06
369.315	4325.06
369.541	4324.06
369.767	4399.06
369.993	4420.06
370.219	4423.06
370.445	4408.06
370.672	4434.06
370.898	4430.06
371.124	4459.06
371.35	4495.06
371.576	4468.06
371.802	4474.06
372.028	4487.06
372.254	4445.06
372.48	4540.06
372.706	4622.06
372.932	4651.06
373.158	4582.06
373.384	4610.06
373.61	4468.06
373.835	4480.06
374.061	4545.06
374.287	4639.06
374.513	4621.06
374.739	4787.06
374.965	4876.06
375.191	4913.06
375.416	4814.06
375.642	4674.06
375.868	4652.06
376.094	4568.06
376.319	4511.06
376.545	4507.06
376.771	4521.06
376.997	4481.06
377.222	4479.06
377.448	4430.06
377.674	4451.06
377.899	4416.06
378.125	4410.06
378.35	4400.06
378.576	4428.06
378.802	4382.06
379.027	4412.06
379.253	4409.06
379.478	4390.06
379.704	4376.06
379.929	4433.06
380.155	4449.06
380.38	4420.06
380.606	4493.06
380.831	4444.06
381.057	4511.06
381.282	4445.06
381.507	4525.06
381.733	4596.06
381.958	4549.06
382.184	4625.06
382.409	4651.06
382.634	4736.06
382.86	4738.06
383.085	4781.06
383.31	4847.06
383.535	4850.06
383.761	4955.06
383.986	5001.06
384.211	5136.06
384.436	5184.06
384.662	5210.06
384.887	5331.06
385.112	5275.06
385.337	5338.06
385.562	5374.06
385.787	5394.06
386.013	5508.06
386.238	5467.06
386.463	5420.06
386.688	5427.06
386.913	5280.06
387.138	5299.06
387.363	5307.06
387.588	5203.06
387.813	5315.06
388.038	5297.06
388.263	5304.06
388.488	5356.06
388.713	5305.06
388.938	5304.06
389.163	5230.06
389.387	5200.06
389.612	5193.06
389.837	5164.06
390.062	5166.06
390.287	5263.06
390.512	5227.06
390.736	5320.06
390.961	5431.06
391.186	5444.06
391.411	5605.06
391.636	5736.06
391.86	5854.06
392.085	5924.06
392.31	5790.06
392.534	5666.06
392.759	5681.06
392.984	5490.06
393.208	5505.06
393.433	5444.06
393.658	5436.06
393.882	5430.06
394.107	5477.06
394.331	5595.06
394.556	5539.06
394.78	5708.06
395.005	5612.06
395.229	5679.06
395.454	5803.06
395.678	5990.06
395.903	5956.06
396.127	6073.06
396.352	5840.06
396.576	5715.06
396.801	5623.06
397.025	5780.06
397.249	5849.06
397.474	5994.06
397.698	5984.06
397.922	6215.06
398.147	6270.06
398.371	6349.06
398.595	6541.06
398.82	6676.06
399.044	7247.06
399.268	8009.06
399.492	8986.06
399.717	9641.06
399.941	9423.06
400.165	8897.06
400.389	8299.06
400.613	7471.06
400.837	6987.06
401.062	6862.06
401.286	6760.06
401.51	6807.06
401.734	6671.06
401.958	6875.06
402.182	6835.06
402.406	7087.06
402.63	7041.06
402.854	7247.06
403.078	7357.06
403.302	7403.06
403.526	7598.06
403.75	7627.06
403.974	7820.06
404.198	7691.06
404.422	7938.06
404.645	8105.06
404.869	8308.06
405.093	8900.06
405.317	9762.06
405.541	9526.06
405.765	8420.06
405.988	7963.06
406.212	7976.06
406.436	8080.06
406.66	8147.06
406.883	8067.06
407.107	8632.06
407.331	9175.06
407.555	9712.06
407.778	9244.06
408.002	8544.06
408.226	8151.06
408.449	8009.06
408.673	7927.06
408.896	8006.06
409.12	8217.06
409.344	7837.06
409.567	7260.06
409.791	7391.06
410.014	7279.06
410.238	7228.06
410.461	7242.06
410.685	7313.06
410.908	7409.06
411.132	7694.06
411.355	7741.06
411.578	7367.06
411.802	7245.06
412.025	7444.06
412.249	8041.06
412.472	8775.06
412.695	9462.06
412.919	8687.06
413.142	8048.06
413.365	7631.06
413.589	7327.06
413.812	6967.06
414.035	6907.06
414.258	6939.06
414.482	6939.06
414.705	6860.06
414.928	6799.06
415.151	6791.06
415.374	6761.06
415.597	6714.06
415.821	6631.06
416.044	6777.06
416.267	6633.06
416.49	6617.06
416.713	6474.06
416.936	6578.06
417.159	6729.06
417.382	6818.06
417.605	6961.06
417.828	7234.06
418.051	7077.06
418.274	6898.06
418.497	6704.06
418.72	6787.06
418.943	6773.06
419.166	7168.06
419.389	7701.06
419.611	7667.06
419.834	7759.06
420.057	7975.06
420.28	8340.06
420.503	8064.06
420.726	7702.06
420.948	7650.06
421.171	7773.06
421.394	7543.06
421.617	6939.06
421.839	6961.06
422.062	7010.06
422.285	7163.06
422.507	7855.06
422.73	8302.06
422.953	7579.06
423.175	7213.06
423.398	7196.06
423.621	7222.06
423.843	7541.06
424.066	7325.06
424.288	7321.06
424.511	7529.06
424.733	8027.06
424.956	8499.06
425.178	7967.06
425.401	8267.06
425.623	7982.06
425.846	6991.06
426.068	6798.06
426.291	6748.06
426.513	6815.06
426.735	6906.06
426.958	7448.06
427.18	8302.06
427.402	9751.06
427.625	10247.06
427.847	9532.06
428.069	9291.06
428.292	7727.06
428.514	6746.06
428.736	6397.06
428.958	6345.06
429.181	6043.06
429.403	6087.06
429.625	6287.06
429.847	6579.06
430.069	7220.06
430.292	6617.06
430.514	6097.06
430.736	6104.06
430.958	5887.06
431.18	5803.06
431.402	5837.06
431.624	5766.06
431.846	5852.06
432.068	5975.06
432.29	6064.06
432.512	5962.06
432.734	6082.06
432.956	5938.06
433.178	6006.06
433.4	6047.06
433.622	5950.06
433.844	5927.06
434.066	5956.06
434.287	6121.06
434.509	6367.06
434.731	6443.06
434.953	6645.06
435.175	6733.06
435.397	6912.06
435.618	6767.06
435.84	7292.06
436.062	8213.06
436.284	8121.06
436.505	6736.06
436.727	6443.06
436.949	6097.06
437.17	6010.06
437.392	5950.06
437.614	6164.06
437.835	6602.06
438.057	7697.06
438.278	8374.06
438.5	8202.06
438.721	9223.06
438.943	7851.06
439.165	6579.06
439.386	6427.06
439.608	6421.06
439.829	6628.06
440.05	7082.06
440.272	7597.06
440.493	6643.06
440.715	6345.06
440.936	6323.06
441.158	6352.06
441.379	6497.06
441.6	6793.06
441.822	7024.06
442.043	7480.06
442.264	8460.06
442.486	8014.06
442.707	7037.06
442.928	6926.06
443.149	7219.06
443.371	7453.06
443.592	8063.06
443.813	9186.06
444.034	8915.06
444.255	7740.06
444.476	7410.06
444.698	7619.06
444.919	7741.06
445.14	7567.06
445.361	7490.06
445.582	7691.06
445.803	8597.06
446.024	9408.06
446.245	8916.06
446.466	7830.06
446.687	6617.06
446.908	6351.06
447.129	5989.06
447.35	5860.06
447.571	5804.06
447.792	5739.06
448.013	5823.06
448.234	6063.06
448.455	6827.06
448.675	8141.06
448.896	8541.06
449.117	6837.06
449.338	7225.06
449.559	8789.06
449.779	8946.06
450	6613.06
450.221	6025.06
450.442	5626.06
450.662	5616.06
450.883	5843.06
451.104	5948.06
451.324	5676.06
451.545	5603.06
451.766	5384.06
451.986	5252.06
452.207	5199.06
452.428	5198.06
452.648	5299.06
452.869	5317.06
453.089	5343.06
453.31	5445.06
453.53	5261.06
453.751	5178.06
453.971	5286.06
454.192	5408.06
454.412	5155.06
454.633	5082.06
454.853	5097.06
455.073	5114.06
455.294	5579.06
455.514	6176.06
455.734	5564.06
455.955	4994.06
456.175	4900.06
456.395	4823.06
456.616	4781.06
456.836	4837.06
457.056	4823.06
457.276	4813.06
457.497	4993.06
457.717	4968.06
457.937	4991.06
458.157	5074.06
458.377	5192.06
458.598	5561.06
458.818	6397.06
459.038	7225.06
459.258	7079.06
459.478	6144.06
459.698	5974.06
459.918	6026.06
460.138	6162.06
460.358	6461.06
460.578	6489.06
460.798	6559.06
461.018	6561.06
461.238	6466.06
461.458	6409.06
461.678	6321.06
461.898	6585.06
462.118	6590.06
462.338	6883.06
462.558	7066.06
462.777	7264.06
462.997	7913.06
463.217	8311.06
463.437	8021.06
463.657	7555.06
463.876	7397.06
464.096	7327.06
464.316	7421.06
464.536	7489.06
464.755	7206.06
464.975	7136.06
465.195	7495.06
465.414	7597.06
465.634	6566.06
465.854	6197.06
466.073	5972.06
466.293	5799.06
466.512	5569.06
466.732	5526.06
466.951	5508.06
467.171	5519.06
467.391	5718.06
467.61	5830.06
467.829	6047.06
468.049	7072.06
468.268	8218.06
468.488	6645.06
468.707	5924.06
468.927	5693.06
469.146	5563.06
469.365	5620.06
469.585	5533.06
469.804	5687.06
470.023	5859.06
470.243	5806.06
470.462	5977.06
470.681	6107.06
470.901	5938.06
471.12	5808.06
471.339	5820.06
471.558	5935.06
471.777	6131.06
471.997	6621.06
472.216	9272.06
472.435	13658.06
472.654	10235.06
472.873	7474.06
473.092	6702.06
473.311	6343.06
473.53	6064.06
473.749	6050.06
473.968	6533.06
474.187	7660.06
474.406	6938.06
474.625	5880.06
474.844	5631.06
475.063	5535.06
475.282	5480.06
475.501	5521.06
475.72	5654.06
475.939	5609.06
476.158	5633.06
476.377	5721.06
476.596	5651.06
476.814	5854.06
477.033	5850.06
477.252	5863.06
477.471	5966.06
477.69	6103.06
477.908	6142.06
478.127	6299.06
478.346	6428.06
478.564	6542.06
478.783	6574.06
479.002	6752.06
479.22	6815.06
479.439	6968.06
479.658	7233.06
479.876	7331.06
480.095	7589.06
480.313	8119.06
480.532	8222.06
480.751	8804.06
480.969	11450.06
481.188	15621.06
481.406	15621.06
481.624	13267.06
481.843	9882.06
482.061	8725.06
482.28	8056.06
482.498	7699.06
482.717	7364.06
482.935	7169.06
483.153	7027.06
483.372	6867.06
483.59	6772.06
483.808	6728.06
484.027	6757.06
484.245	6767.06
484.463	6704.06
484.681	6711.06
484.9	6839.06
485.118	6829.06
485.336	6867.06
485.554	6991.06
485.772	6983.06
485.99	7023.06
486.209	7045.06
486.427	7017.06
486.645	7124.06
486.863	7255.06
487.081	7211.06
487.299	7108.06
487.517	7039.06
