Data from Circ_1989_H10_HRD10591_00082.txt Node
Date: Wed Jan 03 12:01:38 EST 2024
User: Yrep
Spectrometer: HR+D1059
Trigger mode: 1
Integration Time (sec): 1.000000E-1
Scans to average: 1
Electric dark correction enabled: true
Nonlinearity correction enabled: false
Boxcar width: 0
XAxis mode: Wavelengths
Number of Pixels in Spectrum: 2048
>>>>>Begin Spectral Data<<<<<
223.165	-23.56
223.4	-23.56
223.635	-23.56
223.869	-20.56
224.104	-27.56
224.338	-11.56
224.573	-15.56
224.808	-3.56
225.042	-15.56
225.277	-7.56
225.511	-0.56
225.746	9.44
225.98	15.44
226.215	8.44
226.449	9.44
226.683	28.44
226.918	11.44
227.152	43.44
227.387	29.44
227.621	36.44
227.856	36.44
228.09	30.44
228.324	53.44
228.559	56.44
228.793	55.44
229.027	53.44
229.262	56.44
229.496	67.44
229.73	76.44
229.964	72.44
230.199	74.44
230.433	77.44
230.667	63.44
230.901	75.44
231.136	74.44
231.37	70.44
231.604	67.44
231.838	81.44
232.072	69.44
232.306	66.44
232.541	78.44
232.775	74.44
233.009	84.44
233.243	71.44
233.477	85.44
233.711	79.44
233.945	76.44
234.179	94.44
234.413	77.44
234.647	70.44
234.881	89.44
235.115	72.44
235.349	69.44
235.583	70.44
235.817	75.44
236.051	77.44
236.285	80.44
236.519	70.44
236.753	85.44
236.987	78.44
237.221	75.44
237.455	76.44
237.689	72.44
237.922	66.44
238.156	70.44
238.39	72.44
238.624	77.44
238.858	72.44
239.091	76.44
239.325	65.44
239.559	81.44
239.793	69.44
240.027	72.44
240.26	72.44
240.494	76.44
240.728	78.44
240.961	78.44
241.195	75.44
241.429	74.44
241.662	80.44
241.896	67.44
242.13	66.44
242.363	59.44
242.597	69.44
242.83	68.44
243.064	86.44
243.298	77.44
243.531	63.44
243.765	69.44
243.998	79.44
244.232	74.44
244.465	82.44
244.699	57.44
244.932	63.44
245.166	77.44
245.399	77.44
245.633	65.44
245.866	76.44
246.099	70.44
246.333	91.44
246.566	86.44
246.8	74.44
247.033	78.44
247.266	83.44
247.5	78.44
247.733	85.44
247.966	87.44
248.2	80.44
248.433	91.44
248.666	64.44
248.899	51.44
249.133	69.44
249.366	86.44
249.599	86.44
249.832	85.44
250.066	71.44
250.299	81.44
250.532	92.44
250.765	93.44
250.998	81.44
251.231	78.44
251.465	76.44
251.698	81.44
251.931	65.44
252.164	68.44
252.397	79.44
252.63	83.44
252.863	75.44
253.096	81.44
253.329	83.44
253.562	72.44
253.795	78.44
254.028	75.44
254.261	67.44
254.494	68.44
254.727	82.44
254.96	74.44
255.193	79.44
255.426	72.44
255.659	69.44
255.892	88.44
256.124	80.44
256.357	90.44
256.59	83.44
256.823	78.44
257.056	65.44
257.289	78.44
257.521	74.44
257.754	83.44
257.987	64.44
258.22	78.44
258.452	80.44
258.685	75.44
258.918	80.44
259.151	86.44
259.383	80.44
259.616	84.44
259.849	75.44
260.081	85.44
260.314	92.44
260.547	83.44
260.779	89.44
261.012	91.44
261.244	92.44
261.477	86.44
261.71	96.44
261.942	110.44
262.175	102.44
262.407	94.44
262.64	91.44
262.872	64.44
263.105	76.44
263.337	78.44
263.57	79.44
263.802	84.44
264.035	102.44
264.267	78.44
264.499	75.44
264.732	62.44
264.964	79.44
265.197	68.44
265.429	84.44
265.661	74.44
265.894	82.44
266.126	80.44
266.358	69.44
266.591	72.44
266.823	75.44
267.055	84.44
267.287	83.44
267.52	80.44
267.752	69.44
267.984	76.44
268.216	88.44
268.448	89.44
268.681	85.44
268.913	64.44
269.145	86.44
269.377	77.44
269.609	85.44
269.841	84.44
270.073	85.44
270.306	75.44
270.538	77.44
270.77	101.44
271.002	86.44
271.234	94.44
271.466	79.44
271.698	76.44
271.93	80.44
272.162	87.44
272.394	92.44
272.626	84.44
272.858	80.44
273.09	79.44
273.322	74.44
273.553	72.44
273.785	95.44
274.017	96.44
274.249	81.44
274.481	80.44
274.713	73.44
274.945	93.44
275.176	81.44
275.408	88.44
275.64	96.44
275.872	91.44
276.104	82.44
276.335	86.44
276.567	94.44
276.799	94.44
277.031	106.44
277.262	115.44
277.494	93.44
277.726	69.44
277.957	89.44
278.189	91.44
278.421	93.44
278.652	80.44
278.884	88.44
279.115	76.44
279.347	89.44
279.579	83.44
279.81	105.44
280.042	115.44
280.273	118.44
280.505	115.44
280.736	86.44
280.968	79.44
281.199	92.44
281.431	81.44
281.662	71.44
281.894	83.44
282.125	92.44
282.356	98.44
282.588	120.44
282.819	109.44
283.051	82.44
283.282	87.44
283.513	98.44
283.745	92.44
283.976	88.44
284.207	78.44
284.439	86.44
284.67	73.44
284.901	78.44
285.132	89.44
285.364	92.44
285.595	96.44
285.826	81.44
286.057	99.44
286.288	68.44
286.52	81.44
286.751	69.44
286.982	111.44
287.213	81.44
287.444	93.44
287.675	86.44
287.906	83.44
288.138	85.44
288.369	84.44
288.6	79.44
288.831	84.44
289.062	88.44
289.293	77.44
289.524	79.44
289.755	84.44
289.986	90.44
290.217	90.44
290.448	70.44
290.679	80.44
290.91	90.44
291.141	92.44
291.371	94.44
291.602	86.44
291.833	80.44
292.064	84.44
292.295	98.44
292.526	88.44
292.757	78.44
292.987	88.44
293.218	76.44
293.449	72.44
293.68	83.44
293.91	65.44
294.141	80.44
294.372	76.44
294.603	78.44
294.833	72.44
295.064	88.44
295.295	93.44
295.525	95.44
295.756	83.44
295.987	105.44
296.217	125.44
296.448	110.44
296.679	96.44
296.909	84.44
297.14	72.44
297.37	86.44
297.601	88.44
297.831	89.44
298.062	88.44
298.292	92.44
298.523	85.44
298.753	72.44
298.984	82.44
299.214	98.44
299.445	82.44
299.675	88.44
299.905	82.44
300.136	75.44
300.366	87.44
300.597	87.44
300.827	79.44
301.057	70.44
301.288	97.44
301.518	92.44
301.748	81.44
301.979	103.44
302.209	78.44
302.439	91.44
302.669	84.44
302.9	90.44
303.13	77.44
303.36	88.44
303.59	98.44
303.82	107.44
304.051	91.44
304.281	90.44
304.511	81.44
304.741	82.44
304.971	89.44
305.201	83.44
305.431	80.44
305.661	95.44
305.891	83.44
306.121	91.44
306.352	98.44
306.582	99.44
306.812	90.44
307.042	90.44
307.272	99.44
307.502	112.44
307.731	100.44
307.961	88.44
308.191	78.44
308.421	85.44
308.651	82.44
308.881	84.44
309.111	84.44
309.341	96.44
309.571	82.44
309.8	91.44
310.03	83.44
310.26	88.44
310.49	84.44
310.72	91.44
310.949	100.44
311.179	92.44
311.409	89.44
311.639	95.44
311.868	93.44
312.098	90.44
312.328	87.44
312.557	92.44
312.787	91.44
313.017	92.44
313.246	85.44
313.476	82.44
313.706	85.44
313.935	73.44
314.165	80.44
314.394	85.44
314.624	84.44
314.853	96.44
315.083	94.44
315.312	92.44
315.542	90.44
315.771	76.44
316.001	93.44
316.23	77.44
316.46	104.44
316.689	74.44
316.919	75.44
317.148	89.44
317.377	85.44
317.607	81.44
317.836	93.44
318.065	93.44
318.295	78.44
318.524	90.44
318.753	79.44
318.983	89.44
319.212	85.44
319.441	108.44
319.67	103.44
319.9	82.44
320.129	89.44
320.358	77.44
320.587	93.44
320.816	89.44
321.046	88.44
321.275	89.44
321.504	79.44
321.733	95.44
321.962	108.44
322.191	90.44
322.42	93.44
322.649	92.44
322.878	96.44
323.108	97.44
323.337	100.44
323.566	118.44
323.795	130.44
324.024	181.44
324.253	314.44
324.482	654.44
324.71	1349.44
324.939	1776.44
325.168	649.44
325.397	210.44
325.626	115.44
325.855	100.44
326.084	114.44
326.313	119.44
326.542	138.44
326.77	208.44
326.999	364.44
327.228	769.44
327.457	1392.44
327.686	1133.44
327.914	360.44
328.143	264.44
328.372	292.44
328.6	185.44
328.829	110.44
329.058	102.44
329.287	133.44
329.515	125.44
329.744	150.44
329.972	245.44
330.201	408.44
330.43	544.44
330.658	276.44
330.887	141.44
331.115	127.44
331.344	92.44
331.572	97.44
331.801	106.44
332.03	98.44
332.258	88.44
332.486	90.44
332.715	103.44
332.943	89.44
333.172	99.44
333.4	96.44
333.629	97.44
333.857	138.44
334.085	216.44
334.314	413.44
334.542	682.44
334.771	643.44
334.999	205.44
335.227	116.44
335.455	96.44
335.684	92.44
335.912	100.44
336.14	86.44
336.369	88.44
336.597	94.44
336.825	97.44
337.053	85.44
337.281	92.44
337.51	74.44
337.738	85.44
337.966	84.44
338.194	84.44
338.422	88.44
338.65	87.44
338.878	82.44
339.106	76.44
339.334	98.44
339.562	94.44
339.79	82.44
340.018	88.44
340.246	80.44
340.474	92.44
340.702	81.44
340.93	92.44
341.158	76.44
341.386	88.44
341.614	107.44
341.842	94.44
342.07	94.44
342.298	81.44
342.526	95.44
342.754	98.44
342.981	90.44
343.209	76.44
343.437	97.44
343.665	89.44
343.893	89.44
344.12	86.44
344.348	94.44
344.576	95.44
344.804	86.44
345.031	102.44
345.259	101.44
345.487	85.44
345.714	97.44
345.942	91.44
346.17	88.44
346.397	83.44
346.625	83.44
346.853	84.44
347.08	85.44
347.308	94.44
347.535	90.44
347.763	100.44
347.99	91.44
348.218	100.44
348.445	88.44
348.673	96.44
348.9	90.44
349.128	78.44
349.355	84.44
349.583	74.44
349.81	87.44
350.037	92.44
350.265	81.44
350.492	86.44
350.72	82.44
350.947	92.44
351.174	86.44
351.402	97.44
351.629	84.44
351.856	91.44
352.083	99.44
352.311	94.44
352.538	93.44
352.765	98.44
352.992	91.44
353.22	107.44
353.447	96.44
353.674	104.44
353.901	88.44
354.128	86.44
354.355	77.44
354.583	80.44
354.81	102.44
355.037	89.44
355.264	106.44
355.491	83.44
355.718	91.44
355.945	101.44
356.172	83.44
356.399	103.44
356.626	93.44
356.853	86.44
357.08	87.44
357.307	85.44
357.534	84.44
357.761	88.44
357.988	90.44
358.215	98.44
358.441	89.44
358.668	92.44
358.895	84.44
359.122	63.44
359.349	82.44
359.576	84.44
359.802	69.44
360.029	105.44
360.256	98.44
360.483	117.44
360.709	76.44
360.936	77.44
361.163	83.44
361.39	80.44
361.616	80.44
361.843	66.44
362.07	89.44
362.296	98.44
362.523	77.44
362.749	95.44
362.976	88.44
363.203	85.44
363.429	74.44
363.656	100.44
363.882	88.44
364.109	81.44
364.335	89.44
364.562	89.44
364.788	89.44
365.015	82.44
365.241	88.44
365.468	107.44
365.694	96.44
365.92	100.44
366.147	77.44
366.373	82.44
366.599	85.44
366.826	85.44
367.052	89.44
367.278	90.44
367.505	84.44
367.731	79.44
367.957	72.44
368.184	85.44
368.41	102.44
368.636	101.44
368.862	99.44
369.089	92.44
369.315	78.44
369.541	82.44
369.767	76.44
369.993	90.44
370.219	80.44
370.445	77.44
370.672	97.44
370.898	80.44
371.124	100.44
371.35	79.44
371.576	81.44
371.802	72.44
372.028	78.44
372.254	84.44
372.48	89.44
372.706	81.44
372.932	82.44
373.158	90.44
373.384	90.44
373.61	93.44
373.835	94.44
374.061	82.44
374.287	74.44
374.513	105.44
374.739	98.44
374.965	84.44
375.191	87.44
375.416	79.44
375.642	80.44
375.868	85.44
376.094	76.44
376.319	81.44
376.545	80.44
376.771	84.44
376.997	79.44
377.222	84.44
377.448	85.44
377.674	96.44
377.899	104.44
378.125	93.44
378.35	80.44
378.576	77.44
378.802	81.44
379.027	84.44
379.253	77.44
379.478	85.44
379.704	97.44
379.929	104.44
380.155	90.44
380.38	87.44
380.606	94.44
380.831	96.44
381.057	97.44
381.282	93.44
381.507	91.44
381.733	91.44
381.958	90.44
382.184	94.44
382.409	90.44
382.634	97.44
382.86	88.44
383.085	94.44
383.31	85.44
383.535	91.44
383.761	89.44
383.986	82.44
384.211	73.44
384.436	93.44
384.662	78.44
384.887	95.44
385.112	98.44
385.337	107.44
385.562	79.44
385.787	94.44
386.013	102.44
386.238	101.44
386.463	83.44
386.688	101.44
386.913	102.44
387.138	84.44
387.363	100.44
387.588	78.44
387.813	94.44
388.038	100.44
388.263	93.44
388.488	95.44
388.713	97.44
388.938	93.44
389.163	96.44
389.387	76.44
389.612	75.44
389.837	77.44
390.062	98.44
390.287	97.44
390.512	81.44
390.736	83.44
390.961	100.44
391.186	85.44
391.411	83.44
391.636	83.44
391.86	97.44
392.085	96.44
392.31	92.44
392.534	85.44
392.759	76.44
392.984	91.44
393.208	92.44
393.433	80.44
393.658	85.44
393.882	69.44
394.107	71.44
394.331	88.44
394.556	88.44
394.78	71.44
395.005	82.44
395.229	72.44
395.454	82.44
395.678	81.44
395.903	81.44
396.127	97.44
396.352	102.44
396.576	86.44
396.801	92.44
397.025	76.44
397.249	61.44
397.474	89.44
397.698	92.44
397.922	88.44
398.147	84.44
398.371	86.44
398.595	86.44
398.82	88.44
399.044	81.44
399.268	74.44
399.492	64.44
399.717	96.44
399.941	93.44
400.165	94.44
400.389	105.44
400.613	84.44
400.837	85.44
401.062	96.44
401.286	72.44
401.51	91.44
401.734	92.44
401.958	105.44
402.182	109.44
402.406	119.44
402.63	103.44
402.854	90.44
403.078	89.44
403.302	78.44
403.526	88.44
403.75	88.44
403.974	91.44
404.198	98.44
404.422	93.44
404.645	91.44
404.869	94.44
405.093	104.44
405.317	105.44
405.541	105.44
405.765	93.44
405.988	106.44
406.212	128.44
406.436	175.44
406.66	117.44
406.883	93.44
407.107	80.44
407.331	84.44
407.555	104.44
407.778	94.44
408.002	75.44
408.226	89.44
408.449	91.44
408.673	86.44
408.896	87.44
409.12	79.44
409.344	84.44
409.567	95.44
409.791	88.44
410.014	79.44
410.238	81.44
410.461	74.44
410.685	94.44
410.908	109.44
411.132	88.44
411.355	97.44
411.578	81.44
411.802	86.44
412.025	86.44
412.249	88.44
412.472	101.44
412.695	100.44
412.919	84.44
413.142	96.44
413.365	69.44
413.589	79.44
413.812	89.44
414.035	90.44
414.258	90.44
414.482	69.44
414.705	76.44
414.928	87.44
415.151	83.44
415.374	102.44
415.597	79.44
415.821	76.44
416.044	85.44
416.267	78.44
416.49	105.44
416.713	85.44
416.936	84.44
417.159	73.44
417.382	81.44
417.605	98.44
417.828	102.44
418.051	81.44
418.274	106.44
418.497	72.44
418.72	80.44
418.943	83.44
419.166	76.44
419.389	101.44
419.611	89.44
419.834	91.44
420.057	87.44
420.28	103.44
420.503	76.44
420.726	89.44
420.948	93.44
421.171	92.44
421.394	91.44
421.617	88.44
421.839	92.44
422.062	84.44
422.285	85.44
422.507	87.44
422.73	92.44
422.953	88.44
423.175	75.44
423.398	90.44
423.621	91.44
423.843	80.44
424.066	88.44
424.288	76.44
424.511	90.44
424.733	88.44
424.956	94.44
425.178	97.44
425.401	96.44
425.623	86.44
425.846	77.44
426.068	93.44
426.291	94.44
426.513	65.44
426.735	92.44
426.958	88.44
427.18	92.44
427.402	122.44
427.625	136.44
427.847	152.44
428.069	164.44
428.292	96.44
428.514	99.44
428.736	81.44
428.958	88.44
429.181	72.44
429.403	75.44
429.625	84.44
429.847	88.44
430.069	91.44
430.292	95.44
430.514	78.44
430.736	78.44
430.958	74.44
431.18	74.44
431.402	78.44
431.624	86.44
431.846	85.44
432.068	79.44
432.29	79.44
432.512	83.44
432.734	85.44
432.956	96.44
433.178	100.44
433.4	84.44
433.622	91.44
433.844	75.44
434.066	82.44
434.287	90.44
434.509	98.44
434.731	87.44
434.953	97.44
435.175	91.44
435.397	81.44
435.618	85.44
435.84	84.44
436.062	107.44
436.284	96.44
436.505	91.44
436.727	85.44
436.949	90.44
437.17	69.44
437.392	84.44
437.614	78.44
437.835	109.44
438.057	102.44
438.278	107.44
438.5	89.44
438.721	120.44
438.943	97.44
439.165	87.44
439.386	88.44
439.608	98.44
439.829	93.44
440.05	102.44
440.272	121.44
440.493	98.44
440.715	87.44
440.936	93.44
441.158	85.44
441.379	74.44
441.6	86.44
441.822	90.44
442.043	91.44
442.264	98.44
442.486	100.44
442.707	94.44
442.928	108.44
443.149	124.44
443.371	110.44
443.592	96.44
443.813	97.44
444.034	91.44
444.255	85.44
444.476	86.44
444.698	77.44
444.919	81.44
445.14	124.44
445.361	102.44
445.582	115.44
445.803	124.44
446.024	104.44
446.245	113.44
446.466	103.44
446.687	83.44
446.908	94.44
447.129	98.44
447.35	70.44
447.571	74.44
447.792	80.44
448.013	72.44
448.234	102.44
448.455	80.44
448.675	103.44
448.896	88.44
449.117	79.44
449.338	98.44
449.559	119.44
449.779	124.44
450	87.44
450.221	98.44
450.442	84.44
450.662	89.44
450.883	98.44
451.104	97.44
451.324	66.44
451.545	86.44
451.766	81.44
451.986	85.44
452.207	98.44
452.428	95.44
452.648	86.44
452.869	103.44
453.089	102.44
453.31	101.44
453.53	82.44
453.751	91.44
453.971	105.44
454.192	105.44
454.412	91.44
454.633	83.44
454.853	65.44
455.073	92.44
455.294	77.44
455.514	89.44
455.734	83.44
455.955	80.44
456.175	78.44
456.395	84.44
456.616	80.44
456.836	75.44
457.056	81.44
457.276	91.44
457.497	67.44
457.717	76.44
457.937	76.44
458.157	77.44
458.377	78.44
458.598	88.44
458.818	116.44
459.038	121.44
459.258	101.44
459.478	88.44
459.698	62.44
459.918	77.44
460.138	84.44
460.358	94.44
460.578	84.44
460.798	83.44
461.018	73.44
461.238	82.44
461.458	79.44
461.678	93.44
461.898	82.44
462.118	77.44
462.338	85.44
462.558	94.44
462.777	68.44
462.997	88.44
463.217	95.44
463.437	84.44
463.657	80.44
463.876	92.44
464.096	69.44
464.316	84.44
464.536	84.44
464.755	84.44
464.975	94.44
465.195	132.44
465.414	127.44
465.634	95.44
465.854	81.44
466.073	79.44
466.293	89.44
466.512	70.44
466.732	73.44
466.951	74.44
467.171	85.44
467.391	82.44
467.61	96.44
467.829	132.44
468.049	252.44
468.268	342.44
468.488	132.44
468.707	92.44
468.927	80.44
469.146	70.44
469.365	78.44
469.585	90.44
469.804	85.44
470.023	98.44
470.243	78.44
470.462	95.44
470.681	93.44
470.901	100.44
471.12	98.44
471.339	102.44
471.558	99.44
471.777	106.44
471.997	171.44
472.216	501.44
472.435	1000.44
472.654	276.44
472.873	108.44
473.092	90.44
473.311	92.44
473.53	93.44
473.749	84.44
473.968	94.44
474.187	90.44
474.406	93.44
474.625	76.44
474.844	72.44
475.063	87.44
475.282	85.44
475.501	86.44
475.72	69.44
475.939	70.44
476.158	74.44
476.377	91.44
476.596	84.44
476.814	97.44
477.033	99.44
477.252	86.44
477.471	88.44
477.69	92.44
477.908	94.44
478.127	90.44
478.346	81.44
478.564	91.44
478.783	83.44
479.002	95.44
479.22	90.44
479.439	99.44
479.658	102.44
479.876	93.44
480.095	79.44
480.313	103.44
480.532	108.44
480.751	155.44
480.969	462.44
481.188	1786.44
481.406	986.44
481.624	190.44
481.843	111.44
482.061	89.44
482.28	101.44
482.498	95.44
482.717	88.44
482.935	90.44
483.153	93.44
483.372	90.44
483.59	97.44
483.808	105.44
484.027	88.44
484.245	98.44
484.463	87.44
484.681	74.44
484.9	78.44
485.118	81.44
485.336	78.44
485.554	100.44
485.772	90.44
485.99	93.44
486.209	68.44
486.427	98.44
486.645	97.44
486.863	98.44
487.081	98.44
487.299	84.44
487.517	97.44
487.735	97.44
487.953	93.44
488.171	99.44
488.389	93.44
488.607	90.44
488.825	86.44
489.043	88.44
489.261	84.44
489.479	91.44
489.696	89.44
489.914	76.44
490.132	86.44
490.35	89.44
490.568	87.44
490.786	80.44
491.003	90.44
491.221	102.44
491.439	84.44
491.657	90.44
491.874	84.44
492.092	97.44
492.31	80.44
492.527	88.44
492.745	80.44
492.963	74.44
493.18	89.44
493.398	88.44
493.615	84.44
493.833	97.44
494.05	95.44
494.268	87.44
494.485	76.44
494.703	85.44
494.92	62.44
495.138	75.44
495.355	89.44
495.573	92.44
495.79	87.44
496.008	92.44
496.225	79.44
496.442	81.44
496.66	91.44
496.877	93.44
497.094	89.44
497.312	98.44
497.529	76.44
497.746	89.44
497.963	102.44
498.181	89.44
498.398	89.44
498.615	99.44
498.832	93.44
499.049	88.44
499.267	100.44
499.484	88.44
499.701	64.44
499.918	71.44
500.135	95.44
500.352	92.44
500.569	83.44
500.786	77.44
501.003	90.44
501.22	84.44
501.437	88.44
501.654	85.44
501.871	98.44
502.088	89.44
502.305	85.44
502.522	89.44
502.739	84.44
502.956	73.44
503.172	94.44
503.389	96.44
503.606	90.44
503.823	82.44
504.04	76.44
504.256	70.44
504.473	85.44
504.69	81.44
504.907	93.44
505.123	86.44
505.34	94.44
505.557	83.44
505.773	74.44
505.99	86.44
506.207	73.44
506.423	96.44
506.64	91.44
506.856	91.44
507.073	93.44
507.289	82.44
507.506	84.44
507.722	79.44
507.939	103.44
508.155	101.44
508.372	75.44
508.588	81.44
508.805	90.44
509.021	85.44
509.238	95.44
509.454	106.44
509.67	91.44
509.887	100.44
510.103	118.44
510.319	179.44
510.536	515.44
510.752	1574.44
510.968	445.44
511.184	128.44
511.401	109.44
511.617	89.44
511.833	79.44
512.049	95.44
512.265	92.44
512.481	90.44
512.698	97.44
512.914	94.44
513.13	82.44
513.346	83.44
513.562	83.44
513.778	100.44
513.994	100.44
514.21	97.44
514.426	112.44
514.642	127.44
514.858	120.44
515.074	148.44
515.29	326.44
515.506	1006.44
515.721	381.44
515.937	122.44
516.153	96.44
516.369	91.44
516.585	92.44
516.801	83.44
517.016	86.44
