Data from Circ_1989_H10_HRD10591_00034.txt Node
Date: Wed Jan 03 12:01:28 EST 2024
User: Yrep
Spectrometer: HR+D1059
Trigger mode: 1
Integration Time (sec): 1.000000E-1
Scans to average: 1
Electric dark correction enabled: true
Nonlinearity correction enabled: false
Boxcar width: 0
XAxis mode: Wavelengths
Number of Pixels in Spectrum: 2048
>>>>>Begin Spectral Data<<<<<
223.165	-2.44
223.4	-2.44
223.635	-2.44
223.869	-15.44
224.104	-32.44
224.338	-21.44
224.573	-19.44
224.808	-11.44
225.042	-8.44
225.277	-10.44
225.511	-5.44
225.746	4.56
225.98	-0.44
226.215	15.56
226.449	32.56
226.683	19.56
226.918	21.56
227.152	33.56
227.387	34.56
227.621	43.56
227.856	52.56
228.09	36.56
228.324	45.56
228.559	50.56
228.793	52.56
229.027	70.56
229.262	62.56
229.496	69.56
229.73	75.56
229.964	71.56
230.199	77.56
230.433	66.56
230.667	76.56
230.901	79.56
231.136	76.56
231.37	78.56
231.604	78.56
231.838	78.56
232.072	86.56
232.306	78.56
232.541	89.56
232.775	79.56
233.009	85.56
233.243	91.56
233.477	69.56
233.711	101.56
233.945	67.56
234.179	85.56
234.413	92.56
234.647	76.56
234.881	66.56
235.115	88.56
235.349	91.56
235.583	68.56
235.817	80.56
236.051	69.56
236.285	77.56
236.519	77.56
236.753	75.56
236.987	75.56
237.221	100.56
237.455	92.56
237.689	77.56
237.922	79.56
238.156	86.56
238.39	79.56
238.624	67.56
238.858	75.56
239.091	69.56
239.325	65.56
239.559	84.56
239.793	84.56
240.027	86.56
240.26	75.56
240.494	69.56
240.728	73.56
240.961	76.56
241.195	79.56
241.429	71.56
241.662	75.56
241.896	67.56
242.13	80.56
242.363	81.56
242.597	67.56
242.83	65.56
243.064	77.56
243.298	84.56
243.531	68.56
243.765	76.56
243.998	75.56
244.232	76.56
244.465	67.56
244.699	75.56
244.932	84.56
245.166	64.56
245.399	85.56
245.633	83.56
245.866	88.56
246.099	87.56
246.333	71.56
246.566	70.56
246.8	78.56
247.033	83.56
247.266	81.56
247.5	72.56
247.733	82.56
247.966	92.56
248.2	76.56
248.433	70.56
248.666	85.56
248.899	77.56
249.133	93.56
249.366	90.56
249.599	81.56
249.832	87.56
250.066	92.56
250.299	75.56
250.532	90.56
250.765	75.56
250.998	71.56
251.231	75.56
251.465	91.56
251.698	92.56
251.931	85.56
252.164	76.56
252.397	91.56
252.63	63.56
252.863	87.56
253.096	87.56
253.329	81.56
253.562	87.56
253.795	86.56
254.028	81.56
254.261	77.56
254.494	92.56
254.727	82.56
254.96	76.56
255.193	68.56
255.426	69.56
255.659	68.56
255.892	84.56
256.124	92.56
256.357	98.56
256.59	78.56
256.823	86.56
257.056	73.56
257.289	87.56
257.521	84.56
257.754	92.56
257.987	83.56
258.22	94.56
258.452	78.56
258.685	86.56
258.918	76.56
259.151	65.56
259.383	70.56
259.616	77.56
259.849	69.56
260.081	88.56
260.314	72.56
260.547	91.56
260.779	92.56
261.012	84.56
261.244	76.56
261.477	84.56
261.71	93.56
261.942	88.56
262.175	105.56
262.407	88.56
262.64	93.56
262.872	87.56
263.105	83.56
263.337	89.56
263.57	87.56
263.802	86.56
264.035	84.56
264.267	82.56
264.499	69.56
264.732	71.56
264.964	85.56
265.197	84.56
265.429	74.56
265.661	91.56
265.894	86.56
266.126	75.56
266.358	81.56
266.591	79.56
266.823	90.56
267.055	77.56
267.287	91.56
267.52	92.56
267.752	82.56
267.984	83.56
268.216	79.56
268.448	92.56
268.681	83.56
268.913	92.56
269.145	81.56
269.377	83.56
269.609	90.56
269.841	73.56
270.073	71.56
270.306	79.56
270.538	91.56
270.77	82.56
271.002	85.56
271.234	85.56
271.466	80.56
271.698	67.56
271.93	81.56
272.162	83.56
272.394	91.56
272.626	79.56
272.858	76.56
273.09	72.56
273.322	78.56
273.553	93.56
273.785	81.56
274.017	85.56
274.249	91.56
274.481	82.56
274.713	79.56
274.945	79.56
275.176	76.56
275.408	75.56
275.64	83.56
275.872	84.56
276.104	87.56
276.335	95.56
276.567	92.56
276.799	89.56
277.031	90.56
277.262	96.56
277.494	95.56
277.726	71.56
277.957	85.56
278.189	96.56
278.421	90.56
278.652	98.56
278.884	93.56
279.115	76.56
279.347	90.56
279.579	100.56
279.81	99.56
280.042	100.56
280.273	105.56
280.505	103.56
280.736	76.56
280.968	81.56
281.199	87.56
281.431	93.56
281.662	85.56
281.894	97.56
282.125	90.56
282.356	103.56
282.588	120.56
282.819	99.56
283.051	83.56
283.282	88.56
283.513	87.56
283.745	87.56
283.976	80.56
284.207	91.56
284.439	89.56
284.67	103.56
284.901	76.56
285.132	88.56
285.364	86.56
285.595	103.56
285.826	71.56
286.057	82.56
286.288	99.56
286.52	72.56
286.751	95.56
286.982	85.56
287.213	88.56
287.444	81.56
287.675	86.56
287.906	92.56
288.138	83.56
288.369	86.56
288.6	96.56
288.831	94.56
289.062	82.56
289.293	73.56
289.524	81.56
289.755	86.56
289.986	83.56
290.217	95.56
290.448	81.56
290.679	89.56
290.91	96.56
291.141	76.56
291.371	85.56
291.602	92.56
291.833	82.56
292.064	71.56
292.295	92.56
292.526	95.56
292.757	96.56
292.987	96.56
293.218	83.56
293.449	81.56
293.68	98.56
293.91	93.56
294.141	82.56
294.372	82.56
294.603	95.56
294.833	95.56
295.064	86.56
295.295	84.56
295.525	87.56
295.756	106.56
295.987	105.56
296.217	130.56
296.448	113.56
296.679	92.56
296.909	91.56
297.14	94.56
297.37	100.56
297.601	101.56
297.831	91.56
298.062	85.56
298.292	92.56
298.523	85.56
298.753	92.56
298.984	80.56
299.214	84.56
299.445	94.56
299.675	76.56
299.905	91.56
300.136	89.56
300.366	87.56
300.597	90.56
300.827	72.56
301.057	91.56
301.288	103.56
301.518	90.56
301.748	84.56
301.979	110.56
302.209	98.56
302.439	101.56
302.669	89.56
302.9	83.56
303.13	89.56
303.36	98.56
303.59	102.56
303.82	91.56
304.051	92.56
304.281	99.56
304.511	85.56
304.741	86.56
304.971	98.56
305.201	88.56
305.431	98.56
305.661	89.56
305.891	91.56
306.121	84.56
306.352	99.56
306.582	112.56
306.812	93.56
307.042	109.56
307.272	115.56
307.502	121.56
307.731	111.56
307.961	91.56
308.191	84.56
308.421	89.56
308.651	95.56
308.881	79.56
309.111	92.56
309.341	94.56
309.571	76.56
309.8	89.56
310.03	100.56
310.26	91.56
310.49	95.56
310.72	89.56
310.949	100.56
311.179	99.56
311.409	92.56
311.639	103.56
311.868	105.56
312.098	89.56
312.328	79.56
312.557	96.56
312.787	104.56
313.017	101.56
313.246	92.56
313.476	91.56
313.706	87.56
313.935	88.56
314.165	88.56
314.394	101.56
314.624	97.56
314.853	77.56
315.083	84.56
315.312	99.56
315.542	83.56
315.771	94.56
316.001	98.56
316.23	91.56
316.46	85.56
316.689	88.56
316.919	91.56
317.148	86.56
317.377	80.56
317.607	92.56
317.836	79.56
318.065	84.56
318.295	95.56
318.524	103.56
318.753	98.56
318.983	106.56
319.212	94.56
319.441	108.56
319.67	92.56
319.9	91.56
320.129	104.56
320.358	91.56
320.587	92.56
320.816	98.56
321.046	84.56
321.275	86.56
321.504	87.56
321.733	95.56
321.962	96.56
322.191	87.56
322.42	91.56
322.649	96.56
322.878	112.56
323.108	109.56
323.337	109.56
323.566	113.56
323.795	116.56
324.024	171.56
324.253	300.56
324.482	615.56
324.71	1207.56
324.939	1561.56
325.168	613.56
325.397	192.56
325.626	136.56
325.855	133.56
326.084	111.56
326.313	109.56
326.542	141.56
326.77	198.56
326.999	356.56
327.228	700.56
327.457	1237.56
327.686	1010.56
327.914	319.56
328.143	217.56
328.372	246.56
328.6	168.56
328.829	119.56
329.058	100.56
329.287	116.56
329.515	122.56
329.744	142.56
329.972	181.56
330.201	301.56
330.43	397.56
330.658	223.56
330.887	153.56
331.115	125.56
331.344	123.56
331.572	110.56
331.801	101.56
332.03	100.56
332.258	86.56
332.486	98.56
332.715	105.56
332.943	97.56
333.172	97.56
333.4	97.56
333.629	110.56
333.857	126.56
334.085	185.56
334.314	310.56
334.542	510.56
334.771	479.56
334.999	182.56
335.227	117.56
335.455	105.56
335.684	103.56
335.912	89.56
336.14	97.56
336.369	94.56
336.597	101.56
336.825	91.56
337.053	100.56
337.281	87.56
337.51	93.56
337.738	104.56
337.966	104.56
338.194	89.56
338.422	91.56
338.65	91.56
338.878	84.56
339.106	79.56
339.334	82.56
339.562	94.56
339.79	92.56
340.018	80.56
340.246	97.56
340.474	77.56
340.702	96.56
340.93	90.56
341.158	85.56
341.386	90.56
341.614	98.56
341.842	87.56
342.07	88.56
342.298	76.56
342.526	84.56
342.754	91.56
342.981	99.56
343.209	79.56
343.437	92.56
343.665	95.56
343.893	87.56
344.12	88.56
344.348	84.56
344.576	84.56
344.804	89.56
345.031	91.56
345.259	104.56
345.487	79.56
345.714	94.56
345.942	101.56
346.17	101.56
346.397	94.56
346.625	97.56
346.853	97.56
347.08	94.56
347.308	81.56
347.535	92.56
347.763	87.56
347.99	94.56
348.218	123.56
348.445	92.56
348.673	100.56
348.9	100.56
349.128	93.56
349.355	105.56
349.583	93.56
349.81	87.56
350.037	100.56
350.265	87.56
350.492	97.56
350.72	109.56
350.947	112.56
351.174	95.56
351.402	95.56
351.629	94.56
351.856	88.56
352.083	97.56
352.311	95.56
352.538	99.56
352.765	92.56
352.992	119.56
353.22	93.56
353.447	104.56
353.674	103.56
353.901	94.56
354.128	95.56
354.355	91.56
354.583	91.56
354.81	92.56
355.037	85.56
355.264	84.56
355.491	81.56
355.718	96.56
355.945	91.56
356.172	102.56
356.399	96.56
356.626	102.56
356.853	109.56
357.08	99.56
357.307	76.56
357.534	91.56
357.761	89.56
357.988	98.56
358.215	102.56
358.441	89.56
358.668	84.56
358.895	95.56
359.122	78.56
359.349	83.56
359.576	97.56
359.802	97.56
360.029	108.56
360.256	104.56
360.483	109.56
360.709	83.56
360.936	93.56
361.163	97.56
361.39	92.56
361.616	93.56
361.843	81.56
362.07	83.56
362.296	98.56
362.523	79.56
362.749	93.56
362.976	96.56
363.203	79.56
363.429	87.56
363.656	76.56
363.882	92.56
364.109	101.56
364.335	85.56
364.562	88.56
364.788	84.56
365.015	106.56
365.241	104.56
365.468	99.56
365.694	102.56
365.92	90.56
366.147	81.56
366.373	71.56
366.599	88.56
366.826	95.56
367.052	92.56
367.278	93.56
367.505	81.56
367.731	77.56
367.957	81.56
368.184	85.56
368.41	111.56
368.636	106.56
368.862	91.56
369.089	91.56
369.315	102.56
369.541	95.56
369.767	91.56
369.993	78.56
370.219	86.56
370.445	88.56
370.672	97.56
370.898	93.56
371.124	91.56
371.35	89.56
371.576	97.56
371.802	102.56
372.028	85.56
372.254	88.56
372.48	91.56
372.706	86.56
372.932	93.56
373.158	96.56
373.384	90.56
373.61	92.56
373.835	93.56
374.061	99.56
374.287	75.56
374.513	89.56
374.739	83.56
374.965	83.56
375.191	85.56
375.416	84.56
375.642	92.56
375.868	69.56
376.094	93.56
376.319	76.56
376.545	82.56
376.771	99.56
376.997	95.56
377.222	79.56
377.448	77.56
377.674	78.56
377.899	89.56
378.125	87.56
378.35	97.56
378.576	82.56
378.802	92.56
379.027	95.56
379.253	95.56
379.478	100.56
379.704	91.56
379.929	84.56
380.155	92.56
380.38	93.56
380.606	97.56
380.831	81.56
381.057	104.56
381.282	82.56
381.507	92.56
381.733	88.56
381.958	94.56
382.184	96.56
382.409	106.56
382.634	96.56
382.86	80.56
383.085	103.56
383.31	91.56
383.535	83.56
383.761	108.56
383.986	80.56
384.211	94.56
384.436	103.56
384.662	100.56
384.887	104.56
385.112	111.56
385.337	102.56
385.562	104.56
385.787	97.56
386.013	99.56
386.238	108.56
386.463	103.56
386.688	116.56
386.913	102.56
387.138	94.56
387.363	104.56
387.588	102.56
387.813	93.56
388.038	103.56
388.263	113.56
388.488	107.56
388.713	107.56
388.938	94.56
389.163	85.56
389.387	94.56
389.612	89.56
389.837	88.56
390.062	103.56
390.287	102.56
390.512	96.56
390.736	79.56
390.961	88.56
391.186	96.56
391.411	86.56
391.636	96.56
391.86	101.56
392.085	95.56
392.31	89.56
392.534	83.56
392.759	93.56
392.984	71.56
393.208	66.56
393.433	93.56
393.658	104.56
393.882	76.56
394.107	72.56
394.331	78.56
394.556	108.56
394.78	93.56
395.005	85.56
395.229	103.56
395.454	92.56
395.678	87.56
395.903	100.56
396.127	103.56
396.352	81.56
396.576	93.56
396.801	89.56
397.025	94.56
397.249	93.56
397.474	75.56
397.698	70.56
397.922	93.56
398.147	73.56
398.371	80.56
398.595	88.56
398.82	84.56
399.044	74.56
399.268	82.56
399.492	91.56
399.717	81.56
399.941	96.56
400.165	86.56
400.389	87.56
400.613	76.56
400.837	85.56
401.062	76.56
401.286	95.56
401.51	87.56
401.734	67.56
401.958	69.56
402.182	129.56
402.406	126.56
402.63	108.56
402.854	99.56
403.078	81.56
403.302	95.56
403.526	96.56
403.75	87.56
403.974	79.56
404.198	76.56
404.422	67.56
404.645	93.56
404.869	100.56
405.093	103.56
405.317	104.56
405.541	81.56
405.765	86.56
405.988	94.56
406.212	141.56
406.436	181.56
406.66	114.56
406.883	89.56
407.107	88.56
407.331	85.56
407.555	91.56
407.778	101.56
408.002	82.56
408.226	92.56
408.449	74.56
408.673	83.56
408.896	96.56
409.12	83.56
409.344	82.56
409.567	99.56
409.791	88.56
410.014	76.56
410.238	80.56
410.461	94.56
410.685	77.56
410.908	77.56
411.132	89.56
411.355	102.56
411.578	91.56
411.802	86.56
412.025	77.56
412.249	95.56
412.472	90.56
412.695	98.56
412.919	79.56
413.142	93.56
413.365	74.56
413.589	93.56
413.812	86.56
414.035	95.56
414.258	84.56
414.482	100.56
414.705	97.56
414.928	85.56
415.151	86.56
415.374	93.56
415.597	100.56
415.821	86.56
416.044	96.56
416.267	87.56
416.49	94.56
416.713	87.56
416.936	88.56
417.159	79.56
417.382	93.56
417.605	91.56
417.828	85.56
418.051	80.56
418.274	93.56
418.497	89.56
418.72	88.56
418.943	106.56
419.166	95.56
419.389	85.56
419.611	82.56
419.834	80.56
420.057	90.56
420.28	92.56
420.503	101.56
420.726	86.56
420.948	81.56
421.171	103.56
421.394	91.56
421.617	83.56
421.839	90.56
422.062	93.56
422.285	85.56
422.507	108.56
422.73	91.56
422.953	94.56
423.175	91.56
423.398	85.56
423.621	83.56
423.843	102.56
424.066	76.56
424.288	77.56
424.511	89.56
424.733	85.56
424.956	79.56
425.178	88.56
425.401	83.56
425.623	77.56
425.846	75.56
426.068	92.56
426.291	84.56
426.513	100.56
426.735	76.56
426.958	79.56
427.18	97.56
427.402	116.56
427.625	129.56
427.847	131.56
428.069	126.56
428.292	95.56
428.514	87.56
428.736	79.56
428.958	78.56
429.181	88.56
429.403	80.56
429.625	86.56
429.847	93.56
430.069	83.56
430.292	91.56
430.514	85.56
430.736	80.56
430.958	78.56
431.18	81.56
431.402	86.56
431.624	93.56
431.846	69.56
432.068	98.56
432.29	91.56
432.512	80.56
432.734	68.56
432.956	81.56
433.178	87.56
433.4	95.56
433.622	92.56
433.844	92.56
434.066	107.56
434.287	80.56
434.509	85.56
434.731	81.56
434.953	77.56
435.175	95.56
435.397	82.56
435.618	86.56
435.84	100.56
436.062	106.56
436.284	111.56
436.505	84.56
436.727	92.56
436.949	96.56
437.17	83.56
437.392	80.56
437.614	79.56
437.835	87.56
438.057	114.56
438.278	95.56
438.5	83.56
438.721	99.56
438.943	88.56
439.165	84.56
439.386	85.56
439.608	79.56
439.829	103.56
440.05	120.56
440.272	128.56
440.493	91.56
440.715	102.56
440.936	72.56
441.158	89.56
441.379	95.56
441.6	88.56
441.822	88.56
442.043	81.56
442.264	88.56
442.486	88.56
442.707	84.56
442.928	99.56
443.149	94.56
443.371	123.56
443.592	95.56
443.813	96.56
444.034	88.56
444.255	93.56
444.476	69.56
444.698	78.56
444.919	79.56
445.14	128.56
445.361	116.56
445.582	104.56
445.803	104.56
446.024	103.56
446.245	106.56
446.466	90.56
446.687	104.56
446.908	97.56
447.129	78.56
447.35	90.56
447.571	86.56
447.792	78.56
448.013	89.56
448.234	94.56
448.455	93.56
448.675	105.56
448.896	115.56
449.117	100.56
449.338	94.56
449.559	114.56
449.779	103.56
450	83.56
450.221	83.56
450.442	77.56
450.662	80.56
450.883	91.56
451.104	102.56
451.324	82.56
451.545	101.56
451.766	79.56
451.986	78.56
452.207	74.56
452.428	87.56
452.648	76.56
452.869	107.56
453.089	109.56
453.31	98.56
453.53	80.56
453.751	84.56
453.971	94.56
454.192	101.56
454.412	91.56
454.633	85.56
454.853	91.56
455.073	85.56
455.294	96.56
455.514	89.56
455.734	92.56
455.955	89.56
456.175	95.56
456.395	70.56
456.616	88.56
456.836	79.56
457.056	83.56
457.276	85.56
457.497	87.56
457.717	89.56
457.937	79.56
458.157	82.56
458.377	97.56
458.598	93.56
458.818	135.56
459.038	163.56
459.258	101.56
459.478	74.56
459.698	90.56
459.918	88.56
460.138	77.56
460.358	84.56
460.578	97.56
460.798	100.56
461.018	74.56
461.238	77.56
461.458	86.56
461.678	87.56
461.898	91.56
462.118	84.56
462.338	79.56
462.558	96.56
462.777	78.56
462.997	85.56
463.217	83.56
463.437	84.56
463.657	86.56
463.876	86.56
464.096	88.56
464.316	83.56
464.536	89.56
464.755	96.56
464.975	105.56
465.195	132.56
465.414	123.56
465.634	93.56
465.854	75.56
466.073	89.56
466.293	93.56
466.512	75.56
466.732	92.56
466.951	91.56
467.171	90.56
467.391	91.56
467.61	85.56
467.829	118.56
468.049	203.56
468.268	289.56
468.488	120.56
468.707	88.56
468.927	86.56
469.146	91.56
469.365	90.56
469.585	96.56
469.804	94.56
470.023	91.56
470.243	88.56
470.462	115.56
470.681	102.56
470.901	85.56
471.12	96.56
471.339	85.56
471.558	94.56
471.777	102.56
471.997	131.56
472.216	380.56
472.435	732.56
472.654	220.56
472.873	95.56
473.092	96.56
473.311	93.56
473.53	75.56
473.749	90.56
473.968	89.56
474.187	98.56
474.406	100.56
474.625	86.56
474.844	88.56
475.063	77.56
475.282	95.56
475.501	87.56
475.72	78.56
475.939	96.56
476.158	76.56
476.377	72.56
476.596	77.56
476.814	83.56
477.033	85.56
477.252	85.56
477.471	83.56
477.69	86.56
477.908	79.56
478.127	93.56
478.346	100.56
478.564	88.56
478.783	96.56
479.002	77.56
479.22	95.56
479.439	85.56
479.658	99.56
479.876	82.56
480.095	93.56
480.313	119.56
480.532	100.56
480.751	155.56
480.969	369.56
481.188	1278.56
481.406	740.56
481.624	157.56
481.843	104.56
482.061	84.56
482.28	92.56
482.498	97.56
482.717	85.56
482.935	101.56
483.153	95.56
483.372	87.56
483.59	86.56
483.808	93.56
484.027	90.56
484.245	78.56
484.463	93.56
484.681	83.56
484.9	96.56
485.118	81.56
485.336	97.56
485.554	102.56
485.772	103.56
485.99	106.56
486.209	101.56
486.427	93.56
486.645	94.56
486.863	115.56
487.081	101.56
487.299	95.56
487.517	92.56
487.735	87.56
487.953	95.56
488.171	82.56
488.389	94.56
488.607	100.56
488.825	64.56
489.043	79.56
489.261	100.56
489.479	71.56
489.696	96.56
489.914	88.56
490.132	85.56
490.35	90.56
490.568	85.56
490.786	95.56
491.003	85.56
491.221	73.56
491.439	93.56
491.657	81.56
491.874	84.56
492.092	84.56
492.31	97.56
492.527	81.56
492.745	86.56
492.963	84.56
493.18	84.56
493.398	92.56
493.615	89.56
493.833	96.56
494.05	90.56
494.268	88.56
494.485	82.56
494.703	106.56
494.92	76.56
495.138	99.56
495.355	93.56
495.573	95.56
495.79	81.56
496.008	97.56
496.225	94.56
496.442	87.56
496.66	97.56
496.877	100.56
497.094	98.56
497.312	104.56
497.529	96.56
497.746	94.56
497.963	105.56
498.181	80.56
498.398	112.56
498.615	97.56
498.832	79.56
499.049	84.56
499.267	89.56
499.484	91.56
499.701	90.56
499.918	89.56
500.135	92.56
500.352	92.56
500.569	100.56
500.786	88.56
501.003	66.56
501.22	76.56
501.437	88.56
501.654	98.56
501.871	96.56
502.088	97.56
502.305	85.56
502.522	85.56
502.739	89.56
502.956	96.56
503.172	83.56
503.389	101.56
503.606	95.56
503.823	81.56
504.04	85.56
504.256	79.56
504.473	92.56
504.69	101.56
504.907	71.56
505.123	95.56
505.34	83.56
505.557	83.56
505.773	105.56
505.99	91.56
506.207	80.56
506.423	92.56
506.64	90.56
506.856	80.56
507.073	93.56
507.289	84.56
507.506	89.56
507.722	92.56
507.939	108.56
508.155	96.56
508.372	72.56
508.588	84.56
508.805	91.56
509.021	87.56
509.238	101.56
509.454	88.56
509.67	102.56
509.887	113.56
510.103	118.56
510.319	183.56
510.536	553.56
510.752	1662.56
510.968	493.56
511.184	134.56
511.401	101.56
511.617	102.56
511.833	93.56
512.049	99.56
512.265	95.56
512.481	76.56
512.698	99.56
512.914	89.56
513.13	80.56
513.346	87.56
513.562	97.56
513.778	96.56
513.994	95.56
514.21	102.56
514.426	103.56
514.642	122.56
514.858	108.56
515.074	123.56
515.29	315.56
515.506	1041.56
515.721	395.56
515.937	121.56
516.153	97.56
516.369	82.56
