Data from BG_HRD10591_095.txt Node
Date: Fri May 16 15:15:10 EDT 2025
User: Yrep
Spectrometer: HR+D1059
Trigger mode: 1
Integration Time (sec): 1.000000E-1
Scans to average: 1
Electric dark correction enabled: true
Nonlinearity correction enabled: false
Boxcar width: 0
XAxis mode: Wavelengths
Number of Pixels in Spectrum: 2048
>>>>>Begin Spectral Data<<<<<
223.165	-25.12
223.4	-25.12
223.635	-25.12
223.869	-20.12
224.104	-24.12
224.338	-19.12
224.573	-14.12
224.808	-14.12
225.042	-4.12
225.277	-1.12
225.511	1.88
225.746	7.88
225.98	18.88
226.215	5.88
226.449	25.88
226.683	16.88
226.918	10.88
227.152	33.88
227.387	28.88
227.621	43.88
227.856	47.88
228.09	40.88
228.324	46.88
228.559	58.88
228.793	56.88
229.027	54.88
229.262	63.88
229.496	67.88
229.73	49.88
229.964	55.88
230.199	74.88
230.433	72.88
230.667	72.88
230.901	75.88
231.136	72.88
231.37	81.88
231.604	84.88
231.838	76.88
232.072	83.88
232.306	86.88
232.541	90.88
232.775	74.88
233.009	75.88
233.243	81.88
233.477	77.88
233.711	62.88
233.945	57.88
234.179	65.88
234.413	71.88
234.647	88.88
234.881	74.88
235.115	84.88
235.349	87.88
235.583	89.88
235.817	76.88
236.051	65.88
236.285	80.88
236.519	78.88
236.753	76.88
236.987	79.88
237.221	74.88
237.455	83.88
237.689	77.88
237.922	66.88
238.156	79.88
238.39	70.88
238.624	72.88
238.858	97.88
239.091	87.88
239.325	71.88
239.559	63.88
239.793	75.88
240.027	75.88
240.26	61.88
240.494	73.88
240.728	69.88
240.961	88.88
241.195	84.88
241.429	86.88
241.662	72.88
241.896	73.88
242.13	75.88
242.363	71.88
242.597	82.88
242.83	71.88
243.064	85.88
243.298	78.88
243.531	74.88
243.765	78.88
243.998	72.88
244.232	77.88
244.465	70.88
244.699	78.88
244.932	82.88
245.166	69.88
245.399	73.88
245.633	86.88
245.866	79.88
246.099	76.88
246.333	94.88
246.566	68.88
246.8	75.88
247.033	71.88
247.266	61.88
247.5	77.88
247.733	71.88
247.966	84.88
248.2	79.88
248.433	73.88
248.666	75.88
248.899	78.88
249.133	81.88
249.366	85.88
249.599	65.88
249.832	78.88
250.066	90.88
250.299	81.88
250.532	70.88
250.765	68.88
250.998	86.88
251.231	77.88
251.465	73.88
251.698	75.88
251.931	86.88
252.164	83.88
252.397	84.88
252.63	85.88
252.863	69.88
253.096	86.88
253.329	87.88
253.562	85.88
253.795	81.88
254.028	89.88
254.261	78.88
254.494	71.88
254.727	75.88
254.96	82.88
255.193	84.88
255.426	82.88
255.659	75.88
255.892	93.88
256.124	75.88
256.357	77.88
256.59	79.88
256.823	88.88
257.056	72.88
257.289	77.88
257.521	84.88
257.754	70.88
257.987	83.88
258.22	78.88
258.452	85.88
258.685	79.88
258.918	73.88
259.151	64.88
259.383	82.88
259.616	82.88
259.849	72.88
260.081	79.88
260.314	79.88
260.547	76.88
260.779	87.88
261.012	82.88
261.244	87.88
261.477	78.88
261.71	78.88
261.942	82.88
262.175	71.88
262.407	66.88
262.64	89.88
262.872	81.88
263.105	92.88
263.337	86.88
263.57	80.88
263.802	74.88
264.035	64.88
264.267	81.88
264.499	77.88
264.732	74.88
264.964	58.88
265.197	80.88
265.429	69.88
265.661	82.88
265.894	75.88
266.126	104.88
266.358	77.88
266.591	75.88
266.823	82.88
267.055	81.88
267.287	66.88
267.52	55.88
267.752	97.88
267.984	82.88
268.216	86.88
268.448	78.88
268.681	95.88
268.913	89.88
269.145	74.88
269.377	85.88
269.609	84.88
269.841	84.88
270.073	111.88
270.306	83.88
270.538	91.88
270.77	89.88
271.002	88.88
271.234	78.88
271.466	83.88
271.698	91.88
271.93	86.88
272.162	62.88
272.394	91.88
272.626	90.88
272.858	82.88
273.09	80.88
273.322	85.88
273.553	74.88
273.785	74.88
274.017	84.88
274.249	85.88
274.481	86.88
274.713	78.88
274.945	93.88
275.176	77.88
275.408	88.88
275.64	78.88
275.872	69.88
276.104	70.88
276.335	67.88
276.567	82.88
276.799	78.88
277.031	91.88
277.262	87.88
277.494	63.88
277.726	66.88
277.957	88.88
278.189	83.88
278.421	88.88
278.652	98.88
278.884	81.88
279.115	92.88
279.347	92.88
279.579	88.88
279.81	77.88
280.042	80.88
280.273	77.88
280.505	81.88
280.736	90.88
280.968	87.88
281.199	88.88
281.431	84.88
281.662	75.88
281.894	76.88
282.125	80.88
282.356	89.88
282.588	89.88
282.819	83.88
283.051	77.88
283.282	85.88
283.513	91.88
283.745	92.88
283.976	77.88
284.207	70.88
284.439	86.88
284.67	93.88
284.901	94.88
285.132	93.88
285.364	79.88
285.595	84.88
285.826	79.88
286.057	92.88
286.288	94.88
286.52	87.88
286.751	89.88
286.982	81.88
287.213	76.88
287.444	77.88
287.675	76.88
287.906	77.88
288.138	77.88
288.369	82.88
288.6	97.88
288.831	85.88
289.062	84.88
289.293	84.88
289.524	94.88
289.755	90.88
289.986	75.88
290.217	73.88
290.448	86.88
290.679	81.88
290.91	73.88
291.141	78.88
291.371	88.88
291.602	67.88
291.833	84.88
292.064	84.88
292.295	84.88
292.526	82.88
292.757	75.88
292.987	97.88
293.218	92.88
293.449	85.88
293.68	92.88
293.91	80.88
294.141	82.88
294.372	76.88
294.603	81.88
294.833	77.88
295.064	93.88
295.295	89.88
295.525	108.88
295.756	93.88
295.987	94.88
296.217	83.88
296.448	86.88
296.679	88.88
296.909	66.88
297.14	97.88
297.37	79.88
297.601	85.88
297.831	69.88
298.062	82.88
298.292	83.88
298.523	75.88
298.753	84.88
298.984	81.88
299.214	75.88
299.445	87.88
299.675	71.88
299.905	71.88
300.136	88.88
300.366	87.88
300.597	89.88
300.827	94.88
301.057	83.88
301.288	85.88
301.518	85.88
301.748	90.88
301.979	100.88
302.209	90.88
302.439	101.88
302.669	84.88
302.9	82.88
303.13	85.88
303.36	71.88
303.59	82.88
303.82	74.88
304.051	72.88
304.281	80.88
304.511	84.88
304.741	96.88
304.971	73.88
305.201	73.88
305.431	73.88
305.661	79.88
305.891	85.88
306.121	86.88
306.352	86.88
306.582	91.88
306.812	79.88
307.042	74.88
307.272	84.88
307.502	82.88
307.731	82.88
307.961	80.88
308.191	104.88
308.421	87.88
308.651	70.88
308.881	81.88
309.111	84.88
309.341	88.88
309.571	85.88
309.8	87.88
310.03	87.88
310.26	75.88
310.49	89.88
310.72	81.88
310.949	83.88
311.179	91.88
311.409	87.88
311.639	81.88
311.868	77.88
312.098	84.88
312.328	85.88
312.557	90.88
312.787	70.88
313.017	82.88
313.246	89.88
313.476	81.88
313.706	84.88
313.935	77.88
314.165	66.88
314.394	77.88
314.624	85.88
314.853	90.88
315.083	87.88
315.312	87.88
315.542	95.88
315.771	81.88
316.001	75.88
316.23	78.88
316.46	69.88
316.689	71.88
316.919	98.88
317.148	95.88
317.377	82.88
317.607	81.88
317.836	84.88
318.065	97.88
318.295	87.88
318.524	86.88
318.753	97.88
318.983	89.88
319.212	90.88
319.441	88.88
319.67	86.88
319.9	84.88
320.129	84.88
320.358	82.88
320.587	97.88
320.816	71.88
321.046	85.88
321.275	85.88
321.504	77.88
321.733	101.88
321.962	77.88
322.191	86.88
322.42	73.88
322.649	87.88
322.878	78.88
323.108	76.88
323.337	82.88
323.566	80.88
323.795	85.88
324.024	95.88
324.253	85.88
324.482	77.88
324.71	85.88
324.939	87.88
325.168	82.88
325.397	89.88
325.626	92.88
325.855	85.88
326.084	92.88
326.313	75.88
326.542	84.88
326.77	84.88
326.999	76.88
327.228	80.88
327.457	78.88
327.686	97.88
327.914	106.88
328.143	89.88
328.372	76.88
328.6	81.88
328.829	75.88
329.058	84.88
329.287	80.88
329.515	89.88
329.744	81.88
329.972	90.88
330.201	97.88
330.43	82.88
330.658	81.88
330.887	90.88
331.115	84.88
331.344	72.88
331.572	75.88
331.801	85.88
332.03	94.88
332.258	90.88
332.486	77.88
332.715	88.88
332.943	74.88
333.172	101.88
333.4	83.88
333.629	102.88
333.857	99.88
334.085	77.88
334.314	86.88
334.542	88.88
334.771	89.88
334.999	77.88
335.227	88.88
335.455	94.88
335.684	88.88
335.912	91.88
336.14	81.88
336.369	86.88
336.597	78.88
336.825	99.88
337.053	87.88
337.281	79.88
337.51	81.88
337.738	93.88
337.966	81.88
338.194	82.88
338.422	83.88
338.65	99.88
338.878	89.88
339.106	93.88
339.334	94.88
339.562	86.88
339.79	86.88
340.018	94.88
340.246	78.88
340.474	90.88
340.702	86.88
340.93	80.88
341.158	88.88
341.386	75.88
341.614	82.88
341.842	87.88
342.07	76.88
342.298	90.88
342.526	92.88
342.754	82.88
342.981	85.88
343.209	85.88
343.437	95.88
343.665	101.88
343.893	97.88
344.12	82.88
344.348	84.88
344.576	82.88
344.804	88.88
345.031	102.88
345.259	73.88
345.487	93.88
345.714	90.88
345.942	92.88
346.17	101.88
346.397	78.88
346.625	90.88
346.853	74.88
347.08	93.88
347.308	67.88
347.535	77.88
347.763	89.88
347.99	73.88
348.218	79.88
348.445	86.88
348.673	95.88
348.9	88.88
349.128	74.88
349.355	82.88
349.583	78.88
349.81	87.88
350.037	87.88
350.265	103.88
350.492	82.88
350.72	82.88
350.947	76.88
351.174	83.88
351.402	90.88
351.629	93.88
351.856	95.88
352.083	103.88
352.311	79.88
352.538	76.88
352.765	77.88
352.992	74.88
353.22	90.88
353.447	84.88
353.674	88.88
353.901	84.88
354.128	68.88
354.355	82.88
354.583	95.88
354.81	90.88
355.037	82.88
355.264	89.88
355.491	66.88
355.718	76.88
355.945	88.88
356.172	85.88
356.399	82.88
356.626	79.88
356.853	83.88
357.08	87.88
357.307	93.88
357.534	75.88
357.761	87.88
357.988	81.88
358.215	79.88
358.441	75.88
358.668	77.88
358.895	86.88
359.122	83.88
359.349	84.88
359.576	81.88
359.802	90.88
360.029	93.88
360.256	90.88
360.483	85.88
360.709	73.88
360.936	86.88
361.163	71.88
361.39	88.88
361.616	71.88
361.843	90.88
362.07	79.88
362.296	71.88
362.523	88.88
362.749	95.88
362.976	90.88
363.203	89.88
363.429	78.88
363.656	88.88
363.882	67.88
364.109	90.88
364.335	79.88
364.562	85.88
364.788	73.88
365.015	78.88
365.241	97.88
365.468	86.88
365.694	81.88
365.92	84.88
366.147	82.88
366.373	80.88
366.599	83.88
366.826	88.88
367.052	74.88
367.278	91.88
367.505	89.88
367.731	85.88
367.957	86.88
368.184	91.88
368.41	75.88
368.636	81.88
368.862	93.88
369.089	95.88
369.315	70.88
369.541	89.88
369.767	99.88
369.993	73.88
370.219	76.88
370.445	93.88
370.672	76.88
370.898	82.88
371.124	103.88
371.35	81.88
371.576	106.88
371.802	86.88
372.028	92.88
372.254	80.88
372.48	84.88
372.706	75.88
372.932	77.88
373.158	85.88
373.384	90.88
373.61	78.88
373.835	95.88
374.061	88.88
374.287	85.88
374.513	80.88
374.739	99.88
374.965	82.88
375.191	86.88
375.416	93.88
375.642	98.88
375.868	94.88
376.094	85.88
376.319	76.88
376.545	89.88
376.771	83.88
376.997	70.88
377.222	81.88
377.448	81.88
377.674	88.88
377.899	84.88
378.125	76.88
378.35	77.88
378.576	74.88
378.802	79.88
379.027	102.88
379.253	81.88
379.478	83.88
379.704	88.88
379.929	85.88
380.155	81.88
380.38	80.88
380.606	89.88
380.831	91.88
381.057	72.88
381.282	84.88
381.507	82.88
381.733	81.88
381.958	87.88
382.184	86.88
382.409	75.88
382.634	87.88
382.86	93.88
383.085	90.88
383.31	84.88
383.535	97.88
383.761	93.88
383.986	94.88
384.211	92.88
384.436	90.88
384.662	90.88
384.887	67.88
385.112	92.88
385.337	84.88
385.562	86.88
385.787	77.88
386.013	94.88
386.238	100.88
386.463	84.88
386.688	98.88
386.913	99.88
387.138	92.88
387.363	81.88
387.588	83.88
387.813	77.88
388.038	70.88
388.263	97.88
388.488	84.88
388.713	89.88
388.938	99.88
389.163	77.88
389.387	99.88
389.612	74.88
389.837	95.88
390.062	90.88
390.287	87.88
390.512	73.88
390.736	90.88
390.961	92.88
391.186	71.88
391.411	92.88
391.636	87.88
391.86	78.88
392.085	90.88
392.31	74.88
392.534	84.88
392.759	81.88
392.984	83.88
393.208	69.88
393.433	86.88
393.658	70.88
393.882	85.88
394.107	87.88
394.331	94.88
394.556	81.88
394.78	84.88
395.005	78.88
395.229	102.88
395.454	90.88
395.678	94.88
395.903	71.88
396.127	76.88
396.352	82.88
396.576	78.88
396.801	69.88
397.025	94.88
397.249	85.88
397.474	94.88
397.698	89.88
397.922	76.88
398.147	83.88
398.371	87.88
398.595	84.88
398.82	88.88
399.044	94.88
399.268	88.88
399.492	78.88
399.717	107.88
399.941	97.88
400.165	91.88
400.389	105.88
400.613	85.88
400.837	100.88
401.062	103.88
401.286	99.88
401.51	76.88
401.734	79.88
401.958	94.88
402.182	88.88
402.406	79.88
402.63	90.88
402.854	73.88
403.078	80.88
403.302	72.88
403.526	78.88
403.75	97.88
403.974	85.88
404.198	79.88
404.422	92.88
404.645	92.88
404.869	76.88
405.093	87.88
405.317	89.88
405.541	79.88
405.765	98.88
405.988	83.88
406.212	83.88
406.436	102.88
406.66	86.88
406.883	88.88
407.107	90.88
407.331	85.88
407.555	89.88
407.778	94.88
408.002	92.88
408.226	89.88
408.449	94.88
408.673	87.88
408.896	81.88
409.12	94.88
409.344	95.88
409.567	85.88
409.791	83.88
410.014	73.88
410.238	92.88
410.461	100.88
410.685	86.88
410.908	78.88
411.132	83.88
411.355	82.88
411.578	104.88
411.802	77.88
412.025	103.88
412.249	85.88
412.472	72.88
412.695	76.88
412.919	86.88
413.142	85.88
413.365	82.88
413.589	94.88
413.812	103.88
414.035	75.88
414.258	84.88
414.482	83.88
414.705	85.88
414.928	83.88
415.151	93.88
415.374	95.88
415.597	91.88
415.821	82.88
416.044	99.88
416.267	93.88
416.49	83.88
416.713	89.88
416.936	76.88
417.159	93.88
417.382	79.88
417.605	76.88
417.828	88.88
418.051	97.88
418.274	76.88
418.497	101.88
418.72	83.88
418.943	75.88
419.166	97.88
419.389	83.88
419.611	84.88
419.834	93.88
420.057	82.88
420.28	79.88
420.503	94.88
420.726	81.88
420.948	87.88
421.171	81.88
421.394	77.88
421.617	87.88
421.839	82.88
422.062	79.88
422.285	77.88
422.507	94.88
422.73	94.88
422.953	77.88
423.175	91.88
423.398	86.88
423.621	90.88
423.843	73.88
424.066	87.88
424.288	83.88
424.511	87.88
424.733	90.88
424.956	93.88
425.178	97.88
425.401	73.88
425.623	71.88
425.846	86.88
426.068	91.88
426.291	87.88
426.513	73.88
426.735	77.88
426.958	88.88
427.18	82.88
427.402	89.88
427.625	93.88
427.847	92.88
428.069	86.88
428.292	97.88
428.514	70.88
428.736	83.88
428.958	83.88
429.181	87.88
429.403	92.88
429.625	92.88
429.847	72.88
430.069	79.88
430.292	89.88
430.514	63.88
430.736	78.88
430.958	81.88
431.18	73.88
431.402	89.88
431.624	102.88
431.846	85.88
432.068	90.88
432.29	93.88
432.512	69.88
432.734	78.88
432.956	78.88
433.178	87.88
433.4	84.88
433.622	93.88
433.844	99.88
434.066	85.88
434.287	76.88
434.509	80.88
434.731	99.88
434.953	82.88
435.175	91.88
435.397	81.88
435.618	90.88
435.84	93.88
436.062	81.88
436.284	77.88
436.505	86.88
436.727	88.88
436.949	76.88
437.17	70.88
437.392	92.88
437.614	93.88
437.835	75.88
438.057	75.88
438.278	77.88
438.5	83.88
438.721	89.88
438.943	89.88
439.165	87.88
439.386	74.88
439.608	90.88
439.829	90.88
440.05	80.88
440.272	84.88
440.493	84.88
440.715	88.88
440.936	86.88
441.158	88.88
441.379	90.88
441.6	74.88
441.822	76.88
442.043	90.88
442.264	83.88
442.486	94.88
442.707	97.88
442.928	88.88
443.149	87.88
443.371	87.88
443.592	84.88
443.813	82.88
444.034	74.88
444.255	101.88
444.476	81.88
444.698	99.88
444.919	85.88
445.14	168.88
445.361	128.88
445.582	78.88
445.803	69.88
446.024	65.88
446.245	77.88
446.466	94.88
446.687	73.88
446.908	92.88
447.129	79.88
447.35	97.88
447.571	72.88
447.792	83.88
448.013	72.88
448.234	95.88
448.455	82.88
448.675	82.88
448.896	72.88
449.117	84.88
449.338	87.88
449.559	81.88
449.779	79.88
450	74.88
450.221	82.88
450.442	83.88
450.662	88.88
450.883	84.88
451.104	76.88
451.324	82.88
451.545	87.88
451.766	80.88
451.986	81.88
452.207	69.88
452.428	87.88
452.648	99.88
452.869	76.88
453.089	94.88
453.31	82.88
453.53	105.88
453.751	91.88
453.971	91.88
454.192	86.88
454.412	83.88
454.633	88.88
454.853	82.88
455.073	86.88
455.294	91.88
455.514	78.88
455.734	86.88
455.955	77.88
456.175	90.88
456.395	82.88
456.616	80.88
456.836	88.88
457.056	85.88
457.276	83.88
457.497	84.88
457.717	92.88
457.937	82.88
458.157	87.88
458.377	67.88
458.598	85.88
458.818	88.88
459.038	83.88
459.258	80.88
459.478	87.88
459.698	85.88
459.918	83.88
460.138	77.88
460.358	86.88
460.578	86.88
460.798	84.88
461.018	83.88
461.238	81.88
461.458	90.88
461.678	78.88
461.898	91.88
462.118	100.88
462.338	85.88
462.558	73.88
462.777	87.88
462.997	93.88
463.217	83.88
463.437	99.88
463.657	95.88
463.876	97.88
464.096	99.88
464.316	81.88
464.536	93.88
464.755	95.88
464.975	89.88
465.195	77.88
465.414	93.88
465.634	78.88
465.854	93.88
466.073	78.88
466.293	76.88
466.512	79.88
466.732	90.88
466.951	78.88
467.171	91.88
467.391	87.88
467.61	71.88
467.829	106.88
468.049	76.88
468.268	90.88
468.488	83.88
468.707	88.88
468.927	94.88
469.146	86.88
469.365	89.88
469.585	92.88
469.804	72.88
470.023	73.88
470.243	89.88
470.462	91.88
470.681	85.88
470.901	89.88
471.12	75.88
471.339	77.88
471.558	91.88
471.777	91.88
471.997	88.88
472.216	94.88
472.435	99.88
472.654	92.88
472.873	100.88
473.092	97.88
473.311	92.88
473.53	86.88
473.749	73.88
473.968	95.88
474.187	73.88
474.406	77.88
474.625	90.88
474.844	84.88
475.063	78.88
475.282	91.88
475.501	84.88
475.72	73.88
475.939	76.88
476.158	91.88
476.377	92.88
476.596	84.88
476.814	89.88
477.033	78.88
477.252	78.88
477.471	95.88
477.69	67.88
477.908	93.88
478.127	87.88
478.346	75.88
478.564	91.88
478.783	86.88
479.002	91.88
479.22	85.88
479.439	78.88
479.658	82.88
479.876	88.88
480.095	88.88
480.313	76.88
480.532	86.88
480.751	97.88
480.969	101.88
481.188	82.88
481.406	95.88
481.624	95.88
481.843	90.88
482.061	100.88
482.28	88.88
482.498	89.88
482.717	78.88
482.935	82.88
483.153	70.88
483.372	85.88
483.59	88.88
483.808	84.88
484.027	77.88
484.245	109.88
484.463	84.88
484.681	92.88
484.9	95.88
485.118	87.88
485.336	99.88
485.554	87.88
485.772	103.88
485.99	101.88
486.209	98.88
486.427	70.88
486.645	94.88
486.863	85.88
487.081	91.88
487.299	80.88
487.517	86.88
487.735	90.88
487.953	82.88
488.171	91.88
488.389	93.88
488.607	94.88
488.825	65.88
489.043	92.88
489.261	104.88
489.479	83.88
489.696	91.88
489.914	87.88
490.132	82.88
490.35	93.88
490.568	92.88
490.786	84.88
491.003	84.88
491.221	103.88
491.439	73.88
491.657	96.88
491.874	95.88
492.092	93.88
492.31	97.88
492.527	87.88
492.745	99.88
492.963	89.88
493.18	99.88
493.398	101.88
493.615	91.88
493.833	81.88
494.05	102.88
494.268	99.88
494.485	78.88
494.703	76.88
494.92	100.88
495.138	92.88
495.355	92.88
495.573	87.88
495.79	90.88
496.008	109.88
496.225	92.88
496.442	81.88
496.66	100.88
496.877	75.88
497.094	92.88
497.312	83.88
497.529	102.88
497.746	95.88
497.963	97.88
498.181	89.88
498.398	84.88
498.615	75.88
498.832	87.88
499.049	93.88
499.267	88.88
499.484	100.88
499.701	105.88
499.918	121.88
500.135	114.88
500.352	107.88
500.569	113.88
500.786	112.88
501.003	107.88
501.22	103.88
501.437	97.88
501.654	101.88
501.871	102.88
502.088	88.88
502.305	101.88
502.522	97.88
502.739	88.88
502.956	82.88
503.172	82.88
503.389	97.88
503.606	89.88
503.823	87.88
504.04	88.88
504.256	95.88
504.473	81.88
504.69	89.88
504.907	105.88
505.123	94.88
505.34	93.88
505.557	113.88
505.773	94.88
505.99	96.88
506.207	99.88
506.423	102.88
506.64	87.88
506.856	86.88
507.073	83.88
507.289	84.88
507.506	88.88
507.722	83.88
507.939	87.88
508.155	102.88
508.372	100.88
508.588	78.88
508.805	79.88
509.021	93.88
509.238	69.88
509.454	80.88
509.67	67.88
509.887	82.88
510.103	93.88
510.319	94.88
510.536	83.88
510.752	77.88
510.968	86.88
511.184	90.88
511.401	103.88
511.617	97.88
511.833	91.88
512.049	90.88
512.265	83.88
512.481	93.88
512.698	106.88
512.914	81.88
513.13	91.88
513.346	87.88
513.562	85.88
513.778	83.88
513.994	90.88
514.21	86.88
514.426	75.88
514.642	100.88
514.858	87.88
515.074	89.88
515.29	70.88
515.506	85.88
515.721	73.88
515.937	88.88
516.153	85.88
516.369	96.88
516.585	104.88
516.801	93.88
517.016	97.88
517.232	94.88
517.448	89.88
517.664	89.88
517.879	94.88
518.095	109.88
518.311	99.88
518.527	93.88
518.742	88.88
518.958	94.88
519.173	83.88
519.389	85.88
