Data from BG_HRD10591_028.txt Node
Date: Fri May 16 15:14:36 EDT 2025
User: Yrep
Spectrometer: HR+D1059
Trigger mode: 1
Integration Time (sec): 1.000000E-1
Scans to average: 1
Electric dark correction enabled: true
Nonlinearity correction enabled: false
Boxcar width: 0
XAxis mode: Wavelengths
Number of Pixels in Spectrum: 2048
>>>>>Begin Spectral Data<<<<<
223.165	-16.69
223.4	-16.69
223.635	-16.69
223.869	-22.69
224.104	-14.69
224.338	-14.69
224.573	-5.69
224.808	-22.69
225.042	-8.69
225.277	-14.69
225.511	-2.69
225.746	-13.69
225.98	-3.69
226.215	13.31
226.449	32.31
226.683	37.31
226.918	22.31
227.152	35.31
227.387	40.31
227.621	41.31
227.856	58.31
228.09	50.31
228.324	50.31
228.559	55.31
228.793	46.31
229.027	66.31
229.262	54.31
229.496	67.31
229.73	78.31
229.964	85.31
230.199	86.31
230.433	69.31
230.667	69.31
230.901	82.31
231.136	76.31
231.37	77.31
231.604	73.31
231.838	88.31
232.072	66.31
232.306	73.31
232.541	87.31
232.775	83.31
233.009	88.31
233.243	72.31
233.477	88.31
233.711	89.31
233.945	75.31
234.179	83.31
234.413	86.31
234.647	85.31
234.881	83.31
235.115	89.31
235.349	90.31
235.583	70.31
235.817	81.31
236.051	79.31
236.285	71.31
236.519	79.31
236.753	81.31
236.987	74.31
237.221	85.31
237.455	83.31
237.689	82.31
237.922	74.31
238.156	64.31
238.39	85.31
238.624	78.31
238.858	77.31
239.091	73.31
239.325	74.31
239.559	87.31
239.793	67.31
240.027	85.31
240.26	78.31
240.494	85.31
240.728	68.31
240.961	73.31
241.195	89.31
241.429	93.31
241.662	94.31
241.896	67.31
242.13	75.31
242.363	76.31
242.597	86.31
242.83	82.31
243.064	71.31
243.298	70.31
243.531	73.31
243.765	77.31
243.998	79.31
244.232	80.31
244.465	81.31
244.699	74.31
244.932	75.31
245.166	66.31
245.399	73.31
245.633	82.31
245.866	83.31
246.099	76.31
246.333	72.31
246.566	74.31
246.8	86.31
247.033	74.31
247.266	71.31
247.5	80.31
247.733	83.31
247.966	80.31
248.2	86.31
248.433	72.31
248.666	66.31
248.899	82.31
249.133	90.31
249.366	87.31
249.599	74.31
249.832	70.31
250.066	68.31
250.299	84.31
250.532	76.31
250.765	77.31
250.998	73.31
251.231	75.31
251.465	68.31
251.698	80.31
251.931	85.31
252.164	69.31
252.397	73.31
252.63	67.31
252.863	88.31
253.096	93.31
253.329	87.31
253.562	95.31
253.795	78.31
254.028	77.31
254.261	79.31
254.494	76.31
254.727	85.31
254.96	91.31
255.193	75.31
255.426	74.31
255.659	80.31
255.892	91.31
256.124	86.31
256.357	89.31
256.59	85.31
256.823	78.31
257.056	72.31
257.289	72.31
257.521	87.31
257.754	91.31
257.987	84.31
258.22	70.31
258.452	85.31
258.685	72.31
258.918	77.31
259.151	81.31
259.383	92.31
259.616	88.31
259.849	78.31
260.081	85.31
260.314	85.31
260.547	106.31
260.779	89.31
261.012	77.31
261.244	85.31
261.477	86.31
261.71	82.31
261.942	79.31
262.175	84.31
262.407	77.31
262.64	87.31
262.872	83.31
263.105	77.31
263.337	87.31
263.57	90.31
263.802	82.31
264.035	83.31
264.267	92.31
264.499	76.31
264.732	82.31
264.964	87.31
265.197	74.31
265.429	81.31
265.661	86.31
265.894	91.31
266.126	94.31
266.358	79.31
266.591	97.31
266.823	94.31
267.055	88.31
267.287	74.31
267.52	80.31
267.752	89.31
267.984	90.31
268.216	89.31
268.448	96.31
268.681	95.31
268.913	89.31
269.145	86.31
269.377	91.31
269.609	89.31
269.841	86.31
270.073	84.31
270.306	97.31
270.538	85.31
270.77	80.31
271.002	82.31
271.234	84.31
271.466	79.31
271.698	77.31
271.93	94.31
272.162	71.31
272.394	85.31
272.626	90.31
272.858	77.31
273.09	79.31
273.322	81.31
273.553	85.31
273.785	76.31
274.017	77.31
274.249	81.31
274.481	99.31
274.713	105.31
274.945	88.31
275.176	87.31
275.408	97.31
275.64	82.31
275.872	93.31
276.104	83.31
276.335	74.31
276.567	90.31
276.799	86.31
277.031	98.31
277.262	88.31
277.494	83.31
277.726	88.31
277.957	82.31
278.189	79.31
278.421	82.31
278.652	88.31
278.884	77.31
279.115	94.31
279.347	80.31
279.579	80.31
279.81	79.31
280.042	80.31
280.273	83.31
280.505	91.31
280.736	83.31
280.968	92.31
281.199	87.31
281.431	86.31
281.662	87.31
281.894	80.31
282.125	82.31
282.356	95.31
282.588	86.31
282.819	89.31
283.051	93.31
283.282	89.31
283.513	88.31
283.745	93.31
283.976	77.31
284.207	77.31
284.439	99.31
284.67	83.31
284.901	90.31
285.132	98.31
285.364	78.31
285.595	98.31
285.826	89.31
286.057	88.31
286.288	87.31
286.52	93.31
286.751	105.31
286.982	90.31
287.213	91.31
287.444	91.31
287.675	76.31
287.906	82.31
288.138	86.31
288.369	86.31
288.6	83.31
288.831	93.31
289.062	85.31
289.293	103.31
289.524	59.31
289.755	91.31
289.986	93.31
290.217	92.31
290.448	79.31
290.679	91.31
290.91	87.31
291.141	91.31
291.371	91.31
291.602	73.31
291.833	96.31
292.064	88.31
292.295	93.31
292.526	77.31
292.757	89.31
292.987	82.31
293.218	87.31
293.449	89.31
293.68	84.31
293.91	85.31
294.141	86.31
294.372	79.31
294.603	95.31
294.833	101.31
295.064	103.31
295.295	85.31
295.525	92.31
295.756	112.31
295.987	89.31
296.217	90.31
296.448	87.31
296.679	69.31
296.909	91.31
297.14	91.31
297.37	79.31
297.601	88.31
297.831	75.31
298.062	105.31
298.292	93.31
298.523	82.31
298.753	92.31
298.984	97.31
299.214	100.31
299.445	85.31
299.675	89.31
299.905	85.31
300.136	74.31
300.366	92.31
300.597	83.31
300.827	93.31
301.057	77.31
301.288	85.31
301.518	82.31
301.748	83.31
301.979	108.31
302.209	96.31
302.439	92.31
302.669	95.31
302.9	88.31
303.13	103.31
303.36	91.31
303.59	79.31
303.82	96.31
304.051	92.31
304.281	88.31
304.511	112.31
304.741	90.31
304.971	88.31
305.201	76.31
305.431	67.31
305.661	80.31
305.891	100.31
306.121	84.31
306.352	75.31
306.582	80.31
306.812	91.31
307.042	86.31
307.272	82.31
307.502	79.31
307.731	89.31
307.961	91.31
308.191	89.31
308.421	74.31
308.651	95.31
308.881	93.31
309.111	80.31
309.341	98.31
309.571	101.31
309.8	81.31
310.03	101.31
310.26	104.31
310.49	85.31
310.72	91.31
310.949	98.31
311.179	75.31
311.409	77.31
311.639	91.31
311.868	87.31
312.098	80.31
312.328	95.31
312.557	91.31
312.787	92.31
313.017	87.31
313.246	85.31
313.476	84.31
313.706	108.31
313.935	82.31
314.165	85.31
314.394	101.31
314.624	103.31
314.853	108.31
315.083	78.31
315.312	87.31
315.542	80.31
315.771	96.31
316.001	90.31
316.23	95.31
316.46	84.31
316.689	88.31
316.919	88.31
317.148	96.31
317.377	85.31
317.607	86.31
317.836	89.31
318.065	82.31
318.295	90.31
318.524	90.31
318.753	84.31
318.983	87.31
319.212	89.31
319.441	98.31
319.67	89.31
319.9	94.31
320.129	92.31
320.358	87.31
320.587	93.31
320.816	91.31
321.046	82.31
321.275	97.31
321.504	85.31
321.733	87.31
321.962	105.31
322.191	84.31
322.42	93.31
322.649	86.31
322.878	87.31
323.108	86.31
323.337	92.31
323.566	89.31
323.795	91.31
324.024	90.31
324.253	76.31
324.482	87.31
324.71	85.31
324.939	92.31
325.168	90.31
325.397	84.31
325.626	101.31
325.855	88.31
326.084	109.31
326.313	101.31
326.542	88.31
326.77	91.31
326.999	97.31
327.228	73.31
327.457	93.31
327.686	91.31
327.914	86.31
328.143	106.31
328.372	102.31
328.6	86.31
328.829	77.31
329.058	87.31
329.287	85.31
329.515	91.31
329.744	104.31
329.972	88.31
330.201	93.31
330.43	103.31
330.658	91.31
330.887	93.31
331.115	103.31
331.344	87.31
331.572	91.31
331.801	101.31
332.03	85.31
332.258	89.31
332.486	93.31
332.715	99.31
332.943	93.31
333.172	114.31
333.4	94.31
333.629	104.31
333.857	87.31
334.085	95.31
334.314	99.31
334.542	103.31
334.771	98.31
334.999	79.31
335.227	103.31
335.455	106.31
335.684	86.31
335.912	85.31
336.14	93.31
336.369	96.31
336.597	78.31
336.825	94.31
337.053	88.31
337.281	81.31
337.51	78.31
337.738	102.31
337.966	76.31
338.194	88.31
338.422	99.31
338.65	91.31
338.878	89.31
339.106	101.31
339.334	90.31
339.562	96.31
339.79	95.31
340.018	103.31
340.246	87.31
340.474	94.31
340.702	86.31
340.93	91.31
341.158	86.31
341.386	103.31
341.614	101.31
341.842	87.31
342.07	89.31
342.298	102.31
342.526	89.31
342.754	90.31
342.981	82.31
343.209	101.31
343.437	109.31
343.665	92.31
343.893	86.31
344.12	87.31
344.348	79.31
344.576	88.31
344.804	92.31
345.031	74.31
345.259	91.31
345.487	79.31
345.714	79.31
345.942	90.31
346.17	86.31
346.397	101.31
346.625	91.31
346.853	90.31
347.08	90.31
347.308	88.31
347.535	98.31
347.763	94.31
347.99	92.31
348.218	92.31
348.445	85.31
348.673	97.31
348.9	94.31
349.128	83.31
349.355	94.31
349.583	93.31
349.81	75.31
350.037	88.31
350.265	106.31
350.492	81.31
350.72	85.31
350.947	69.31
351.174	91.31
351.402	90.31
351.629	88.31
351.856	90.31
352.083	98.31
352.311	92.31
352.538	85.31
352.765	89.31
352.992	73.31
353.22	98.31
353.447	98.31
353.674	94.31
353.901	90.31
354.128	81.31
354.355	79.31
354.583	95.31
354.81	90.31
355.037	98.31
355.264	85.31
355.491	78.31
355.718	98.31
355.945	91.31
356.172	94.31
356.399	89.31
356.626	93.31
356.853	89.31
357.08	90.31
357.307	86.31
357.534	89.31
357.761	92.31
357.988	87.31
358.215	86.31
358.441	78.31
358.668	89.31
358.895	88.31
359.122	94.31
359.349	84.31
359.576	90.31
359.802	87.31
360.029	94.31
360.256	87.31
360.483	91.31
360.709	81.31
360.936	104.31
361.163	99.31
361.39	83.31
361.616	84.31
361.843	95.31
362.07	86.31
362.296	83.31
362.523	95.31
362.749	82.31
362.976	87.31
363.203	95.31
363.429	94.31
363.656	91.31
363.882	101.31
364.109	97.31
364.335	94.31
364.562	77.31
364.788	75.31
365.015	86.31
365.241	86.31
365.468	86.31
365.694	99.31
365.92	85.31
366.147	77.31
366.373	78.31
366.599	94.31
366.826	93.31
367.052	95.31
367.278	104.31
367.505	101.31
367.731	98.31
367.957	89.31
368.184	89.31
368.41	94.31
368.636	78.31
368.862	102.31
369.089	95.31
369.315	86.31
369.541	93.31
369.767	82.31
369.993	92.31
370.219	86.31
370.445	90.31
370.672	98.31
370.898	85.31
371.124	79.31
371.35	82.31
371.576	89.31
371.802	70.31
372.028	88.31
372.254	89.31
372.48	92.31
372.706	88.31
372.932	78.31
373.158	98.31
373.384	96.31
373.61	101.31
373.835	89.31
374.061	96.31
374.287	86.31
374.513	82.31
374.739	96.31
374.965	88.31
375.191	96.31
375.416	90.31
375.642	94.31
375.868	87.31
376.094	89.31
376.319	82.31
376.545	86.31
376.771	87.31
376.997	94.31
377.222	97.31
377.448	85.31
377.674	93.31
377.899	89.31
378.125	95.31
378.35	97.31
378.576	86.31
378.802	91.31
379.027	82.31
379.253	78.31
379.478	99.31
379.704	91.31
379.929	81.31
380.155	84.31
380.38	99.31
380.606	88.31
380.831	88.31
381.057	94.31
381.282	90.31
381.507	89.31
381.733	89.31
381.958	80.31
382.184	99.31
382.409	108.31
382.634	82.31
382.86	85.31
383.085	84.31
383.31	91.31
383.535	80.31
383.761	89.31
383.986	85.31
384.211	90.31
384.436	81.31
384.662	81.31
384.887	86.31
385.112	92.31
385.337	90.31
385.562	89.31
385.787	77.31
386.013	91.31
386.238	78.31
386.463	88.31
386.688	92.31
386.913	91.31
387.138	96.31
387.363	88.31
387.588	82.31
387.813	102.31
388.038	92.31
388.263	69.31
388.488	102.31
388.713	98.31
388.938	89.31
389.163	91.31
389.387	93.31
389.612	88.31
389.837	88.31
390.062	78.31
390.287	91.31
390.512	94.31
390.736	85.31
390.961	95.31
391.186	81.31
391.411	100.31
391.636	82.31
391.86	90.31
392.085	96.31
392.31	90.31
392.534	91.31
392.759	96.31
392.984	98.31
393.208	90.31
393.433	78.31
393.658	76.31
393.882	93.31
394.107	85.31
394.331	90.31
394.556	77.31
394.78	103.31
395.005	94.31
395.229	78.31
395.454	91.31
395.678	79.31
395.903	96.31
396.127	103.31
396.352	85.31
396.576	95.31
396.801	99.31
397.025	88.31
397.249	89.31
397.474	105.31
397.698	95.31
397.922	96.31
398.147	79.31
398.371	82.31
398.595	95.31
398.82	95.31
399.044	95.31
399.268	101.31
399.492	97.31
399.717	98.31
399.941	95.31
400.165	95.31
400.389	83.31
400.613	80.31
400.837	92.31
401.062	92.31
401.286	96.31
401.51	94.31
401.734	88.31
401.958	77.31
402.182	93.31
402.406	104.31
402.63	97.31
402.854	94.31
403.078	72.31
403.302	88.31
403.526	86.31
403.75	91.31
403.974	98.31
404.198	107.31
404.422	89.31
404.645	98.31
404.869	88.31
405.093	88.31
405.317	98.31
405.541	98.31
405.765	81.31
405.988	88.31
406.212	97.31
406.436	88.31
406.66	82.31
406.883	91.31
407.107	97.31
407.331	95.31
407.555	112.31
407.778	92.31
408.002	103.31
408.226	103.31
408.449	75.31
408.673	86.31
408.896	101.31
409.12	92.31
409.344	92.31
409.567	81.31
409.791	91.31
410.014	91.31
410.238	99.31
410.461	91.31
410.685	114.31
410.908	91.31
411.132	78.31
411.355	93.31
411.578	94.31
411.802	89.31
412.025	75.31
412.249	88.31
412.472	95.31
412.695	104.31
412.919	83.31
413.142	87.31
413.365	106.31
413.589	101.31
413.812	98.31
414.035	86.31
414.258	106.31
414.482	68.31
414.705	102.31
414.928	98.31
415.151	69.31
415.374	80.31
415.597	83.31
415.821	101.31
416.044	89.31
416.267	98.31
416.49	79.31
416.713	75.31
416.936	99.31
417.159	102.31
417.382	83.31
417.605	104.31
417.828	78.31
418.051	77.31
418.274	82.31
418.497	92.31
418.72	72.31
418.943	95.31
419.166	84.31
419.389	80.31
419.611	101.31
419.834	89.31
420.057	97.31
420.28	90.31
420.503	85.31
420.726	94.31
420.948	95.31
421.171	86.31
421.394	85.31
421.617	103.31
421.839	94.31
422.062	88.31
422.285	77.31
422.507	95.31
422.73	99.31
422.953	92.31
423.175	96.31
423.398	98.31
423.621	86.31
423.843	85.31
424.066	90.31
424.288	97.31
424.511	90.31
424.733	90.31
424.956	93.31
425.178	85.31
425.401	90.31
425.623	93.31
425.846	72.31
426.068	86.31
426.291	88.31
426.513	78.31
426.735	84.31
426.958	96.31
427.18	98.31
427.402	87.31
427.625	85.31
427.847	74.31
428.069	94.31
428.292	74.31
428.514	85.31
428.736	68.31
428.958	81.31
429.181	99.31
429.403	86.31
429.625	103.31
429.847	86.31
430.069	93.31
430.292	91.31
430.514	90.31
430.736	79.31
430.958	88.31
431.18	93.31
431.402	103.31
431.624	75.31
431.846	84.31
432.068	81.31
432.29	85.31
432.512	90.31
432.734	82.31
432.956	86.31
433.178	83.31
433.4	78.31
433.622	89.31
433.844	89.31
434.066	88.31
434.287	81.31
434.509	96.31
434.731	105.31
434.953	89.31
435.175	86.31
435.397	84.31
435.618	88.31
435.84	92.31
436.062	86.31
436.284	95.31
436.505	85.31
436.727	86.31
436.949	87.31
437.17	84.31
437.392	88.31
437.614	79.31
437.835	84.31
438.057	82.31
438.278	72.31
438.5	80.31
438.721	107.31
438.943	91.31
439.165	84.31
439.386	75.31
439.608	110.31
439.829	96.31
440.05	103.31
440.272	81.31
440.493	85.31
440.715	100.31
440.936	95.31
441.158	92.31
441.379	91.31
441.6	79.31
441.822	94.31
442.043	88.31
442.264	94.31
442.486	106.31
442.707	92.31
442.928	93.31
443.149	78.31
443.371	93.31
443.592	91.31
443.813	100.31
444.034	101.31
444.255	87.31
444.476	77.31
444.698	100.31
444.919	106.31
445.14	174.31
445.361	117.31
445.582	88.31
445.803	83.31
446.024	89.31
446.245	88.31
446.466	99.31
446.687	88.31
446.908	83.31
447.129	94.31
447.35	83.31
447.571	83.31
447.792	86.31
448.013	95.31
448.234	90.31
448.455	85.31
448.675	83.31
448.896	105.31
449.117	105.31
449.338	89.31
449.559	95.31
449.779	92.31
450	88.31
450.221	105.31
450.442	86.31
450.662	96.31
450.883	84.31
451.104	87.31
451.324	101.31
451.545	80.31
451.766	80.31
451.986	79.31
452.207	98.31
452.428	89.31
452.648	83.31
452.869	94.31
453.089	93.31
453.31	89.31
453.53	92.31
453.751	92.31
453.971	94.31
454.192	99.31
454.412	82.31
454.633	73.31
454.853	84.31
455.073	81.31
455.294	92.31
455.514	77.31
455.734	90.31
455.955	98.31
456.175	79.31
456.395	84.31
456.616	78.31
456.836	99.31
457.056	81.31
457.276	77.31
457.497	83.31
457.717	95.31
457.937	77.31
458.157	78.31
458.377	90.31
458.598	86.31
458.818	82.31
459.038	87.31
459.258	92.31
459.478	85.31
459.698	85.31
459.918	81.31
460.138	96.31
460.358	102.31
460.578	87.31
460.798	87.31
461.018	77.31
461.238	93.31
461.458	102.31
461.678	99.31
461.898	88.31
462.118	85.31
462.338	94.31
462.558	96.31
462.777	110.31
462.997	107.31
463.217	91.31
463.437	90.31
463.657	97.31
463.876	98.31
464.096	97.31
464.316	90.31
464.536	98.31
464.755	90.31
464.975	96.31
465.195	89.31
465.414	90.31
465.634	97.31
465.854	106.31
466.073	96.31
466.293	98.31
466.512	83.31
466.732	89.31
466.951	87.31
467.171	104.31
467.391	89.31
467.61	97.31
467.829	89.31
468.049	92.31
468.268	77.31
468.488	74.31
468.707	93.31
468.927	85.31
469.146	77.31
469.365	83.31
469.585	85.31
469.804	75.31
470.023	85.31
470.243	96.31
470.462	98.31
470.681	95.31
470.901	85.31
471.12	88.31
471.339	84.31
471.558	91.31
471.777	101.31
471.997	89.31
472.216	91.31
472.435	91.31
472.654	89.31
472.873	93.31
473.092	87.31
473.311	89.31
473.53	95.31
473.749	91.31
473.968	88.31
474.187	82.31
474.406	92.31
474.625	89.31
474.844	96.31
475.063	91.31
475.282	88.31
475.501	94.31
475.72	85.31
475.939	106.31
476.158	93.31
476.377	77.31
476.596	90.31
476.814	95.31
477.033	89.31
477.252	82.31
477.471	83.31
477.69	92.31
477.908	76.31
478.127	101.31
478.346	89.31
478.564	93.31
478.783	89.31
479.002	96.31
479.22	96.31
479.439	88.31
479.658	96.31
479.876	99.31
480.095	91.31
480.313	83.31
480.532	80.31
480.751	100.31
480.969	109.31
481.188	96.31
481.406	111.31
481.624	93.31
481.843	83.31
482.061	91.31
482.28	87.31
482.498	80.31
482.717	105.31
482.935	95.31
483.153	89.31
483.372	84.31
483.59	88.31
483.808	86.31
484.027	106.31
484.245	96.31
484.463	95.31
484.681	93.31
484.9	86.31
485.118	90.31
485.336	96.31
485.554	91.31
485.772	93.31
485.99	111.31
486.209	85.31
486.427	107.31
486.645	104.31
486.863	99.31
487.081	91.31
487.299	102.31
487.517	97.31
487.735	92.31
487.953	89.31
488.171	90.31
488.389	81.31
488.607	88.31
488.825	102.31
489.043	94.31
489.261	89.31
489.479	94.31
489.696	68.31
489.914	102.31
490.132	92.31
490.35	88.31
490.568	94.31
490.786	101.31
491.003	83.31
491.221	105.31
491.439	85.31
491.657	79.31
491.874	96.31
492.092	98.31
492.31	97.31
492.527	94.31
492.745	112.31
492.963	106.31
493.18	94.31
493.398	79.31
493.615	91.31
493.833	85.31
494.05	90.31
494.268	107.31
494.485	89.31
494.703	97.31
494.92	88.31
495.138	83.31
495.355	97.31
495.573	93.31
495.79	102.31
496.008	89.31
496.225	87.31
496.442	94.31
496.66	105.31
496.877	91.31
497.094	102.31
497.312	93.31
497.529	87.31
497.746	100.31
497.963	109.31
498.181	95.31
498.398	97.31
498.615	101.31
498.832	101.31
499.049	91.31
499.267	93.31
499.484	98.31
499.701	98.31
499.918	114.31
500.135	122.31
500.352	137.31
500.569	119.31
500.786	121.31
501.003	112.31
501.22	110.31
501.437	106.31
501.654	109.31
501.871	93.31
502.088	97.31
502.305	103.31
502.522	105.31
502.739	78.31
502.956	103.31
503.172	91.31
503.389	99.31
503.606	89.31
503.823	87.31
504.04	104.31
504.256	103.31
504.473	90.31
504.69	101.31
504.907	98.31
505.123	93.31
505.34	104.31
505.557	101.31
505.773	90.31
505.99	86.31
506.207	87.31
506.423	90.31
506.64	82.31
506.856	86.31
507.073	102.31
507.289	87.31
507.506	87.31
507.722	94.31
507.939	105.31
508.155	89.31
508.372	89.31
508.588	86.31
508.805	94.31
509.021	85.31
509.238	91.31
509.454	72.31
509.67	79.31
509.887	105.31
510.103	77.31
510.319	101.31
510.536	87.31
510.752	85.31
510.968	100.31
511.184	94.31
511.401	92.31
511.617	95.31
511.833	89.31
512.049	94.31
512.265	81.31
512.481	102.31
512.698	89.31
512.914	85.31
513.13	87.31
513.346	93.31
513.562	107.31
513.778	101.31
513.994	90.31
514.21	113.31
514.426	101.31
514.642	85.31
514.858	100.31
515.074	98.31
515.29	94.31
515.506	95.31
515.721	97.31
515.937	94.31
516.153	103.31
516.369	95.31
516.585	91.31
516.801	92.31
517.016	84.31
517.232	108.31
517.448	110.31
517.664	97.31
517.879	105.31
518.095	99.31
