Data from BG_HRD10591_100.txt Node
Date: Fri May 16 15:15:12 EDT 2025
User: Yrep
Spectrometer: HR+D1059
Trigger mode: 1
Integration Time (sec): 1.000000E-1
Scans to average: 1
Electric dark correction enabled: true
Nonlinearity correction enabled: false
Boxcar width: 0
XAxis mode: Wavelengths
Number of Pixels in Spectrum: 2048
>>>>>Begin Spectral Data<<<<<
223.165	-15.62
223.4	-15.62
223.635	-15.62
223.869	-18.62
224.104	-21.62
224.338	-6.62
224.573	-25.62
224.808	-9.62
225.042	-13.62
225.277	-24.62
225.511	-0.62
225.746	3.38
225.98	12.38
226.215	23.38
226.449	6.38
226.683	18.38
226.918	34.38
227.152	38.38
227.387	41.38
227.621	40.38
227.856	52.38
228.09	45.38
228.324	60.38
228.559	50.38
228.793	57.38
229.027	60.38
229.262	52.38
229.496	73.38
229.73	75.38
229.964	69.38
230.199	67.38
230.433	84.38
230.667	65.38
230.901	77.38
231.136	74.38
231.37	77.38
231.604	79.38
231.838	72.38
232.072	74.38
232.306	80.38
232.541	87.38
232.775	83.38
233.009	77.38
233.243	80.38
233.477	78.38
233.711	90.38
233.945	78.38
234.179	72.38
234.413	75.38
234.647	86.38
234.881	76.38
235.115	70.38
235.349	83.38
235.583	70.38
235.817	65.38
236.051	66.38
236.285	65.38
236.519	79.38
236.753	72.38
236.987	70.38
237.221	71.38
237.455	66.38
237.689	83.38
237.922	90.38
238.156	81.38
238.39	81.38
238.624	74.38
238.858	71.38
239.091	71.38
239.325	74.38
239.559	75.38
239.793	85.38
240.027	69.38
240.26	79.38
240.494	76.38
240.728	75.38
240.961	75.38
241.195	81.38
241.429	80.38
241.662	67.38
241.896	65.38
242.13	75.38
242.363	72.38
242.597	92.38
242.83	79.38
243.064	83.38
243.298	84.38
243.531	65.38
243.765	82.38
243.998	74.38
244.232	94.38
244.465	81.38
244.699	75.38
244.932	77.38
245.166	72.38
245.399	74.38
245.633	88.38
245.866	72.38
246.099	81.38
246.333	84.38
246.566	83.38
246.8	74.38
247.033	87.38
247.266	70.38
247.5	65.38
247.733	83.38
247.966	81.38
248.2	88.38
248.433	85.38
248.666	71.38
248.899	93.38
249.133	82.38
249.366	93.38
249.599	82.38
249.832	74.38
250.066	61.38
250.299	90.38
250.532	86.38
250.765	81.38
250.998	72.38
251.231	84.38
251.465	68.38
251.698	84.38
251.931	74.38
252.164	68.38
252.397	76.38
252.63	93.38
252.863	91.38
253.096	75.38
253.329	65.38
253.562	69.38
253.795	89.38
254.028	74.38
254.261	74.38
254.494	72.38
254.727	85.38
254.96	78.38
255.193	79.38
255.426	87.38
255.659	70.38
255.892	87.38
256.124	80.38
256.357	80.38
256.59	94.38
256.823	73.38
257.056	80.38
257.289	82.38
257.521	84.38
257.754	93.38
257.987	83.38
258.22	95.38
258.452	75.38
258.685	79.38
258.918	78.38
259.151	80.38
259.383	85.38
259.616	77.38
259.849	90.38
260.081	90.38
260.314	83.38
260.547	75.38
260.779	71.38
261.012	81.38
261.244	81.38
261.477	70.38
261.71	72.38
261.942	74.38
262.175	68.38
262.407	81.38
262.64	78.38
262.872	84.38
263.105	92.38
263.337	82.38
263.57	81.38
263.802	87.38
264.035	81.38
264.267	80.38
264.499	83.38
264.732	70.38
264.964	72.38
265.197	79.38
265.429	81.38
265.661	86.38
265.894	76.38
266.126	101.38
266.358	86.38
266.591	100.38
266.823	81.38
267.055	76.38
267.287	73.38
267.52	80.38
267.752	88.38
267.984	92.38
268.216	71.38
268.448	78.38
268.681	84.38
268.913	81.38
269.145	82.38
269.377	85.38
269.609	92.38
269.841	93.38
270.073	86.38
270.306	87.38
270.538	74.38
270.77	71.38
271.002	80.38
271.234	78.38
271.466	85.38
271.698	86.38
271.93	75.38
272.162	87.38
272.394	82.38
272.626	70.38
272.858	73.38
273.09	100.38
273.322	78.38
273.553	89.38
273.785	76.38
274.017	79.38
274.249	72.38
274.481	77.38
274.713	81.38
274.945	73.38
275.176	77.38
275.408	95.38
275.64	80.38
275.872	79.38
276.104	74.38
276.335	82.38
276.567	87.38
276.799	87.38
277.031	82.38
277.262	85.38
277.494	77.38
277.726	97.38
277.957	89.38
278.189	85.38
278.421	98.38
278.652	109.38
278.884	83.38
279.115	66.38
279.347	96.38
279.579	97.38
279.81	76.38
280.042	84.38
280.273	79.38
280.505	84.38
280.736	96.38
280.968	95.38
281.199	79.38
281.431	82.38
281.662	88.38
281.894	74.38
282.125	91.38
282.356	95.38
282.588	73.38
282.819	78.38
283.051	76.38
283.282	84.38
283.513	89.38
283.745	89.38
283.976	78.38
284.207	91.38
284.439	94.38
284.67	83.38
284.901	81.38
285.132	90.38
285.364	92.38
285.595	86.38
285.826	97.38
286.057	80.38
286.288	91.38
286.52	92.38
286.751	92.38
286.982	66.38
287.213	87.38
287.444	81.38
287.675	93.38
287.906	95.38
288.138	83.38
288.369	84.38
288.6	90.38
288.831	100.38
289.062	91.38
289.293	78.38
289.524	94.38
289.755	108.38
289.986	89.38
290.217	98.38
290.448	90.38
290.679	76.38
290.91	87.38
291.141	84.38
291.371	80.38
291.602	87.38
291.833	84.38
292.064	90.38
292.295	82.38
292.526	92.38
292.757	75.38
292.987	77.38
293.218	98.38
293.449	85.38
293.68	93.38
293.91	89.38
294.141	90.38
294.372	90.38
294.603	82.38
294.833	91.38
295.064	76.38
295.295	73.38
295.525	101.38
295.756	85.38
295.987	97.38
296.217	89.38
296.448	97.38
296.679	88.38
296.909	102.38
297.14	86.38
297.37	82.38
297.601	100.38
297.831	89.38
298.062	85.38
298.292	85.38
298.523	85.38
298.753	88.38
298.984	87.38
299.214	93.38
299.445	84.38
299.675	94.38
299.905	84.38
300.136	82.38
300.366	85.38
300.597	88.38
300.827	84.38
301.057	91.38
301.288	100.38
301.518	74.38
301.748	78.38
301.979	84.38
302.209	102.38
302.439	96.38
302.669	96.38
302.9	88.38
303.13	77.38
303.36	94.38
303.59	81.38
303.82	85.38
304.051	86.38
304.281	102.38
304.511	94.38
304.741	95.38
304.971	82.38
305.201	69.38
305.431	106.38
305.661	88.38
305.891	103.38
306.121	79.38
306.352	93.38
306.582	95.38
306.812	95.38
307.042	84.38
307.272	77.38
307.502	89.38
307.731	97.38
307.961	73.38
308.191	93.38
308.421	86.38
308.651	88.38
308.881	97.38
309.111	84.38
309.341	88.38
309.571	83.38
309.8	83.38
310.03	92.38
310.26	88.38
310.49	83.38
310.72	94.38
310.949	83.38
311.179	88.38
311.409	100.38
311.639	93.38
311.868	91.38
312.098	101.38
312.328	84.38
312.557	80.38
312.787	101.38
313.017	84.38
313.246	72.38
313.476	75.38
313.706	94.38
313.935	83.38
314.165	74.38
314.394	88.38
314.624	88.38
314.853	85.38
315.083	93.38
315.312	96.38
315.542	83.38
315.771	82.38
316.001	90.38
316.23	80.38
316.46	89.38
316.689	90.38
316.919	84.38
317.148	90.38
317.377	93.38
317.607	81.38
317.836	83.38
318.065	102.38
318.295	81.38
318.524	75.38
318.753	98.38
318.983	89.38
319.212	85.38
319.441	89.38
319.67	87.38
319.9	94.38
320.129	82.38
320.358	100.38
320.587	86.38
320.816	90.38
321.046	90.38
321.275	84.38
321.504	89.38
321.733	70.38
321.962	93.38
322.191	91.38
322.42	76.38
322.649	98.38
322.878	96.38
323.108	97.38
323.337	84.38
323.566	84.38
323.795	91.38
324.024	87.38
324.253	89.38
324.482	78.38
324.71	86.38
324.939	87.38
325.168	91.38
325.397	95.38
325.626	87.38
325.855	85.38
326.084	82.38
326.313	92.38
326.542	89.38
326.77	99.38
326.999	89.38
327.228	85.38
327.457	85.38
327.686	99.38
327.914	83.38
328.143	100.38
328.372	102.38
328.6	88.38
328.829	79.38
329.058	97.38
329.287	79.38
329.515	96.38
329.744	100.38
329.972	77.38
330.201	85.38
330.43	89.38
330.658	104.38
330.887	93.38
331.115	88.38
331.344	96.38
331.572	102.38
331.801	82.38
332.03	101.38
332.258	93.38
332.486	86.38
332.715	100.38
332.943	78.38
333.172	86.38
333.4	91.38
333.629	77.38
333.857	82.38
334.085	95.38
334.314	97.38
334.542	89.38
334.771	92.38
334.999	88.38
335.227	95.38
335.455	89.38
335.684	86.38
335.912	82.38
336.14	84.38
336.369	86.38
336.597	96.38
336.825	100.38
337.053	99.38
337.281	98.38
337.51	93.38
337.738	82.38
337.966	78.38
338.194	87.38
338.422	89.38
338.65	97.38
338.878	72.38
339.106	91.38
339.334	101.38
339.562	103.38
339.79	92.38
340.018	81.38
340.246	87.38
340.474	88.38
340.702	94.38
340.93	82.38
341.158	70.38
341.386	94.38
341.614	86.38
341.842	83.38
342.07	71.38
342.298	85.38
342.526	82.38
342.754	96.38
342.981	97.38
343.209	86.38
343.437	104.38
343.665	88.38
343.893	78.38
344.12	85.38
344.348	87.38
344.576	104.38
344.804	73.38
345.031	86.38
345.259	78.38
345.487	80.38
345.714	88.38
345.942	84.38
346.17	95.38
346.397	85.38
346.625	86.38
346.853	76.38
347.08	77.38
347.308	93.38
347.535	106.38
347.763	84.38
347.99	90.38
348.218	90.38
348.445	87.38
348.673	87.38
348.9	96.38
349.128	82.38
349.355	77.38
349.583	98.38
349.81	104.38
350.037	98.38
350.265	93.38
350.492	89.38
350.72	90.38
350.947	95.38
351.174	105.38
351.402	102.38
351.629	96.38
351.856	86.38
352.083	104.38
352.311	86.38
352.538	92.38
352.765	98.38
352.992	102.38
353.22	88.38
353.447	87.38
353.674	90.38
353.901	79.38
354.128	95.38
354.355	103.38
354.583	74.38
354.81	90.38
355.037	86.38
355.264	80.38
355.491	93.38
355.718	78.38
355.945	96.38
356.172	101.38
356.399	85.38
356.626	87.38
356.853	85.38
357.08	79.38
357.307	84.38
357.534	94.38
357.761	96.38
357.988	113.38
358.215	79.38
358.441	78.38
358.668	86.38
358.895	96.38
359.122	85.38
359.349	92.38
359.576	84.38
359.802	91.38
360.029	95.38
360.256	102.38
360.483	84.38
360.709	87.38
360.936	89.38
361.163	82.38
361.39	70.38
361.616	88.38
361.843	89.38
362.07	92.38
362.296	95.38
362.523	94.38
362.749	85.38
362.976	81.38
363.203	87.38
363.429	77.38
363.656	92.38
363.882	99.38
364.109	88.38
364.335	73.38
364.562	86.38
364.788	91.38
365.015	76.38
365.241	77.38
365.468	88.38
365.694	93.38
365.92	73.38
366.147	89.38
366.373	87.38
366.599	75.38
366.826	71.38
367.052	94.38
367.278	81.38
367.505	86.38
367.731	104.38
367.957	83.38
368.184	78.38
368.41	82.38
368.636	104.38
368.862	106.38
369.089	88.38
369.315	84.38
369.541	86.38
369.767	81.38
369.993	93.38
370.219	93.38
370.445	81.38
370.672	90.38
370.898	80.38
371.124	87.38
371.35	80.38
371.576	81.38
371.802	88.38
372.028	86.38
372.254	91.38
372.48	83.38
372.706	93.38
372.932	92.38
373.158	83.38
373.384	81.38
373.61	90.38
373.835	81.38
374.061	88.38
374.287	84.38
374.513	78.38
374.739	79.38
374.965	71.38
375.191	74.38
375.416	96.38
375.642	96.38
375.868	90.38
376.094	87.38
376.319	92.38
376.545	81.38
376.771	85.38
376.997	82.38
377.222	97.38
377.448	88.38
377.674	84.38
377.899	78.38
378.125	81.38
378.35	80.38
378.576	90.38
378.802	93.38
379.027	79.38
379.253	72.38
379.478	78.38
379.704	100.38
379.929	87.38
380.155	78.38
380.38	93.38
380.606	84.38
380.831	81.38
381.057	93.38
381.282	88.38
381.507	85.38
381.733	77.38
381.958	86.38
382.184	80.38
382.409	79.38
382.634	97.38
382.86	90.38
383.085	79.38
383.31	88.38
383.535	91.38
383.761	103.38
383.986	78.38
384.211	95.38
384.436	88.38
384.662	93.38
384.887	92.38
385.112	85.38
385.337	89.38
385.562	84.38
385.787	95.38
386.013	95.38
386.238	80.38
386.463	82.38
386.688	107.38
386.913	88.38
387.138	96.38
387.363	96.38
387.588	86.38
387.813	84.38
388.038	89.38
388.263	104.38
388.488	78.38
388.713	87.38
388.938	79.38
389.163	84.38
389.387	95.38
389.612	90.38
389.837	95.38
390.062	87.38
390.287	72.38
390.512	97.38
390.736	80.38
390.961	101.38
391.186	81.38
391.411	85.38
391.636	69.38
391.86	91.38
392.085	92.38
392.31	89.38
392.534	95.38
392.759	83.38
392.984	81.38
393.208	107.38
393.433	94.38
393.658	81.38
393.882	109.38
394.107	103.38
394.331	73.38
394.556	77.38
394.78	77.38
395.005	88.38
395.229	105.38
395.454	92.38
395.678	90.38
395.903	95.38
396.127	108.38
396.352	90.38
396.576	88.38
396.801	78.38
397.025	101.38
397.249	85.38
397.474	91.38
397.698	90.38
397.922	85.38
398.147	92.38
398.371	87.38
398.595	101.38
398.82	85.38
399.044	106.38
399.268	75.38
399.492	90.38
399.717	106.38
399.941	86.38
400.165	79.38
400.389	81.38
400.613	88.38
400.837	102.38
401.062	98.38
401.286	92.38
401.51	104.38
401.734	88.38
401.958	81.38
402.182	72.38
402.406	96.38
402.63	94.38
402.854	97.38
403.078	80.38
403.302	94.38
403.526	90.38
403.75	105.38
403.974	87.38
404.198	97.38
404.422	88.38
404.645	92.38
404.869	86.38
405.093	87.38
405.317	84.38
405.541	92.38
405.765	104.38
405.988	88.38
406.212	103.38
406.436	83.38
406.66	80.38
406.883	80.38
407.107	89.38
407.331	85.38
407.555	94.38
407.778	96.38
408.002	90.38
408.226	98.38
408.449	94.38
408.673	96.38
408.896	94.38
409.12	86.38
409.344	84.38
409.567	108.38
409.791	95.38
410.014	92.38
410.238	94.38
410.461	85.38
410.685	93.38
410.908	84.38
411.132	92.38
411.355	83.38
411.578	89.38
411.802	88.38
412.025	89.38
412.249	97.38
412.472	72.38
412.695	78.38
412.919	88.38
413.142	84.38
413.365	88.38
413.589	88.38
413.812	100.38
414.035	85.38
414.258	93.38
414.482	79.38
414.705	87.38
414.928	98.38
415.151	84.38
415.374	80.38
415.597	88.38
415.821	89.38
416.044	87.38
416.267	89.38
416.49	90.38
416.713	88.38
416.936	81.38
417.159	85.38
417.382	94.38
417.605	97.38
417.828	91.38
418.051	88.38
418.274	88.38
418.497	100.38
418.72	89.38
418.943	84.38
419.166	107.38
419.389	82.38
419.611	95.38
419.834	86.38
420.057	75.38
420.28	88.38
420.503	81.38
420.726	84.38
420.948	96.38
421.171	81.38
421.394	86.38
421.617	86.38
421.839	89.38
422.062	91.38
422.285	86.38
422.507	96.38
422.73	95.38
422.953	88.38
423.175	96.38
423.398	95.38
423.621	101.38
423.843	86.38
424.066	76.38
424.288	91.38
424.511	92.38
424.733	80.38
424.956	82.38
425.178	77.38
425.401	90.38
425.623	81.38
425.846	82.38
426.068	79.38
426.291	64.38
426.513	84.38
426.735	90.38
426.958	90.38
427.18	93.38
427.402	78.38
427.625	89.38
427.847	81.38
428.069	85.38
428.292	78.38
428.514	76.38
428.736	94.38
428.958	86.38
429.181	93.38
429.403	77.38
429.625	88.38
429.847	93.38
430.069	102.38
430.292	96.38
430.514	86.38
430.736	77.38
430.958	96.38
431.18	84.38
431.402	94.38
431.624	83.38
431.846	95.38
432.068	76.38
432.29	77.38
432.512	69.38
432.734	85.38
432.956	74.38
433.178	84.38
433.4	90.38
433.622	90.38
433.844	90.38
434.066	105.38
434.287	87.38
434.509	85.38
434.731	91.38
434.953	88.38
435.175	80.38
435.397	84.38
435.618	89.38
435.84	91.38
436.062	94.38
436.284	93.38
436.505	92.38
436.727	87.38
436.949	92.38
437.17	85.38
437.392	86.38
437.614	96.38
437.835	95.38
438.057	85.38
438.278	95.38
438.5	86.38
438.721	84.38
438.943	98.38
439.165	86.38
439.386	78.38
439.608	89.38
439.829	77.38
440.05	86.38
440.272	91.38
440.493	100.38
440.715	81.38
440.936	95.38
441.158	80.38
441.379	90.38
441.6	88.38
441.822	94.38
442.043	95.38
442.264	75.38
442.486	73.38
442.707	92.38
442.928	98.38
443.149	85.38
443.371	77.38
443.592	78.38
443.813	102.38
444.034	98.38
444.255	69.38
444.476	89.38
444.698	87.38
444.919	94.38
445.14	181.38
445.361	121.38
445.582	69.38
445.803	93.38
446.024	90.38
446.245	85.38
446.466	86.38
446.687	85.38
446.908	81.38
447.129	95.38
447.35	78.38
447.571	88.38
447.792	92.38
448.013	94.38
448.234	86.38
448.455	74.38
448.675	90.38
448.896	76.38
449.117	93.38
449.338	78.38
449.559	92.38
449.779	81.38
450	81.38
450.221	89.38
450.442	85.38
450.662	90.38
450.883	100.38
451.104	88.38
451.324	86.38
451.545	93.38
451.766	83.38
451.986	93.38
452.207	93.38
452.428	95.38
452.648	80.38
452.869	93.38
453.089	78.38
453.31	75.38
453.53	94.38
453.751	98.38
453.971	86.38
454.192	88.38
454.412	85.38
454.633	84.38
454.853	92.38
455.073	76.38
455.294	92.38
455.514	73.38
455.734	93.38
455.955	82.38
456.175	80.38
456.395	97.38
456.616	89.38
456.836	91.38
457.056	98.38
457.276	92.38
457.497	79.38
457.717	80.38
457.937	102.38
458.157	94.38
458.377	88.38
458.598	89.38
458.818	91.38
459.038	90.38
459.258	88.38
459.478	87.38
459.698	74.38
459.918	94.38
460.138	88.38
460.358	106.38
460.578	97.38
460.798	94.38
461.018	91.38
461.238	90.38
461.458	88.38
461.678	84.38
461.898	80.38
462.118	85.38
462.338	102.38
462.558	84.38
462.777	101.38
462.997	108.38
463.217	97.38
463.437	89.38
463.657	95.38
463.876	95.38
464.096	97.38
464.316	80.38
464.536	72.38
464.755	97.38
464.975	85.38
465.195	102.38
465.414	75.38
465.634	84.38
465.854	74.38
466.073	90.38
466.293	86.38
466.512	92.38
466.732	81.38
466.951	85.38
467.171	79.38
467.391	72.38
467.61	96.38
467.829	77.38
468.049	85.38
468.268	89.38
468.488	89.38
468.707	88.38
468.927	102.38
469.146	82.38
469.365	91.38
469.585	90.38
469.804	89.38
470.023	82.38
470.243	87.38
470.462	91.38
470.681	96.38
470.901	104.38
471.12	97.38
471.339	90.38
471.558	88.38
471.777	82.38
471.997	82.38
472.216	84.38
472.435	100.38
472.654	82.38
472.873	78.38
473.092	85.38
473.311	88.38
473.53	103.38
473.749	87.38
473.968	92.38
474.187	81.38
474.406	98.38
474.625	98.38
474.844	87.38
475.063	88.38
475.282	94.38
475.501	77.38
475.72	102.38
475.939	96.38
476.158	88.38
476.377	89.38
476.596	83.38
476.814	76.38
477.033	93.38
477.252	82.38
477.471	82.38
477.69	91.38
477.908	98.38
478.127	95.38
478.346	93.38
478.564	84.38
478.783	85.38
479.002	90.38
479.22	86.38
479.439	86.38
479.658	89.38
479.876	82.38
480.095	74.38
480.313	98.38
480.532	93.38
480.751	96.38
480.969	78.38
481.188	86.38
481.406	82.38
481.624	91.38
481.843	95.38
482.061	83.38
482.28	86.38
482.498	78.38
482.717	91.38
482.935	93.38
483.153	86.38
483.372	81.38
483.59	87.38
483.808	84.38
484.027	84.38
484.245	80.38
484.463	103.38
484.681	98.38
484.9	89.38
485.118	90.38
485.336	87.38
485.554	87.38
485.772	94.38
485.99	88.38
486.209	101.38
486.427	95.38
486.645	87.38
486.863	72.38
487.081	87.38
487.299	87.38
487.517	101.38
487.735	102.38
487.953	77.38
488.171	82.38
488.389	97.38
488.607	89.38
488.825	77.38
489.043	88.38
489.261	73.38
489.479	95.38
489.696	94.38
489.914	87.38
490.132	92.38
490.35	82.38
490.568	80.38
490.786	86.38
491.003	86.38
491.221	93.38
491.439	87.38
491.657	81.38
491.874	81.38
492.092	100.38
492.31	92.38
492.527	72.38
492.745	82.38
492.963	95.38
493.18	95.38
493.398	102.38
493.615	100.38
493.833	95.38
494.05	85.38
494.268	85.38
494.485	85.38
494.703	85.38
494.92	84.38
495.138	95.38
495.355	90.38
495.573	111.38
495.79	95.38
496.008	102.38
496.225	100.38
496.442	98.38
496.66	94.38
496.877	83.38
497.094	80.38
497.312	95.38
497.529	100.38
497.746	102.38
497.963	92.38
498.181	98.38
498.398	98.38
498.615	94.38
498.832	90.38
499.049	93.38
499.267	94.38
499.484	93.38
499.701	108.38
499.918	112.38
500.135	113.38
500.352	100.38
500.569	112.38
500.786	121.38
501.003	104.38
501.22	98.38
501.437	106.38
501.654	103.38
501.871	96.38
502.088	100.38
502.305	85.38
502.522	92.38
502.739	108.38
502.956	105.38
503.172	104.38
503.389	86.38
503.606	89.38
503.823	95.38
504.04	83.38
504.256	82.38
504.473	98.38
504.69	99.38
504.907	112.38
505.123	88.38
505.34	93.38
505.557	104.38
505.773	89.38
505.99	89.38
506.207	72.38
506.423	89.38
506.64	94.38
506.856	100.38
507.073	100.38
507.289	78.38
507.506	88.38
507.722	90.38
507.939	81.38
508.155	90.38
508.372	95.38
508.588	95.38
508.805	96.38
509.021	100.38
509.238	97.38
509.454	86.38
509.67	85.38
509.887	93.38
510.103	76.38
510.319	72.38
510.536	102.38
510.752	94.38
510.968	104.38
511.184	78.38
511.401	85.38
511.617	92.38
511.833	95.38
512.049	75.38
512.265	83.38
512.481	80.38
512.698	84.38
512.914	93.38
513.13	96.38
513.346	71.38
513.562	85.38
513.778	92.38
513.994	81.38
514.21	83.38
514.426	92.38
514.642	81.38
514.858	95.38
515.074	87.38
515.29	97.38
515.506	77.38
515.721	89.38
515.937	72.38
516.153	74.38
516.369	97.38
516.585	88.38
516.801	92.38
517.016	96.38
517.232	80.38
517.448	97.38
517.664	104.38
517.879	95.38
518.095	91.38
518.311	116.38
518.527	97.38
518.742	85.38
