Data from BG_HRD10591_017.txt Node
Date: Fri May 16 15:14:31 EDT 2025
User: Yrep
Spectrometer: HR+D1059
Trigger mode: 1
Integration Time (sec): 1.000000E-1
Scans to average: 1
Electric dark correction enabled: true
Nonlinearity correction enabled: false
Boxcar width: 0
XAxis mode: Wavelengths
Number of Pixels in Spectrum: 2048
>>>>>Begin Spectral Data<<<<<
223.165	-20.88
223.4	-20.88
223.635	-20.88
223.869	-18.88
224.104	-18.88
224.338	-6.88
224.573	-29.88
224.808	-6.88
225.042	-10.88
225.277	-2.88
225.511	2.12
225.746	-0.88
225.98	13.12
226.215	22.12
226.449	8.12
226.683	20.12
226.918	23.12
227.152	28.12
227.387	29.12
227.621	25.12
227.856	39.12
228.09	58.12
228.324	44.12
228.559	48.12
228.793	58.12
229.027	72.12
229.262	56.12
229.496	61.12
229.73	73.12
229.964	68.12
230.199	64.12
230.433	78.12
230.667	70.12
230.901	72.12
231.136	66.12
231.37	91.12
231.604	74.12
231.838	76.12
232.072	83.12
232.306	79.12
232.541	89.12
232.775	62.12
233.009	74.12
233.243	85.12
233.477	70.12
233.711	75.12
233.945	84.12
234.179	67.12
234.413	75.12
234.647	77.12
234.881	73.12
235.115	60.12
235.349	62.12
235.583	74.12
235.817	85.12
236.051	75.12
236.285	83.12
236.519	93.12
236.753	96.12
236.987	72.12
237.221	78.12
237.455	68.12
237.689	88.12
237.922	79.12
238.156	74.12
238.39	80.12
238.624	77.12
238.858	54.12
239.091	73.12
239.325	54.12
239.559	74.12
239.793	68.12
240.027	89.12
240.26	61.12
240.494	68.12
240.728	67.12
240.961	86.12
241.195	80.12
241.429	67.12
241.662	68.12
241.896	87.12
242.13	59.12
242.363	74.12
242.597	76.12
242.83	73.12
243.064	60.12
243.298	72.12
243.531	68.12
243.765	83.12
243.998	63.12
244.232	72.12
244.465	70.12
244.699	67.12
244.932	68.12
245.166	84.12
245.399	73.12
245.633	76.12
245.866	84.12
246.099	71.12
246.333	72.12
246.566	69.12
246.8	70.12
247.033	73.12
247.266	68.12
247.5	88.12
247.733	71.12
247.966	69.12
248.2	78.12
248.433	62.12
248.666	70.12
248.899	76.12
249.133	71.12
249.366	82.12
249.599	76.12
249.832	93.12
250.066	72.12
250.299	88.12
250.532	79.12
250.765	76.12
250.998	76.12
251.231	90.12
251.465	81.12
251.698	70.12
251.931	62.12
252.164	67.12
252.397	75.12
252.63	75.12
252.863	75.12
253.096	83.12
253.329	76.12
253.562	77.12
253.795	65.12
254.028	76.12
254.261	70.12
254.494	76.12
254.727	64.12
254.96	75.12
255.193	76.12
255.426	63.12
255.659	69.12
255.892	86.12
256.124	78.12
256.357	80.12
256.59	79.12
256.823	70.12
257.056	66.12
257.289	66.12
257.521	83.12
257.754	76.12
257.987	82.12
258.22	83.12
258.452	77.12
258.685	79.12
258.918	74.12
259.151	71.12
259.383	83.12
259.616	82.12
259.849	83.12
260.081	77.12
260.314	83.12
260.547	83.12
260.779	77.12
261.012	75.12
261.244	84.12
261.477	90.12
261.71	86.12
261.942	78.12
262.175	90.12
262.407	74.12
262.64	88.12
262.872	86.12
263.105	68.12
263.337	82.12
263.57	82.12
263.802	85.12
264.035	80.12
264.267	78.12
264.499	74.12
264.732	83.12
264.964	88.12
265.197	72.12
265.429	76.12
265.661	63.12
265.894	91.12
266.126	94.12
266.358	82.12
266.591	77.12
266.823	79.12
267.055	77.12
267.287	71.12
267.52	77.12
267.752	101.12
267.984	76.12
268.216	80.12
268.448	77.12
268.681	82.12
268.913	88.12
269.145	85.12
269.377	81.12
269.609	75.12
269.841	83.12
270.073	79.12
270.306	78.12
270.538	66.12
270.77	80.12
271.002	80.12
271.234	87.12
271.466	79.12
271.698	71.12
271.93	81.12
272.162	87.12
272.394	80.12
272.626	87.12
272.858	83.12
273.09	91.12
273.322	77.12
273.553	78.12
273.785	94.12
274.017	75.12
274.249	67.12
274.481	84.12
274.713	73.12
274.945	92.12
275.176	70.12
275.408	81.12
275.64	69.12
275.872	85.12
276.104	80.12
276.335	76.12
276.567	81.12
276.799	63.12
277.031	85.12
277.262	76.12
277.494	91.12
277.726	72.12
277.957	91.12
278.189	81.12
278.421	69.12
278.652	56.12
278.884	79.12
279.115	98.12
279.347	80.12
279.579	77.12
279.81	80.12
280.042	84.12
280.273	80.12
280.505	85.12
280.736	92.12
280.968	91.12
281.199	79.12
281.431	82.12
281.662	94.12
281.894	83.12
282.125	87.12
282.356	84.12
282.588	74.12
282.819	104.12
283.051	80.12
283.282	77.12
283.513	76.12
283.745	98.12
283.976	87.12
284.207	88.12
284.439	80.12
284.67	79.12
284.901	86.12
285.132	82.12
285.364	86.12
285.595	68.12
285.826	79.12
286.057	74.12
286.288	87.12
286.52	84.12
286.751	88.12
286.982	81.12
287.213	83.12
287.444	93.12
287.675	74.12
287.906	83.12
288.138	98.12
288.369	93.12
288.6	68.12
288.831	85.12
289.062	82.12
289.293	102.12
289.524	82.12
289.755	88.12
289.986	89.12
290.217	82.12
290.448	92.12
290.679	99.12
290.91	96.12
291.141	89.12
291.371	86.12
291.602	81.12
291.833	89.12
292.064	85.12
292.295	76.12
292.526	98.12
292.757	79.12
292.987	88.12
293.218	82.12
293.449	84.12
293.68	88.12
293.91	76.12
294.141	98.12
294.372	90.12
294.603	89.12
294.833	85.12
295.064	98.12
295.295	92.12
295.525	77.12
295.756	87.12
295.987	75.12
296.217	84.12
296.448	84.12
296.679	85.12
296.909	77.12
297.14	80.12
297.37	81.12
297.601	76.12
297.831	81.12
298.062	93.12
298.292	71.12
298.523	86.12
298.753	96.12
298.984	99.12
299.214	72.12
299.445	99.12
299.675	77.12
299.905	88.12
300.136	92.12
300.366	81.12
300.597	98.12
300.827	85.12
301.057	84.12
301.288	85.12
301.518	80.12
301.748	74.12
301.979	97.12
302.209	90.12
302.439	87.12
302.669	74.12
302.9	90.12
303.13	83.12
303.36	78.12
303.59	96.12
303.82	76.12
304.051	83.12
304.281	91.12
304.511	100.12
304.741	94.12
304.971	82.12
305.201	92.12
305.431	87.12
305.661	80.12
305.891	86.12
306.121	77.12
306.352	86.12
306.582	87.12
306.812	88.12
307.042	82.12
307.272	72.12
307.502	70.12
307.731	91.12
307.961	69.12
308.191	78.12
308.421	83.12
308.651	88.12
308.881	77.12
309.111	86.12
309.341	73.12
309.571	93.12
309.8	85.12
310.03	74.12
310.26	92.12
310.49	86.12
310.72	92.12
310.949	96.12
311.179	91.12
311.409	79.12
311.639	78.12
311.868	89.12
312.098	96.12
312.328	86.12
312.557	92.12
312.787	89.12
313.017	81.12
313.246	99.12
313.476	88.12
313.706	81.12
313.935	78.12
314.165	85.12
314.394	98.12
314.624	92.12
314.853	91.12
315.083	94.12
315.312	83.12
315.542	94.12
315.771	96.12
316.001	93.12
316.23	84.12
316.46	87.12
316.689	84.12
316.919	82.12
317.148	86.12
317.377	94.12
317.607	90.12
317.836	70.12
318.065	90.12
318.295	89.12
318.524	89.12
318.753	83.12
318.983	85.12
319.212	85.12
319.441	81.12
319.67	101.12
319.9	100.12
320.129	92.12
320.358	85.12
320.587	85.12
320.816	88.12
321.046	90.12
321.275	102.12
321.504	81.12
321.733	76.12
321.962	83.12
322.191	80.12
322.42	92.12
322.649	87.12
322.878	82.12
323.108	88.12
323.337	96.12
323.566	89.12
323.795	89.12
324.024	73.12
324.253	89.12
324.482	80.12
324.71	93.12
324.939	90.12
325.168	92.12
325.397	81.12
325.626	76.12
325.855	94.12
326.084	80.12
326.313	76.12
326.542	90.12
326.77	94.12
326.999	83.12
327.228	84.12
327.457	88.12
327.686	88.12
327.914	90.12
328.143	89.12
328.372	90.12
328.6	85.12
328.829	81.12
329.058	79.12
329.287	87.12
329.515	79.12
329.744	94.12
329.972	90.12
330.201	81.12
330.43	70.12
330.658	86.12
330.887	82.12
331.115	89.12
331.344	84.12
331.572	82.12
331.801	89.12
332.03	87.12
332.258	90.12
332.486	85.12
332.715	85.12
332.943	76.12
333.172	73.12
333.4	97.12
333.629	89.12
333.857	91.12
334.085	81.12
334.314	104.12
334.542	86.12
334.771	78.12
334.999	89.12
335.227	93.12
335.455	77.12
335.684	100.12
335.912	87.12
336.14	83.12
336.369	89.12
336.597	77.12
336.825	80.12
337.053	82.12
337.281	93.12
337.51	92.12
337.738	97.12
337.966	87.12
338.194	92.12
338.422	96.12
338.65	86.12
338.878	90.12
339.106	100.12
339.334	70.12
339.562	98.12
339.79	84.12
340.018	84.12
340.246	80.12
340.474	93.12
340.702	86.12
340.93	91.12
341.158	83.12
341.386	78.12
341.614	84.12
341.842	93.12
342.07	81.12
342.298	82.12
342.526	82.12
342.754	89.12
342.981	82.12
343.209	81.12
343.437	89.12
343.665	84.12
343.893	85.12
344.12	100.12
344.348	98.12
344.576	92.12
344.804	86.12
345.031	78.12
345.259	90.12
345.487	83.12
345.714	75.12
345.942	89.12
346.17	87.12
346.397	89.12
346.625	75.12
346.853	92.12
347.08	84.12
347.308	88.12
347.535	92.12
347.763	93.12
347.99	76.12
348.218	85.12
348.445	88.12
348.673	75.12
348.9	88.12
349.128	80.12
349.355	88.12
349.583	91.12
349.81	79.12
350.037	80.12
350.265	99.12
350.492	84.12
350.72	74.12
350.947	92.12
351.174	85.12
351.402	80.12
351.629	75.12
351.856	92.12
352.083	88.12
352.311	70.12
352.538	73.12
352.765	83.12
352.992	84.12
353.22	87.12
353.447	81.12
353.674	106.12
353.901	84.12
354.128	87.12
354.355	89.12
354.583	92.12
354.81	84.12
355.037	86.12
355.264	85.12
355.491	88.12
355.718	88.12
355.945	87.12
356.172	88.12
356.399	83.12
356.626	75.12
356.853	74.12
357.08	90.12
357.307	84.12
357.534	80.12
357.761	76.12
357.988	88.12
358.215	82.12
358.441	94.12
358.668	83.12
358.895	67.12
359.122	78.12
359.349	98.12
359.576	79.12
359.802	77.12
360.029	84.12
360.256	82.12
360.483	87.12
360.709	83.12
360.936	93.12
361.163	91.12
361.39	100.12
361.616	83.12
361.843	74.12
362.07	85.12
362.296	81.12
362.523	74.12
362.749	85.12
362.976	77.12
363.203	87.12
363.429	75.12
363.656	75.12
363.882	91.12
364.109	92.12
364.335	68.12
364.562	77.12
364.788	97.12
365.015	82.12
365.241	102.12
365.468	83.12
365.694	78.12
365.92	94.12
366.147	84.12
366.373	86.12
366.599	84.12
366.826	81.12
367.052	98.12
367.278	93.12
367.505	85.12
367.731	108.12
367.957	91.12
368.184	84.12
368.41	97.12
368.636	80.12
368.862	90.12
369.089	84.12
369.315	88.12
369.541	89.12
369.767	97.12
369.993	83.12
370.219	72.12
370.445	64.12
370.672	70.12
370.898	93.12
371.124	76.12
371.35	82.12
371.576	84.12
371.802	79.12
372.028	80.12
372.254	83.12
372.48	91.12
372.706	87.12
372.932	82.12
373.158	77.12
373.384	81.12
373.61	90.12
373.835	85.12
374.061	80.12
374.287	84.12
374.513	90.12
374.739	68.12
374.965	74.12
375.191	92.12
375.416	93.12
375.642	90.12
375.868	81.12
376.094	89.12
376.319	96.12
376.545	81.12
376.771	86.12
376.997	84.12
377.222	90.12
377.448	79.12
377.674	101.12
377.899	90.12
378.125	82.12
378.35	87.12
378.576	86.12
378.802	89.12
379.027	89.12
379.253	81.12
379.478	104.12
379.704	84.12
379.929	82.12
380.155	77.12
380.38	92.12
380.606	87.12
380.831	76.12
381.057	85.12
381.282	87.12
381.507	90.12
381.733	99.12
381.958	91.12
382.184	89.12
382.409	79.12
382.634	82.12
382.86	81.12
383.085	85.12
383.31	83.12
383.535	82.12
383.761	91.12
383.986	93.12
384.211	100.12
384.436	72.12
384.662	83.12
384.887	91.12
385.112	85.12
385.337	80.12
385.562	96.12
385.787	76.12
386.013	89.12
386.238	72.12
386.463	86.12
386.688	100.12
386.913	77.12
387.138	82.12
387.363	85.12
387.588	85.12
387.813	90.12
388.038	87.12
388.263	84.12
388.488	86.12
388.713	104.12
388.938	74.12
389.163	85.12
389.387	78.12
389.612	84.12
389.837	77.12
390.062	76.12
390.287	84.12
390.512	99.12
390.736	87.12
390.961	87.12
391.186	90.12
391.411	84.12
391.636	70.12
391.86	88.12
392.085	85.12
392.31	91.12
392.534	91.12
392.759	85.12
392.984	82.12
393.208	83.12
393.433	87.12
393.658	79.12
393.882	89.12
394.107	77.12
394.331	96.12
394.556	86.12
394.78	85.12
395.005	83.12
395.229	90.12
395.454	100.12
395.678	84.12
395.903	98.12
396.127	81.12
396.352	101.12
396.576	92.12
396.801	86.12
397.025	83.12
397.249	109.12
397.474	103.12
397.698	85.12
397.922	84.12
398.147	93.12
398.371	72.12
398.595	96.12
398.82	78.12
399.044	84.12
399.268	89.12
399.492	90.12
399.717	87.12
399.941	70.12
400.165	92.12
400.389	88.12
400.613	93.12
400.837	91.12
401.062	75.12
401.286	83.12
401.51	88.12
401.734	89.12
401.958	80.12
402.182	87.12
402.406	80.12
402.63	84.12
402.854	89.12
403.078	86.12
403.302	87.12
403.526	88.12
403.75	85.12
403.974	99.12
404.198	89.12
404.422	96.12
404.645	84.12
404.869	88.12
405.093	86.12
405.317	80.12
405.541	88.12
405.765	86.12
405.988	90.12
406.212	97.12
406.436	77.12
406.66	73.12
406.883	105.12
407.107	86.12
407.331	97.12
407.555	98.12
407.778	82.12
408.002	68.12
408.226	96.12
408.449	92.12
408.673	80.12
408.896	77.12
409.12	94.12
409.344	81.12
409.567	91.12
409.791	86.12
410.014	89.12
410.238	85.12
410.461	76.12
410.685	84.12
410.908	65.12
411.132	75.12
411.355	76.12
411.578	86.12
411.802	97.12
412.025	88.12
412.249	88.12
412.472	93.12
412.695	77.12
412.919	93.12
413.142	81.12
413.365	93.12
413.589	76.12
413.812	68.12
414.035	73.12
414.258	105.12
414.482	82.12
414.705	88.12
414.928	87.12
415.151	101.12
415.374	101.12
415.597	84.12
415.821	89.12
416.044	86.12
416.267	88.12
416.49	95.12
416.713	90.12
416.936	84.12
417.159	82.12
417.382	81.12
417.605	66.12
417.828	75.12
418.051	89.12
418.274	68.12
418.497	80.12
418.72	80.12
418.943	83.12
419.166	89.12
419.389	74.12
419.611	94.12
419.834	95.12
420.057	88.12
420.28	98.12
420.503	94.12
420.726	82.12
420.948	84.12
421.171	108.12
421.394	86.12
421.617	98.12
421.839	93.12
422.062	86.12
422.285	84.12
422.507	100.12
422.73	84.12
422.953	77.12
423.175	84.12
423.398	81.12
423.621	67.12
423.843	98.12
424.066	78.12
424.288	87.12
424.511	90.12
424.733	78.12
424.956	99.12
425.178	84.12
425.401	98.12
425.623	104.12
425.846	92.12
426.068	72.12
426.291	69.12
426.513	81.12
426.735	89.12
426.958	80.12
427.18	91.12
427.402	88.12
427.625	85.12
427.847	81.12
428.069	80.12
428.292	88.12
428.514	88.12
428.736	89.12
428.958	77.12
429.181	85.12
429.403	93.12
429.625	77.12
429.847	92.12
430.069	89.12
430.292	93.12
430.514	78.12
430.736	76.12
430.958	91.12
431.18	73.12
431.402	87.12
431.624	86.12
431.846	98.12
432.068	88.12
432.29	75.12
432.512	84.12
432.734	84.12
432.956	84.12
433.178	92.12
433.4	82.12
433.622	84.12
433.844	90.12
434.066	77.12
434.287	81.12
434.509	90.12
434.731	71.12
434.953	68.12
435.175	78.12
435.397	83.12
435.618	72.12
435.84	91.12
436.062	88.12
436.284	77.12
436.505	87.12
436.727	76.12
436.949	93.12
437.17	91.12
437.392	85.12
437.614	75.12
437.835	89.12
438.057	87.12
438.278	85.12
438.5	83.12
438.721	85.12
438.943	107.12
439.165	88.12
439.386	86.12
439.608	90.12
439.829	96.12
440.05	85.12
440.272	93.12
440.493	94.12
440.715	74.12
440.936	91.12
441.158	89.12
441.379	102.12
441.6	90.12
441.822	81.12
442.043	87.12
442.264	89.12
442.486	91.12
442.707	84.12
442.928	80.12
443.149	76.12
443.371	85.12
443.592	79.12
443.813	89.12
444.034	72.12
444.255	93.12
444.476	84.12
444.698	78.12
444.919	97.12
445.14	149.12
445.361	109.12
445.582	85.12
445.803	88.12
446.024	88.12
446.245	71.12
446.466	99.12
446.687	90.12
446.908	96.12
447.129	92.12
447.35	84.12
447.571	84.12
447.792	83.12
448.013	74.12
448.234	73.12
448.455	88.12
448.675	88.12
448.896	89.12
449.117	92.12
449.338	82.12
449.559	77.12
449.779	84.12
450	89.12
450.221	90.12
450.442	92.12
450.662	88.12
450.883	87.12
451.104	71.12
451.324	70.12
451.545	92.12
451.766	82.12
451.986	87.12
452.207	78.12
452.428	89.12
452.648	82.12
452.869	86.12
453.089	92.12
453.31	85.12
453.53	81.12
453.751	83.12
453.971	85.12
454.192	74.12
454.412	78.12
454.633	81.12
454.853	88.12
455.073	79.12
455.294	77.12
455.514	83.12
455.734	84.12
455.955	82.12
456.175	86.12
456.395	81.12
456.616	84.12
456.836	82.12
457.056	93.12
457.276	76.12
457.497	78.12
457.717	91.12
457.937	108.12
458.157	84.12
458.377	102.12
458.598	83.12
458.818	77.12
459.038	98.12
459.258	76.12
459.478	88.12
459.698	85.12
459.918	92.12
460.138	86.12
460.358	83.12
460.578	88.12
460.798	98.12
461.018	88.12
461.238	100.12
461.458	88.12
461.678	89.12
461.898	100.12
462.118	90.12
462.338	100.12
462.558	91.12
462.777	81.12
462.997	99.12
463.217	96.12
463.437	103.12
463.657	96.12
463.876	92.12
464.096	90.12
464.316	84.12
464.536	87.12
464.755	92.12
464.975	86.12
465.195	90.12
465.414	90.12
465.634	84.12
465.854	83.12
466.073	89.12
466.293	89.12
466.512	100.12
466.732	90.12
466.951	84.12
467.171	85.12
467.391	83.12
467.61	76.12
467.829	83.12
468.049	78.12
468.268	89.12
468.488	90.12
468.707	87.12
468.927	83.12
469.146	91.12
469.365	90.12
469.585	77.12
469.804	79.12
470.023	90.12
470.243	89.12
470.462	96.12
470.681	70.12
470.901	94.12
471.12	84.12
471.339	91.12
471.558	86.12
471.777	85.12
471.997	83.12
472.216	96.12
472.435	77.12
472.654	85.12
472.873	80.12
473.092	75.12
473.311	75.12
473.53	82.12
473.749	77.12
473.968	90.12
474.187	89.12
474.406	77.12
474.625	82.12
474.844	76.12
475.063	85.12
475.282	87.12
475.501	82.12
475.72	94.12
475.939	72.12
476.158	84.12
476.377	81.12
476.596	96.12
476.814	88.12
477.033	89.12
477.252	83.12
477.471	86.12
477.69	93.12
477.908	68.12
478.127	96.12
478.346	98.12
478.564	89.12
478.783	98.12
479.002	86.12
479.22	84.12
479.439	83.12
479.658	83.12
479.876	91.12
480.095	86.12
480.313	104.12
480.532	87.12
480.751	80.12
480.969	83.12
481.188	83.12
481.406	89.12
481.624	96.12
481.843	86.12
482.061	82.12
482.28	98.12
482.498	84.12
482.717	76.12
482.935	83.12
483.153	94.12
483.372	83.12
483.59	90.12
483.808	78.12
484.027	98.12
484.245	89.12
484.463	75.12
484.681	94.12
484.9	92.12
485.118	98.12
485.336	104.12
485.554	92.12
485.772	102.12
485.99	87.12
486.209	90.12
486.427	87.12
486.645	82.12
486.863	91.12
487.081	76.12
487.299	81.12
487.517	92.12
487.735	80.12
487.953	79.12
488.171	104.12
488.389	78.12
488.607	96.12
488.825	93.12
489.043	90.12
489.261	83.12
489.479	93.12
489.696	84.12
489.914	99.12
490.132	90.12
490.35	88.12
490.568	85.12
490.786	90.12
491.003	84.12
491.221	82.12
491.439	80.12
491.657	91.12
491.874	88.12
492.092	99.12
492.31	94.12
492.527	95.12
492.745	89.12
492.963	85.12
493.18	97.12
493.398	94.12
493.615	88.12
493.833	75.12
494.05	89.12
494.268	83.12
494.485	86.12
494.703	87.12
494.92	85.12
495.138	96.12
495.355	91.12
495.573	78.12
495.79	70.12
496.008	73.12
496.225	78.12
496.442	98.12
496.66	96.12
496.877	86.12
497.094	100.12
497.312	77.12
497.529	90.12
497.746	102.12
497.963	102.12
498.181	91.12
498.398	82.12
498.615	85.12
498.832	100.12
499.049	91.12
499.267	92.12
499.484	88.12
499.701	98.12
499.918	99.12
500.135	110.12
500.352	120.12
500.569	115.12
500.786	102.12
501.003	101.12
501.22	96.12
501.437	104.12
501.654	105.12
501.871	105.12
502.088	96.12
502.305	99.12
502.522	100.12
502.739	92.12
502.956	86.12
503.172	100.12
503.389	102.12
503.606	88.12
503.823	90.12
504.04	84.12
504.256	92.12
504.473	98.12
504.69	92.12
504.907	86.12
505.123	88.12
505.34	92.12
505.557	88.12
505.773	93.12
505.99	98.12
506.207	91.12
506.423	100.12
506.64	105.12
506.856	93.12
507.073	88.12
507.289	80.12
507.506	91.12
507.722	89.12
507.939	86.12
508.155	90.12
508.372	94.12
508.588	86.12
508.805	76.12
509.021	80.12
509.238	85.12
509.454	96.12
509.67	86.12
509.887	88.12
510.103	72.12
510.319	85.12
510.536	98.12
510.752	81.12
510.968	78.12
511.184	96.12
511.401	92.12
511.617	91.12
511.833	91.12
512.049	90.12
512.265	91.12
512.481	100.12
512.698	86.12
512.914	89.12
513.13	88.12
513.346	105.12
513.562	96.12
513.778	97.12
513.994	93.12
514.21	75.12
514.426	82.12
514.642	78.12
514.858	81.12
515.074	90.12
515.29	87.12
515.506	82.12
515.721	83.12
515.937	89.12
516.153	98.12
516.369	76.12
516.585	78.12
516.801	91.12
517.016	97.12
517.232	89.12
517.448	89.12
517.664	83.12
517.879	82.12
518.095	86.12
518.311	84.12
518.527	87.12
518.742	84.12
518.958	86.12
519.173	82.12
519.389	88.12
