Data from BG_HRD10591_039.txt Node
Date: Fri May 16 15:14:42 EDT 2025
User: Yrep
Spectrometer: HR+D1059
Trigger mode: 1
Integration Time (sec): 1.000000E-1
Scans to average: 1
Electric dark correction enabled: true
Nonlinearity correction enabled: false
Boxcar width: 0
XAxis mode: Wavelengths
Number of Pixels in Spectrum: 2048
>>>>>Begin Spectral Data<<<<<
223.165	-7.69
223.4	-7.69
223.635	-7.69
223.869	-20.69
224.104	-27.69
224.338	-17.69
224.573	-9.69
224.808	-17.69
225.042	-5.69
225.277	-11.69
225.511	-3.69
225.746	12.31
225.98	12.31
226.215	5.31
226.449	6.31
226.683	20.31
226.918	24.31
227.152	41.31
227.387	28.31
227.621	36.31
227.856	45.31
228.09	50.31
228.324	46.31
228.559	48.31
228.793	54.31
229.027	44.31
229.262	68.31
229.496	70.31
229.73	62.31
229.964	69.31
230.199	84.31
230.433	72.31
230.667	77.31
230.901	70.31
231.136	94.31
231.37	71.31
231.604	70.31
231.838	77.31
232.072	76.31
232.306	82.31
232.541	86.31
232.775	85.31
233.009	93.31
233.243	89.31
233.477	85.31
233.711	82.31
233.945	91.31
234.179	89.31
234.413	83.31
234.647	87.31
234.881	77.31
235.115	61.31
235.349	71.31
235.583	83.31
235.817	72.31
236.051	68.31
236.285	76.31
236.519	86.31
236.753	73.31
236.987	74.31
237.221	80.31
237.455	87.31
237.689	68.31
237.922	92.31
238.156	80.31
238.39	80.31
238.624	70.31
238.858	65.31
239.091	61.31
239.325	65.31
239.559	62.31
239.793	75.31
240.027	68.31
240.26	77.31
240.494	87.31
240.728	82.31
240.961	73.31
241.195	83.31
241.429	79.31
241.662	82.31
241.896	82.31
242.13	75.31
242.363	77.31
242.597	63.31
242.83	72.31
243.064	63.31
243.298	57.31
243.531	78.31
243.765	77.31
243.998	79.31
244.232	69.31
244.465	75.31
244.699	78.31
244.932	69.31
245.166	75.31
245.399	72.31
245.633	72.31
245.866	64.31
246.099	70.31
246.333	76.31
246.566	103.31
246.8	68.31
247.033	74.31
247.266	76.31
247.5	77.31
247.733	77.31
247.966	63.31
248.2	75.31
248.433	93.31
248.666	79.31
248.899	76.31
249.133	76.31
249.366	84.31
249.599	74.31
249.832	75.31
250.066	85.31
250.299	64.31
250.532	90.31
250.765	82.31
250.998	66.31
251.231	83.31
251.465	72.31
251.698	84.31
251.931	82.31
252.164	69.31
252.397	88.31
252.63	72.31
252.863	70.31
253.096	72.31
253.329	82.31
253.562	64.31
253.795	73.31
254.028	90.31
254.261	88.31
254.494	77.31
254.727	86.31
254.96	79.31
255.193	61.31
255.426	74.31
255.659	78.31
255.892	68.31
256.124	86.31
256.357	66.31
256.59	82.31
256.823	73.31
257.056	77.31
257.289	80.31
257.521	83.31
257.754	70.31
257.987	75.31
258.22	90.31
258.452	80.31
258.685	62.31
258.918	87.31
259.151	80.31
259.383	83.31
259.616	82.31
259.849	77.31
260.081	79.31
260.314	73.31
260.547	82.31
260.779	76.31
261.012	79.31
261.244	68.31
261.477	78.31
261.71	58.31
261.942	70.31
262.175	79.31
262.407	80.31
262.64	80.31
262.872	81.31
263.105	72.31
263.337	80.31
263.57	77.31
263.802	91.31
264.035	68.31
264.267	64.31
264.499	77.31
264.732	79.31
264.964	79.31
265.197	86.31
265.429	70.31
265.661	80.31
265.894	67.31
266.126	85.31
266.358	76.31
266.591	88.31
266.823	79.31
267.055	84.31
267.287	78.31
267.52	83.31
267.752	94.31
267.984	67.31
268.216	82.31
268.448	84.31
268.681	82.31
268.913	84.31
269.145	91.31
269.377	86.31
269.609	80.31
269.841	78.31
270.073	92.31
270.306	84.31
270.538	83.31
270.77	82.31
271.002	77.31
271.234	81.31
271.466	96.31
271.698	78.31
271.93	81.31
272.162	83.31
272.394	86.31
272.626	85.31
272.858	96.31
273.09	72.31
273.322	79.31
273.553	71.31
273.785	96.31
274.017	79.31
274.249	87.31
274.481	99.31
274.713	70.31
274.945	88.31
275.176	83.31
275.408	70.31
275.64	77.31
275.872	84.31
276.104	78.31
276.335	83.31
276.567	88.31
276.799	82.31
277.031	82.31
277.262	97.31
277.494	87.31
277.726	86.31
277.957	92.31
278.189	69.31
278.421	89.31
278.652	84.31
278.884	100.31
279.115	88.31
279.347	95.31
279.579	81.31
279.81	63.31
280.042	84.31
280.273	92.31
280.505	80.31
280.736	79.31
280.968	93.31
281.199	76.31
281.431	82.31
281.662	96.31
281.894	87.31
282.125	89.31
282.356	62.31
282.588	90.31
282.819	83.31
283.051	79.31
283.282	98.31
283.513	92.31
283.745	96.31
283.976	61.31
284.207	87.31
284.439	73.31
284.67	84.31
284.901	87.31
285.132	94.31
285.364	90.31
285.595	82.31
285.826	90.31
286.057	78.31
286.288	93.31
286.52	92.31
286.751	70.31
286.982	90.31
287.213	91.31
287.444	86.31
287.675	91.31
287.906	91.31
288.138	90.31
288.369	74.31
288.6	83.31
288.831	93.31
289.062	83.31
289.293	75.31
289.524	71.31
289.755	92.31
289.986	74.31
290.217	94.31
290.448	93.31
290.679	92.31
290.91	73.31
291.141	78.31
291.371	79.31
291.602	91.31
291.833	82.31
292.064	88.31
292.295	83.31
292.526	85.31
292.757	86.31
292.987	100.31
293.218	83.31
293.449	85.31
293.68	73.31
293.91	88.31
294.141	76.31
294.372	67.31
294.603	87.31
294.833	76.31
295.064	76.31
295.295	97.31
295.525	86.31
295.756	82.31
295.987	86.31
296.217	71.31
296.448	80.31
296.679	78.31
296.909	86.31
297.14	81.31
297.37	89.31
297.601	68.31
297.831	86.31
298.062	80.31
298.292	93.31
298.523	81.31
298.753	84.31
298.984	82.31
299.214	74.31
299.445	90.31
299.675	73.31
299.905	90.31
300.136	82.31
300.366	83.31
300.597	76.31
300.827	77.31
301.057	87.31
301.288	79.31
301.518	75.31
301.748	78.31
301.979	92.31
302.209	63.31
302.439	92.31
302.669	100.31
302.9	92.31
303.13	96.31
303.36	83.31
303.59	84.31
303.82	91.31
304.051	82.31
304.281	80.31
304.511	91.31
304.741	88.31
304.971	83.31
305.201	87.31
305.431	84.31
305.661	87.31
305.891	91.31
306.121	88.31
306.352	87.31
306.582	80.31
306.812	76.31
307.042	86.31
307.272	85.31
307.502	94.31
307.731	95.31
307.961	82.31
308.191	95.31
308.421	76.31
308.651	92.31
308.881	83.31
309.111	71.31
309.341	76.31
309.571	80.31
309.8	87.31
310.03	79.31
310.26	84.31
310.49	92.31
310.72	76.31
310.949	81.31
311.179	86.31
311.409	78.31
311.639	84.31
311.868	85.31
312.098	92.31
312.328	74.31
312.557	92.31
312.787	77.31
313.017	83.31
313.246	89.31
313.476	73.31
313.706	99.31
313.935	93.31
314.165	80.31
314.394	77.31
314.624	78.31
314.853	68.31
315.083	87.31
315.312	82.31
315.542	77.31
315.771	98.31
316.001	72.31
316.23	80.31
316.46	84.31
316.689	84.31
316.919	88.31
317.148	81.31
317.377	82.31
317.607	76.31
317.836	91.31
318.065	85.31
318.295	91.31
318.524	87.31
318.753	74.31
318.983	70.31
319.212	80.31
319.441	90.31
319.67	68.31
319.9	86.31
320.129	70.31
320.358	74.31
320.587	88.31
320.816	91.31
321.046	100.31
321.275	90.31
321.504	65.31
321.733	104.31
321.962	83.31
322.191	78.31
322.42	93.31
322.649	84.31
322.878	86.31
323.108	94.31
323.337	79.31
323.566	74.31
323.795	78.31
324.024	96.31
324.253	85.31
324.482	91.31
324.71	79.31
324.939	76.31
325.168	84.31
325.397	89.31
325.626	92.31
325.855	80.31
326.084	69.31
326.313	79.31
326.542	77.31
326.77	79.31
326.999	78.31
327.228	83.31
327.457	66.31
327.686	74.31
327.914	96.31
328.143	88.31
328.372	69.31
328.6	80.31
328.829	84.31
329.058	86.31
329.287	79.31
329.515	66.31
329.744	84.31
329.972	84.31
330.201	77.31
330.43	76.31
330.658	91.31
330.887	86.31
331.115	74.31
331.344	71.31
331.572	83.31
331.801	75.31
332.03	74.31
332.258	76.31
332.486	90.31
332.715	88.31
332.943	83.31
333.172	75.31
333.4	84.31
333.629	90.31
333.857	115.31
334.085	83.31
334.314	90.31
334.542	85.31
334.771	93.31
334.999	86.31
335.227	79.31
335.455	73.31
335.684	52.31
335.912	84.31
336.14	81.31
336.369	82.31
336.597	80.31
336.825	89.31
337.053	85.31
337.281	83.31
337.51	87.31
337.738	82.31
337.966	85.31
338.194	80.31
338.422	84.31
338.65	75.31
338.878	80.31
339.106	92.31
339.334	81.31
339.562	94.31
339.79	83.31
340.018	76.31
340.246	92.31
340.474	78.31
340.702	79.31
340.93	81.31
341.158	85.31
341.386	77.31
341.614	78.31
341.842	92.31
342.07	102.31
342.298	74.31
342.526	70.31
342.754	84.31
342.981	81.31
343.209	83.31
343.437	91.31
343.665	93.31
343.893	87.31
344.12	89.31
344.348	88.31
344.576	79.31
344.804	79.31
345.031	90.31
345.259	78.31
345.487	79.31
345.714	90.31
345.942	77.31
346.17	95.31
346.397	84.31
346.625	87.31
346.853	101.31
347.08	79.31
347.308	79.31
347.535	77.31
347.763	85.31
347.99	79.31
348.218	87.31
348.445	91.31
348.673	77.31
348.9	87.31
349.128	89.31
349.355	84.31
349.583	83.31
349.81	84.31
350.037	86.31
350.265	83.31
350.492	92.31
350.72	74.31
350.947	78.31
351.174	83.31
351.402	67.31
351.629	82.31
351.856	82.31
352.083	72.31
352.311	76.31
352.538	78.31
352.765	84.31
352.992	82.31
353.22	85.31
353.447	77.31
353.674	86.31
353.901	77.31
354.128	80.31
354.355	93.31
354.583	72.31
354.81	78.31
355.037	80.31
355.264	88.31
355.491	70.31
355.718	78.31
355.945	86.31
356.172	86.31
356.399	88.31
356.626	89.31
356.853	82.31
357.08	82.31
357.307	74.31
357.534	94.31
357.761	86.31
357.988	93.31
358.215	85.31
358.441	98.31
358.668	87.31
358.895	87.31
359.122	77.31
359.349	99.31
359.576	77.31
359.802	80.31
360.029	82.31
360.256	71.31
360.483	62.31
360.709	78.31
360.936	84.31
361.163	74.31
361.39	72.31
361.616	83.31
361.843	87.31
362.07	77.31
362.296	70.31
362.523	75.31
362.749	73.31
362.976	91.31
363.203	102.31
363.429	78.31
363.656	93.31
363.882	71.31
364.109	71.31
364.335	81.31
364.562	88.31
364.788	85.31
365.015	91.31
365.241	74.31
365.468	84.31
365.694	71.31
365.92	89.31
366.147	96.31
366.373	79.31
366.599	61.31
366.826	72.31
367.052	69.31
367.278	86.31
367.505	80.31
367.731	95.31
367.957	76.31
368.184	90.31
368.41	81.31
368.636	94.31
368.862	85.31
369.089	82.31
369.315	87.31
369.541	76.31
369.767	75.31
369.993	66.31
370.219	78.31
370.445	87.31
370.672	92.31
370.898	79.31
371.124	95.31
371.35	87.31
371.576	87.31
371.802	77.31
372.028	88.31
372.254	82.31
372.48	70.31
372.706	77.31
372.932	70.31
373.158	78.31
373.384	81.31
373.61	90.31
373.835	84.31
374.061	82.31
374.287	91.31
374.513	71.31
374.739	92.31
374.965	74.31
375.191	87.31
375.416	79.31
375.642	74.31
375.868	83.31
376.094	85.31
376.319	72.31
376.545	70.31
376.771	77.31
376.997	89.31
377.222	88.31
377.448	84.31
377.674	78.31
377.899	79.31
378.125	82.31
378.35	100.31
378.576	74.31
378.802	82.31
379.027	75.31
379.253	78.31
379.478	76.31
379.704	65.31
379.929	74.31
380.155	58.31
380.38	80.31
380.606	80.31
380.831	82.31
381.057	86.31
381.282	83.31
381.507	102.31
381.733	77.31
381.958	78.31
382.184	58.31
382.409	71.31
382.634	88.31
382.86	91.31
383.085	88.31
383.31	80.31
383.535	89.31
383.761	94.31
383.986	71.31
384.211	84.31
384.436	91.31
384.662	87.31
384.887	66.31
385.112	94.31
385.337	93.31
385.562	77.31
385.787	79.31
386.013	73.31
386.238	80.31
386.463	78.31
386.688	91.31
386.913	72.31
387.138	88.31
387.363	86.31
387.588	79.31
387.813	76.31
388.038	81.31
388.263	73.31
388.488	86.31
388.713	84.31
388.938	75.31
389.163	91.31
389.387	87.31
389.612	76.31
389.837	90.31
390.062	77.31
390.287	67.31
390.512	90.31
390.736	86.31
390.961	78.31
391.186	85.31
391.411	86.31
391.636	86.31
391.86	77.31
392.085	88.31
392.31	83.31
392.534	90.31
392.759	93.31
392.984	79.31
393.208	84.31
393.433	81.31
393.658	89.31
393.882	70.31
394.107	72.31
394.331	79.31
394.556	84.31
394.78	70.31
395.005	83.31
395.229	101.31
395.454	82.31
395.678	69.31
395.903	86.31
396.127	82.31
396.352	99.31
396.576	89.31
396.801	79.31
397.025	67.31
397.249	75.31
397.474	100.31
397.698	82.31
397.922	61.31
398.147	76.31
398.371	81.31
398.595	92.31
398.82	78.31
399.044	83.31
399.268	79.31
399.492	93.31
399.717	71.31
399.941	86.31
400.165	95.31
400.389	77.31
400.613	83.31
400.837	78.31
401.062	82.31
401.286	77.31
401.51	88.31
401.734	71.31
401.958	78.31
402.182	79.31
402.406	78.31
402.63	83.31
402.854	94.31
403.078	82.31
403.302	67.31
403.526	89.31
403.75	79.31
403.974	95.31
404.198	78.31
404.422	87.31
404.645	94.31
404.869	89.31
405.093	85.31
405.317	71.31
405.541	82.31
405.765	66.31
405.988	78.31
406.212	72.31
406.436	88.31
406.66	85.31
406.883	74.31
407.107	83.31
407.331	74.31
407.555	79.31
407.778	80.31
408.002	86.31
408.226	60.31
408.449	90.31
408.673	77.31
408.896	76.31
409.12	75.31
409.344	81.31
409.567	86.31
409.791	74.31
410.014	74.31
410.238	80.31
410.461	78.31
410.685	78.31
410.908	84.31
411.132	86.31
411.355	83.31
411.578	88.31
411.802	78.31
412.025	75.31
412.249	82.31
412.472	75.31
412.695	70.31
412.919	74.31
413.142	83.31
413.365	87.31
413.589	81.31
413.812	78.31
414.035	73.31
414.258	54.31
414.482	87.31
414.705	80.31
414.928	75.31
415.151	74.31
415.374	87.31
415.597	79.31
415.821	80.31
416.044	79.31
416.267	89.31
416.49	79.31
416.713	75.31
416.936	84.31
417.159	84.31
417.382	88.31
417.605	88.31
417.828	82.31
418.051	79.31
418.274	83.31
418.497	76.31
418.72	65.31
418.943	76.31
419.166	86.31
419.389	73.31
419.611	89.31
419.834	78.31
420.057	86.31
420.28	72.31
420.503	85.31
420.726	69.31
420.948	74.31
421.171	89.31
421.394	91.31
421.617	90.31
421.839	83.31
422.062	67.31
422.285	82.31
422.507	72.31
422.73	80.31
422.953	87.31
423.175	96.31
423.398	65.31
423.621	74.31
423.843	88.31
424.066	82.31
424.288	83.31
424.511	88.31
424.733	70.31
424.956	76.31
425.178	72.31
425.401	80.31
425.623	79.31
425.846	71.31
426.068	78.31
426.291	84.31
426.513	74.31
426.735	63.31
426.958	86.31
427.18	82.31
427.402	83.31
427.625	63.31
427.847	69.31
428.069	78.31
428.292	86.31
428.514	82.31
428.736	76.31
428.958	77.31
429.181	91.31
429.403	75.31
429.625	70.31
429.847	90.31
430.069	69.31
430.292	85.31
430.514	76.31
430.736	82.31
430.958	87.31
431.18	75.31
431.402	61.31
431.624	77.31
431.846	83.31
432.068	75.31
432.29	74.31
432.512	86.31
432.734	85.31
432.956	79.31
433.178	83.31
433.4	88.31
433.622	80.31
433.844	82.31
434.066	79.31
434.287	78.31
434.509	71.31
434.731	88.31
434.953	104.31
435.175	72.31
435.397	69.31
435.618	81.31
435.84	91.31
436.062	73.31
436.284	67.31
436.505	87.31
436.727	88.31
436.949	76.31
437.17	86.31
437.392	63.31
437.614	70.31
437.835	66.31
438.057	69.31
438.278	75.31
438.5	68.31
438.721	82.31
438.943	83.31
439.165	76.31
439.386	83.31
439.608	68.31
439.829	64.31
440.05	70.31
440.272	69.31
440.493	100.31
440.715	77.31
440.936	84.31
441.158	92.31
441.379	86.31
441.6	79.31
441.822	79.31
442.043	91.31
442.264	91.31
442.486	82.31
442.707	71.31
442.928	85.31
443.149	98.31
443.371	82.31
443.592	83.31
443.813	92.31
444.034	83.31
444.255	83.31
444.476	67.31
444.698	87.31
444.919	84.31
445.14	159.31
445.361	121.31
445.582	74.31
445.803	74.31
446.024	80.31
446.245	90.31
446.466	61.31
446.687	85.31
446.908	91.31
447.129	85.31
447.35	84.31
447.571	74.31
447.792	76.31
448.013	76.31
448.234	76.31
448.455	77.31
448.675	89.31
448.896	76.31
449.117	70.31
449.338	78.31
449.559	75.31
449.779	75.31
450	57.31
450.221	84.31
450.442	88.31
450.662	84.31
450.883	68.31
451.104	78.31
451.324	72.31
451.545	82.31
451.766	81.31
451.986	77.31
452.207	77.31
452.428	88.31
452.648	76.31
452.869	73.31
453.089	68.31
453.31	86.31
453.53	77.31
453.751	78.31
453.971	76.31
454.192	92.31
454.412	84.31
454.633	87.31
454.853	76.31
455.073	73.31
455.294	100.31
455.514	76.31
455.734	76.31
455.955	80.31
456.175	72.31
456.395	77.31
456.616	83.31
456.836	89.31
457.056	90.31
457.276	84.31
457.497	78.31
457.717	77.31
457.937	95.31
458.157	69.31
458.377	71.31
458.598	78.31
458.818	76.31
459.038	77.31
459.258	78.31
459.478	94.31
459.698	81.31
459.918	86.31
460.138	77.31
460.358	77.31
460.578	87.31
460.798	70.31
461.018	65.31
461.238	67.31
461.458	99.31
461.678	92.31
461.898	73.31
462.118	86.31
462.338	88.31
462.558	87.31
462.777	83.31
462.997	85.31
463.217	62.31
463.437	81.31
463.657	84.31
463.876	78.31
464.096	78.31
464.316	64.31
464.536	86.31
464.755	91.31
464.975	70.31
465.195	76.31
465.414	80.31
465.634	79.31
465.854	90.31
466.073	83.31
466.293	70.31
466.512	68.31
466.732	83.31
466.951	84.31
467.171	77.31
467.391	81.31
467.61	76.31
467.829	82.31
468.049	82.31
468.268	87.31
468.488	91.31
468.707	70.31
468.927	75.31
469.146	84.31
469.365	93.31
469.585	70.31
469.804	84.31
470.023	78.31
470.243	82.31
470.462	86.31
470.681	87.31
470.901	74.31
471.12	85.31
471.339	73.31
471.558	91.31
471.777	85.31
471.997	87.31
472.216	72.31
472.435	76.31
472.654	73.31
472.873	90.31
473.092	76.31
473.311	76.31
473.53	88.31
473.749	76.31
473.968	77.31
474.187	87.31
474.406	92.31
474.625	87.31
474.844	61.31
475.063	75.31
475.282	82.31
475.501	83.31
475.72	89.31
475.939	77.31
476.158	91.31
476.377	73.31
476.596	83.31
476.814	83.31
477.033	85.31
477.252	89.31
477.471	87.31
477.69	91.31
477.908	88.31
478.127	85.31
478.346	80.31
478.564	80.31
478.783	83.31
479.002	85.31
479.22	95.31
479.439	81.31
479.658	68.31
479.876	100.31
480.095	77.31
480.313	94.31
480.532	78.31
480.751	81.31
480.969	72.31
481.188	86.31
481.406	67.31
481.624	89.31
481.843	83.31
482.061	60.31
482.28	75.31
482.498	75.31
482.717	67.31
482.935	87.31
483.153	93.31
483.372	94.31
483.59	89.31
483.808	88.31
484.027	86.31
484.245	92.31
484.463	76.31
484.681	85.31
484.9	96.31
485.118	85.31
485.336	91.31
485.554	90.31
485.772	86.31
485.99	78.31
486.209	66.31
486.427	79.31
486.645	73.31
486.863	86.31
487.081	86.31
487.299	89.31
487.517	83.31
487.735	74.31
487.953	77.31
488.171	96.31
488.389	91.31
488.607	84.31
488.825	76.31
489.043	82.31
489.261	98.31
489.479	89.31
489.696	80.31
489.914	78.31
490.132	84.31
490.35	91.31
490.568	77.31
490.786	73.31
491.003	72.31
491.221	69.31
491.439	72.31
491.657	77.31
491.874	70.31
492.092	70.31
492.31	80.31
492.527	84.31
492.745	80.31
492.963	90.31
493.18	93.31
493.398	85.31
493.615	79.31
493.833	86.31
494.05	82.31
494.268	71.31
494.485	74.31
494.703	73.31
494.92	77.31
495.138	75.31
495.355	89.31
495.573	84.31
495.79	82.31
496.008	82.31
496.225	87.31
496.442	80.31
496.66	68.31
496.877	79.31
497.094	83.31
497.312	87.31
497.529	88.31
497.746	79.31
497.963	54.31
498.181	89.31
498.398	87.31
498.615	83.31
498.832	78.31
499.049	78.31
499.267	102.31
499.484	71.31
499.701	74.31
499.918	84.31
500.135	82.31
500.352	70.31
500.569	70.31
500.786	75.31
501.003	87.31
501.22	79.31
501.437	78.31
501.654	86.31
501.871	85.31
502.088	84.31
502.305	78.31
502.522	66.31
502.739	83.31
502.956	86.31
503.172	78.31
503.389	79.31
503.606	74.31
503.823	71.31
504.04	79.31
504.256	86.31
504.473	77.31
504.69	84.31
504.907	86.31
505.123	82.31
505.34	73.31
505.557	77.31
505.773	82.31
505.99	79.31
506.207	94.31
506.423	71.31
506.64	87.31
506.856	76.31
507.073	68.31
507.289	82.31
507.506	87.31
507.722	71.31
507.939	83.31
508.155	86.31
508.372	86.31
508.588	77.31
508.805	83.31
509.021	72.31
509.238	83.31
509.454	80.31
509.67	76.31
509.887	86.31
510.103	78.31
510.319	96.31
510.536	86.31
510.752	87.31
510.968	88.31
511.184	90.31
511.401	90.31
511.617	78.31
511.833	71.31
512.049	91.31
512.265	96.31
512.481	84.31
512.698	87.31
512.914	79.31
513.13	79.31
513.346	84.31
513.562	92.31
513.778	79.31
513.994	82.31
514.21	69.31
514.426	87.31
514.642	88.31
514.858	79.31
515.074	88.31
515.29	91.31
515.506	84.31
515.721	82.31
515.937	76.31
516.153	80.31
516.369	100.31
516.585	76.31
516.801	95.31
517.016	84.31
517.232	82.31
517.448	81.31
517.664	78.31
517.879	69.31
518.095	77.31
518.311	94.31
518.527	74.31
518.742	78.31
518.958	82.31
519.173	90.31
519.389	85.31
519.605	83.31
519.82	92.31
520.036	82.31
