Data from BG_HRD10591_076.txt Node
Date: Fri May 16 15:15:00 EDT 2025
User: Yrep
Spectrometer: HR+D1059
Trigger mode: 1
Integration Time (sec): 1.000000E-1
Scans to average: 1
Electric dark correction enabled: true
Nonlinearity correction enabled: false
Boxcar width: 0
XAxis mode: Wavelengths
Number of Pixels in Spectrum: 2048
>>>>>Begin Spectral Data<<<<<
223.165	-14.75
223.4	-14.75
223.635	-14.75
223.869	-9.75
224.104	-9.75
224.338	-25.75
224.573	-20.75
224.808	-23.75
225.042	-1.75
225.277	4.25
225.511	-3.75
225.746	2.25
225.98	6.25
226.215	11.25
226.449	10.25
226.683	23.25
226.918	28.25
227.152	24.25
227.387	30.25
227.621	34.25
227.856	50.25
228.09	43.25
228.324	46.25
228.559	57.25
228.793	47.25
229.027	61.25
229.262	65.25
229.496	59.25
229.73	71.25
229.964	72.25
230.199	73.25
230.433	72.25
230.667	81.25
230.901	67.25
231.136	68.25
231.37	76.25
231.604	79.25
231.838	75.25
232.072	92.25
232.306	80.25
232.541	88.25
232.775	83.25
233.009	71.25
233.243	90.25
233.477	74.25
233.711	77.25
233.945	84.25
234.179	83.25
234.413	90.25
234.647	85.25
234.881	81.25
235.115	73.25
235.349	83.25
235.583	81.25
235.817	66.25
236.051	84.25
236.285	75.25
236.519	77.25
236.753	73.25
236.987	74.25
237.221	66.25
237.455	63.25
237.689	81.25
237.922	75.25
238.156	68.25
238.39	87.25
238.624	72.25
238.858	69.25
239.091	80.25
239.325	68.25
239.559	70.25
239.793	72.25
240.027	77.25
240.26	63.25
240.494	67.25
240.728	78.25
240.961	82.25
241.195	61.25
241.429	71.25
241.662	78.25
241.896	67.25
242.13	72.25
242.363	77.25
242.597	82.25
242.83	71.25
243.064	76.25
243.298	71.25
243.531	64.25
243.765	88.25
243.998	59.25
244.232	81.25
244.465	75.25
244.699	81.25
244.932	78.25
245.166	67.25
245.399	71.25
245.633	80.25
245.866	88.25
246.099	76.25
246.333	65.25
246.566	60.25
246.8	77.25
247.033	75.25
247.266	81.25
247.5	67.25
247.733	69.25
247.966	70.25
248.2	57.25
248.433	79.25
248.666	80.25
248.899	85.25
249.133	80.25
249.366	68.25
249.599	77.25
249.832	84.25
250.066	76.25
250.299	76.25
250.532	80.25
250.765	90.25
250.998	71.25
251.231	64.25
251.465	81.25
251.698	82.25
251.931	70.25
252.164	67.25
252.397	75.25
252.63	82.25
252.863	89.25
253.096	68.25
253.329	81.25
253.562	64.25
253.795	76.25
254.028	83.25
254.261	81.25
254.494	84.25
254.727	89.25
254.96	69.25
255.193	81.25
255.426	71.25
255.659	72.25
255.892	77.25
256.124	72.25
256.357	74.25
256.59	77.25
256.823	71.25
257.056	86.25
257.289	87.25
257.521	83.25
257.754	76.25
257.987	84.25
258.22	66.25
258.452	81.25
258.685	65.25
258.918	74.25
259.151	90.25
259.383	83.25
259.616	73.25
259.849	79.25
260.081	75.25
260.314	70.25
260.547	77.25
260.779	82.25
261.012	69.25
261.244	82.25
261.477	93.25
261.71	77.25
261.942	68.25
262.175	76.25
262.407	86.25
262.64	95.25
262.872	89.25
263.105	85.25
263.337	78.25
263.57	80.25
263.802	61.25
264.035	70.25
264.267	91.25
264.499	95.25
264.732	95.25
264.964	91.25
265.197	90.25
265.429	76.25
265.661	84.25
265.894	80.25
266.126	71.25
266.358	58.25
266.591	76.25
266.823	93.25
267.055	79.25
267.287	78.25
267.52	76.25
267.752	81.25
267.984	77.25
268.216	82.25
268.448	89.25
268.681	85.25
268.913	80.25
269.145	88.25
269.377	85.25
269.609	83.25
269.841	76.25
270.073	71.25
270.306	68.25
270.538	74.25
270.77	75.25
271.002	98.25
271.234	81.25
271.466	75.25
271.698	92.25
271.93	80.25
272.162	78.25
272.394	83.25
272.626	80.25
272.858	87.25
273.09	87.25
273.322	89.25
273.553	69.25
273.785	83.25
274.017	72.25
274.249	87.25
274.481	76.25
274.713	87.25
274.945	92.25
275.176	77.25
275.408	79.25
275.64	85.25
275.872	88.25
276.104	91.25
276.335	83.25
276.567	77.25
276.799	88.25
277.031	83.25
277.262	88.25
277.494	78.25
277.726	86.25
277.957	85.25
278.189	77.25
278.421	88.25
278.652	95.25
278.884	82.25
279.115	81.25
279.347	87.25
279.579	74.25
279.81	79.25
280.042	79.25
280.273	77.25
280.505	86.25
280.736	77.25
280.968	80.25
281.199	96.25
281.431	93.25
281.662	91.25
281.894	74.25
282.125	80.25
282.356	89.25
282.588	82.25
282.819	81.25
283.051	91.25
283.282	78.25
283.513	95.25
283.745	82.25
283.976	72.25
284.207	82.25
284.439	76.25
284.67	61.25
284.901	83.25
285.132	84.25
285.364	102.25
285.595	83.25
285.826	88.25
286.057	96.25
286.288	85.25
286.52	99.25
286.751	81.25
286.982	93.25
287.213	93.25
287.444	87.25
287.675	84.25
287.906	85.25
288.138	88.25
288.369	89.25
288.6	81.25
288.831	83.25
289.062	91.25
289.293	85.25
289.524	88.25
289.755	87.25
289.986	87.25
290.217	99.25
290.448	85.25
290.679	87.25
290.91	80.25
291.141	96.25
291.371	90.25
291.602	80.25
291.833	84.25
292.064	90.25
292.295	84.25
292.526	84.25
292.757	95.25
292.987	96.25
293.218	92.25
293.449	95.25
293.68	95.25
293.91	76.25
294.141	87.25
294.372	91.25
294.603	67.25
294.833	78.25
295.064	66.25
295.295	95.25
295.525	84.25
295.756	89.25
295.987	83.25
296.217	67.25
296.448	75.25
296.679	86.25
296.909	90.25
297.14	84.25
297.37	76.25
297.601	80.25
297.831	93.25
298.062	88.25
298.292	77.25
298.523	87.25
298.753	74.25
298.984	79.25
299.214	82.25
299.445	80.25
299.675	94.25
299.905	98.25
300.136	76.25
300.366	81.25
300.597	82.25
300.827	81.25
301.057	105.25
301.288	84.25
301.518	83.25
301.748	69.25
301.979	94.25
302.209	101.25
302.439	84.25
302.669	99.25
302.9	97.25
303.13	95.25
303.36	91.25
303.59	91.25
303.82	83.25
304.051	97.25
304.281	75.25
304.511	92.25
304.741	83.25
304.971	90.25
305.201	93.25
305.431	74.25
305.661	85.25
305.891	83.25
306.121	83.25
306.352	85.25
306.582	92.25
306.812	90.25
307.042	78.25
307.272	90.25
307.502	77.25
307.731	98.25
307.961	79.25
308.191	87.25
308.421	83.25
308.651	85.25
308.881	106.25
309.111	80.25
309.341	76.25
309.571	79.25
309.8	87.25
310.03	76.25
310.26	81.25
310.49	83.25
310.72	87.25
310.949	74.25
311.179	88.25
311.409	95.25
311.639	75.25
311.868	75.25
312.098	68.25
312.328	88.25
312.557	90.25
312.787	87.25
313.017	88.25
313.246	81.25
313.476	88.25
313.706	82.25
313.935	76.25
314.165	88.25
314.394	85.25
314.624	79.25
314.853	81.25
315.083	89.25
315.312	87.25
315.542	85.25
315.771	91.25
316.001	87.25
316.23	87.25
316.46	71.25
316.689	88.25
316.919	92.25
317.148	88.25
317.377	92.25
317.607	79.25
317.836	100.25
318.065	83.25
318.295	77.25
318.524	113.25
318.753	96.25
318.983	92.25
319.212	85.25
319.441	87.25
319.67	90.25
319.9	76.25
320.129	85.25
320.358	92.25
320.587	90.25
320.816	90.25
321.046	75.25
321.275	72.25
321.504	77.25
321.733	90.25
321.962	84.25
322.191	80.25
322.42	82.25
322.649	76.25
322.878	95.25
323.108	78.25
323.337	87.25
323.566	91.25
323.795	83.25
324.024	79.25
324.253	92.25
324.482	83.25
324.71	74.25
324.939	71.25
325.168	80.25
325.397	74.25
325.626	88.25
325.855	75.25
326.084	91.25
326.313	84.25
326.542	95.25
326.77	97.25
326.999	88.25
327.228	74.25
327.457	87.25
327.686	87.25
327.914	91.25
328.143	76.25
328.372	89.25
328.6	99.25
328.829	85.25
329.058	92.25
329.287	80.25
329.515	90.25
329.744	85.25
329.972	79.25
330.201	93.25
330.43	82.25
330.658	82.25
330.887	85.25
331.115	82.25
331.344	75.25
331.572	96.25
331.801	87.25
332.03	97.25
332.258	84.25
332.486	76.25
332.715	103.25
332.943	83.25
333.172	92.25
333.4	65.25
333.629	92.25
333.857	81.25
334.085	93.25
334.314	87.25
334.542	92.25
334.771	89.25
334.999	81.25
335.227	70.25
335.455	90.25
335.684	81.25
335.912	87.25
336.14	91.25
336.369	83.25
336.597	87.25
336.825	80.25
337.053	85.25
337.281	74.25
337.51	87.25
337.738	83.25
337.966	75.25
338.194	95.25
338.422	83.25
338.65	78.25
338.878	89.25
339.106	85.25
339.334	87.25
339.562	79.25
339.79	85.25
340.018	81.25
340.246	89.25
340.474	78.25
340.702	83.25
340.93	97.25
341.158	83.25
341.386	87.25
341.614	83.25
341.842	94.25
342.07	91.25
342.298	77.25
342.526	90.25
342.754	83.25
342.981	87.25
343.209	87.25
343.437	98.25
343.665	84.25
343.893	82.25
344.12	102.25
344.348	93.25
344.576	85.25
344.804	95.25
345.031	96.25
345.259	87.25
345.487	89.25
345.714	88.25
345.942	84.25
346.17	72.25
346.397	85.25
346.625	98.25
346.853	88.25
347.08	87.25
347.308	82.25
347.535	77.25
347.763	76.25
347.99	74.25
348.218	95.25
348.445	85.25
348.673	82.25
348.9	84.25
349.128	91.25
349.355	71.25
349.583	80.25
349.81	74.25
350.037	72.25
350.265	71.25
350.492	88.25
350.72	91.25
350.947	85.25
351.174	82.25
351.402	88.25
351.629	95.25
351.856	84.25
352.083	85.25
352.311	91.25
352.538	81.25
352.765	99.25
352.992	103.25
353.22	97.25
353.447	83.25
353.674	85.25
353.901	84.25
354.128	85.25
354.355	78.25
354.583	81.25
354.81	81.25
355.037	83.25
355.264	80.25
355.491	75.25
355.718	96.25
355.945	82.25
356.172	93.25
356.399	89.25
356.626	93.25
356.853	80.25
357.08	75.25
357.307	70.25
357.534	90.25
357.761	83.25
357.988	87.25
358.215	74.25
358.441	90.25
358.668	96.25
358.895	91.25
359.122	86.25
359.349	79.25
359.576	81.25
359.802	79.25
360.029	75.25
360.256	87.25
360.483	83.25
360.709	81.25
360.936	102.25
361.163	89.25
361.39	77.25
361.616	85.25
361.843	79.25
362.07	91.25
362.296	81.25
362.523	90.25
362.749	79.25
362.976	92.25
363.203	101.25
363.429	83.25
363.656	72.25
363.882	69.25
364.109	72.25
364.335	90.25
364.562	87.25
364.788	75.25
365.015	87.25
365.241	83.25
365.468	87.25
365.694	71.25
365.92	90.25
366.147	100.25
366.373	87.25
366.599	102.25
366.826	91.25
367.052	89.25
367.278	98.25
367.505	91.25
367.731	77.25
367.957	89.25
368.184	74.25
368.41	90.25
368.636	87.25
368.862	86.25
369.089	91.25
369.315	75.25
369.541	83.25
369.767	91.25
369.993	90.25
370.219	72.25
370.445	84.25
370.672	81.25
370.898	97.25
371.124	90.25
371.35	83.25
371.576	95.25
371.802	84.25
372.028	75.25
372.254	85.25
372.48	82.25
372.706	87.25
372.932	86.25
373.158	76.25
373.384	99.25
373.61	85.25
373.835	82.25
374.061	85.25
374.287	81.25
374.513	81.25
374.739	81.25
374.965	90.25
375.191	88.25
375.416	87.25
375.642	83.25
375.868	80.25
376.094	75.25
376.319	86.25
376.545	83.25
376.771	74.25
376.997	75.25
377.222	72.25
377.448	88.25
377.674	93.25
377.899	83.25
378.125	88.25
378.35	79.25
378.576	73.25
378.802	79.25
379.027	93.25
379.253	95.25
379.478	79.25
379.704	84.25
379.929	74.25
380.155	79.25
380.38	89.25
380.606	86.25
380.831	90.25
381.057	91.25
381.282	79.25
381.507	75.25
381.733	84.25
381.958	80.25
382.184	86.25
382.409	82.25
382.634	95.25
382.86	87.25
383.085	80.25
383.31	91.25
383.535	87.25
383.761	85.25
383.986	70.25
384.211	81.25
384.436	76.25
384.662	82.25
384.887	98.25
385.112	76.25
385.337	80.25
385.562	83.25
385.787	88.25
386.013	76.25
386.238	83.25
386.463	103.25
386.688	91.25
386.913	82.25
387.138	96.25
387.363	82.25
387.588	83.25
387.813	86.25
388.038	88.25
388.263	87.25
388.488	82.25
388.713	92.25
388.938	77.25
389.163	72.25
389.387	76.25
389.612	80.25
389.837	90.25
390.062	74.25
390.287	70.25
390.512	78.25
390.736	86.25
390.961	82.25
391.186	84.25
391.411	84.25
391.636	81.25
391.86	89.25
392.085	84.25
392.31	79.25
392.534	87.25
392.759	79.25
392.984	79.25
393.208	95.25
393.433	82.25
393.658	85.25
393.882	90.25
394.107	82.25
394.331	83.25
394.556	85.25
394.78	97.25
395.005	84.25
395.229	89.25
395.454	79.25
395.678	78.25
395.903	70.25
396.127	93.25
396.352	83.25
396.576	83.25
396.801	100.25
397.025	93.25
397.249	80.25
397.474	67.25
397.698	78.25
397.922	81.25
398.147	87.25
398.371	78.25
398.595	93.25
398.82	77.25
399.044	70.25
399.268	91.25
399.492	79.25
399.717	95.25
399.941	97.25
400.165	81.25
400.389	78.25
400.613	101.25
400.837	101.25
401.062	78.25
401.286	93.25
401.51	92.25
401.734	74.25
401.958	81.25
402.182	77.25
402.406	87.25
402.63	98.25
402.854	91.25
403.078	82.25
403.302	97.25
403.526	99.25
403.75	96.25
403.974	87.25
404.198	103.25
404.422	76.25
404.645	104.25
404.869	91.25
405.093	96.25
405.317	101.25
405.541	75.25
405.765	87.25
405.988	96.25
406.212	77.25
406.436	93.25
406.66	97.25
406.883	101.25
407.107	89.25
407.331	73.25
407.555	101.25
407.778	90.25
408.002	90.25
408.226	101.25
408.449	88.25
408.673	92.25
408.896	91.25
409.12	93.25
409.344	103.25
409.567	76.25
409.791	74.25
410.014	84.25
410.238	81.25
410.461	100.25
410.685	95.25
410.908	104.25
411.132	86.25
411.355	85.25
411.578	83.25
411.802	97.25
412.025	77.25
412.249	89.25
412.472	98.25
412.695	100.25
412.919	91.25
413.142	99.25
413.365	77.25
413.589	85.25
413.812	86.25
414.035	87.25
414.258	74.25
414.482	90.25
414.705	88.25
414.928	89.25
415.151	85.25
415.374	89.25
415.597	81.25
415.821	90.25
416.044	77.25
416.267	74.25
416.49	81.25
416.713	88.25
416.936	90.25
417.159	89.25
417.382	87.25
417.605	84.25
417.828	93.25
418.051	91.25
418.274	83.25
418.497	91.25
418.72	80.25
418.943	80.25
419.166	78.25
419.389	79.25
419.611	82.25
419.834	83.25
420.057	89.25
420.28	71.25
420.503	86.25
420.726	73.25
420.948	101.25
421.171	83.25
421.394	91.25
421.617	89.25
421.839	75.25
422.062	81.25
422.285	91.25
422.507	92.25
422.73	90.25
422.953	87.25
423.175	96.25
423.398	96.25
423.621	76.25
423.843	90.25
424.066	92.25
424.288	97.25
424.511	80.25
424.733	84.25
424.956	71.25
425.178	91.25
425.401	79.25
425.623	90.25
425.846	83.25
426.068	81.25
426.291	86.25
426.513	93.25
426.735	94.25
426.958	83.25
427.18	80.25
427.402	90.25
427.625	82.25
427.847	84.25
428.069	89.25
428.292	91.25
428.514	85.25
428.736	72.25
428.958	103.25
429.181	87.25
429.403	97.25
429.625	91.25
429.847	93.25
430.069	91.25
430.292	90.25
430.514	92.25
430.736	103.25
430.958	97.25
431.18	92.25
431.402	84.25
431.624	94.25
431.846	87.25
432.068	81.25
432.29	85.25
432.512	76.25
432.734	79.25
432.956	90.25
433.178	87.25
433.4	90.25
433.622	79.25
433.844	82.25
434.066	96.25
434.287	92.25
434.509	84.25
434.731	95.25
434.953	93.25
435.175	84.25
435.397	94.25
435.618	74.25
435.84	79.25
436.062	75.25
436.284	95.25
436.505	86.25
436.727	85.25
436.949	91.25
437.17	89.25
437.392	77.25
437.614	69.25
437.835	87.25
438.057	91.25
438.278	92.25
438.5	100.25
438.721	71.25
438.943	82.25
439.165	78.25
439.386	85.25
439.608	83.25
439.829	84.25
440.05	89.25
440.272	101.25
440.493	96.25
440.715	97.25
440.936	87.25
441.158	93.25
441.379	85.25
441.6	87.25
441.822	96.25
442.043	71.25
442.264	83.25
442.486	83.25
442.707	76.25
442.928	85.25
443.149	82.25
443.371	93.25
443.592	84.25
443.813	88.25
444.034	83.25
444.255	103.25
444.476	80.25
444.698	81.25
444.919	84.25
445.14	156.25
445.361	124.25
445.582	88.25
445.803	85.25
446.024	86.25
446.245	95.25
446.466	90.25
446.687	71.25
446.908	88.25
447.129	97.25
447.35	84.25
447.571	90.25
447.792	76.25
448.013	82.25
448.234	96.25
448.455	84.25
448.675	98.25
448.896	87.25
449.117	95.25
449.338	80.25
449.559	75.25
449.779	79.25
450	79.25
450.221	80.25
450.442	82.25
450.662	85.25
450.883	84.25
451.104	90.25
451.324	91.25
451.545	81.25
451.766	89.25
451.986	89.25
452.207	76.25
452.428	90.25
452.648	84.25
452.869	82.25
453.089	77.25
453.31	79.25
453.53	86.25
453.751	88.25
453.971	81.25
454.192	87.25
454.412	80.25
454.633	81.25
454.853	69.25
455.073	77.25
455.294	90.25
455.514	74.25
455.734	69.25
455.955	83.25
456.175	86.25
456.395	92.25
456.616	89.25
456.836	110.25
457.056	88.25
457.276	81.25
457.497	95.25
457.717	86.25
457.937	84.25
458.157	80.25
458.377	94.25
458.598	93.25
458.818	84.25
459.038	78.25
459.258	81.25
459.478	107.25
459.698	77.25
459.918	94.25
460.138	95.25
460.358	104.25
460.578	80.25
460.798	77.25
461.018	73.25
461.238	86.25
461.458	83.25
461.678	90.25
461.898	98.25
462.118	78.25
462.338	91.25
462.558	107.25
462.777	96.25
462.997	81.25
463.217	100.25
463.437	72.25
463.657	89.25
463.876	96.25
464.096	98.25
464.316	98.25
464.536	90.25
464.755	89.25
464.975	89.25
465.195	81.25
465.414	104.25
465.634	89.25
465.854	75.25
466.073	97.25
466.293	89.25
466.512	84.25
466.732	90.25
466.951	79.25
467.171	83.25
467.391	75.25
467.61	91.25
467.829	75.25
468.049	73.25
468.268	96.25
468.488	85.25
468.707	70.25
468.927	84.25
469.146	85.25
469.365	76.25
469.585	82.25
469.804	88.25
470.023	78.25
470.243	93.25
470.462	88.25
470.681	91.25
470.901	84.25
471.12	74.25
471.339	86.25
471.558	95.25
471.777	84.25
471.997	84.25
472.216	85.25
472.435	86.25
472.654	81.25
472.873	95.25
473.092	100.25
473.311	65.25
473.53	87.25
473.749	80.25
473.968	73.25
474.187	87.25
474.406	88.25
474.625	85.25
474.844	83.25
475.063	87.25
475.282	80.25
475.501	75.25
475.72	87.25
475.939	99.25
476.158	94.25
476.377	82.25
476.596	98.25
476.814	96.25
477.033	82.25
477.252	89.25
477.471	103.25
477.69	76.25
477.908	90.25
478.127	90.25
478.346	84.25
478.564	88.25
478.783	90.25
479.002	99.25
479.22	95.25
479.439	81.25
479.658	79.25
479.876	95.25
480.095	97.25
480.313	98.25
480.532	87.25
480.751	88.25
480.969	97.25
481.188	87.25
481.406	91.25
481.624	81.25
481.843	97.25
482.061	93.25
482.28	89.25
482.498	81.25
482.717	93.25
482.935	102.25
483.153	85.25
483.372	91.25
483.59	95.25
483.808	95.25
484.027	83.25
484.245	95.25
484.463	77.25
484.681	92.25
484.9	96.25
485.118	101.25
485.336	84.25
485.554	83.25
485.772	91.25
485.99	96.25
486.209	87.25
486.427	89.25
486.645	86.25
486.863	106.25
487.081	97.25
487.299	85.25
487.517	105.25
487.735	91.25
487.953	99.25
488.171	75.25
488.389	87.25
488.607	86.25
488.825	95.25
489.043	97.25
489.261	89.25
489.479	94.25
489.696	95.25
489.914	84.25
490.132	92.25
490.35	87.25
490.568	85.25
490.786	88.25
491.003	92.25
491.221	103.25
491.439	82.25
491.657	92.25
491.874	85.25
492.092	96.25
492.31	92.25
492.527	77.25
492.745	81.25
492.963	99.25
493.18	100.25
493.398	99.25
493.615	89.25
493.833	95.25
494.05	78.25
494.268	101.25
494.485	103.25
494.703	92.25
494.92	96.25
495.138	82.25
495.355	88.25
495.573	95.25
495.79	83.25
496.008	93.25
496.225	91.25
496.442	75.25
496.66	85.25
496.877	75.25
497.094	91.25
497.312	96.25
497.529	102.25
497.746	82.25
497.963	88.25
498.181	89.25
498.398	107.25
498.615	112.25
498.832	83.25
499.049	90.25
499.267	101.25
499.484	105.25
499.701	101.25
499.918	125.25
500.135	112.25
500.352	103.25
500.569	112.25
500.786	114.25
501.003	110.25
501.22	96.25
501.437	96.25
501.654	109.25
501.871	99.25
502.088	96.25
502.305	103.25
502.522	93.25
502.739	99.25
502.956	88.25
503.172	92.25
503.389	86.25
503.606	90.25
503.823	96.25
504.04	109.25
504.256	100.25
504.473	87.25
504.69	95.25
504.907	103.25
505.123	98.25
505.34	89.25
505.557	99.25
505.773	82.25
505.99	98.25
506.207	82.25
506.423	75.25
506.64	99.25
506.856	84.25
507.073	95.25
507.289	90.25
507.506	90.25
507.722	98.25
507.939	97.25
508.155	83.25
508.372	90.25
508.588	101.25
508.805	83.25
509.021	95.25
509.238	87.25
509.454	79.25
509.67	102.25
509.887	78.25
510.103	85.25
510.319	85.25
510.536	87.25
510.752	87.25
510.968	85.25
511.184	90.25
511.401	81.25
511.617	84.25
511.833	91.25
512.049	81.25
512.265	85.25
512.481	90.25
512.698	103.25
512.914	89.25
513.13	84.25
513.346	77.25
513.562	85.25
513.778	96.25
513.994	87.25
514.21	89.25
514.426	95.25
514.642	92.25
514.858	82.25
515.074	92.25
515.29	87.25
515.506	88.25
515.721	81.25
515.937	82.25
516.153	91.25
516.369	99.25
516.585	96.25
516.801	81.25
517.016	99.25
517.232	85.25
517.448	71.25
517.664	82.25
517.879	96.25
518.095	92.25
518.311	86.25
518.527	91.25
518.742	77.25
518.958	79.25
519.173	92.25
519.389	97.25
