Data from BG_HRD10591_009.txt Node
Date: Fri May 16 15:14:27 EDT 2025
User: Yrep
Spectrometer: HR+D1059
Trigger mode: 1
Integration Time (sec): 1.000000E-1
Scans to average: 1
Electric dark correction enabled: true
Nonlinearity correction enabled: false
Boxcar width: 0
XAxis mode: Wavelengths
Number of Pixels in Spectrum: 2048
>>>>>Begin Spectral Data<<<<<
223.165	-16.88
223.4	-16.88
223.635	-16.88
223.869	-17.88
224.104	-16.88
224.338	-9.88
224.573	-12.88
224.808	-17.88
225.042	-29.88
225.277	2.12
225.511	1.12
225.746	4.12
225.98	2.12
226.215	13.12
226.449	8.12
226.683	30.12
226.918	22.12
227.152	39.12
227.387	20.12
227.621	21.12
227.856	49.12
228.09	53.12
228.324	47.12
228.559	53.12
228.793	57.12
229.027	76.12
229.262	69.12
229.496	56.12
229.73	77.12
229.964	69.12
230.199	89.12
230.433	75.12
230.667	77.12
230.901	81.12
231.136	78.12
231.37	71.12
231.604	81.12
231.838	75.12
232.072	75.12
232.306	79.12
232.541	73.12
232.775	77.12
233.009	89.12
233.243	88.12
233.477	80.12
233.711	79.12
233.945	87.12
234.179	75.12
234.413	87.12
234.647	75.12
234.881	77.12
235.115	86.12
235.349	70.12
235.583	84.12
235.817	80.12
236.051	71.12
236.285	58.12
236.519	89.12
236.753	78.12
236.987	70.12
237.221	100.12
237.455	72.12
237.689	77.12
237.922	83.12
238.156	78.12
238.39	79.12
238.624	70.12
238.858	89.12
239.091	73.12
239.325	79.12
239.559	82.12
239.793	87.12
240.027	85.12
240.26	69.12
240.494	83.12
240.728	69.12
240.961	72.12
241.195	79.12
241.429	72.12
241.662	73.12
241.896	78.12
242.13	61.12
242.363	84.12
242.597	84.12
242.83	67.12
243.064	66.12
243.298	74.12
243.531	95.12
243.765	86.12
243.998	79.12
244.232	79.12
244.465	75.12
244.699	78.12
244.932	75.12
245.166	88.12
245.399	81.12
245.633	79.12
245.866	57.12
246.099	75.12
246.333	78.12
246.566	70.12
246.8	76.12
247.033	90.12
247.266	82.12
247.5	66.12
247.733	81.12
247.966	91.12
248.2	75.12
248.433	74.12
248.666	78.12
248.899	77.12
249.133	70.12
249.366	81.12
249.599	74.12
249.832	90.12
250.066	76.12
250.299	79.12
250.532	74.12
250.765	69.12
250.998	86.12
251.231	87.12
251.465	80.12
251.698	77.12
251.931	84.12
252.164	65.12
252.397	75.12
252.63	87.12
252.863	87.12
253.096	68.12
253.329	77.12
253.562	78.12
253.795	82.12
254.028	103.12
254.261	93.12
254.494	67.12
254.727	89.12
254.96	77.12
255.193	87.12
255.426	80.12
255.659	81.12
255.892	81.12
256.124	82.12
256.357	74.12
256.59	83.12
256.823	84.12
257.056	78.12
257.289	79.12
257.521	77.12
257.754	74.12
257.987	71.12
258.22	90.12
258.452	90.12
258.685	81.12
258.918	73.12
259.151	102.12
259.383	88.12
259.616	85.12
259.849	97.12
260.081	81.12
260.314	67.12
260.547	78.12
260.779	77.12
261.012	74.12
261.244	84.12
261.477	89.12
261.71	78.12
261.942	82.12
262.175	98.12
262.407	88.12
262.64	90.12
262.872	82.12
263.105	93.12
263.337	82.12
263.57	80.12
263.802	92.12
264.035	75.12
264.267	86.12
264.499	73.12
264.732	81.12
264.964	76.12
265.197	90.12
265.429	78.12
265.661	78.12
265.894	77.12
266.126	89.12
266.358	86.12
266.591	78.12
266.823	79.12
267.055	91.12
267.287	93.12
267.52	87.12
267.752	91.12
267.984	79.12
268.216	85.12
268.448	92.12
268.681	90.12
268.913	87.12
269.145	71.12
269.377	81.12
269.609	72.12
269.841	75.12
270.073	87.12
270.306	84.12
270.538	89.12
270.77	75.12
271.002	86.12
271.234	85.12
271.466	90.12
271.698	77.12
271.93	82.12
272.162	93.12
272.394	87.12
272.626	59.12
272.858	75.12
273.09	88.12
273.322	100.12
273.553	85.12
273.785	80.12
274.017	94.12
274.249	80.12
274.481	77.12
274.713	82.12
274.945	89.12
275.176	82.12
275.408	65.12
275.64	92.12
275.872	85.12
276.104	87.12
276.335	82.12
276.567	85.12
276.799	92.12
277.031	80.12
277.262	94.12
277.494	77.12
277.726	87.12
277.957	85.12
278.189	80.12
278.421	79.12
278.652	90.12
278.884	79.12
279.115	72.12
279.347	85.12
279.579	86.12
279.81	88.12
280.042	88.12
280.273	70.12
280.505	90.12
280.736	95.12
280.968	83.12
281.199	85.12
281.431	79.12
281.662	75.12
281.894	73.12
282.125	81.12
282.356	83.12
282.588	73.12
282.819	87.12
283.051	67.12
283.282	76.12
283.513	80.12
283.745	86.12
283.976	71.12
284.207	77.12
284.439	81.12
284.67	73.12
284.901	88.12
285.132	91.12
285.364	88.12
285.595	75.12
285.826	94.12
286.057	90.12
286.288	86.12
286.52	90.12
286.751	99.12
286.982	78.12
287.213	85.12
287.444	84.12
287.675	85.12
287.906	88.12
288.138	77.12
288.369	93.12
288.6	77.12
288.831	71.12
289.062	81.12
289.293	101.12
289.524	95.12
289.755	96.12
289.986	77.12
290.217	96.12
290.448	82.12
290.679	90.12
290.91	95.12
291.141	78.12
291.371	97.12
291.602	88.12
291.833	78.12
292.064	93.12
292.295	91.12
292.526	87.12
292.757	80.12
292.987	88.12
293.218	86.12
293.449	88.12
293.68	92.12
293.91	81.12
294.141	95.12
294.372	92.12
294.603	73.12
294.833	95.12
295.064	93.12
295.295	87.12
295.525	106.12
295.756	95.12
295.987	79.12
296.217	85.12
296.448	92.12
296.679	88.12
296.909	88.12
297.14	97.12
297.37	89.12
297.601	106.12
297.831	88.12
298.062	91.12
298.292	83.12
298.523	90.12
298.753	77.12
298.984	86.12
299.214	99.12
299.445	71.12
299.675	78.12
299.905	92.12
300.136	94.12
300.366	95.12
300.597	89.12
300.827	76.12
301.057	89.12
301.288	98.12
301.518	89.12
301.748	88.12
301.979	91.12
302.209	86.12
302.439	84.12
302.669	91.12
302.9	96.12
303.13	89.12
303.36	101.12
303.59	89.12
303.82	90.12
304.051	95.12
304.281	81.12
304.511	74.12
304.741	77.12
304.971	93.12
305.201	94.12
305.431	85.12
305.661	91.12
305.891	88.12
306.121	103.12
306.352	67.12
306.582	91.12
306.812	93.12
307.042	103.12
307.272	90.12
307.502	81.12
307.731	71.12
307.961	90.12
308.191	91.12
308.421	90.12
308.651	82.12
308.881	87.12
309.111	80.12
309.341	92.12
309.571	81.12
309.8	87.12
310.03	76.12
310.26	96.12
310.49	89.12
310.72	99.12
310.949	81.12
311.179	85.12
311.409	89.12
311.639	97.12
311.868	92.12
312.098	90.12
312.328	80.12
312.557	93.12
312.787	95.12
313.017	74.12
313.246	89.12
313.476	92.12
313.706	81.12
313.935	95.12
314.165	90.12
314.394	90.12
314.624	88.12
314.853	79.12
315.083	79.12
315.312	88.12
315.542	94.12
315.771	84.12
316.001	92.12
316.23	89.12
316.46	95.12
316.689	93.12
316.919	87.12
317.148	91.12
317.377	87.12
317.607	103.12
317.836	81.12
318.065	92.12
318.295	83.12
318.524	85.12
318.753	78.12
318.983	89.12
319.212	74.12
319.441	82.12
319.67	77.12
319.9	98.12
320.129	84.12
320.358	86.12
320.587	78.12
320.816	80.12
321.046	94.12
321.275	83.12
321.504	91.12
321.733	86.12
321.962	87.12
322.191	79.12
322.42	90.12
322.649	89.12
322.878	90.12
323.108	105.12
323.337	81.12
323.566	98.12
323.795	101.12
324.024	81.12
324.253	82.12
324.482	94.12
324.71	83.12
324.939	83.12
325.168	97.12
325.397	91.12
325.626	91.12
325.855	81.12
326.084	95.12
326.313	88.12
326.542	88.12
326.77	104.12
326.999	79.12
327.228	86.12
327.457	85.12
327.686	100.12
327.914	101.12
328.143	101.12
328.372	88.12
328.6	91.12
328.829	93.12
329.058	83.12
329.287	103.12
329.515	94.12
329.744	93.12
329.972	89.12
330.201	99.12
330.43	90.12
330.658	90.12
330.887	97.12
331.115	79.12
331.344	93.12
331.572	97.12
331.801	86.12
332.03	76.12
332.258	89.12
332.486	93.12
332.715	89.12
332.943	89.12
333.172	81.12
333.4	91.12
333.629	89.12
333.857	97.12
334.085	103.12
334.314	91.12
334.542	92.12
334.771	90.12
334.999	94.12
335.227	70.12
335.455	98.12
335.684	94.12
335.912	101.12
336.14	101.12
336.369	97.12
336.597	86.12
336.825	84.12
337.053	78.12
337.281	73.12
337.51	88.12
337.738	99.12
337.966	90.12
338.194	82.12
338.422	87.12
338.65	84.12
338.878	89.12
339.106	96.12
339.334	89.12
339.562	85.12
339.79	90.12
340.018	85.12
340.246	96.12
340.474	94.12
340.702	88.12
340.93	83.12
341.158	80.12
341.386	98.12
341.614	85.12
341.842	85.12
342.07	95.12
342.298	82.12
342.526	96.12
342.754	91.12
342.981	79.12
343.209	88.12
343.437	99.12
343.665	90.12
343.893	108.12
344.12	105.12
344.348	86.12
344.576	85.12
344.804	89.12
345.031	84.12
345.259	73.12
345.487	89.12
345.714	83.12
345.942	97.12
346.17	89.12
346.397	86.12
346.625	94.12
346.853	92.12
347.08	87.12
347.308	79.12
347.535	92.12
347.763	75.12
347.99	85.12
348.218	77.12
348.445	87.12
348.673	105.12
348.9	93.12
349.128	94.12
349.355	96.12
349.583	82.12
349.81	94.12
350.037	101.12
350.265	82.12
350.492	90.12
350.72	87.12
350.947	85.12
351.174	94.12
351.402	90.12
351.629	83.12
351.856	86.12
352.083	101.12
352.311	94.12
352.538	76.12
352.765	83.12
352.992	102.12
353.22	88.12
353.447	73.12
353.674	89.12
353.901	107.12
354.128	90.12
354.355	81.12
354.583	80.12
354.81	78.12
355.037	88.12
355.264	103.12
355.491	94.12
355.718	92.12
355.945	91.12
356.172	87.12
356.399	92.12
356.626	81.12
356.853	78.12
357.08	86.12
357.307	76.12
357.534	85.12
357.761	85.12
357.988	97.12
358.215	86.12
358.441	101.12
358.668	87.12
358.895	87.12
359.122	92.12
359.349	87.12
359.576	92.12
359.802	87.12
360.029	90.12
360.256	87.12
360.483	99.12
360.709	82.12
360.936	98.12
361.163	87.12
361.39	87.12
361.616	83.12
361.843	92.12
362.07	89.12
362.296	75.12
362.523	89.12
362.749	86.12
362.976	87.12
363.203	93.12
363.429	76.12
363.656	82.12
363.882	86.12
364.109	101.12
364.335	85.12
364.562	95.12
364.788	91.12
365.015	88.12
365.241	85.12
365.468	93.12
365.694	87.12
365.92	94.12
366.147	83.12
366.373	84.12
366.599	91.12
366.826	80.12
367.052	90.12
367.278	91.12
367.505	93.12
367.731	102.12
367.957	88.12
368.184	73.12
368.41	92.12
368.636	95.12
368.862	79.12
369.089	85.12
369.315	90.12
369.541	90.12
369.767	92.12
369.993	90.12
370.219	71.12
370.445	98.12
370.672	98.12
370.898	95.12
371.124	89.12
371.35	94.12
371.576	88.12
371.802	75.12
372.028	93.12
372.254	88.12
372.48	85.12
372.706	90.12
372.932	96.12
373.158	77.12
373.384	93.12
373.61	82.12
373.835	75.12
374.061	82.12
374.287	94.12
374.513	95.12
374.739	79.12
374.965	85.12
375.191	93.12
375.416	71.12
375.642	101.12
375.868	93.12
376.094	82.12
376.319	79.12
376.545	103.12
376.771	86.12
376.997	94.12
377.222	87.12
377.448	89.12
377.674	92.12
377.899	96.12
378.125	103.12
378.35	87.12
378.576	91.12
378.802	77.12
379.027	102.12
379.253	86.12
379.478	72.12
379.704	83.12
379.929	82.12
380.155	82.12
380.38	79.12
380.606	76.12
380.831	91.12
381.057	99.12
381.282	80.12
381.507	87.12
381.733	89.12
381.958	96.12
382.184	101.12
382.409	89.12
382.634	96.12
382.86	82.12
383.085	88.12
383.31	75.12
383.535	85.12
383.761	77.12
383.986	81.12
384.211	93.12
384.436	81.12
384.662	96.12
384.887	105.12
385.112	95.12
385.337	88.12
385.562	91.12
385.787	83.12
386.013	86.12
386.238	77.12
386.463	84.12
386.688	104.12
386.913	90.12
387.138	79.12
387.363	82.12
387.588	89.12
387.813	91.12
388.038	92.12
388.263	88.12
388.488	108.12
388.713	74.12
388.938	76.12
389.163	87.12
389.387	82.12
389.612	86.12
389.837	82.12
390.062	88.12
390.287	89.12
390.512	80.12
390.736	86.12
390.961	75.12
391.186	86.12
391.411	94.12
391.636	84.12
391.86	78.12
392.085	84.12
392.31	83.12
392.534	88.12
392.759	92.12
392.984	101.12
393.208	91.12
393.433	94.12
393.658	79.12
393.882	90.12
394.107	92.12
394.331	95.12
394.556	89.12
394.78	105.12
395.005	86.12
395.229	89.12
395.454	73.12
395.678	90.12
395.903	88.12
396.127	90.12
396.352	99.12
396.576	89.12
396.801	101.12
397.025	77.12
397.249	93.12
397.474	94.12
397.698	96.12
397.922	92.12
398.147	95.12
398.371	96.12
398.595	94.12
398.82	88.12
399.044	83.12
399.268	88.12
399.492	89.12
399.717	105.12
399.941	97.12
400.165	89.12
400.389	88.12
400.613	94.12
400.837	89.12
401.062	97.12
401.286	95.12
401.51	85.12
401.734	95.12
401.958	90.12
402.182	86.12
402.406	98.12
402.63	97.12
402.854	94.12
403.078	99.12
403.302	94.12
403.526	91.12
403.75	90.12
403.974	106.12
404.198	97.12
404.422	97.12
404.645	100.12
404.869	109.12
405.093	89.12
405.317	94.12
405.541	78.12
405.765	99.12
405.988	95.12
406.212	82.12
406.436	89.12
406.66	102.12
406.883	101.12
407.107	87.12
407.331	87.12
407.555	89.12
407.778	81.12
408.002	88.12
408.226	104.12
408.449	97.12
408.673	103.12
408.896	110.12
409.12	90.12
409.344	97.12
409.567	87.12
409.791	90.12
410.014	93.12
410.238	103.12
410.461	89.12
410.685	88.12
410.908	87.12
411.132	98.12
411.355	88.12
411.578	85.12
411.802	79.12
412.025	87.12
412.249	99.12
412.472	94.12
412.695	74.12
412.919	87.12
413.142	97.12
413.365	94.12
413.589	96.12
413.812	93.12
414.035	97.12
414.258	97.12
414.482	87.12
414.705	107.12
414.928	114.12
415.151	88.12
415.374	85.12
415.597	90.12
415.821	90.12
416.044	102.12
416.267	91.12
416.49	91.12
416.713	85.12
416.936	86.12
417.159	94.12
417.382	97.12
417.605	89.12
417.828	79.12
418.051	95.12
418.274	85.12
418.497	94.12
418.72	90.12
418.943	90.12
419.166	99.12
419.389	90.12
419.611	96.12
419.834	90.12
420.057	86.12
420.28	95.12
420.503	84.12
420.726	89.12
420.948	96.12
421.171	94.12
421.394	86.12
421.617	103.12
421.839	97.12
422.062	83.12
422.285	85.12
422.507	92.12
422.73	82.12
422.953	99.12
423.175	76.12
423.398	72.12
423.621	94.12
423.843	92.12
424.066	94.12
424.288	96.12
424.511	99.12
424.733	85.12
424.956	97.12
425.178	94.12
425.401	78.12
425.623	89.12
425.846	77.12
426.068	96.12
426.291	80.12
426.513	84.12
426.735	89.12
426.958	99.12
427.18	80.12
427.402	77.12
427.625	72.12
427.847	79.12
428.069	88.12
428.292	82.12
428.514	77.12
428.736	80.12
428.958	86.12
429.181	76.12
429.403	96.12
429.625	107.12
429.847	94.12
430.069	95.12
430.292	102.12
430.514	78.12
430.736	81.12
430.958	94.12
431.18	95.12
431.402	87.12
431.624	93.12
431.846	87.12
432.068	89.12
432.29	94.12
432.512	96.12
432.734	83.12
432.956	82.12
433.178	88.12
433.4	87.12
433.622	90.12
433.844	99.12
434.066	104.12
434.287	85.12
434.509	99.12
434.731	87.12
434.953	93.12
435.175	90.12
435.397	92.12
435.618	93.12
435.84	81.12
436.062	85.12
436.284	85.12
436.505	95.12
436.727	93.12
436.949	97.12
437.17	88.12
437.392	80.12
437.614	72.12
437.835	82.12
438.057	100.12
438.278	92.12
438.5	101.12
438.721	96.12
438.943	98.12
439.165	92.12
439.386	94.12
439.608	83.12
439.829	88.12
440.05	80.12
440.272	114.12
440.493	109.12
440.715	80.12
440.936	95.12
441.158	106.12
441.379	99.12
441.6	106.12
441.822	84.12
442.043	90.12
442.264	87.12
442.486	96.12
442.707	84.12
442.928	95.12
443.149	82.12
443.371	82.12
443.592	110.12
443.813	90.12
444.034	76.12
444.255	88.12
444.476	91.12
444.698	77.12
444.919	97.12
445.14	158.12
445.361	123.12
445.582	89.12
445.803	89.12
446.024	106.12
446.245	84.12
446.466	87.12
446.687	90.12
446.908	94.12
447.129	103.12
447.35	94.12
447.571	85.12
447.792	88.12
448.013	98.12
448.234	83.12
448.455	91.12
448.675	78.12
448.896	94.12
449.117	89.12
449.338	95.12
449.559	94.12
449.779	88.12
450	80.12
450.221	90.12
450.442	105.12
450.662	90.12
450.883	79.12
451.104	88.12
451.324	103.12
451.545	98.12
451.766	95.12
451.986	84.12
452.207	91.12
452.428	83.12
452.648	96.12
452.869	85.12
453.089	81.12
453.31	81.12
453.53	84.12
453.751	75.12
453.971	89.12
454.192	95.12
454.412	93.12
454.633	95.12
454.853	101.12
455.073	84.12
455.294	83.12
455.514	83.12
455.734	87.12
455.955	83.12
456.175	93.12
456.395	71.12
456.616	86.12
456.836	77.12
457.056	93.12
457.276	94.12
457.497	93.12
457.717	88.12
457.937	89.12
458.157	75.12
458.377	81.12
458.598	90.12
458.818	92.12
459.038	82.12
459.258	79.12
459.478	87.12
459.698	82.12
459.918	87.12
460.138	109.12
460.358	99.12
460.578	107.12
460.798	101.12
461.018	91.12
461.238	82.12
461.458	100.12
461.678	89.12
461.898	87.12
462.118	90.12
462.338	98.12
462.558	78.12
462.777	96.12
462.997	105.12
463.217	101.12
463.437	102.12
463.657	101.12
463.876	86.12
464.096	113.12
464.316	90.12
464.536	93.12
464.755	93.12
464.975	102.12
465.195	97.12
465.414	98.12
465.634	86.12
465.854	98.12
466.073	101.12
466.293	99.12
466.512	86.12
466.732	78.12
466.951	74.12
467.171	82.12
467.391	94.12
467.61	95.12
467.829	87.12
468.049	85.12
468.268	98.12
468.488	91.12
468.707	95.12
468.927	92.12
469.146	82.12
469.365	87.12
469.585	107.12
469.804	87.12
470.023	87.12
470.243	96.12
470.462	94.12
470.681	77.12
470.901	87.12
471.12	98.12
471.339	96.12
471.558	92.12
471.777	88.12
471.997	89.12
472.216	93.12
472.435	67.12
472.654	80.12
472.873	81.12
473.092	72.12
473.311	97.12
473.53	87.12
473.749	81.12
473.968	99.12
474.187	100.12
474.406	79.12
474.625	90.12
474.844	84.12
475.063	97.12
475.282	91.12
475.501	82.12
475.72	96.12
475.939	107.12
476.158	91.12
476.377	94.12
476.596	94.12
476.814	95.12
477.033	88.12
477.252	98.12
477.471	87.12
477.69	95.12
477.908	95.12
478.127	103.12
478.346	88.12
478.564	98.12
478.783	96.12
479.002	100.12
479.22	88.12
479.439	89.12
479.658	86.12
479.876	102.12
480.095	87.12
480.313	85.12
480.532	97.12
480.751	93.12
480.969	93.12
481.188	89.12
481.406	106.12
481.624	92.12
481.843	96.12
482.061	85.12
482.28	97.12
482.498	83.12
482.717	85.12
482.935	92.12
483.153	84.12
483.372	86.12
483.59	87.12
483.808	97.12
484.027	86.12
484.245	93.12
484.463	94.12
484.681	93.12
484.9	95.12
485.118	87.12
485.336	89.12
485.554	97.12
485.772	76.12
485.99	91.12
486.209	89.12
486.427	74.12
486.645	95.12
486.863	83.12
487.081	99.12
487.299	99.12
487.517	93.12
487.735	83.12
487.953	94.12
488.171	104.12
488.389	86.12
488.607	95.12
488.825	86.12
489.043	90.12
489.261	78.12
489.479	95.12
489.696	94.12
489.914	118.12
490.132	65.12
490.35	80.12
490.568	103.12
490.786	87.12
491.003	103.12
491.221	99.12
491.439	85.12
491.657	82.12
491.874	95.12
492.092	84.12
492.31	113.12
492.527	86.12
492.745	101.12
492.963	97.12
493.18	93.12
493.398	83.12
493.615	84.12
493.833	89.12
494.05	105.12
494.268	89.12
494.485	94.12
494.703	102.12
494.92	91.12
495.138	91.12
495.355	101.12
495.573	90.12
495.79	78.12
496.008	94.12
496.225	81.12
496.442	97.12
496.66	81.12
496.877	103.12
497.094	111.12
497.312	106.12
497.529	105.12
497.746	113.12
497.963	103.12
498.181	109.12
498.398	89.12
498.615	90.12
498.832	94.12
499.049	104.12
499.267	96.12
499.484	85.12
499.701	103.12
499.918	105.12
500.135	115.12
500.352	120.12
500.569	133.12
500.786	119.12
501.003	102.12
501.22	107.12
501.437	101.12
501.654	92.12
501.871	97.12
502.088	105.12
502.305	90.12
502.522	97.12
502.739	105.12
502.956	107.12
503.172	91.12
503.389	105.12
503.606	84.12
503.823	90.12
504.04	84.12
504.256	103.12
504.473	95.12
504.69	113.12
504.907	104.12
505.123	100.12
505.34	88.12
505.557	90.12
505.773	92.12
505.99	71.12
506.207	94.12
506.423	82.12
506.64	98.12
506.856	94.12
507.073	96.12
507.289	91.12
507.506	101.12
507.722	81.12
507.939	83.12
508.155	99.12
508.372	78.12
508.588	101.12
508.805	93.12
509.021	86.12
509.238	87.12
509.454	90.12
509.67	95.12
509.887	81.12
510.103	90.12
510.319	89.12
510.536	85.12
510.752	89.12
510.968	82.12
511.184	91.12
511.401	93.12
511.617	82.12
511.833	85.12
512.049	93.12
512.265	96.12
512.481	105.12
512.698	94.12
512.914	97.12
513.13	110.12
513.346	106.12
513.562	81.12
513.778	93.12
513.994	87.12
514.21	97.12
514.426	101.12
514.642	90.12
514.858	79.12
515.074	80.12
515.29	103.12
515.506	91.12
515.721	87.12
515.937	93.12
516.153	87.12
516.369	76.12
516.585	94.12
516.801	77.12
517.016	105.12
517.232	101.12
517.448	106.12
517.664	88.12
517.879	98.12
518.095	104.12
518.311	98.12
518.527	91.12
