Data from BG_HRD10591_027.txt Node
Date: Fri May 16 15:14:36 EDT 2025
User: Yrep
Spectrometer: HR+D1059
Trigger mode: 1
Integration Time (sec): 1.000000E-1
Scans to average: 1
Electric dark correction enabled: true
Nonlinearity correction enabled: false
Boxcar width: 0
XAxis mode: Wavelengths
Number of Pixels in Spectrum: 2048
>>>>>Begin Spectral Data<<<<<
223.165	-23.12
223.4	-23.12
223.635	-23.12
223.869	-20.12
224.104	-10.12
224.338	-9.12
224.573	-3.12
224.808	-17.12
225.042	-3.12
225.277	-12.12
225.511	-16.12
225.746	-11.12
225.98	4.88
226.215	24.88
226.449	13.88
226.683	16.88
226.918	27.88
227.152	36.88
227.387	36.88
227.621	21.88
227.856	48.88
228.09	38.88
228.324	54.88
228.559	54.88
228.793	59.88
229.027	70.88
229.262	55.88
229.496	54.88
229.73	69.88
229.964	69.88
230.199	76.88
230.433	67.88
230.667	77.88
230.901	85.88
231.136	63.88
231.37	69.88
231.604	87.88
231.838	87.88
232.072	74.88
232.306	75.88
232.541	86.88
232.775	89.88
233.009	78.88
233.243	82.88
233.477	71.88
233.711	86.88
233.945	81.88
234.179	65.88
234.413	81.88
234.647	76.88
234.881	82.88
235.115	95.88
235.349	88.88
235.583	86.88
235.817	77.88
236.051	60.88
236.285	54.88
236.519	83.88
236.753	74.88
236.987	77.88
237.221	69.88
237.455	82.88
237.689	74.88
237.922	85.88
238.156	82.88
238.39	61.88
238.624	65.88
238.858	78.88
239.091	64.88
239.325	86.88
239.559	54.88
239.793	70.88
240.027	84.88
240.26	63.88
240.494	73.88
240.728	54.88
240.961	72.88
241.195	74.88
241.429	66.88
241.662	70.88
241.896	72.88
242.13	87.88
242.363	71.88
242.597	76.88
242.83	88.88
243.064	87.88
243.298	74.88
243.531	89.88
243.765	86.88
243.998	67.88
244.232	86.88
244.465	70.88
244.699	71.88
244.932	76.88
245.166	77.88
245.399	74.88
245.633	86.88
245.866	76.88
246.099	63.88
246.333	84.88
246.566	82.88
246.8	61.88
247.033	68.88
247.266	79.88
247.5	86.88
247.733	75.88
247.966	74.88
248.2	75.88
248.433	85.88
248.666	77.88
248.899	88.88
249.133	64.88
249.366	80.88
249.599	73.88
249.832	79.88
250.066	85.88
250.299	71.88
250.532	78.88
250.765	69.88
250.998	73.88
251.231	87.88
251.465	70.88
251.698	80.88
251.931	83.88
252.164	70.88
252.397	77.88
252.63	80.88
252.863	76.88
253.096	73.88
253.329	72.88
253.562	72.88
253.795	72.88
254.028	78.88
254.261	80.88
254.494	71.88
254.727	75.88
254.96	87.88
255.193	86.88
255.426	65.88
255.659	80.88
255.892	82.88
256.124	91.88
256.357	83.88
256.59	80.88
256.823	85.88
257.056	88.88
257.289	76.88
257.521	83.88
257.754	67.88
257.987	75.88
258.22	70.88
258.452	84.88
258.685	78.88
258.918	78.88
259.151	85.88
259.383	79.88
259.616	63.88
259.849	55.88
260.081	87.88
260.314	69.88
260.547	75.88
260.779	80.88
261.012	77.88
261.244	75.88
261.477	80.88
261.71	71.88
261.942	79.88
262.175	80.88
262.407	91.88
262.64	76.88
262.872	78.88
263.105	68.88
263.337	86.88
263.57	78.88
263.802	78.88
264.035	78.88
264.267	79.88
264.499	85.88
264.732	72.88
264.964	70.88
265.197	80.88
265.429	68.88
265.661	88.88
265.894	77.88
266.126	81.88
266.358	81.88
266.591	73.88
266.823	74.88
267.055	78.88
267.287	86.88
267.52	61.88
267.752	75.88
267.984	79.88
268.216	70.88
268.448	75.88
268.681	92.88
268.913	87.88
269.145	78.88
269.377	77.88
269.609	81.88
269.841	83.88
270.073	91.88
270.306	86.88
270.538	84.88
270.77	85.88
271.002	72.88
271.234	78.88
271.466	87.88
271.698	74.88
271.93	75.88
272.162	87.88
272.394	86.88
272.626	87.88
272.858	84.88
273.09	73.88
273.322	92.88
273.553	73.88
273.785	75.88
274.017	83.88
274.249	105.88
274.481	81.88
274.713	76.88
274.945	82.88
275.176	83.88
275.408	62.88
275.64	76.88
275.872	71.88
276.104	71.88
276.335	71.88
276.567	76.88
276.799	91.88
277.031	80.88
277.262	84.88
277.494	72.88
277.726	72.88
277.957	80.88
278.189	74.88
278.421	83.88
278.652	83.88
278.884	62.88
279.115	82.88
279.347	82.88
279.579	77.88
279.81	77.88
280.042	74.88
280.273	79.88
280.505	84.88
280.736	92.88
280.968	82.88
281.199	80.88
281.431	87.88
281.662	87.88
281.894	75.88
282.125	75.88
282.356	85.88
282.588	88.88
282.819	82.88
283.051	72.88
283.282	80.88
283.513	90.88
283.745	89.88
283.976	67.88
284.207	96.88
284.439	84.88
284.67	84.88
284.901	95.88
285.132	82.88
285.364	73.88
285.595	73.88
285.826	84.88
286.057	92.88
286.288	95.88
286.52	70.88
286.751	76.88
286.982	80.88
287.213	81.88
287.444	78.88
287.675	77.88
287.906	85.88
288.138	81.88
288.369	85.88
288.6	83.88
288.831	80.88
289.062	65.88
289.293	81.88
289.524	107.88
289.755	89.88
289.986	86.88
290.217	82.88
290.448	82.88
290.679	87.88
290.91	69.88
291.141	88.88
291.371	82.88
291.602	93.88
291.833	75.88
292.064	81.88
292.295	80.88
292.526	82.88
292.757	81.88
292.987	69.88
293.218	86.88
293.449	78.88
293.68	80.88
293.91	87.88
294.141	90.88
294.372	83.88
294.603	81.88
294.833	80.88
295.064	86.88
295.295	55.88
295.525	70.88
295.756	80.88
295.987	71.88
296.217	69.88
296.448	91.88
296.679	74.88
296.909	80.88
297.14	89.88
297.37	95.88
297.601	74.88
297.831	69.88
298.062	78.88
298.292	76.88
298.523	83.88
298.753	65.88
298.984	88.88
299.214	79.88
299.445	91.88
299.675	89.88
299.905	78.88
300.136	101.88
300.366	84.88
300.597	88.88
300.827	97.88
301.057	72.88
301.288	83.88
301.518	88.88
301.748	91.88
301.979	94.88
302.209	97.88
302.439	91.88
302.669	99.88
302.9	80.88
303.13	74.88
303.36	80.88
303.59	82.88
303.82	92.88
304.051	78.88
304.281	102.88
304.511	85.88
304.741	91.88
304.971	105.88
305.201	79.88
305.431	82.88
305.661	88.88
305.891	80.88
306.121	83.88
306.352	70.88
306.582	79.88
306.812	84.88
307.042	78.88
307.272	81.88
307.502	74.88
307.731	81.88
307.961	90.88
308.191	79.88
308.421	76.88
308.651	77.88
308.881	85.88
309.111	88.88
309.341	91.88
309.571	83.88
309.8	70.88
310.03	74.88
310.26	68.88
310.49	98.88
310.72	82.88
310.949	98.88
311.179	77.88
311.409	78.88
311.639	81.88
311.868	88.88
312.098	89.88
312.328	82.88
312.557	80.88
312.787	80.88
313.017	70.88
313.246	83.88
313.476	70.88
313.706	89.88
313.935	72.88
314.165	80.88
314.394	92.88
314.624	88.88
314.853	88.88
315.083	81.88
315.312	77.88
315.542	92.88
315.771	84.88
316.001	77.88
316.23	86.88
316.46	74.88
316.689	86.88
316.919	99.88
317.148	78.88
317.377	78.88
317.607	84.88
317.836	79.88
318.065	92.88
318.295	93.88
318.524	86.88
318.753	87.88
318.983	88.88
319.212	93.88
319.441	80.88
319.67	86.88
319.9	78.88
320.129	84.88
320.358	84.88
320.587	83.88
320.816	79.88
321.046	82.88
321.275	77.88
321.504	87.88
321.733	96.88
321.962	75.88
322.191	72.88
322.42	93.88
322.649	96.88
322.878	80.88
323.108	76.88
323.337	83.88
323.566	83.88
323.795	85.88
324.024	75.88
324.253	76.88
324.482	69.88
324.71	66.88
324.939	84.88
325.168	87.88
325.397	85.88
325.626	69.88
325.855	90.88
326.084	91.88
326.313	87.88
326.542	70.88
326.77	95.88
326.999	80.88
327.228	88.88
327.457	93.88
327.686	74.88
327.914	80.88
328.143	95.88
328.372	87.88
328.6	88.88
328.829	77.88
329.058	89.88
329.287	95.88
329.515	74.88
329.744	81.88
329.972	66.88
330.201	83.88
330.43	82.88
330.658	81.88
330.887	82.88
331.115	82.88
331.344	110.88
331.572	74.88
331.801	85.88
332.03	74.88
332.258	77.88
332.486	64.88
332.715	83.88
332.943	74.88
333.172	72.88
333.4	85.88
333.629	88.88
333.857	83.88
334.085	73.88
334.314	82.88
334.542	79.88
334.771	72.88
334.999	72.88
335.227	79.88
335.455	91.88
335.684	89.88
335.912	78.88
336.14	85.88
336.369	87.88
336.597	95.88
336.825	70.88
337.053	86.88
337.281	74.88
337.51	84.88
337.738	79.88
337.966	79.88
338.194	85.88
338.422	79.88
338.65	73.88
338.878	82.88
339.106	85.88
339.334	73.88
339.562	97.88
339.79	84.88
340.018	75.88
340.246	84.88
340.474	84.88
340.702	75.88
340.93	72.88
341.158	79.88
341.386	74.88
341.614	92.88
341.842	92.88
342.07	79.88
342.298	84.88
342.526	80.88
342.754	73.88
342.981	79.88
343.209	82.88
343.437	84.88
343.665	100.88
343.893	83.88
344.12	84.88
344.348	83.88
344.576	82.88
344.804	71.88
345.031	88.88
345.259	80.88
345.487	77.88
345.714	77.88
345.942	75.88
346.17	91.88
346.397	83.88
346.625	74.88
346.853	71.88
347.08	80.88
347.308	88.88
347.535	82.88
347.763	85.88
347.99	84.88
348.218	87.88
348.445	93.88
348.673	81.88
348.9	77.88
349.128	86.88
349.355	69.88
349.583	89.88
349.81	80.88
350.037	90.88
350.265	89.88
350.492	77.88
350.72	86.88
350.947	76.88
351.174	88.88
351.402	87.88
351.629	84.88
351.856	80.88
352.083	85.88
352.311	81.88
352.538	81.88
352.765	84.88
352.992	81.88
353.22	78.88
353.447	91.88
353.674	81.88
353.901	81.88
354.128	87.88
354.355	70.88
354.583	87.88
354.81	86.88
355.037	79.88
355.264	71.88
355.491	78.88
355.718	72.88
355.945	75.88
356.172	68.88
356.399	82.88
356.626	75.88
356.853	86.88
357.08	83.88
357.307	88.88
357.534	74.88
357.761	78.88
357.988	89.88
358.215	100.88
358.441	74.88
358.668	90.88
358.895	87.88
359.122	62.88
359.349	75.88
359.576	95.88
359.802	97.88
360.029	76.88
360.256	78.88
360.483	69.88
360.709	89.88
360.936	71.88
361.163	80.88
361.39	74.88
361.616	76.88
361.843	86.88
362.07	77.88
362.296	96.88
362.523	86.88
362.749	82.88
362.976	86.88
363.203	77.88
363.429	83.88
363.656	86.88
363.882	78.88
364.109	71.88
364.335	86.88
364.562	81.88
364.788	79.88
365.015	64.88
365.241	68.88
365.468	85.88
365.694	91.88
365.92	81.88
366.147	73.88
366.373	76.88
366.599	70.88
366.826	70.88
367.052	83.88
367.278	81.88
367.505	87.88
367.731	91.88
367.957	79.88
368.184	71.88
368.41	69.88
368.636	71.88
368.862	69.88
369.089	72.88
369.315	77.88
369.541	92.88
369.767	72.88
369.993	78.88
370.219	79.88
370.445	74.88
370.672	78.88
370.898	78.88
371.124	77.88
371.35	71.88
371.576	76.88
371.802	84.88
372.028	81.88
372.254	69.88
372.48	82.88
372.706	75.88
372.932	82.88
373.158	70.88
373.384	75.88
373.61	84.88
373.835	84.88
374.061	75.88
374.287	84.88
374.513	80.88
374.739	92.88
374.965	78.88
375.191	79.88
375.416	72.88
375.642	85.88
375.868	82.88
376.094	90.88
376.319	71.88
376.545	84.88
376.771	82.88
376.997	82.88
377.222	71.88
377.448	80.88
377.674	74.88
377.899	88.88
378.125	70.88
378.35	77.88
378.576	78.88
378.802	70.88
379.027	72.88
379.253	74.88
379.478	86.88
379.704	80.88
379.929	75.88
380.155	90.88
380.38	64.88
380.606	88.88
380.831	78.88
381.057	77.88
381.282	82.88
381.507	74.88
381.733	81.88
381.958	82.88
382.184	75.88
382.409	96.88
382.634	92.88
382.86	79.88
383.085	75.88
383.31	93.88
383.535	74.88
383.761	74.88
383.986	92.88
384.211	79.88
384.436	79.88
384.662	87.88
384.887	76.88
385.112	80.88
385.337	76.88
385.562	66.88
385.787	72.88
386.013	82.88
386.238	76.88
386.463	81.88
386.688	88.88
386.913	79.88
387.138	62.88
387.363	80.88
387.588	80.88
387.813	93.88
388.038	77.88
388.263	76.88
388.488	78.88
388.713	69.88
388.938	70.88
389.163	83.88
389.387	80.88
389.612	78.88
389.837	75.88
390.062	83.88
390.287	88.88
390.512	77.88
390.736	79.88
390.961	74.88
391.186	70.88
391.411	73.88
391.636	70.88
391.86	89.88
392.085	87.88
392.31	78.88
392.534	79.88
392.759	81.88
392.984	88.88
393.208	82.88
393.433	85.88
393.658	86.88
393.882	71.88
394.107	88.88
394.331	78.88
394.556	86.88
394.78	83.88
395.005	64.88
395.229	84.88
395.454	86.88
395.678	85.88
395.903	78.88
396.127	82.88
396.352	83.88
396.576	71.88
396.801	74.88
397.025	85.88
397.249	71.88
397.474	72.88
397.698	76.88
397.922	78.88
398.147	75.88
398.371	68.88
398.595	88.88
398.82	74.88
399.044	68.88
399.268	64.88
399.492	59.88
399.717	71.88
399.941	84.88
400.165	80.88
400.389	80.88
400.613	96.88
400.837	62.88
401.062	66.88
401.286	92.88
401.51	71.88
401.734	71.88
401.958	69.88
402.182	72.88
402.406	85.88
402.63	83.88
402.854	83.88
403.078	83.88
403.302	76.88
403.526	84.88
403.75	88.88
403.974	75.88
404.198	85.88
404.422	77.88
404.645	82.88
404.869	75.88
405.093	75.88
405.317	71.88
405.541	79.88
405.765	72.88
405.988	82.88
406.212	78.88
406.436	78.88
406.66	82.88
406.883	79.88
407.107	87.88
407.331	72.88
407.555	67.88
407.778	82.88
408.002	73.88
408.226	75.88
408.449	82.88
408.673	84.88
408.896	107.88
409.12	80.88
409.344	73.88
409.567	85.88
409.791	90.88
410.014	70.88
410.238	95.88
410.461	73.88
410.685	95.88
410.908	81.88
411.132	82.88
411.355	86.88
411.578	77.88
411.802	85.88
412.025	86.88
412.249	78.88
412.472	71.88
412.695	77.88
412.919	98.88
413.142	80.88
413.365	87.88
413.589	75.88
413.812	77.88
414.035	90.88
414.258	81.88
414.482	73.88
414.705	71.88
414.928	83.88
415.151	85.88
415.374	88.88
415.597	84.88
415.821	88.88
416.044	82.88
416.267	86.88
416.49	69.88
416.713	84.88
416.936	59.88
417.159	86.88
417.382	74.88
417.605	79.88
417.828	82.88
418.051	66.88
418.274	71.88
418.497	90.88
418.72	68.88
418.943	92.88
419.166	92.88
419.389	77.88
419.611	80.88
419.834	77.88
420.057	82.88
420.28	79.88
420.503	80.88
420.726	78.88
420.948	75.88
421.171	68.88
421.394	87.88
421.617	72.88
421.839	74.88
422.062	78.88
422.285	70.88
422.507	70.88
422.73	80.88
422.953	73.88
423.175	75.88
423.398	83.88
423.621	87.88
423.843	90.88
424.066	91.88
424.288	69.88
424.511	83.88
424.733	70.88
424.956	71.88
425.178	91.88
425.401	78.88
425.623	87.88
425.846	74.88
426.068	87.88
426.291	84.88
426.513	79.88
426.735	70.88
426.958	91.88
427.18	80.88
427.402	72.88
427.625	87.88
427.847	95.88
428.069	82.88
428.292	88.88
428.514	77.88
428.736	79.88
428.958	79.88
429.181	72.88
429.403	61.88
429.625	78.88
429.847	78.88
430.069	82.88
430.292	91.88
430.514	88.88
430.736	87.88
430.958	65.88
431.18	79.88
431.402	74.88
431.624	71.88
431.846	83.88
432.068	79.88
432.29	95.88
432.512	86.88
432.734	94.88
432.956	86.88
433.178	85.88
433.4	92.88
433.622	88.88
433.844	75.88
434.066	75.88
434.287	85.88
434.509	74.88
434.731	87.88
434.953	76.88
435.175	76.88
435.397	89.88
435.618	71.88
435.84	81.88
436.062	91.88
436.284	78.88
436.505	75.88
436.727	84.88
436.949	81.88
437.17	72.88
437.392	68.88
437.614	93.88
437.835	84.88
438.057	77.88
438.278	78.88
438.5	72.88
438.721	91.88
438.943	93.88
439.165	72.88
439.386	91.88
439.608	72.88
439.829	84.88
440.05	72.88
440.272	83.88
440.493	77.88
440.715	82.88
440.936	86.88
441.158	91.88
441.379	82.88
441.6	86.88
441.822	77.88
442.043	68.88
442.264	75.88
442.486	88.88
442.707	81.88
442.928	88.88
443.149	75.88
443.371	78.88
443.592	78.88
443.813	68.88
444.034	95.88
444.255	78.88
444.476	70.88
444.698	86.88
444.919	77.88
445.14	168.88
445.361	110.88
445.582	93.88
445.803	72.88
446.024	84.88
446.245	72.88
446.466	79.88
446.687	76.88
446.908	76.88
447.129	78.88
447.35	69.88
447.571	84.88
447.792	74.88
448.013	90.88
448.234	81.88
448.455	85.88
448.675	94.88
448.896	79.88
449.117	82.88
449.338	67.88
449.559	81.88
449.779	84.88
450	80.88
450.221	83.88
450.442	64.88
450.662	78.88
450.883	81.88
451.104	81.88
451.324	82.88
451.545	73.88
451.766	79.88
451.986	100.88
452.207	91.88
452.428	74.88
452.648	82.88
452.869	71.88
453.089	64.88
453.31	76.88
453.53	75.88
453.751	74.88
453.971	76.88
454.192	74.88
454.412	87.88
454.633	84.88
454.853	71.88
455.073	77.88
455.294	80.88
455.514	80.88
455.734	79.88
455.955	83.88
456.175	78.88
456.395	76.88
456.616	97.88
456.836	90.88
457.056	86.88
457.276	88.88
457.497	73.88
457.717	79.88
457.937	97.88
458.157	81.88
458.377	59.88
458.598	74.88
458.818	80.88
459.038	72.88
459.258	75.88
459.478	67.88
459.698	74.88
459.918	86.88
460.138	82.88
460.358	75.88
460.578	86.88
460.798	80.88
461.018	81.88
461.238	75.88
461.458	85.88
461.678	90.88
461.898	69.88
462.118	87.88
462.338	62.88
462.558	95.88
462.777	62.88
462.997	72.88
463.217	80.88
463.437	77.88
463.657	69.88
463.876	81.88
464.096	82.88
464.316	78.88
464.536	79.88
464.755	87.88
464.975	86.88
465.195	71.88
465.414	77.88
465.634	82.88
465.854	78.88
466.073	68.88
466.293	80.88
466.512	79.88
466.732	61.88
466.951	72.88
467.171	86.88
467.391	90.88
467.61	75.88
467.829	78.88
468.049	76.88
468.268	85.88
468.488	72.88
468.707	83.88
468.927	83.88
469.146	79.88
469.365	96.88
469.585	88.88
469.804	85.88
470.023	83.88
470.243	91.88
470.462	78.88
470.681	83.88
470.901	83.88
471.12	93.88
471.339	74.88
471.558	86.88
471.777	89.88
471.997	93.88
472.216	72.88
472.435	88.88
472.654	77.88
472.873	80.88
473.092	77.88
473.311	74.88
473.53	86.88
473.749	79.88
473.968	88.88
474.187	73.88
474.406	79.88
474.625	74.88
474.844	77.88
475.063	93.88
475.282	78.88
475.501	73.88
475.72	98.88
475.939	98.88
476.158	80.88
476.377	70.88
476.596	94.88
476.814	85.88
477.033	68.88
477.252	85.88
477.471	83.88
477.69	73.88
477.908	95.88
478.127	83.88
478.346	80.88
478.564	80.88
478.783	96.88
479.002	76.88
479.22	81.88
479.439	81.88
479.658	70.88
479.876	88.88
480.095	80.88
480.313	72.88
480.532	71.88
480.751	84.88
480.969	76.88
481.188	80.88
481.406	66.88
481.624	79.88
481.843	87.88
482.061	77.88
482.28	79.88
482.498	85.88
482.717	69.88
482.935	77.88
483.153	77.88
483.372	69.88
483.59	74.88
483.808	73.88
484.027	86.88
484.245	85.88
484.463	75.88
484.681	79.88
484.9	79.88
485.118	85.88
485.336	69.88
485.554	89.88
485.772	78.88
485.99	80.88
486.209	69.88
486.427	88.88
486.645	93.88
486.863	75.88
487.081	78.88
487.299	91.88
487.517	79.88
487.735	72.88
487.953	74.88
488.171	89.88
488.389	86.88
488.607	78.88
488.825	79.88
489.043	78.88
489.261	72.88
489.479	79.88
489.696	91.88
489.914	105.88
490.132	76.88
490.35	90.88
490.568	92.88
490.786	92.88
491.003	73.88
491.221	83.88
491.439	66.88
491.657	82.88
491.874	94.88
492.092	76.88
492.31	93.88
492.527	85.88
492.745	72.88
492.963	98.88
493.18	82.88
493.398	79.88
493.615	75.88
493.833	80.88
494.05	84.88
494.268	81.88
494.485	66.88
494.703	72.88
494.92	76.88
495.138	79.88
495.355	76.88
495.573	77.88
495.79	87.88
496.008	76.88
496.225	89.88
496.442	96.88
496.66	74.88
496.877	67.88
497.094	74.88
497.312	90.88
497.529	73.88
497.746	75.88
497.963	89.88
498.181	69.88
498.398	85.88
498.615	94.88
498.832	68.88
499.049	88.88
499.267	83.88
499.484	88.88
499.701	82.88
499.918	84.88
500.135	86.88
500.352	83.88
500.569	79.88
500.786	89.88
501.003	74.88
501.22	82.88
501.437	76.88
501.654	79.88
501.871	75.88
502.088	76.88
502.305	62.88
502.522	82.88
502.739	83.88
502.956	79.88
503.172	69.88
503.389	96.88
503.606	86.88
503.823	79.88
504.04	77.88
504.256	92.88
504.473	78.88
504.69	82.88
504.907	70.88
505.123	86.88
505.34	78.88
505.557	85.88
505.773	79.88
505.99	80.88
506.207	83.88
506.423	81.88
506.64	80.88
506.856	75.88
507.073	78.88
507.289	86.88
507.506	81.88
507.722	84.88
507.939	79.88
508.155	80.88
508.372	72.88
508.588	68.88
508.805	98.88
509.021	83.88
509.238	82.88
509.454	80.88
509.67	82.88
509.887	83.88
510.103	71.88
510.319	80.88
510.536	94.88
510.752	79.88
510.968	78.88
511.184	101.88
511.401	88.88
511.617	82.88
511.833	86.88
512.049	74.88
512.265	73.88
512.481	84.88
512.698	86.88
512.914	82.88
513.13	90.88
513.346	65.88
513.562	78.88
513.778	83.88
513.994	88.88
514.21	82.88
514.426	76.88
514.642	87.88
514.858	77.88
515.074	85.88
515.29	83.88
515.506	93.88
515.721	77.88
515.937	83.88
516.153	84.88
516.369	85.88
516.585	77.88
516.801	70.88
517.016	79.88
517.232	71.88
517.448	74.88
517.664	75.88
517.879	66.88
518.095	77.88
518.311	85.88
518.527	78.88
518.742	79.88
518.958	79.88
519.173	89.88
519.389	71.88
519.605	91.88
519.82	90.88
520.036	82.88
520.251	86.88
