Data from BG_HRD10591_098.txt Node
Date: Fri May 16 15:15:11 EDT 2025
User: Yrep
Spectrometer: HR+D1059
Trigger mode: 1
Integration Time (sec): 1.000000E-1
Scans to average: 1
Electric dark correction enabled: true
Nonlinearity correction enabled: false
Boxcar width: 0
XAxis mode: Wavelengths
Number of Pixels in Spectrum: 2048
>>>>>Begin Spectral Data<<<<<
223.165	-22.25
223.4	-22.25
223.635	-22.25
223.869	-21.25
224.104	-14.25
224.338	-12.25
224.573	-12.25
224.808	-2.25
225.042	-2.25
225.277	-0.25
225.511	-0.25
225.746	6.75
225.98	9.75
226.215	-3.25
226.449	12.75
226.683	2.75
226.918	29.75
227.152	28.75
227.387	36.75
227.621	44.75
227.856	53.75
228.09	49.75
228.324	46.75
228.559	56.75
228.793	55.75
229.027	68.75
229.262	56.75
229.496	72.75
229.73	63.75
229.964	67.75
230.199	82.75
230.433	62.75
230.667	58.75
230.901	71.75
231.136	70.75
231.37	89.75
231.604	94.75
231.838	84.75
232.072	77.75
232.306	80.75
232.541	79.75
232.775	72.75
233.009	80.75
233.243	67.75
233.477	83.75
233.711	91.75
233.945	88.75
234.179	67.75
234.413	75.75
234.647	69.75
234.881	66.75
235.115	73.75
235.349	78.75
235.583	90.75
235.817	71.75
236.051	72.75
236.285	80.75
236.519	79.75
236.753	72.75
236.987	79.75
237.221	76.75
237.455	68.75
237.689	66.75
237.922	85.75
238.156	70.75
238.39	77.75
238.624	76.75
238.858	80.75
239.091	79.75
239.325	81.75
239.559	76.75
239.793	77.75
240.027	74.75
240.26	73.75
240.494	84.75
240.728	67.75
240.961	87.75
241.195	83.75
241.429	88.75
241.662	71.75
241.896	67.75
242.13	76.75
242.363	71.75
242.597	89.75
242.83	74.75
243.064	77.75
243.298	71.75
243.531	71.75
243.765	74.75
243.998	78.75
244.232	83.75
244.465	79.75
244.699	79.75
244.932	79.75
245.166	78.75
245.399	71.75
245.633	74.75
245.866	79.75
246.099	85.75
246.333	61.75
246.566	76.75
246.8	81.75
247.033	81.75
247.266	59.75
247.5	69.75
247.733	76.75
247.966	75.75
248.2	83.75
248.433	69.75
248.666	69.75
248.899	81.75
249.133	83.75
249.366	73.75
249.599	76.75
249.832	75.75
250.066	81.75
250.299	82.75
250.532	75.75
250.765	80.75
250.998	77.75
251.231	78.75
251.465	83.75
251.698	83.75
251.931	82.75
252.164	74.75
252.397	81.75
252.63	85.75
252.863	76.75
253.096	72.75
253.329	83.75
253.562	77.75
253.795	82.75
254.028	76.75
254.261	75.75
254.494	75.75
254.727	91.75
254.96	93.75
255.193	89.75
255.426	78.75
255.659	67.75
255.892	69.75
256.124	80.75
256.357	61.75
256.59	67.75
256.823	69.75
257.056	79.75
257.289	79.75
257.521	81.75
257.754	62.75
257.987	71.75
258.22	78.75
258.452	68.75
258.685	77.75
258.918	63.75
259.151	73.75
259.383	82.75
259.616	83.75
259.849	67.75
260.081	75.75
260.314	81.75
260.547	86.75
260.779	73.75
261.012	75.75
261.244	72.75
261.477	90.75
261.71	67.75
261.942	67.75
262.175	85.75
262.407	79.75
262.64	60.75
262.872	75.75
263.105	80.75
263.337	85.75
263.57	68.75
263.802	83.75
264.035	74.75
264.267	67.75
264.499	80.75
264.732	101.75
264.964	84.75
265.197	77.75
265.429	91.75
265.661	88.75
265.894	75.75
266.126	83.75
266.358	69.75
266.591	69.75
266.823	70.75
267.055	76.75
267.287	74.75
267.52	90.75
267.752	74.75
267.984	81.75
268.216	74.75
268.448	94.75
268.681	76.75
268.913	78.75
269.145	76.75
269.377	92.75
269.609	80.75
269.841	87.75
270.073	87.75
270.306	86.75
270.538	85.75
270.77	80.75
271.002	77.75
271.234	92.75
271.466	82.75
271.698	83.75
271.93	91.75
272.162	79.75
272.394	91.75
272.626	75.75
272.858	82.75
273.09	79.75
273.322	85.75
273.553	77.75
273.785	83.75
274.017	80.75
274.249	73.75
274.481	89.75
274.713	78.75
274.945	82.75
275.176	86.75
275.408	70.75
275.64	89.75
275.872	89.75
276.104	79.75
276.335	75.75
276.567	75.75
276.799	77.75
277.031	82.75
277.262	83.75
277.494	76.75
277.726	77.75
277.957	66.75
278.189	89.75
278.421	80.75
278.652	89.75
278.884	81.75
279.115	85.75
279.347	82.75
279.579	85.75
279.81	80.75
280.042	77.75
280.273	79.75
280.505	77.75
280.736	85.75
280.968	74.75
281.199	87.75
281.431	82.75
281.662	89.75
281.894	78.75
282.125	74.75
282.356	81.75
282.588	84.75
282.819	100.75
283.051	89.75
283.282	70.75
283.513	85.75
283.745	84.75
283.976	91.75
284.207	82.75
284.439	76.75
284.67	95.75
284.901	89.75
285.132	77.75
285.364	76.75
285.595	86.75
285.826	81.75
286.057	87.75
286.288	89.75
286.52	91.75
286.751	85.75
286.982	82.75
287.213	75.75
287.444	84.75
287.675	78.75
287.906	79.75
288.138	81.75
288.369	93.75
288.6	77.75
288.831	78.75
289.062	97.75
289.293	80.75
289.524	89.75
289.755	81.75
289.986	93.75
290.217	78.75
290.448	92.75
290.679	94.75
290.91	87.75
291.141	94.75
291.371	91.75
291.602	89.75
291.833	85.75
292.064	89.75
292.295	83.75
292.526	99.75
292.757	103.75
292.987	90.75
293.218	76.75
293.449	89.75
293.68	81.75
293.91	87.75
294.141	102.75
294.372	87.75
294.603	90.75
294.833	77.75
295.064	89.75
295.295	82.75
295.525	82.75
295.756	105.75
295.987	93.75
296.217	75.75
296.448	83.75
296.679	101.75
296.909	91.75
297.14	97.75
297.37	90.75
297.601	81.75
297.831	78.75
298.062	79.75
298.292	94.75
298.523	75.75
298.753	90.75
298.984	77.75
299.214	81.75
299.445	81.75
299.675	76.75
299.905	82.75
300.136	81.75
300.366	79.75
300.597	79.75
300.827	92.75
301.057	85.75
301.288	79.75
301.518	87.75
301.748	75.75
301.979	93.75
302.209	75.75
302.439	81.75
302.669	77.75
302.9	74.75
303.13	79.75
303.36	92.75
303.59	85.75
303.82	69.75
304.051	83.75
304.281	92.75
304.511	90.75
304.741	75.75
304.971	93.75
305.201	75.75
305.431	82.75
305.661	88.75
305.891	74.75
306.121	98.75
306.352	78.75
306.582	90.75
306.812	88.75
307.042	84.75
307.272	89.75
307.502	92.75
307.731	87.75
307.961	87.75
308.191	94.75
308.421	81.75
308.651	85.75
308.881	90.75
309.111	74.75
309.341	77.75
309.571	82.75
309.8	90.75
310.03	77.75
310.26	87.75
310.49	86.75
310.72	90.75
310.949	94.75
311.179	80.75
311.409	93.75
311.639	81.75
311.868	86.75
312.098	81.75
312.328	107.75
312.557	81.75
312.787	75.75
313.017	90.75
313.246	90.75
313.476	73.75
313.706	72.75
313.935	90.75
314.165	99.75
314.394	86.75
314.624	93.75
314.853	86.75
315.083	87.75
315.312	85.75
315.542	94.75
315.771	90.75
316.001	98.75
316.23	85.75
316.46	83.75
316.689	85.75
316.919	87.75
317.148	79.75
317.377	90.75
317.607	85.75
317.836	85.75
318.065	92.75
318.295	83.75
318.524	99.75
318.753	101.75
318.983	86.75
319.212	84.75
319.441	93.75
319.67	72.75
319.9	76.75
320.129	87.75
320.358	79.75
320.587	88.75
320.816	95.75
321.046	99.75
321.275	89.75
321.504	89.75
321.733	85.75
321.962	75.75
322.191	78.75
322.42	92.75
322.649	79.75
322.878	91.75
323.108	88.75
323.337	105.75
323.566	99.75
323.795	83.75
324.024	63.75
324.253	77.75
324.482	91.75
324.71	86.75
324.939	85.75
325.168	88.75
325.397	94.75
325.626	90.75
325.855	96.75
326.084	88.75
326.313	83.75
326.542	85.75
326.77	92.75
326.999	90.75
327.228	86.75
327.457	84.75
327.686	91.75
327.914	85.75
328.143	73.75
328.372	74.75
328.6	73.75
328.829	76.75
329.058	81.75
329.287	101.75
329.515	74.75
329.744	93.75
329.972	81.75
330.201	87.75
330.43	80.75
330.658	76.75
330.887	94.75
331.115	93.75
331.344	91.75
331.572	81.75
331.801	82.75
332.03	98.75
332.258	80.75
332.486	85.75
332.715	88.75
332.943	87.75
333.172	98.75
333.4	89.75
333.629	86.75
333.857	91.75
334.085	97.75
334.314	87.75
334.542	92.75
334.771	97.75
334.999	92.75
335.227	97.75
335.455	92.75
335.684	90.75
335.912	100.75
336.14	90.75
336.369	102.75
336.597	77.75
336.825	104.75
337.053	102.75
337.281	80.75
337.51	91.75
337.738	101.75
337.966	93.75
338.194	95.75
338.422	86.75
338.65	97.75
338.878	100.75
339.106	89.75
339.334	82.75
339.562	84.75
339.79	85.75
340.018	71.75
340.246	71.75
340.474	80.75
340.702	81.75
340.93	94.75
341.158	93.75
341.386	83.75
341.614	88.75
341.842	75.75
342.07	97.75
342.298	97.75
342.526	82.75
342.754	98.75
342.981	85.75
343.209	94.75
343.437	100.75
343.665	71.75
343.893	85.75
344.12	93.75
344.348	102.75
344.576	91.75
344.804	82.75
345.031	81.75
345.259	78.75
345.487	79.75
345.714	77.75
345.942	87.75
346.17	76.75
346.397	85.75
346.625	86.75
346.853	84.75
347.08	81.75
347.308	88.75
347.535	76.75
347.763	77.75
347.99	74.75
348.218	79.75
348.445	93.75
348.673	85.75
348.9	93.75
349.128	85.75
349.355	83.75
349.583	75.75
349.81	93.75
350.037	87.75
350.265	90.75
350.492	90.75
350.72	90.75
350.947	89.75
351.174	77.75
351.402	86.75
351.629	77.75
351.856	88.75
352.083	97.75
352.311	76.75
352.538	95.75
352.765	83.75
352.992	92.75
353.22	84.75
353.447	85.75
353.674	87.75
353.901	84.75
354.128	86.75
354.355	67.75
354.583	79.75
354.81	84.75
355.037	101.75
355.264	85.75
355.491	85.75
355.718	73.75
355.945	94.75
356.172	78.75
356.399	84.75
356.626	95.75
356.853	90.75
357.08	88.75
357.307	93.75
357.534	83.75
357.761	83.75
357.988	86.75
358.215	83.75
358.441	69.75
358.668	91.75
358.895	71.75
359.122	79.75
359.349	82.75
359.576	93.75
359.802	88.75
360.029	90.75
360.256	91.75
360.483	76.75
360.709	98.75
360.936	86.75
361.163	90.75
361.39	84.75
361.616	88.75
361.843	90.75
362.07	88.75
362.296	81.75
362.523	80.75
362.749	90.75
362.976	76.75
363.203	97.75
363.429	77.75
363.656	94.75
363.882	90.75
364.109	92.75
364.335	80.75
364.562	76.75
364.788	74.75
365.015	90.75
365.241	87.75
365.468	70.75
365.694	95.75
365.92	95.75
366.147	86.75
366.373	88.75
366.599	81.75
366.826	88.75
367.052	88.75
367.278	93.75
367.505	82.75
367.731	103.75
367.957	99.75
368.184	88.75
368.41	96.75
368.636	84.75
368.862	93.75
369.089	78.75
369.315	77.75
369.541	82.75
369.767	95.75
369.993	87.75
370.219	85.75
370.445	84.75
370.672	85.75
370.898	78.75
371.124	87.75
371.35	75.75
371.576	87.75
371.802	99.75
372.028	89.75
372.254	79.75
372.48	81.75
372.706	80.75
372.932	87.75
373.158	73.75
373.384	82.75
373.61	78.75
373.835	96.75
374.061	88.75
374.287	77.75
374.513	98.75
374.739	85.75
374.965	99.75
375.191	89.75
375.416	84.75
375.642	84.75
375.868	90.75
376.094	85.75
376.319	86.75
376.545	82.75
376.771	87.75
376.997	90.75
377.222	99.75
377.448	89.75
377.674	83.75
377.899	73.75
378.125	90.75
378.35	83.75
378.576	77.75
378.802	90.75
379.027	83.75
379.253	91.75
379.478	78.75
379.704	76.75
379.929	84.75
380.155	81.75
380.38	89.75
380.606	77.75
380.831	83.75
381.057	89.75
381.282	77.75
381.507	85.75
381.733	85.75
381.958	89.75
382.184	95.75
382.409	91.75
382.634	86.75
382.86	93.75
383.085	70.75
383.31	73.75
383.535	87.75
383.761	80.75
383.986	86.75
384.211	86.75
384.436	74.75
384.662	97.75
384.887	79.75
385.112	81.75
385.337	77.75
385.562	87.75
385.787	82.75
386.013	99.75
386.238	104.75
386.463	98.75
386.688	89.75
386.913	101.75
387.138	92.75
387.363	86.75
387.588	99.75
387.813	82.75
388.038	93.75
388.263	97.75
388.488	84.75
388.713	89.75
388.938	93.75
389.163	98.75
389.387	81.75
389.612	93.75
389.837	84.75
390.062	84.75
390.287	90.75
390.512	101.75
390.736	85.75
390.961	81.75
391.186	83.75
391.411	91.75
391.636	104.75
391.86	91.75
392.085	73.75
392.31	83.75
392.534	82.75
392.759	97.75
392.984	78.75
393.208	89.75
393.433	94.75
393.658	90.75
393.882	71.75
394.107	71.75
394.331	101.75
394.556	101.75
394.78	90.75
395.005	83.75
395.229	79.75
395.454	78.75
395.678	75.75
395.903	83.75
396.127	84.75
396.352	85.75
396.576	83.75
396.801	82.75
397.025	85.75
397.249	84.75
397.474	97.75
397.698	91.75
397.922	77.75
398.147	90.75
398.371	77.75
398.595	77.75
398.82	103.75
399.044	97.75
399.268	93.75
399.492	97.75
399.717	106.75
399.941	93.75
400.165	93.75
400.389	89.75
400.613	90.75
400.837	82.75
401.062	84.75
401.286	102.75
401.51	90.75
401.734	106.75
401.958	89.75
402.182	95.75
402.406	89.75
402.63	87.75
402.854	100.75
403.078	87.75
403.302	78.75
403.526	94.75
403.75	104.75
403.974	88.75
404.198	91.75
404.422	99.75
404.645	97.75
404.869	91.75
405.093	109.75
405.317	90.75
405.541	83.75
405.765	87.75
405.988	84.75
406.212	96.75
406.436	93.75
406.66	83.75
406.883	82.75
407.107	83.75
407.331	87.75
407.555	87.75
407.778	93.75
408.002	83.75
408.226	84.75
408.449	94.75
408.673	92.75
408.896	77.75
409.12	101.75
409.344	79.75
409.567	85.75
409.791	91.75
410.014	105.75
410.238	91.75
410.461	85.75
410.685	75.75
410.908	84.75
411.132	97.75
411.355	91.75
411.578	94.75
411.802	98.75
412.025	97.75
412.249	71.75
412.472	85.75
412.695	78.75
412.919	87.75
413.142	92.75
413.365	101.75
413.589	91.75
413.812	97.75
414.035	98.75
414.258	88.75
414.482	87.75
414.705	89.75
414.928	95.75
415.151	98.75
415.374	96.75
415.597	92.75
415.821	98.75
416.044	87.75
416.267	86.75
416.49	103.75
416.713	85.75
416.936	74.75
417.159	82.75
417.382	92.75
417.605	95.75
417.828	90.75
418.051	90.75
418.274	88.75
418.497	88.75
418.72	94.75
418.943	102.75
419.166	98.75
419.389	89.75
419.611	88.75
419.834	100.75
420.057	95.75
420.28	89.75
420.503	86.75
420.726	76.75
420.948	83.75
421.171	97.75
421.394	80.75
421.617	74.75
421.839	98.75
422.062	77.75
422.285	97.75
422.507	84.75
422.73	76.75
422.953	84.75
423.175	95.75
423.398	91.75
423.621	87.75
423.843	86.75
424.066	86.75
424.288	99.75
424.511	98.75
424.733	81.75
424.956	81.75
425.178	99.75
425.401	94.75
425.623	77.75
425.846	84.75
426.068	91.75
426.291	83.75
426.513	87.75
426.735	83.75
426.958	81.75
427.18	90.75
427.402	95.75
427.625	93.75
427.847	79.75
428.069	97.75
428.292	85.75
428.514	83.75
428.736	83.75
428.958	76.75
429.181	83.75
429.403	93.75
429.625	93.75
429.847	83.75
430.069	91.75
430.292	78.75
430.514	74.75
430.736	95.75
430.958	91.75
431.18	83.75
431.402	82.75
431.624	84.75
431.846	79.75
432.068	82.75
432.29	94.75
432.512	79.75
432.734	79.75
432.956	76.75
433.178	98.75
433.4	89.75
433.622	105.75
433.844	74.75
434.066	81.75
434.287	86.75
434.509	94.75
434.731	89.75
434.953	93.75
435.175	85.75
435.397	80.75
435.618	96.75
435.84	87.75
436.062	92.75
436.284	89.75
436.505	79.75
436.727	71.75
436.949	92.75
437.17	84.75
437.392	98.75
437.614	93.75
437.835	78.75
438.057	83.75
438.278	85.75
438.5	83.75
438.721	91.75
438.943	95.75
439.165	85.75
439.386	95.75
439.608	85.75
439.829	95.75
440.05	89.75
440.272	67.75
440.493	80.75
440.715	85.75
440.936	95.75
441.158	81.75
441.379	94.75
441.6	81.75
441.822	79.75
442.043	91.75
442.264	76.75
442.486	77.75
442.707	86.75
442.928	101.75
443.149	105.75
443.371	94.75
443.592	73.75
443.813	77.75
444.034	79.75
444.255	97.75
444.476	88.75
444.698	98.75
444.919	93.75
445.14	187.75
445.361	135.75
445.582	97.75
445.803	91.75
446.024	91.75
446.245	91.75
446.466	84.75
446.687	86.75
446.908	91.75
447.129	87.75
447.35	91.75
447.571	94.75
447.792	74.75
448.013	86.75
448.234	97.75
448.455	84.75
448.675	94.75
448.896	88.75
449.117	91.75
449.338	92.75
449.559	97.75
449.779	101.75
450	93.75
450.221	85.75
450.442	80.75
450.662	93.75
450.883	85.75
451.104	87.75
451.324	84.75
451.545	78.75
451.766	78.75
451.986	92.75
452.207	90.75
452.428	97.75
452.648	84.75
452.869	69.75
453.089	85.75
453.31	93.75
453.53	97.75
453.751	95.75
453.971	92.75
454.192	89.75
454.412	79.75
454.633	90.75
454.853	99.75
455.073	82.75
455.294	79.75
455.514	75.75
455.734	67.75
455.955	75.75
456.175	78.75
456.395	84.75
456.616	77.75
456.836	92.75
457.056	87.75
457.276	87.75
457.497	79.75
457.717	79.75
457.937	85.75
458.157	81.75
458.377	90.75
458.598	93.75
458.818	91.75
459.038	92.75
459.258	100.75
459.478	95.75
459.698	90.75
459.918	89.75
460.138	83.75
460.358	84.75
460.578	93.75
460.798	98.75
461.018	81.75
461.238	105.75
461.458	93.75
461.678	87.75
461.898	76.75
462.118	77.75
462.338	94.75
462.558	90.75
462.777	81.75
462.997	76.75
463.217	87.75
463.437	98.75
463.657	79.75
463.876	92.75
464.096	87.75
464.316	106.75
464.536	88.75
464.755	93.75
464.975	86.75
465.195	98.75
465.414	97.75
465.634	84.75
465.854	95.75
466.073	98.75
466.293	90.75
466.512	83.75
466.732	73.75
466.951	86.75
467.171	83.75
467.391	91.75
467.61	72.75
467.829	94.75
468.049	79.75
468.268	93.75
468.488	82.75
468.707	90.75
468.927	71.75
469.146	108.75
469.365	77.75
469.585	87.75
469.804	97.75
470.023	92.75
470.243	82.75
470.462	82.75
470.681	80.75
470.901	82.75
471.12	79.75
471.339	93.75
471.558	90.75
471.777	83.75
471.997	88.75
472.216	94.75
472.435	88.75
472.654	85.75
472.873	92.75
473.092	84.75
473.311	87.75
473.53	84.75
473.749	91.75
473.968	101.75
474.187	91.75
474.406	80.75
474.625	84.75
474.844	75.75
475.063	86.75
475.282	95.75
475.501	91.75
475.72	87.75
475.939	97.75
476.158	83.75
476.377	96.75
476.596	86.75
476.814	82.75
477.033	86.75
477.252	82.75
477.471	80.75
477.69	79.75
477.908	85.75
478.127	92.75
478.346	97.75
478.564	91.75
478.783	86.75
479.002	98.75
479.22	71.75
479.439	81.75
479.658	88.75
479.876	85.75
480.095	82.75
480.313	92.75
480.532	94.75
480.751	97.75
480.969	77.75
481.188	86.75
481.406	91.75
481.624	83.75
481.843	89.75
482.061	83.75
482.28	103.75
482.498	97.75
482.717	78.75
482.935	84.75
483.153	85.75
483.372	99.75
483.59	105.75
483.808	94.75
484.027	91.75
484.245	90.75
484.463	99.75
484.681	101.75
484.9	69.75
485.118	74.75
485.336	81.75
485.554	91.75
485.772	95.75
485.99	83.75
486.209	88.75
486.427	87.75
486.645	85.75
486.863	105.75
487.081	103.75
487.299	102.75
487.517	89.75
487.735	105.75
487.953	94.75
488.171	104.75
488.389	86.75
488.607	99.75
488.825	84.75
489.043	75.75
489.261	89.75
489.479	103.75
489.696	93.75
489.914	92.75
490.132	92.75
490.35	89.75
490.568	85.75
490.786	89.75
491.003	82.75
491.221	75.75
491.439	81.75
491.657	87.75
491.874	86.75
492.092	96.75
492.31	85.75
492.527	94.75
492.745	93.75
492.963	94.75
493.18	89.75
493.398	88.75
493.615	96.75
493.833	90.75
494.05	92.75
494.268	85.75
494.485	102.75
494.703	89.75
494.92	86.75
495.138	82.75
495.355	103.75
495.573	92.75
495.79	81.75
496.008	99.75
496.225	93.75
496.442	92.75
496.66	84.75
496.877	81.75
497.094	87.75
497.312	96.75
497.529	101.75
497.746	92.75
497.963	98.75
498.181	85.75
498.398	99.75
498.615	85.75
498.832	91.75
499.049	105.75
499.267	88.75
499.484	104.75
499.701	100.75
499.918	110.75
500.135	98.75
500.352	123.75
500.569	106.75
500.786	106.75
501.003	100.75
501.22	105.75
501.437	105.75
501.654	100.75
501.871	85.75
502.088	108.75
502.305	102.75
502.522	87.75
502.739	85.75
502.956	84.75
503.172	99.75
503.389	97.75
503.606	94.75
503.823	81.75
504.04	86.75
504.256	94.75
504.473	85.75
504.69	85.75
504.907	101.75
505.123	86.75
505.34	93.75
505.557	96.75
505.773	83.75
505.99	99.75
506.207	104.75
506.423	93.75
506.64	85.75
506.856	79.75
507.073	84.75
507.289	82.75
507.506	89.75
507.722	84.75
507.939	97.75
508.155	85.75
508.372	89.75
508.588	86.75
508.805	82.75
509.021	79.75
509.238	81.75
509.454	88.75
509.67	84.75
509.887	94.75
510.103	100.75
510.319	78.75
510.536	93.75
510.752	83.75
510.968	88.75
511.184	79.75
511.401	69.75
511.617	103.75
511.833	88.75
512.049	99.75
512.265	83.75
512.481	97.75
512.698	90.75
512.914	83.75
513.13	84.75
513.346	85.75
513.562	76.75
513.778	92.75
513.994	93.75
514.21	90.75
514.426	86.75
514.642	93.75
514.858	91.75
515.074	83.75
515.29	101.75
515.506	92.75
515.721	87.75
515.937	95.75
516.153	86.75
516.369	76.75
516.585	81.75
516.801	102.75
517.016	97.75
517.232	101.75
517.448	99.75
517.664	93.75
517.879	91.75
518.095	87.75
518.311	83.75
518.527	84.75
518.742	91.75
518.958	83.75
519.173	93.75
