Data from BG_HRD10591_068.txt Node
Date: Fri May 16 15:14:56 EDT 2025
User: Yrep
Spectrometer: HR+D1059
Trigger mode: 1
Integration Time (sec): 1.000000E-1
Scans to average: 1
Electric dark correction enabled: true
Nonlinearity correction enabled: false
Boxcar width: 0
XAxis mode: Wavelengths
Number of Pixels in Spectrum: 2048
>>>>>Begin Spectral Data<<<<<
223.165	-15.62
223.4	-15.62
223.635	-15.62
223.869	-11.62
224.104	-18.62
224.338	-21.62
224.573	-9.62
224.808	-14.62
225.042	-1.62
225.277	-3.62
225.511	-9.62
225.746	6.38
225.98	3.38
226.215	5.38
226.449	10.38
226.683	14.38
226.918	30.38
227.152	36.38
227.387	20.38
227.621	34.38
227.856	42.38
228.09	18.38
228.324	60.38
228.559	60.38
228.793	62.38
229.027	56.38
229.262	64.38
229.496	70.38
229.73	70.38
229.964	60.38
230.199	78.38
230.433	70.38
230.667	75.38
230.901	77.38
231.136	76.38
231.37	74.38
231.604	66.38
231.838	80.38
232.072	81.38
232.306	79.38
232.541	77.38
232.775	94.38
233.009	74.38
233.243	81.38
233.477	76.38
233.711	102.38
233.945	80.38
234.179	75.38
234.413	81.38
234.647	75.38
234.881	81.38
235.115	86.38
235.349	72.38
235.583	74.38
235.817	80.38
236.051	75.38
236.285	78.38
236.519	86.38
236.753	93.38
236.987	85.38
237.221	88.38
237.455	74.38
237.689	77.38
237.922	82.38
238.156	80.38
238.39	71.38
238.624	86.38
238.858	80.38
239.091	88.38
239.325	85.38
239.559	77.38
239.793	87.38
240.027	74.38
240.26	71.38
240.494	82.38
240.728	68.38
240.961	68.38
241.195	80.38
241.429	66.38
241.662	75.38
241.896	66.38
242.13	74.38
242.363	65.38
242.597	74.38
242.83	89.38
243.064	98.38
243.298	83.38
243.531	79.38
243.765	86.38
243.998	81.38
244.232	76.38
244.465	88.38
244.699	78.38
244.932	76.38
245.166	62.38
245.399	75.38
245.633	82.38
245.866	83.38
246.099	82.38
246.333	84.38
246.566	77.38
246.8	79.38
247.033	85.38
247.266	70.38
247.5	69.38
247.733	78.38
247.966	61.38
248.2	82.38
248.433	68.38
248.666	74.38
248.899	82.38
249.133	89.38
249.366	86.38
249.599	79.38
249.832	68.38
250.066	81.38
250.299	81.38
250.532	67.38
250.765	87.38
250.998	73.38
251.231	82.38
251.465	70.38
251.698	97.38
251.931	79.38
252.164	84.38
252.397	70.38
252.63	79.38
252.863	82.38
253.096	70.38
253.329	86.38
253.562	82.38
253.795	73.38
254.028	74.38
254.261	75.38
254.494	88.38
254.727	87.38
254.96	75.38
255.193	71.38
255.426	84.38
255.659	91.38
255.892	77.38
256.124	86.38
256.357	86.38
256.59	83.38
256.823	76.38
257.056	92.38
257.289	84.38
257.521	87.38
257.754	91.38
257.987	90.38
258.22	94.38
258.452	75.38
258.685	74.38
258.918	78.38
259.151	76.38
259.383	79.38
259.616	79.38
259.849	65.38
260.081	76.38
260.314	74.38
260.547	74.38
260.779	75.38
261.012	84.38
261.244	83.38
261.477	91.38
261.71	77.38
261.942	86.38
262.175	74.38
262.407	81.38
262.64	86.38
262.872	97.38
263.105	82.38
263.337	90.38
263.57	92.38
263.802	94.38
264.035	90.38
264.267	90.38
264.499	75.38
264.732	79.38
264.964	83.38
265.197	70.38
265.429	97.38
265.661	91.38
265.894	87.38
266.126	87.38
266.358	76.38
266.591	82.38
266.823	85.38
267.055	89.38
267.287	82.38
267.52	73.38
267.752	77.38
267.984	90.38
268.216	83.38
268.448	79.38
268.681	88.38
268.913	64.38
269.145	79.38
269.377	86.38
269.609	88.38
269.841	75.38
270.073	102.38
270.306	78.38
270.538	86.38
270.77	85.38
271.002	91.38
271.234	93.38
271.466	70.38
271.698	75.38
271.93	76.38
272.162	84.38
272.394	84.38
272.626	84.38
272.858	83.38
273.09	89.38
273.322	98.38
273.553	82.38
273.785	78.38
274.017	88.38
274.249	87.38
274.481	88.38
274.713	77.38
274.945	80.38
275.176	86.38
275.408	83.38
275.64	87.38
275.872	82.38
276.104	61.38
276.335	75.38
276.567	81.38
276.799	86.38
277.031	92.38
277.262	73.38
277.494	83.38
277.726	94.38
277.957	95.38
278.189	78.38
278.421	87.38
278.652	84.38
278.884	75.38
279.115	78.38
279.347	83.38
279.579	93.38
279.81	82.38
280.042	90.38
280.273	92.38
280.505	89.38
280.736	88.38
280.968	93.38
281.199	89.38
281.431	99.38
281.662	82.38
281.894	92.38
282.125	95.38
282.356	66.38
282.588	86.38
282.819	83.38
283.051	82.38
283.282	93.38
283.513	83.38
283.745	70.38
283.976	87.38
284.207	88.38
284.439	79.38
284.67	84.38
284.901	88.38
285.132	78.38
285.364	95.38
285.595	81.38
285.826	86.38
286.057	77.38
286.288	84.38
286.52	106.38
286.751	96.38
286.982	79.38
287.213	75.38
287.444	74.38
287.675	69.38
287.906	87.38
288.138	90.38
288.369	94.38
288.6	85.38
288.831	78.38
289.062	99.38
289.293	84.38
289.524	94.38
289.755	74.38
289.986	80.38
290.217	85.38
290.448	86.38
290.679	91.38
290.91	92.38
291.141	88.38
291.371	80.38
291.602	83.38
291.833	76.38
292.064	92.38
292.295	78.38
292.526	80.38
292.757	82.38
292.987	91.38
293.218	74.38
293.449	86.38
293.68	88.38
293.91	82.38
294.141	90.38
294.372	77.38
294.603	102.38
294.833	89.38
295.064	94.38
295.295	92.38
295.525	80.38
295.756	88.38
295.987	79.38
296.217	86.38
296.448	86.38
296.679	91.38
296.909	98.38
297.14	88.38
297.37	94.38
297.601	92.38
297.831	95.38
298.062	96.38
298.292	78.38
298.523	87.38
298.753	87.38
298.984	81.38
299.214	79.38
299.445	79.38
299.675	91.38
299.905	86.38
300.136	95.38
300.366	69.38
300.597	86.38
300.827	97.38
301.057	91.38
301.288	86.38
301.518	78.38
301.748	79.38
301.979	108.38
302.209	88.38
302.439	84.38
302.669	91.38
302.9	77.38
303.13	87.38
303.36	86.38
303.59	83.38
303.82	91.38
304.051	86.38
304.281	89.38
304.511	91.38
304.741	79.38
304.971	96.38
305.201	95.38
305.431	87.38
305.661	85.38
305.891	91.38
306.121	92.38
306.352	100.38
306.582	90.38
306.812	70.38
307.042	90.38
307.272	97.38
307.502	87.38
307.731	100.38
307.961	104.38
308.191	92.38
308.421	103.38
308.651	85.38
308.881	85.38
309.111	79.38
309.341	74.38
309.571	79.38
309.8	93.38
310.03	86.38
310.26	98.38
310.49	87.38
310.72	84.38
310.949	91.38
311.179	87.38
311.409	82.38
311.639	94.38
311.868	84.38
312.098	74.38
312.328	80.38
312.557	86.38
312.787	92.38
313.017	96.38
313.246	93.38
313.476	92.38
313.706	82.38
313.935	80.38
314.165	98.38
314.394	98.38
314.624	86.38
314.853	78.38
315.083	82.38
315.312	83.38
315.542	86.38
315.771	97.38
316.001	85.38
316.23	88.38
316.46	95.38
316.689	95.38
316.919	84.38
317.148	87.38
317.377	93.38
317.607	88.38
317.836	60.38
318.065	84.38
318.295	75.38
318.524	72.38
318.753	78.38
318.983	87.38
319.212	90.38
319.441	76.38
319.67	85.38
319.9	88.38
320.129	99.38
320.358	93.38
320.587	91.38
320.816	82.38
321.046	83.38
321.275	92.38
321.504	90.38
321.733	84.38
321.962	81.38
322.191	100.38
322.42	96.38
322.649	87.38
322.878	89.38
323.108	100.38
323.337	86.38
323.566	95.38
323.795	99.38
324.024	86.38
324.253	82.38
324.482	91.38
324.71	95.38
324.939	77.38
325.168	91.38
325.397	101.38
325.626	82.38
325.855	90.38
326.084	92.38
326.313	82.38
326.542	91.38
326.77	88.38
326.999	78.38
327.228	89.38
327.457	75.38
327.686	93.38
327.914	87.38
328.143	98.38
328.372	84.38
328.6	81.38
328.829	85.38
329.058	91.38
329.287	90.38
329.515	95.38
329.744	92.38
329.972	74.38
330.201	79.38
330.43	85.38
330.658	91.38
330.887	90.38
331.115	107.38
331.344	89.38
331.572	86.38
331.801	89.38
332.03	98.38
332.258	92.38
332.486	83.38
332.715	77.38
332.943	91.38
333.172	98.38
333.4	83.38
333.629	93.38
333.857	78.38
334.085	89.38
334.314	92.38
334.542	83.38
334.771	94.38
334.999	86.38
335.227	91.38
335.455	82.38
335.684	94.38
335.912	94.38
336.14	103.38
336.369	90.38
336.597	87.38
336.825	91.38
337.053	87.38
337.281	90.38
337.51	86.38
337.738	80.38
337.966	84.38
338.194	84.38
338.422	79.38
338.65	100.38
338.878	83.38
339.106	86.38
339.334	94.38
339.562	91.38
339.79	82.38
340.018	70.38
340.246	90.38
340.474	81.38
340.702	99.38
340.93	66.38
341.158	85.38
341.386	90.38
341.614	91.38
341.842	86.38
342.07	93.38
342.298	84.38
342.526	70.38
342.754	84.38
342.981	90.38
343.209	79.38
343.437	103.38
343.665	93.38
343.893	110.38
344.12	94.38
344.348	92.38
344.576	85.38
344.804	69.38
345.031	92.38
345.259	100.38
345.487	82.38
345.714	77.38
345.942	98.38
346.17	76.38
346.397	114.38
346.625	75.38
346.853	94.38
347.08	102.38
347.308	88.38
347.535	89.38
347.763	74.38
347.99	86.38
348.218	102.38
348.445	84.38
348.673	85.38
348.9	93.38
349.128	92.38
349.355	95.38
349.583	93.38
349.81	95.38
350.037	87.38
350.265	71.38
350.492	90.38
350.72	86.38
350.947	91.38
351.174	86.38
351.402	79.38
351.629	76.38
351.856	95.38
352.083	78.38
352.311	104.38
352.538	88.38
352.765	92.38
352.992	102.38
353.22	86.38
353.447	88.38
353.674	80.38
353.901	89.38
354.128	94.38
354.355	68.38
354.583	90.38
354.81	84.38
355.037	88.38
355.264	80.38
355.491	83.38
355.718	83.38
355.945	98.38
356.172	77.38
356.399	98.38
356.626	91.38
356.853	84.38
357.08	95.38
357.307	98.38
357.534	93.38
357.761	90.38
357.988	87.38
358.215	88.38
358.441	85.38
358.668	91.38
358.895	94.38
359.122	88.38
359.349	88.38
359.576	82.38
359.802	99.38
360.029	92.38
360.256	92.38
360.483	71.38
360.709	90.38
360.936	94.38
361.163	87.38
361.39	107.38
361.616	87.38
361.843	90.38
362.07	75.38
362.296	90.38
362.523	88.38
362.749	75.38
362.976	98.38
363.203	106.38
363.429	82.38
363.656	102.38
363.882	83.38
364.109	86.38
364.335	92.38
364.562	68.38
364.788	84.38
365.015	86.38
365.241	79.38
365.468	94.38
365.694	76.38
365.92	91.38
366.147	87.38
366.373	89.38
366.599	77.38
366.826	89.38
367.052	91.38
367.278	85.38
367.505	83.38
367.731	97.38
367.957	89.38
368.184	88.38
368.41	83.38
368.636	70.38
368.862	96.38
369.089	93.38
369.315	89.38
369.541	78.38
369.767	90.38
369.993	91.38
370.219	92.38
370.445	103.38
370.672	96.38
370.898	97.38
371.124	87.38
371.35	78.38
371.576	90.38
371.802	71.38
372.028	89.38
372.254	85.38
372.48	91.38
372.706	95.38
372.932	96.38
373.158	89.38
373.384	109.38
373.61	93.38
373.835	79.38
374.061	82.38
374.287	80.38
374.513	83.38
374.739	82.38
374.965	88.38
375.191	84.38
375.416	96.38
375.642	83.38
375.868	88.38
376.094	81.38
376.319	78.38
376.545	73.38
376.771	82.38
376.997	70.38
377.222	79.38
377.448	102.38
377.674	78.38
377.899	95.38
378.125	74.38
378.35	87.38
378.576	106.38
378.802	93.38
379.027	87.38
379.253	108.38
379.478	98.38
379.704	98.38
379.929	77.38
380.155	74.38
380.38	81.38
380.606	84.38
380.831	80.38
381.057	98.38
381.282	84.38
381.507	102.38
381.733	89.38
381.958	98.38
382.184	62.38
382.409	77.38
382.634	88.38
382.86	82.38
383.085	86.38
383.31	87.38
383.535	89.38
383.761	93.38
383.986	84.38
384.211	88.38
384.436	80.38
384.662	104.38
384.887	90.38
385.112	94.38
385.337	87.38
385.562	98.38
385.787	91.38
386.013	102.38
386.238	89.38
386.463	80.38
386.688	103.38
386.913	90.38
387.138	92.38
387.363	91.38
387.588	95.38
387.813	80.38
388.038	90.38
388.263	86.38
388.488	88.38
388.713	86.38
388.938	79.38
389.163	82.38
389.387	86.38
389.612	104.38
389.837	80.38
390.062	98.38
390.287	92.38
390.512	90.38
390.736	93.38
390.961	64.38
391.186	86.38
391.411	88.38
391.636	87.38
391.86	90.38
392.085	83.38
392.31	86.38
392.534	91.38
392.759	90.38
392.984	83.38
393.208	94.38
393.433	90.38
393.658	100.38
393.882	84.38
394.107	93.38
394.331	86.38
394.556	81.38
394.78	89.38
395.005	88.38
395.229	89.38
395.454	80.38
395.678	90.38
395.903	94.38
396.127	102.38
396.352	87.38
396.576	74.38
396.801	102.38
397.025	88.38
397.249	90.38
397.474	87.38
397.698	95.38
397.922	88.38
398.147	93.38
398.371	98.38
398.595	82.38
398.82	91.38
399.044	68.38
399.268	88.38
399.492	115.38
399.717	102.38
399.941	109.38
400.165	96.38
400.389	93.38
400.613	95.38
400.837	88.38
401.062	88.38
401.286	99.38
401.51	75.38
401.734	84.38
401.958	88.38
402.182	91.38
402.406	95.38
402.63	91.38
402.854	99.38
403.078	92.38
403.302	95.38
403.526	89.38
403.75	83.38
403.974	87.38
404.198	89.38
404.422	88.38
404.645	79.38
404.869	95.38
405.093	91.38
405.317	86.38
405.541	90.38
405.765	87.38
405.988	70.38
406.212	99.38
406.436	108.38
406.66	93.38
406.883	81.38
407.107	77.38
407.331	91.38
407.555	97.38
407.778	94.38
408.002	89.38
408.226	100.38
408.449	81.38
408.673	75.38
408.896	89.38
409.12	92.38
409.344	96.38
409.567	88.38
409.791	98.38
410.014	110.38
410.238	85.38
410.461	83.38
410.685	79.38
410.908	95.38
411.132	89.38
411.355	92.38
411.578	86.38
411.802	95.38
412.025	100.38
412.249	90.38
412.472	71.38
412.695	94.38
412.919	90.38
413.142	79.38
413.365	96.38
413.589	88.38
413.812	84.38
414.035	99.38
414.258	86.38
414.482	99.38
414.705	77.38
414.928	67.38
415.151	94.38
415.374	95.38
415.597	82.38
415.821	81.38
416.044	88.38
416.267	90.38
416.49	90.38
416.713	86.38
416.936	92.38
417.159	98.38
417.382	93.38
417.605	91.38
417.828	86.38
418.051	82.38
418.274	88.38
418.497	88.38
418.72	84.38
418.943	89.38
419.166	92.38
419.389	94.38
419.611	103.38
419.834	102.38
420.057	100.38
420.28	79.38
420.503	78.38
420.726	86.38
420.948	82.38
421.171	95.38
421.394	86.38
421.617	71.38
421.839	88.38
422.062	78.38
422.285	96.38
422.507	86.38
422.73	92.38
422.953	88.38
423.175	91.38
423.398	87.38
423.621	78.38
423.843	103.38
424.066	82.38
424.288	93.38
424.511	104.38
424.733	96.38
424.956	84.38
425.178	96.38
425.401	85.38
425.623	84.38
425.846	109.38
426.068	100.38
426.291	86.38
426.513	75.38
426.735	81.38
426.958	86.38
427.18	81.38
427.402	81.38
427.625	90.38
427.847	98.38
428.069	85.38
428.292	86.38
428.514	83.38
428.736	77.38
428.958	87.38
429.181	76.38
429.403	82.38
429.625	84.38
429.847	96.38
430.069	82.38
430.292	98.38
430.514	85.38
430.736	65.38
430.958	83.38
431.18	101.38
431.402	100.38
431.624	98.38
431.846	94.38
432.068	83.38
432.29	93.38
432.512	95.38
432.734	90.38
432.956	82.38
433.178	88.38
433.4	77.38
433.622	72.38
433.844	77.38
434.066	90.38
434.287	82.38
434.509	101.38
434.731	92.38
434.953	90.38
435.175	87.38
435.397	100.38
435.618	87.38
435.84	82.38
436.062	92.38
436.284	82.38
436.505	78.38
436.727	76.38
436.949	83.38
437.17	86.38
437.392	85.38
437.614	86.38
437.835	96.38
438.057	82.38
438.278	101.38
438.5	110.38
438.721	94.38
438.943	91.38
439.165	96.38
439.386	76.38
439.608	95.38
439.829	79.38
440.05	88.38
440.272	79.38
440.493	82.38
440.715	84.38
440.936	102.38
441.158	96.38
441.379	94.38
441.6	93.38
441.822	95.38
442.043	100.38
442.264	89.38
442.486	88.38
442.707	87.38
442.928	86.38
443.149	83.38
443.371	85.38
443.592	90.38
443.813	94.38
444.034	103.38
444.255	66.38
444.476	91.38
444.698	84.38
444.919	94.38
445.14	162.38
445.361	130.38
445.582	84.38
445.803	98.38
446.024	91.38
446.245	101.38
446.466	109.38
446.687	93.38
446.908	79.38
447.129	88.38
447.35	94.38
447.571	91.38
447.792	83.38
448.013	79.38
448.234	70.38
448.455	78.38
448.675	99.38
448.896	92.38
449.117	87.38
449.338	68.38
449.559	79.38
449.779	84.38
450	80.38
450.221	77.38
450.442	79.38
450.662	85.38
450.883	86.38
451.104	95.38
451.324	87.38
451.545	79.38
451.766	78.38
451.986	93.38
452.207	106.38
452.428	80.38
452.648	88.38
452.869	100.38
453.089	82.38
453.31	84.38
453.53	87.38
453.751	75.38
453.971	90.38
454.192	84.38
454.412	85.38
454.633	85.38
454.853	81.38
455.073	81.38
455.294	82.38
455.514	99.38
455.734	86.38
455.955	79.38
456.175	88.38
456.395	82.38
456.616	99.38
456.836	94.38
457.056	88.38
457.276	88.38
457.497	100.38
457.717	81.38
457.937	84.38
458.157	90.38
458.377	85.38
458.598	86.38
458.818	88.38
459.038	89.38
459.258	92.38
459.478	96.38
459.698	87.38
459.918	80.38
460.138	88.38
460.358	80.38
460.578	95.38
460.798	109.38
461.018	100.38
461.238	77.38
461.458	90.38
461.678	89.38
461.898	98.38
462.118	77.38
462.338	90.38
462.558	87.38
462.777	85.38
462.997	99.38
463.217	98.38
463.437	95.38
463.657	98.38
463.876	92.38
464.096	93.38
464.316	88.38
464.536	91.38
464.755	86.38
464.975	91.38
465.195	81.38
465.414	80.38
465.634	78.38
465.854	85.38
466.073	91.38
466.293	86.38
466.512	94.38
466.732	91.38
466.951	93.38
467.171	79.38
467.391	86.38
467.61	92.38
467.829	82.38
468.049	87.38
468.268	77.38
468.488	86.38
468.707	88.38
468.927	92.38
469.146	89.38
469.365	85.38
469.585	80.38
469.804	96.38
470.023	85.38
470.243	98.38
470.462	101.38
470.681	88.38
470.901	85.38
471.12	88.38
471.339	74.38
471.558	91.38
471.777	102.38
471.997	85.38
472.216	68.38
472.435	82.38
472.654	90.38
472.873	92.38
473.092	80.38
473.311	102.38
473.53	75.38
473.749	79.38
473.968	90.38
474.187	93.38
474.406	74.38
474.625	102.38
474.844	95.38
475.063	78.38
475.282	103.38
475.501	90.38
475.72	93.38
475.939	71.38
476.158	84.38
476.377	66.38
476.596	88.38
476.814	75.38
477.033	88.38
477.252	95.38
477.471	77.38
477.69	89.38
477.908	78.38
478.127	100.38
478.346	88.38
478.564	117.38
478.783	78.38
479.002	101.38
479.22	91.38
479.439	90.38
479.658	75.38
479.876	88.38
480.095	88.38
480.313	86.38
480.532	99.38
480.751	90.38
480.969	86.38
481.188	80.38
481.406	85.38
481.624	74.38
481.843	90.38
482.061	98.38
482.28	93.38
482.498	102.38
482.717	90.38
482.935	89.38
483.153	87.38
483.372	82.38
483.59	87.38
483.808	82.38
484.027	93.38
484.245	71.38
484.463	93.38
484.681	94.38
484.9	92.38
485.118	86.38
485.336	73.38
485.554	86.38
485.772	91.38
485.99	93.38
486.209	92.38
486.427	86.38
486.645	95.38
486.863	100.38
487.081	82.38
487.299	87.38
487.517	85.38
487.735	88.38
487.953	84.38
488.171	87.38
488.389	93.38
488.607	94.38
488.825	78.38
489.043	75.38
489.261	84.38
489.479	100.38
489.696	91.38
489.914	90.38
490.132	79.38
490.35	105.38
490.568	94.38
490.786	106.38
491.003	92.38
491.221	92.38
491.439	83.38
491.657	85.38
491.874	98.38
492.092	110.38
492.31	86.38
492.527	80.38
492.745	92.38
492.963	98.38
493.18	96.38
493.398	73.38
493.615	101.38
493.833	77.38
494.05	100.38
494.268	78.38
494.485	86.38
494.703	74.38
494.92	85.38
495.138	86.38
495.355	99.38
495.573	96.38
495.79	90.38
496.008	100.38
496.225	89.38
496.442	92.38
496.66	86.38
496.877	100.38
497.094	87.38
497.312	91.38
497.529	94.38
497.746	87.38
497.963	101.38
498.181	90.38
498.398	88.38
498.615	91.38
498.832	88.38
499.049	79.38
499.267	102.38
499.484	104.38
499.701	109.38
499.918	108.38
500.135	122.38
500.352	119.38
500.569	105.38
500.786	94.38
501.003	104.38
501.22	89.38
501.437	99.38
501.654	87.38
501.871	116.38
502.088	82.38
502.305	90.38
502.522	88.38
502.739	96.38
502.956	67.38
503.172	100.38
503.389	93.38
503.606	100.38
503.823	106.38
504.04	87.38
504.256	92.38
504.473	100.38
504.69	94.38
504.907	112.38
505.123	95.38
505.34	85.38
505.557	102.38
505.773	87.38
505.99	87.38
506.207	93.38
506.423	91.38
506.64	98.38
506.856	78.38
507.073	89.38
507.289	82.38
507.506	86.38
507.722	75.38
507.939	94.38
508.155	77.38
508.372	90.38
508.588	89.38
508.805	90.38
509.021	86.38
509.238	92.38
509.454	81.38
509.67	72.38
509.887	80.38
510.103	104.38
510.319	90.38
510.536	88.38
510.752	80.38
510.968	84.38
511.184	105.38
511.401	82.38
511.617	86.38
511.833	102.38
512.049	85.38
512.265	79.38
512.481	87.38
512.698	77.38
512.914	79.38
513.13	85.38
513.346	89.38
513.562	79.38
513.778	100.38
513.994	83.38
514.21	86.38
514.426	86.38
514.642	79.38
514.858	91.38
515.074	84.38
515.29	91.38
515.506	84.38
515.721	99.38
515.937	107.38
516.153	91.38
516.369	83.38
516.585	84.38
516.801	100.38
517.016	91.38
517.232	80.38
517.448	88.38
517.664	95.38
517.879	100.38
518.095	99.38
518.311	93.38
518.527	91.38
518.742	76.38
