Data from BG_HRD10591_073.txt Node
Date: Fri May 16 15:14:59 EDT 2025
User: Yrep
Spectrometer: HR+D1059
Trigger mode: 1
Integration Time (sec): 1.000000E-1
Scans to average: 1
Electric dark correction enabled: true
Nonlinearity correction enabled: false
Boxcar width: 0
XAxis mode: Wavelengths
Number of Pixels in Spectrum: 2048
>>>>>Begin Spectral Data<<<<<
223.165	-9.75
223.4	-9.75
223.635	-9.75
223.869	-22.75
224.104	-23.75
224.338	-8.75
224.573	-10.75
224.808	-14.75
225.042	3.25
225.277	-26.75
225.511	-8.75
225.746	-4.75
225.98	11.25
226.215	2.25
226.449	19.25
226.683	26.25
226.918	23.25
227.152	45.25
227.387	43.25
227.621	49.25
227.856	43.25
228.09	43.25
228.324	62.25
228.559	64.25
228.793	52.25
229.027	62.25
229.262	65.25
229.496	77.25
229.73	79.25
229.964	52.25
230.199	94.25
230.433	79.25
230.667	86.25
230.901	90.25
231.136	72.25
231.37	90.25
231.604	76.25
231.838	82.25
232.072	92.25
232.306	76.25
232.541	74.25
232.775	78.25
233.009	79.25
233.243	88.25
233.477	80.25
233.711	87.25
233.945	72.25
234.179	93.25
234.413	71.25
234.647	82.25
234.881	81.25
235.115	78.25
235.349	68.25
235.583	67.25
235.817	94.25
236.051	73.25
236.285	73.25
236.519	70.25
236.753	64.25
236.987	80.25
237.221	75.25
237.455	60.25
237.689	73.25
237.922	77.25
238.156	60.25
238.39	77.25
238.624	99.25
238.858	79.25
239.091	88.25
239.325	66.25
239.559	61.25
239.793	74.25
240.027	64.25
240.26	73.25
240.494	73.25
240.728	86.25
240.961	87.25
241.195	73.25
241.429	71.25
241.662	81.25
241.896	68.25
242.13	71.25
242.363	75.25
242.597	88.25
242.83	81.25
243.064	73.25
243.298	72.25
243.531	86.25
243.765	64.25
243.998	67.25
244.232	88.25
244.465	68.25
244.699	87.25
244.932	72.25
245.166	75.25
245.399	92.25
245.633	77.25
245.866	86.25
246.099	87.25
246.333	88.25
246.566	90.25
246.8	86.25
247.033	81.25
247.266	81.25
247.5	71.25
247.733	77.25
247.966	74.25
248.2	72.25
248.433	71.25
248.666	73.25
248.899	81.25
249.133	81.25
249.366	79.25
249.599	80.25
249.832	89.25
250.066	74.25
250.299	96.25
250.532	81.25
250.765	70.25
250.998	76.25
251.231	80.25
251.465	85.25
251.698	80.25
251.931	79.25
252.164	80.25
252.397	67.25
252.63	74.25
252.863	73.25
253.096	89.25
253.329	80.25
253.562	74.25
253.795	94.25
254.028	76.25
254.261	69.25
254.494	73.25
254.727	86.25
254.96	87.25
255.193	99.25
255.426	77.25
255.659	79.25
255.892	79.25
256.124	75.25
256.357	65.25
256.59	91.25
256.823	88.25
257.056	91.25
257.289	75.25
257.521	89.25
257.754	80.25
257.987	81.25
258.22	93.25
258.452	66.25
258.685	82.25
258.918	80.25
259.151	71.25
259.383	87.25
259.616	83.25
259.849	84.25
260.081	73.25
260.314	87.25
260.547	79.25
260.779	74.25
261.012	85.25
261.244	86.25
261.477	75.25
261.71	91.25
261.942	85.25
262.175	88.25
262.407	81.25
262.64	69.25
262.872	87.25
263.105	89.25
263.337	83.25
263.57	82.25
263.802	87.25
264.035	83.25
264.267	77.25
264.499	94.25
264.732	88.25
264.964	84.25
265.197	77.25
265.429	83.25
265.661	81.25
265.894	86.25
266.126	92.25
266.358	96.25
266.591	81.25
266.823	80.25
267.055	83.25
267.287	71.25
267.52	86.25
267.752	95.25
267.984	83.25
268.216	79.25
268.448	86.25
268.681	83.25
268.913	80.25
269.145	80.25
269.377	97.25
269.609	87.25
269.841	86.25
270.073	91.25
270.306	83.25
270.538	85.25
270.77	90.25
271.002	75.25
271.234	89.25
271.466	86.25
271.698	92.25
271.93	75.25
272.162	89.25
272.394	88.25
272.626	85.25
272.858	81.25
273.09	86.25
273.322	89.25
273.553	92.25
273.785	91.25
274.017	69.25
274.249	79.25
274.481	76.25
274.713	72.25
274.945	92.25
275.176	64.25
275.408	80.25
275.64	88.25
275.872	80.25
276.104	72.25
276.335	80.25
276.567	91.25
276.799	79.25
277.031	84.25
277.262	84.25
277.494	86.25
277.726	94.25
277.957	77.25
278.189	63.25
278.421	83.25
278.652	88.25
278.884	89.25
279.115	92.25
279.347	85.25
279.579	66.25
279.81	90.25
280.042	86.25
280.273	83.25
280.505	85.25
280.736	83.25
280.968	91.25
281.199	85.25
281.431	70.25
281.662	73.25
281.894	83.25
282.125	88.25
282.356	73.25
282.588	87.25
282.819	84.25
283.051	85.25
283.282	85.25
283.513	91.25
283.745	90.25
283.976	78.25
284.207	89.25
284.439	82.25
284.67	72.25
284.901	69.25
285.132	84.25
285.364	93.25
285.595	79.25
285.826	90.25
286.057	102.25
286.288	91.25
286.52	83.25
286.751	79.25
286.982	85.25
287.213	76.25
287.444	87.25
287.675	93.25
287.906	91.25
288.138	92.25
288.369	93.25
288.6	96.25
288.831	98.25
289.062	89.25
289.293	71.25
289.524	86.25
289.755	84.25
289.986	97.25
290.217	89.25
290.448	88.25
290.679	88.25
290.91	83.25
291.141	95.25
291.371	91.25
291.602	79.25
291.833	89.25
292.064	91.25
292.295	99.25
292.526	83.25
292.757	81.25
292.987	88.25
293.218	85.25
293.449	71.25
293.68	89.25
293.91	84.25
294.141	84.25
294.372	85.25
294.603	88.25
294.833	80.25
295.064	104.25
295.295	85.25
295.525	81.25
295.756	93.25
295.987	86.25
296.217	87.25
296.448	90.25
296.679	87.25
296.909	82.25
297.14	85.25
297.37	92.25
297.601	77.25
297.831	95.25
298.062	94.25
298.292	94.25
298.523	85.25
298.753	85.25
298.984	86.25
299.214	99.25
299.445	94.25
299.675	81.25
299.905	87.25
300.136	83.25
300.366	72.25
300.597	95.25
300.827	88.25
301.057	85.25
301.288	77.25
301.518	89.25
301.748	96.25
301.979	108.25
302.209	84.25
302.439	88.25
302.669	77.25
302.9	92.25
303.13	97.25
303.36	75.25
303.59	80.25
303.82	89.25
304.051	85.25
304.281	73.25
304.511	91.25
304.741	89.25
304.971	90.25
305.201	81.25
305.431	85.25
305.661	79.25
305.891	92.25
306.121	85.25
306.352	79.25
306.582	81.25
306.812	86.25
307.042	76.25
307.272	87.25
307.502	80.25
307.731	87.25
307.961	98.25
308.191	92.25
308.421	97.25
308.651	94.25
308.881	80.25
309.111	91.25
309.341	101.25
309.571	89.25
309.8	80.25
310.03	73.25
310.26	87.25
310.49	87.25
310.72	86.25
310.949	75.25
311.179	75.25
311.409	90.25
311.639	80.25
311.868	86.25
312.098	78.25
312.328	85.25
312.557	77.25
312.787	85.25
313.017	105.25
313.246	97.25
313.476	73.25
313.706	92.25
313.935	80.25
314.165	84.25
314.394	91.25
314.624	101.25
314.853	83.25
315.083	81.25
315.312	85.25
315.542	89.25
315.771	74.25
316.001	92.25
316.23	79.25
316.46	99.25
316.689	75.25
316.919	87.25
317.148	91.25
317.377	97.25
317.607	94.25
317.836	73.25
318.065	95.25
318.295	93.25
318.524	87.25
318.753	88.25
318.983	93.25
319.212	92.25
319.441	81.25
319.67	84.25
319.9	86.25
320.129	77.25
320.358	95.25
320.587	88.25
320.816	92.25
321.046	91.25
321.275	86.25
321.504	88.25
321.733	78.25
321.962	88.25
322.191	86.25
322.42	86.25
322.649	91.25
322.878	88.25
323.108	109.25
323.337	85.25
323.566	84.25
323.795	80.25
324.024	88.25
324.253	100.25
324.482	77.25
324.71	88.25
324.939	103.25
325.168	101.25
325.397	90.25
325.626	95.25
325.855	91.25
326.084	88.25
326.313	75.25
326.542	93.25
326.77	79.25
326.999	79.25
327.228	77.25
327.457	88.25
327.686	89.25
327.914	65.25
328.143	84.25
328.372	91.25
328.6	109.25
328.829	73.25
329.058	86.25
329.287	83.25
329.515	99.25
329.744	100.25
329.972	86.25
330.201	87.25
330.43	96.25
330.658	80.25
330.887	77.25
331.115	77.25
331.344	87.25
331.572	89.25
331.801	91.25
332.03	96.25
332.258	105.25
332.486	86.25
332.715	106.25
332.943	100.25
333.172	93.25
333.4	93.25
333.629	93.25
333.857	94.25
334.085	85.25
334.314	69.25
334.542	91.25
334.771	86.25
334.999	91.25
335.227	95.25
335.455	79.25
335.684	79.25
335.912	85.25
336.14	94.25
336.369	78.25
336.597	77.25
336.825	91.25
337.053	83.25
337.281	83.25
337.51	95.25
337.738	81.25
337.966	85.25
338.194	87.25
338.422	76.25
338.65	94.25
338.878	101.25
339.106	78.25
339.334	85.25
339.562	85.25
339.79	80.25
340.018	86.25
340.246	72.25
340.474	88.25
340.702	87.25
340.93	83.25
341.158	96.25
341.386	85.25
341.614	96.25
341.842	90.25
342.07	85.25
342.298	87.25
342.526	91.25
342.754	74.25
342.981	86.25
343.209	91.25
343.437	87.25
343.665	89.25
343.893	80.25
344.12	86.25
344.348	90.25
344.576	89.25
344.804	87.25
345.031	83.25
345.259	83.25
345.487	88.25
345.714	84.25
345.942	85.25
346.17	73.25
346.397	87.25
346.625	95.25
346.853	83.25
347.08	92.25
347.308	97.25
347.535	80.25
347.763	89.25
347.99	84.25
348.218	76.25
348.445	92.25
348.673	83.25
348.9	77.25
349.128	92.25
349.355	83.25
349.583	89.25
349.81	96.25
350.037	71.25
350.265	77.25
350.492	75.25
350.72	69.25
350.947	78.25
351.174	86.25
351.402	86.25
351.629	74.25
351.856	92.25
352.083	89.25
352.311	95.25
352.538	85.25
352.765	94.25
352.992	83.25
353.22	91.25
353.447	88.25
353.674	92.25
353.901	91.25
354.128	93.25
354.355	78.25
354.583	80.25
354.81	79.25
355.037	88.25
355.264	91.25
355.491	85.25
355.718	92.25
355.945	97.25
356.172	80.25
356.399	87.25
356.626	86.25
356.853	87.25
357.08	88.25
357.307	89.25
357.534	89.25
357.761	83.25
357.988	89.25
358.215	78.25
358.441	99.25
358.668	102.25
358.895	86.25
359.122	101.25
359.349	99.25
359.576	92.25
359.802	93.25
360.029	85.25
360.256	87.25
360.483	73.25
360.709	88.25
360.936	88.25
361.163	72.25
361.39	96.25
361.616	83.25
361.843	87.25
362.07	96.25
362.296	75.25
362.523	68.25
362.749	92.25
362.976	95.25
363.203	80.25
363.429	93.25
363.656	97.25
363.882	80.25
364.109	88.25
364.335	92.25
364.562	71.25
364.788	89.25
365.015	89.25
365.241	90.25
365.468	92.25
365.694	89.25
365.92	88.25
366.147	83.25
366.373	89.25
366.599	97.25
366.826	78.25
367.052	93.25
367.278	91.25
367.505	79.25
367.731	87.25
367.957	83.25
368.184	74.25
368.41	100.25
368.636	68.25
368.862	85.25
369.089	83.25
369.315	89.25
369.541	93.25
369.767	85.25
369.993	84.25
370.219	84.25
370.445	74.25
370.672	83.25
370.898	96.25
371.124	85.25
371.35	79.25
371.576	80.25
371.802	80.25
372.028	101.25
372.254	82.25
372.48	89.25
372.706	78.25
372.932	81.25
373.158	106.25
373.384	95.25
373.61	88.25
373.835	80.25
374.061	76.25
374.287	92.25
374.513	83.25
374.739	73.25
374.965	84.25
375.191	80.25
375.416	95.25
375.642	92.25
375.868	93.25
376.094	96.25
376.319	96.25
376.545	98.25
376.771	89.25
376.997	79.25
377.222	85.25
377.448	91.25
377.674	91.25
377.899	88.25
378.125	72.25
378.35	84.25
378.576	90.25
378.802	91.25
379.027	81.25
379.253	83.25
379.478	91.25
379.704	87.25
379.929	76.25
380.155	77.25
380.38	93.25
380.606	71.25
380.831	89.25
381.057	77.25
381.282	100.25
381.507	87.25
381.733	93.25
381.958	93.25
382.184	90.25
382.409	84.25
382.634	91.25
382.86	83.25
383.085	88.25
383.31	94.25
383.535	90.25
383.761	80.25
383.986	93.25
384.211	108.25
384.436	93.25
384.662	84.25
384.887	85.25
385.112	83.25
385.337	77.25
385.562	96.25
385.787	88.25
386.013	86.25
386.238	99.25
386.463	87.25
386.688	103.25
386.913	77.25
387.138	91.25
387.363	84.25
387.588	92.25
387.813	94.25
388.038	96.25
388.263	72.25
388.488	76.25
388.713	69.25
388.938	93.25
389.163	84.25
389.387	92.25
389.612	86.25
389.837	101.25
390.062	85.25
390.287	92.25
390.512	80.25
390.736	94.25
390.961	85.25
391.186	73.25
391.411	87.25
391.636	89.25
391.86	87.25
392.085	89.25
392.31	81.25
392.534	72.25
392.759	76.25
392.984	83.25
393.208	100.25
393.433	97.25
393.658	85.25
393.882	93.25
394.107	99.25
394.331	87.25
394.556	78.25
394.78	88.25
395.005	90.25
395.229	90.25
395.454	90.25
395.678	92.25
395.903	85.25
396.127	90.25
396.352	89.25
396.576	100.25
396.801	105.25
397.025	81.25
397.249	91.25
397.474	88.25
397.698	86.25
397.922	101.25
398.147	80.25
398.371	96.25
398.595	77.25
398.82	81.25
399.044	78.25
399.268	88.25
399.492	90.25
399.717	103.25
399.941	78.25
400.165	93.25
400.389	87.25
400.613	99.25
400.837	77.25
401.062	71.25
401.286	88.25
401.51	95.25
401.734	96.25
401.958	76.25
402.182	91.25
402.406	93.25
402.63	93.25
402.854	87.25
403.078	88.25
403.302	94.25
403.526	91.25
403.75	89.25
403.974	94.25
404.198	89.25
404.422	91.25
404.645	100.25
404.869	96.25
405.093	95.25
405.317	85.25
405.541	77.25
405.765	90.25
405.988	100.25
406.212	84.25
406.436	92.25
406.66	94.25
406.883	91.25
407.107	77.25
407.331	92.25
407.555	93.25
407.778	77.25
408.002	95.25
408.226	99.25
408.449	83.25
408.673	85.25
408.896	79.25
409.12	93.25
409.344	95.25
409.567	95.25
409.791	84.25
410.014	83.25
410.238	104.25
410.461	88.25
410.685	90.25
410.908	91.25
411.132	88.25
411.355	85.25
411.578	83.25
411.802	95.25
412.025	86.25
412.249	93.25
412.472	87.25
412.695	86.25
412.919	83.25
413.142	91.25
413.365	78.25
413.589	87.25
413.812	102.25
414.035	71.25
414.258	87.25
414.482	87.25
414.705	79.25
414.928	94.25
415.151	77.25
415.374	77.25
415.597	77.25
415.821	99.25
416.044	89.25
416.267	84.25
416.49	75.25
416.713	85.25
416.936	104.25
417.159	83.25
417.382	73.25
417.605	75.25
417.828	95.25
418.051	91.25
418.274	87.25
418.497	90.25
418.72	84.25
418.943	99.25
419.166	93.25
419.389	102.25
419.611	97.25
419.834	85.25
420.057	99.25
420.28	83.25
420.503	87.25
420.726	91.25
420.948	88.25
421.171	99.25
421.394	95.25
421.617	79.25
421.839	104.25
422.062	95.25
422.285	69.25
422.507	92.25
422.73	69.25
422.953	91.25
423.175	87.25
423.398	87.25
423.621	89.25
423.843	99.25
424.066	85.25
424.288	91.25
424.511	87.25
424.733	92.25
424.956	102.25
425.178	95.25
425.401	100.25
425.623	99.25
425.846	94.25
426.068	80.25
426.291	79.25
426.513	98.25
426.735	90.25
426.958	79.25
427.18	99.25
427.402	96.25
427.625	86.25
427.847	93.25
428.069	95.25
428.292	86.25
428.514	90.25
428.736	95.25
428.958	83.25
429.181	87.25
429.403	80.25
429.625	92.25
429.847	84.25
430.069	85.25
430.292	69.25
430.514	85.25
430.736	80.25
430.958	71.25
431.18	87.25
431.402	72.25
431.624	91.25
431.846	88.25
432.068	86.25
432.29	83.25
432.512	88.25
432.734	84.25
432.956	101.25
433.178	95.25
433.4	81.25
433.622	97.25
433.844	96.25
434.066	79.25
434.287	84.25
434.509	85.25
434.731	93.25
434.953	87.25
435.175	85.25
435.397	87.25
435.618	89.25
435.84	87.25
436.062	75.25
436.284	89.25
436.505	96.25
436.727	91.25
436.949	88.25
437.17	93.25
437.392	92.25
437.614	94.25
437.835	79.25
438.057	86.25
438.278	80.25
438.5	87.25
438.721	95.25
438.943	80.25
439.165	93.25
439.386	85.25
439.608	100.25
439.829	93.25
440.05	99.25
440.272	79.25
440.493	101.25
440.715	85.25
440.936	86.25
441.158	87.25
441.379	88.25
441.6	89.25
441.822	80.25
442.043	95.25
442.264	81.25
442.486	81.25
442.707	89.25
442.928	83.25
443.149	64.25
443.371	72.25
443.592	94.25
443.813	89.25
444.034	93.25
444.255	89.25
444.476	83.25
444.698	83.25
444.919	86.25
445.14	191.25
445.361	135.25
445.582	81.25
445.803	78.25
446.024	90.25
446.245	85.25
446.466	97.25
446.687	76.25
446.908	99.25
447.129	87.25
447.35	91.25
447.571	91.25
447.792	85.25
448.013	83.25
448.234	84.25
448.455	76.25
448.675	91.25
448.896	87.25
449.117	78.25
449.338	94.25
449.559	79.25
449.779	91.25
450	79.25
450.221	81.25
450.442	82.25
450.662	102.25
450.883	97.25
451.104	92.25
451.324	79.25
451.545	89.25
451.766	85.25
451.986	87.25
452.207	83.25
452.428	92.25
452.648	99.25
452.869	94.25
453.089	94.25
453.31	81.25
453.53	83.25
453.751	86.25
453.971	104.25
454.192	81.25
454.412	94.25
454.633	76.25
454.853	81.25
455.073	77.25
455.294	95.25
455.514	107.25
455.734	85.25
455.955	76.25
456.175	83.25
456.395	88.25
456.616	89.25
456.836	85.25
457.056	89.25
457.276	99.25
457.497	86.25
457.717	88.25
457.937	93.25
458.157	87.25
458.377	82.25
458.598	89.25
458.818	92.25
459.038	93.25
459.258	93.25
459.478	87.25
459.698	74.25
459.918	94.25
460.138	78.25
460.358	85.25
460.578	84.25
460.798	79.25
461.018	89.25
461.238	89.25
461.458	99.25
461.678	88.25
461.898	88.25
462.118	88.25
462.338	88.25
462.558	92.25
462.777	99.25
462.997	79.25
463.217	89.25
463.437	96.25
463.657	83.25
463.876	96.25
464.096	92.25
464.316	97.25
464.536	85.25
464.755	96.25
464.975	105.25
465.195	87.25
465.414	86.25
465.634	94.25
465.854	88.25
466.073	85.25
466.293	75.25
466.512	75.25
466.732	92.25
466.951	98.25
467.171	84.25
467.391	99.25
467.61	82.25
467.829	89.25
468.049	87.25
468.268	80.25
468.488	98.25
468.707	86.25
468.927	88.25
469.146	79.25
469.365	65.25
469.585	84.25
469.804	80.25
470.023	82.25
470.243	92.25
470.462	93.25
470.681	74.25
470.901	83.25
471.12	88.25
471.339	87.25
471.558	79.25
471.777	104.25
471.997	101.25
472.216	86.25
472.435	97.25
472.654	83.25
472.873	88.25
473.092	88.25
473.311	96.25
473.53	80.25
473.749	90.25
473.968	93.25
474.187	83.25
474.406	96.25
474.625	94.25
474.844	93.25
475.063	81.25
475.282	83.25
475.501	75.25
475.72	86.25
475.939	84.25
476.158	85.25
476.377	87.25
476.596	77.25
476.814	84.25
477.033	107.25
477.252	95.25
477.471	101.25
477.69	85.25
477.908	84.25
478.127	86.25
478.346	86.25
478.564	90.25
478.783	94.25
479.002	86.25
479.22	91.25
479.439	91.25
479.658	95.25
479.876	86.25
480.095	77.25
480.313	92.25
480.532	97.25
480.751	90.25
480.969	87.25
481.188	77.25
481.406	87.25
481.624	84.25
481.843	95.25
482.061	76.25
482.28	82.25
482.498	86.25
482.717	94.25
482.935	85.25
483.153	80.25
483.372	93.25
483.59	86.25
483.808	81.25
484.027	79.25
484.245	88.25
484.463	73.25
484.681	87.25
484.9	87.25
485.118	97.25
485.336	100.25
485.554	100.25
485.772	79.25
485.99	85.25
486.209	92.25
486.427	85.25
486.645	99.25
486.863	83.25
487.081	72.25
487.299	87.25
487.517	91.25
487.735	85.25
487.953	91.25
488.171	81.25
488.389	94.25
488.607	83.25
488.825	74.25
489.043	75.25
489.261	88.25
489.479	92.25
489.696	89.25
489.914	94.25
490.132	87.25
490.35	95.25
490.568	83.25
490.786	76.25
491.003	91.25
491.221	92.25
491.439	80.25
491.657	93.25
491.874	96.25
492.092	81.25
492.31	91.25
492.527	86.25
492.745	83.25
492.963	109.25
493.18	80.25
493.398	88.25
493.615	88.25
493.833	107.25
494.05	81.25
494.268	88.25
494.485	94.25
494.703	96.25
494.92	101.25
495.138	94.25
495.355	79.25
495.573	94.25
495.79	100.25
496.008	92.25
496.225	109.25
496.442	86.25
496.66	85.25
496.877	95.25
497.094	93.25
497.312	75.25
497.529	92.25
497.746	75.25
497.963	93.25
498.181	91.25
498.398	84.25
498.615	81.25
498.832	93.25
499.049	90.25
499.267	100.25
499.484	95.25
499.701	98.25
499.918	95.25
500.135	110.25
500.352	107.25
500.569	107.25
500.786	91.25
501.003	111.25
501.22	108.25
501.437	111.25
501.654	78.25
501.871	92.25
502.088	87.25
502.305	80.25
502.522	89.25
502.739	87.25
502.956	98.25
503.172	105.25
503.389	80.25
503.606	83.25
503.823	82.25
504.04	95.25
504.256	96.25
504.473	101.25
504.69	80.25
504.907	95.25
505.123	96.25
505.34	99.25
505.557	92.25
505.773	85.25
505.99	79.25
506.207	100.25
506.423	91.25
506.64	80.25
506.856	81.25
507.073	83.25
507.289	102.25
507.506	104.25
507.722	88.25
507.939	84.25
508.155	92.25
508.372	91.25
508.588	86.25
508.805	103.25
509.021	88.25
509.238	76.25
509.454	79.25
509.67	79.25
509.887	84.25
510.103	95.25
510.319	74.25
510.536	88.25
510.752	84.25
510.968	86.25
511.184	100.25
511.401	83.25
511.617	93.25
511.833	96.25
512.049	84.25
512.265	95.25
512.481	84.25
512.698	95.25
512.914	91.25
513.13	86.25
513.346	106.25
513.562	101.25
513.778	84.25
513.994	91.25
514.21	84.25
514.426	90.25
514.642	85.25
514.858	82.25
515.074	83.25
515.29	76.25
515.506	90.25
515.721	93.25
515.937	88.25
516.153	85.25
516.369	103.25
516.585	86.25
516.801	79.25
517.016	104.25
517.232	93.25
517.448	89.25
517.664	95.25
517.879	76.25
518.095	91.25
518.311	93.25
518.527	89.25
518.742	95.25
518.958	104.25
519.173	101.25
519.389	87.25
