Data from BG_HRD10591_041.txt Node
Date: Fri May 16 15:14:43 EDT 2025
User: Yrep
Spectrometer: HR+D1059
Trigger mode: 1
Integration Time (sec): 1.000000E-1
Scans to average: 1
Electric dark correction enabled: true
Nonlinearity correction enabled: false
Boxcar width: 0
XAxis mode: Wavelengths
Number of Pixels in Spectrum: 2048
>>>>>Begin Spectral Data<<<<<
223.165	1
223.4	1
223.635	1
223.869	-10
224.104	-24
224.338	-18
224.573	-9
224.808	-24
225.042	1
225.277	-11
225.511	-6
225.746	5
225.98	9
226.215	10
226.449	14
226.683	27
226.918	15
227.152	20
227.387	45
227.621	36
227.856	52
228.09	57
228.324	51
228.559	57
228.793	58
229.027	73
229.262	65
229.496	64
229.73	79
229.964	77
230.199	84
230.433	67
230.667	73
230.901	80
231.136	68
231.37	61
231.604	86
231.838	75
232.072	92
232.306	82
232.541	86
232.775	74
233.009	80
233.243	92
233.477	78
233.711	90
233.945	89
234.179	91
234.413	78
234.647	76
234.881	100
235.115	71
235.349	82
235.583	69
235.817	82
236.051	95
236.285	80
236.519	69
236.753	88
236.987	84
237.221	80
237.455	85
237.689	70
237.922	74
238.156	83
238.39	67
238.624	87
238.858	83
239.091	72
239.325	81
239.559	78
239.793	72
240.027	61
240.26	69
240.494	89
240.728	76
240.961	80
241.195	62
241.429	93
241.662	78
241.896	76
242.13	65
242.363	86
242.597	84
242.83	79
243.064	81
243.298	81
243.531	57
243.765	80
243.998	67
244.232	71
244.465	87
244.699	75
244.932	82
245.166	87
245.399	87
245.633	89
245.866	85
246.099	75
246.333	87
246.566	81
246.8	74
247.033	82
247.266	61
247.5	87
247.733	83
247.966	75
248.2	70
248.433	77
248.666	88
248.899	57
249.133	89
249.366	96
249.599	89
249.832	62
250.066	89
250.299	82
250.532	67
250.765	92
250.998	84
251.231	78
251.465	95
251.698	80
251.931	71
252.164	82
252.397	92
252.63	77
252.863	92
253.096	73
253.329	80
253.562	85
253.795	80
254.028	79
254.261	85
254.494	82
254.727	86
254.96	85
255.193	87
255.426	81
255.659	85
255.892	93
256.124	68
256.357	68
256.59	88
256.823	76
257.056	77
257.289	73
257.521	81
257.754	80
257.987	88
258.22	86
258.452	66
258.685	93
258.918	77
259.151	74
259.383	76
259.616	90
259.849	94
260.081	88
260.314	87
260.547	86
260.779	86
261.012	82
261.244	72
261.477	89
261.71	79
261.942	82
262.175	79
262.407	90
262.64	89
262.872	77
263.105	73
263.337	79
263.57	77
263.802	87
264.035	76
264.267	75
264.499	89
264.732	88
264.964	78
265.197	68
265.429	78
265.661	94
265.894	86
266.126	104
266.358	87
266.591	72
266.823	73
267.055	69
267.287	102
267.52	86
267.752	91
267.984	70
268.216	88
268.448	78
268.681	85
268.913	94
269.145	82
269.377	91
269.609	94
269.841	92
270.073	78
270.306	74
270.538	89
270.77	79
271.002	77
271.234	84
271.466	94
271.698	90
271.93	94
272.162	75
272.394	78
272.626	95
272.858	93
273.09	85
273.322	93
273.553	76
273.785	82
274.017	73
274.249	91
274.481	88
274.713	93
274.945	72
275.176	79
275.408	76
275.64	81
275.872	95
276.104	92
276.335	90
276.567	86
276.799	75
277.031	76
277.262	83
277.494	78
277.726	86
277.957	71
278.189	84
278.421	81
278.652	84
278.884	84
279.115	75
279.347	88
279.579	77
279.81	93
280.042	80
280.273	88
280.505	91
280.736	78
280.968	96
281.199	85
281.431	89
281.662	82
281.894	73
282.125	90
282.356	80
282.588	84
282.819	87
283.051	103
283.282	88
283.513	76
283.745	84
283.976	73
284.207	74
284.439	78
284.67	75
284.901	87
285.132	86
285.364	83
285.595	79
285.826	77
286.057	76
286.288	86
286.52	90
286.751	92
286.982	81
287.213	77
287.444	79
287.675	81
287.906	87
288.138	79
288.369	92
288.6	81
288.831	78
289.062	79
289.293	89
289.524	88
289.755	79
289.986	88
290.217	95
290.448	89
290.679	86
290.91	88
291.141	87
291.371	83
291.602	86
291.833	82
292.064	91
292.295	92
292.526	92
292.757	89
292.987	92
293.218	82
293.449	101
293.68	87
293.91	78
294.141	90
294.372	78
294.603	82
294.833	85
295.064	86
295.295	77
295.525	84
295.756	92
295.987	83
296.217	80
296.448	80
296.679	89
296.909	90
297.14	86
297.37	98
297.601	67
297.831	77
298.062	90
298.292	83
298.523	83
298.753	92
298.984	92
299.214	93
299.445	74
299.675	90
299.905	79
300.136	83
300.366	93
300.597	80
300.827	83
301.057	86
301.288	80
301.518	84
301.748	76
301.979	101
302.209	84
302.439	91
302.669	89
302.9	98
303.13	85
303.36	104
303.59	84
303.82	74
304.051	84
304.281	75
304.511	86
304.741	81
304.971	91
305.201	90
305.431	96
305.661	65
305.891	100
306.121	88
306.352	86
306.582	101
306.812	79
307.042	86
307.272	104
307.502	92
307.731	78
307.961	95
308.191	78
308.421	80
308.651	77
308.881	97
309.111	79
309.341	90
309.571	80
309.8	70
310.03	82
310.26	93
310.49	75
310.72	83
310.949	97
311.179	75
311.409	82
311.639	97
311.868	96
312.098	95
312.328	101
312.557	82
312.787	80
313.017	79
313.246	88
313.476	95
313.706	93
313.935	72
314.165	100
314.394	83
314.624	98
314.853	84
315.083	105
315.312	83
315.542	84
315.771	85
316.001	84
316.23	90
316.46	89
316.689	87
316.919	86
317.148	80
317.377	83
317.607	92
317.836	89
318.065	75
318.295	87
318.524	85
318.753	87
318.983	75
319.212	95
319.441	93
319.67	89
319.9	83
320.129	84
320.358	83
320.587	84
320.816	87
321.046	91
321.275	85
321.504	87
321.733	82
321.962	89
322.191	83
322.42	91
322.649	84
322.878	80
323.108	92
323.337	86
323.566	82
323.795	90
324.024	78
324.253	92
324.482	101
324.71	80
324.939	76
325.168	73
325.397	97
325.626	88
325.855	80
326.084	80
326.313	74
326.542	91
326.77	95
326.999	78
327.228	75
327.457	85
327.686	85
327.914	74
328.143	85
328.372	96
328.6	94
328.829	90
329.058	80
329.287	76
329.515	90
329.744	97
329.972	74
330.201	80
330.43	90
330.658	86
330.887	91
331.115	69
331.344	89
331.572	103
331.801	86
332.03	96
332.258	85
332.486	80
332.715	89
332.943	100
333.172	86
333.4	64
333.629	76
333.857	72
334.085	79
334.314	82
334.542	93
334.771	86
334.999	77
335.227	81
335.455	78
335.684	100
335.912	86
336.14	99
336.369	81
336.597	91
336.825	90
337.053	89
337.281	94
337.51	73
337.738	74
337.966	88
338.194	85
338.422	91
338.65	101
338.878	86
339.106	91
339.334	90
339.562	101
339.79	81
340.018	83
340.246	68
340.474	101
340.702	80
340.93	94
341.158	83
341.386	84
341.614	89
341.842	67
342.07	88
342.298	94
342.526	78
342.754	89
342.981	80
343.209	94
343.437	88
343.665	97
343.893	82
344.12	84
344.348	70
344.576	82
344.804	78
345.031	78
345.259	85
345.487	93
345.714	98
345.942	80
346.17	106
346.397	80
346.625	82
346.853	88
347.08	91
347.308	88
347.535	86
347.763	85
347.99	88
348.218	84
348.445	66
348.673	75
348.9	88
349.128	87
349.355	82
349.583	78
349.81	81
350.037	94
350.265	85
350.492	97
350.72	83
350.947	81
351.174	70
351.402	82
351.629	86
351.856	89
352.083	80
352.311	78
352.538	79
352.765	74
352.992	84
353.22	94
353.447	79
353.674	66
353.901	84
354.128	93
354.355	93
354.583	89
354.81	83
355.037	96
355.264	70
355.491	69
355.718	77
355.945	81
356.172	76
356.399	85
356.626	87
356.853	79
357.08	98
357.307	90
357.534	75
357.761	92
357.988	87
358.215	92
358.441	86
358.668	92
358.895	93
359.122	80
359.349	76
359.576	89
359.802	76
360.029	81
360.256	88
360.483	93
360.709	86
360.936	93
361.163	89
361.39	88
361.616	81
361.843	95
362.07	88
362.296	76
362.523	96
362.749	95
362.976	74
363.203	84
363.429	75
363.656	87
363.882	86
364.109	90
364.335	87
364.562	102
364.788	71
365.015	87
365.241	76
365.468	89
365.694	85
365.92	88
366.147	80
366.373	77
366.599	95
366.826	89
367.052	79
367.278	78
367.505	79
367.731	88
367.957	78
368.184	78
368.41	85
368.636	75
368.862	73
369.089	76
369.315	82
369.541	89
369.767	78
369.993	94
370.219	92
370.445	74
370.672	78
370.898	72
371.124	75
371.35	88
371.576	81
371.802	89
372.028	94
372.254	75
372.48	92
372.706	89
372.932	90
373.158	88
373.384	100
373.61	90
373.835	84
374.061	89
374.287	84
374.513	80
374.739	92
374.965	72
375.191	85
375.416	86
375.642	85
375.868	89
376.094	74
376.319	75
376.545	71
376.771	81
376.997	71
377.222	75
377.448	84
377.674	85
377.899	89
378.125	89
378.35	101
378.576	81
378.802	87
379.027	93
379.253	86
379.478	86
379.704	83
379.929	79
380.155	88
380.38	94
380.606	86
380.831	86
381.057	88
381.282	83
381.507	75
381.733	81
381.958	87
382.184	88
382.409	82
382.634	81
382.86	95
383.085	84
383.31	88
383.535	94
383.761	86
383.986	90
384.211	74
384.436	83
384.662	93
384.887	84
385.112	90
385.337	90
385.562	78
385.787	72
386.013	85
386.238	79
386.463	80
386.688	94
386.913	79
387.138	94
387.363	84
387.588	89
387.813	88
388.038	69
388.263	100
388.488	73
388.713	77
388.938	88
389.163	74
389.387	82
389.612	85
389.837	84
390.062	92
390.287	88
390.512	90
390.736	78
390.961	85
391.186	81
391.411	91
391.636	83
391.86	89
392.085	87
392.31	83
392.534	90
392.759	93
392.984	70
393.208	97
393.433	91
393.658	85
393.882	71
394.107	74
394.331	85
394.556	92
394.78	78
395.005	69
395.229	77
395.454	84
395.678	76
395.903	78
396.127	85
396.352	90
396.576	82
396.801	78
397.025	82
397.249	76
397.474	88
397.698	76
397.922	90
398.147	86
398.371	76
398.595	79
398.82	70
399.044	86
399.268	73
399.492	84
399.717	81
399.941	84
400.165	81
400.389	84
400.613	81
400.837	89
401.062	81
401.286	81
401.51	78
401.734	100
401.958	74
402.182	90
402.406	57
402.63	75
402.854	72
403.078	88
403.302	87
403.526	85
403.75	78
403.974	90
404.198	78
404.422	82
404.645	69
404.869	81
405.093	91
405.317	93
405.541	91
405.765	77
405.988	84
406.212	78
406.436	84
406.66	72
406.883	77
407.107	78
407.331	89
407.555	74
407.778	80
408.002	79
408.226	83
408.449	90
408.673	80
408.896	88
409.12	93
409.344	86
409.567	71
409.791	85
410.014	80
410.238	85
410.461	74
410.685	81
410.908	72
411.132	85
411.355	80
411.578	80
411.802	79
412.025	71
412.249	84
412.472	88
412.695	78
412.919	78
413.142	82
413.365	79
413.589	80
413.812	89
414.035	74
414.258	74
414.482	83
414.705	100
414.928	84
415.151	88
415.374	96
415.597	85
415.821	82
416.044	84
416.267	85
416.49	68
416.713	96
416.936	80
417.159	84
417.382	76
417.605	93
417.828	68
418.051	88
418.274	87
418.497	78
418.72	80
418.943	84
419.166	74
419.389	74
419.611	76
419.834	82
420.057	80
420.28	72
420.503	78
420.726	85
420.948	80
421.171	83
421.394	77
421.617	85
421.839	71
422.062	83
422.285	80
422.507	74
422.73	92
422.953	96
423.175	87
423.398	77
423.621	66
423.843	81
424.066	88
424.288	83
424.511	83
424.733	84
424.956	62
425.178	77
425.401	84
425.623	88
425.846	72
426.068	82
426.291	70
426.513	72
426.735	88
426.958	77
427.18	81
427.402	76
427.625	77
427.847	90
428.069	85
428.292	75
428.514	74
428.736	63
428.958	77
429.181	64
429.403	67
429.625	90
429.847	85
430.069	77
430.292	88
430.514	70
430.736	91
430.958	76
431.18	75
431.402	84
431.624	65
431.846	80
432.068	80
432.29	79
432.512	82
432.734	81
432.956	82
433.178	77
433.4	78
433.622	73
433.844	78
434.066	82
434.287	72
434.509	62
434.731	83
434.953	87
435.175	73
435.397	90
435.618	69
435.84	82
436.062	69
436.284	78
436.505	85
436.727	92
436.949	75
437.17	83
437.392	78
437.614	78
437.835	78
438.057	79
438.278	95
438.5	80
438.721	90
438.943	74
439.165	85
439.386	71
439.608	73
439.829	87
440.05	79
440.272	84
440.493	80
440.715	68
440.936	100
441.158	95
441.379	80
441.6	86
441.822	82
442.043	88
442.264	87
442.486	76
442.707	74
442.928	79
443.149	78
443.371	79
443.592	86
443.813	84
444.034	89
444.255	89
444.476	97
444.698	82
444.919	77
445.14	173
445.361	122
445.582	84
445.803	68
446.024	88
446.245	82
446.466	80
446.687	90
446.908	73
447.129	79
447.35	77
447.571	88
447.792	76
448.013	80
448.234	82
448.455	74
448.675	80
448.896	80
449.117	67
449.338	82
449.559	84
449.779	102
450	74
450.221	77
450.442	93
450.662	82
450.883	96
451.104	76
451.324	75
451.545	77
451.766	88
451.986	62
452.207	77
452.428	70
452.648	88
452.869	84
453.089	81
453.31	96
453.53	89
453.751	80
453.971	68
454.192	66
454.412	77
454.633	65
454.853	88
455.073	80
455.294	74
455.514	90
455.734	78
455.955	77
456.175	91
456.395	82
456.616	97
456.836	94
457.056	72
457.276	90
457.497	86
457.717	87
457.937	84
458.157	86
458.377	87
458.598	94
458.818	79
459.038	90
459.258	83
459.478	81
459.698	87
459.918	81
460.138	87
460.358	79
460.578	90
460.798	64
461.018	78
461.238	90
461.458	84
461.678	74
461.898	83
462.118	86
462.338	82
462.558	80
462.777	77
462.997	77
463.217	76
463.437	75
463.657	80
463.876	78
464.096	83
464.316	72
464.536	76
464.755	76
464.975	75
465.195	82
465.414	78
465.634	82
465.854	82
466.073	83
466.293	93
466.512	82
466.732	80
466.951	87
467.171	76
467.391	87
467.61	72
467.829	83
468.049	84
468.268	98
468.488	88
468.707	89
468.927	85
469.146	82
469.365	88
469.585	88
469.804	88
470.023	77
470.243	64
470.462	86
470.681	78
470.901	73
471.12	80
471.339	78
471.558	73
471.777	77
471.997	97
472.216	87
472.435	76
472.654	85
472.873	89
473.092	89
473.311	77
473.53	83
473.749	93
473.968	88
474.187	88
474.406	91
474.625	86
474.844	84
475.063	77
475.282	76
475.501	72
475.72	90
475.939	94
476.158	90
476.377	81
476.596	73
476.814	81
477.033	77
477.252	95
477.471	78
477.69	77
477.908	78
478.127	90
478.346	88
478.564	82
478.783	82
479.002	81
479.22	86
479.439	89
479.658	79
479.876	73
480.095	92
480.313	87
480.532	72
480.751	89
480.969	79
481.188	79
481.406	86
481.624	74
481.843	70
482.061	94
482.28	78
482.498	88
482.717	82
482.935	79
483.153	87
483.372	81
483.59	72
483.808	65
484.027	84
484.245	82
484.463	76
484.681	87
484.9	80
485.118	74
485.336	88
485.554	88
485.772	93
485.99	90
486.209	95
486.427	85
486.645	89
486.863	76
487.081	80
487.299	92
487.517	74
487.735	62
487.953	80
488.171	84
488.389	79
488.607	77
488.825	88
489.043	81
489.261	96
489.479	101
489.696	79
489.914	85
490.132	78
490.35	78
490.568	79
490.786	84
491.003	69
491.221	72
491.439	87
491.657	83
491.874	95
492.092	93
492.31	74
492.527	93
492.745	79
492.963	76
493.18	80
493.398	76
493.615	90
493.833	91
494.05	79
494.268	76
494.485	96
494.703	82
494.92	70
495.138	91
495.355	76
495.573	80
495.79	77
496.008	83
496.225	84
496.442	91
496.66	66
496.877	91
497.094	96
497.312	90
497.529	78
497.746	86
497.963	89
498.181	71
498.398	84
498.615	83
498.832	75
499.049	90
499.267	82
499.484	88
499.701	80
499.918	83
500.135	59
500.352	64
500.569	90
500.786	89
501.003	63
501.22	70
501.437	77
501.654	77
501.871	88
502.088	81
502.305	84
502.522	89
502.739	94
502.956	84
503.172	92
503.389	79
503.606	84
503.823	94
504.04	82
504.256	90
504.473	73
504.69	84
504.907	88
505.123	89
505.34	65
505.557	90
505.773	91
505.99	98
506.207	86
506.423	89
506.64	88
506.856	78
507.073	61
507.289	76
507.506	100
507.722	70
507.939	92
508.155	84
508.372	87
508.588	86
508.805	76
509.021	80
509.238	87
509.454	80
509.67	93
509.887	92
510.103	75
510.319	85
510.536	91
510.752	86
510.968	79
511.184	80
511.401	95
511.617	94
511.833	82
512.049	85
512.265	74
512.481	77
512.698	80
512.914	90
513.13	87
513.346	94
513.562	90
513.778	88
513.994	89
514.21	83
514.426	94
514.642	81
514.858	92
515.074	94
515.29	87
515.506	91
515.721	71
515.937	77
516.153	82
516.369	78
516.585	81
516.801	82
517.016	73
517.232	70
517.448	83
517.664	89
517.879	77
518.095	83
518.311	93
518.527	76
518.742	84
518.958	86
519.173	90
519.389	76
519.605	84
519.82	92
520.036	79
520.251	93
520.467	97
520.682	89
520.898	88
521.113	80
521.329	96
521.544	92
521.76	92
521.975	84
522.19	73
522.406	72
522.621	94
522.836	77
523.052	84
523.267	98
523.482	88
523.698	68
523.913	87
524.128	87
524.343	83
524.559	84
524.774	82
524.989	81
525.204	85
525.419	85
525.634	82
525.849	78
526.064	81
526.28	81
526.495	80
526.71	74
526.925	70
527.14	70
527.355	79
527.57	78
527.785	80
527.999	75
528.214	87
528.429	74
528.644	90
528.859	95
529.074	92
529.289	79
529.503	86
529.718	90
529.933	83
530.148	80
530.363	78
530.577	91
530.792	82
531.007	86
531.221	69
531.436	70
531.651	87
531.865	88
532.08	83
532.295	96
532.509	88
532.724	79
532.938	86
533.153	80
533.367	76
533.582	78
533.796	89
534.011	74
534.225	74
534.44	78
534.654	98
534.868	96
535.083	100
535.297	97
535.511	73
535.726	84
535.94	80
536.154	84
536.369	85
536.583	93
536.797	87
537.011	85
537.225	74
537.44	63
537.654	74
537.868	83
538.082	83
538.296	93
538.51	77
538.724	102
538.938	89
539.153	72
539.367	84
539.581	86
539.795	100
540.009	82
540.222	91
540.436	84
540.65	82
540.864	77
541.078	77
541.292	74
541.506	76
541.72	91
541.934	79
542.147	80
542.361	100
542.575	91
542.789	89
543.002	77
543.216	84
543.43	73
543.644	84
543.857	88
544.071	78
544.285	89
544.498	76
544.712	94
544.925	74
545.139	85
545.352	100
545.566	90
545.779	72
545.993	102
546.206	100
546.42	79
546.633	85
546.847	87
547.06	69
547.274	83
547.487	94
547.7	75
547.914	68
548.127	80
548.34	65
548.554	87
548.767	78
548.98	89
549.193	88
549.407	78
549.62	84
549.833	105
550.046	69
550.259	99
550.473	79
550.686	81
550.899	94
551.112	88
551.325	81
551.538	93
551.751	83
551.964	73
552.177	84
552.39	81
552.603	98
552.816	90
553.029	101
553.242	84
553.455	76
553.667	108
553.88	94
554.093	88
554.306	87
554.519	86
554.732	84
554.944	75
555.157	83
555.37	79
555.583	81
555.795	93
556.008	70
556.221	90
556.433	95
556.646	80
556.859	85
557.071	100
557.284	82
557.496	76
557.709	85
557.921	65
558.134	95
558.346	85
558.559	89
558.771	85
558.984	83
559.196	86
559.409	96
559.621	83
559.833	80
560.046	87
560.258	77
560.47	76
560.683	99
560.895	76
561.107	82
561.32	78
561.532	82
561.744	82
561.956	91
562.168	80
562.381	98
562.593	84
562.805	92
563.017	88
563.229	89
563.441	86
563.653	73
563.865	84
564.077	96
564.289	68
564.501	98
564.713	96
564.925	70
565.137	76
565.349	79
565.561	92
565.773	76
565.985	72
566.197	77
566.408	95
566.62	83
566.832	81
567.044	90
567.255	89
567.467	88
567.679	88
567.891	79
568.102	98
568.314	103
568.526	80
568.737	82
568.949	84
569.161	83
569.372	92
569.584	88
569.795	79
570.007	84
570.218	100
570.43	88
570.641	71
570.853	93
571.064	72
571.276	66
571.487	75
571.698	100
571.91	83
572.121	86
572.333	85
572.544	77
572.755	86
572.966	100
573.178	86
573.389	91
573.6	88
573.811	80
574.023	80
574.234	83
574.445	88
574.656	90
574.867	90
575.078	94
575.289	81
575.501	94
575.712	89
575.923	84
576.134	90
576.345	76
576.556	104
576.767	82
576.978	76
577.188	81
577.399	80
577.61	74
577.821	75
578.032	80
578.243	90
578.454	93
578.665	88
578.875	84
579.086	75
579.297	86
579.508	89
579.718	95
579.929	88
580.14	80
580.35	87
580.561	76
580.772	86
580.982	88
581.193	87
581.403	63
581.614	95
581.825	91
582.035	86
582.246	105
582.456	104
582.667	87
582.877	97
583.087	87
583.298	76
583.508	96
583.719	82
583.929	84
584.139	79
584.35	70
584.56	86
584.77	80
584.981	86
585.191	86
585.401	81
585.611	84
585.821	87
586.032	83
586.242	74
586.452	80
586.662	81
586.872	88
587.082	85
587.292	94
587.502	91
587.713	70
587.923	92
588.133	106
588.343	97
588.553	79
588.762	98
588.972	80
589.182	87
589.392	88
589.602	95
589.812	73
590.022	81
590.232	89
590.441	73
