Data from BG_HRD10591_022.txt Node
Date: Fri May 16 15:14:33 EDT 2025
User: Yrep
Spectrometer: HR+D1059
Trigger mode: 1
Integration Time (sec): 1.000000E-1
Scans to average: 1
Electric dark correction enabled: true
Nonlinearity correction enabled: false
Boxcar width: 0
XAxis mode: Wavelengths
Number of Pixels in Spectrum: 2048
>>>>>Begin Spectral Data<<<<<
223.165	-10.75
223.4	-10.75
223.635	-10.75
223.869	-7.75
224.104	-28.75
224.338	-16.75
224.573	-20.75
224.808	-19.75
225.042	-10.75
225.277	5.25
225.511	3.25
225.746	-1.75
225.98	15.25
226.215	12.25
226.449	12.25
226.683	17.25
226.918	18.25
227.152	33.25
227.387	46.25
227.621	52.25
227.856	45.25
228.09	52.25
228.324	57.25
228.559	48.25
228.793	52.25
229.027	60.25
229.262	66.25
229.496	77.25
229.73	73.25
229.964	73.25
230.199	75.25
230.433	73.25
230.667	70.25
230.901	66.25
231.136	77.25
231.37	64.25
231.604	75.25
231.838	77.25
232.072	80.25
232.306	94.25
232.541	81.25
232.775	75.25
233.009	88.25
233.243	79.25
233.477	81.25
233.711	85.25
233.945	79.25
234.179	80.25
234.413	78.25
234.647	81.25
234.881	87.25
235.115	67.25
235.349	88.25
235.583	78.25
235.817	88.25
236.051	74.25
236.285	73.25
236.519	78.25
236.753	74.25
236.987	76.25
237.221	78.25
237.455	85.25
237.689	88.25
237.922	71.25
238.156	84.25
238.39	75.25
238.624	77.25
238.858	77.25
239.091	73.25
239.325	66.25
239.559	62.25
239.793	73.25
240.027	81.25
240.26	88.25
240.494	69.25
240.728	77.25
240.961	72.25
241.195	88.25
241.429	71.25
241.662	70.25
241.896	64.25
242.13	82.25
242.363	80.25
242.597	67.25
242.83	76.25
243.064	72.25
243.298	73.25
243.531	91.25
243.765	84.25
243.998	77.25
244.232	70.25
244.465	76.25
244.699	74.25
244.932	90.25
245.166	90.25
245.399	79.25
245.633	83.25
245.866	78.25
246.099	77.25
246.333	76.25
246.566	89.25
246.8	84.25
247.033	76.25
247.266	86.25
247.5	78.25
247.733	84.25
247.966	78.25
248.2	85.25
248.433	82.25
248.666	84.25
248.899	90.25
249.133	85.25
249.366	84.25
249.599	73.25
249.832	90.25
250.066	86.25
250.299	92.25
250.532	81.25
250.765	81.25
250.998	84.25
251.231	88.25
251.465	80.25
251.698	68.25
251.931	79.25
252.164	86.25
252.397	81.25
252.63	84.25
252.863	84.25
253.096	90.25
253.329	86.25
253.562	74.25
253.795	80.25
254.028	79.25
254.261	77.25
254.494	87.25
254.727	87.25
254.96	78.25
255.193	87.25
255.426	96.25
255.659	82.25
255.892	71.25
256.124	74.25
256.357	87.25
256.59	87.25
256.823	78.25
257.056	79.25
257.289	84.25
257.521	70.25
257.754	85.25
257.987	96.25
258.22	94.25
258.452	86.25
258.685	75.25
258.918	82.25
259.151	71.25
259.383	85.25
259.616	85.25
259.849	81.25
260.081	80.25
260.314	77.25
260.547	59.25
260.779	109.25
261.012	84.25
261.244	79.25
261.477	100.25
261.71	74.25
261.942	78.25
262.175	86.25
262.407	90.25
262.64	94.25
262.872	88.25
263.105	71.25
263.337	70.25
263.57	90.25
263.802	91.25
264.035	87.25
264.267	89.25
264.499	81.25
264.732	63.25
264.964	86.25
265.197	94.25
265.429	72.25
265.661	78.25
265.894	91.25
266.126	82.25
266.358	90.25
266.591	79.25
266.823	76.25
267.055	80.25
267.287	83.25
267.52	80.25
267.752	88.25
267.984	65.25
268.216	84.25
268.448	95.25
268.681	84.25
268.913	85.25
269.145	84.25
269.377	73.25
269.609	93.25
269.841	78.25
270.073	92.25
270.306	81.25
270.538	90.25
270.77	74.25
271.002	96.25
271.234	93.25
271.466	81.25
271.698	79.25
271.93	80.25
272.162	80.25
272.394	80.25
272.626	82.25
272.858	88.25
273.09	77.25
273.322	87.25
273.553	81.25
273.785	94.25
274.017	78.25
274.249	94.25
274.481	94.25
274.713	82.25
274.945	95.25
275.176	90.25
275.408	87.25
275.64	84.25
275.872	74.25
276.104	80.25
276.335	85.25
276.567	84.25
276.799	88.25
277.031	82.25
277.262	86.25
277.494	78.25
277.726	84.25
277.957	87.25
278.189	90.25
278.421	86.25
278.652	92.25
278.884	90.25
279.115	87.25
279.347	92.25
279.579	87.25
279.81	93.25
280.042	79.25
280.273	92.25
280.505	82.25
280.736	74.25
280.968	69.25
281.199	92.25
281.431	84.25
281.662	84.25
281.894	89.25
282.125	90.25
282.356	89.25
282.588	89.25
282.819	90.25
283.051	93.25
283.282	92.25
283.513	88.25
283.745	90.25
283.976	91.25
284.207	79.25
284.439	88.25
284.67	84.25
284.901	98.25
285.132	80.25
285.364	76.25
285.595	80.25
285.826	78.25
286.057	80.25
286.288	71.25
286.52	93.25
286.751	72.25
286.982	98.25
287.213	82.25
287.444	90.25
287.675	87.25
287.906	93.25
288.138	92.25
288.369	75.25
288.6	90.25
288.831	80.25
289.062	92.25
289.293	70.25
289.524	77.25
289.755	87.25
289.986	78.25
290.217	82.25
290.448	81.25
290.679	90.25
290.91	80.25
291.141	77.25
291.371	86.25
291.602	79.25
291.833	92.25
292.064	98.25
292.295	93.25
292.526	92.25
292.757	74.25
292.987	71.25
293.218	91.25
293.449	88.25
293.68	79.25
293.91	92.25
294.141	92.25
294.372	76.25
294.603	87.25
294.833	91.25
295.064	89.25
295.295	84.25
295.525	94.25
295.756	86.25
295.987	96.25
296.217	84.25
296.448	89.25
296.679	98.25
296.909	88.25
297.14	82.25
297.37	94.25
297.601	69.25
297.831	80.25
298.062	80.25
298.292	96.25
298.523	82.25
298.753	83.25
298.984	94.25
299.214	100.25
299.445	80.25
299.675	87.25
299.905	80.25
300.136	85.25
300.366	91.25
300.597	104.25
300.827	69.25
301.057	86.25
301.288	110.25
301.518	80.25
301.748	85.25
301.979	102.25
302.209	97.25
302.439	83.25
302.669	74.25
302.9	79.25
303.13	92.25
303.36	86.25
303.59	93.25
303.82	93.25
304.051	95.25
304.281	102.25
304.511	107.25
304.741	100.25
304.971	77.25
305.201	92.25
305.431	90.25
305.661	88.25
305.891	80.25
306.121	85.25
306.352	92.25
306.582	80.25
306.812	86.25
307.042	80.25
307.272	87.25
307.502	87.25
307.731	81.25
307.961	92.25
308.191	91.25
308.421	78.25
308.651	86.25
308.881	98.25
309.111	92.25
309.341	100.25
309.571	93.25
309.8	83.25
310.03	85.25
310.26	88.25
310.49	93.25
310.72	94.25
310.949	80.25
311.179	88.25
311.409	80.25
311.639	95.25
311.868	90.25
312.098	93.25
312.328	84.25
312.557	91.25
312.787	94.25
313.017	81.25
313.246	81.25
313.476	84.25
313.706	92.25
313.935	101.25
314.165	84.25
314.394	91.25
314.624	90.25
314.853	104.25
315.083	69.25
315.312	76.25
315.542	89.25
315.771	90.25
316.001	104.25
316.23	88.25
316.46	87.25
316.689	77.25
316.919	86.25
317.148	100.25
317.377	93.25
317.607	97.25
317.836	78.25
318.065	96.25
318.295	87.25
318.524	93.25
318.753	87.25
318.983	84.25
319.212	91.25
319.441	94.25
319.67	95.25
319.9	97.25
320.129	74.25
320.358	89.25
320.587	94.25
320.816	90.25
321.046	86.25
321.275	87.25
321.504	88.25
321.733	100.25
321.962	83.25
322.191	82.25
322.42	97.25
322.649	85.25
322.878	82.25
323.108	86.25
323.337	81.25
323.566	74.25
323.795	97.25
324.024	86.25
324.253	90.25
324.482	103.25
324.71	92.25
324.939	88.25
325.168	88.25
325.397	87.25
325.626	87.25
325.855	100.25
326.084	89.25
326.313	84.25
326.542	88.25
326.77	102.25
326.999	109.25
327.228	106.25
327.457	87.25
327.686	89.25
327.914	96.25
328.143	95.25
328.372	82.25
328.6	91.25
328.829	94.25
329.058	90.25
329.287	88.25
329.515	92.25
329.744	93.25
329.972	92.25
330.201	84.25
330.43	81.25
330.658	87.25
330.887	78.25
331.115	102.25
331.344	89.25
331.572	100.25
331.801	86.25
332.03	92.25
332.258	87.25
332.486	91.25
332.715	79.25
332.943	83.25
333.172	86.25
333.4	96.25
333.629	105.25
333.857	92.25
334.085	74.25
334.314	81.25
334.542	88.25
334.771	82.25
334.999	78.25
335.227	78.25
335.455	90.25
335.684	92.25
335.912	88.25
336.14	86.25
336.369	106.25
336.597	77.25
336.825	88.25
337.053	87.25
337.281	104.25
337.51	85.25
337.738	84.25
337.966	88.25
338.194	93.25
338.422	92.25
338.65	96.25
338.878	89.25
339.106	97.25
339.334	84.25
339.562	84.25
339.79	88.25
340.018	84.25
340.246	86.25
340.474	105.25
340.702	92.25
340.93	84.25
341.158	94.25
341.386	96.25
341.614	94.25
341.842	93.25
342.07	84.25
342.298	91.25
342.526	98.25
342.754	85.25
342.981	87.25
343.209	107.25
343.437	85.25
343.665	80.25
343.893	82.25
344.12	80.25
344.348	76.25
344.576	94.25
344.804	79.25
345.031	84.25
345.259	102.25
345.487	88.25
345.714	82.25
345.942	91.25
346.17	97.25
346.397	83.25
346.625	84.25
346.853	85.25
347.08	89.25
347.308	84.25
347.535	108.25
347.763	89.25
347.99	102.25
348.218	84.25
348.445	82.25
348.673	82.25
348.9	98.25
349.128	89.25
349.355	84.25
349.583	79.25
349.81	81.25
350.037	76.25
350.265	79.25
350.492	87.25
350.72	79.25
350.947	97.25
351.174	108.25
351.402	78.25
351.629	84.25
351.856	90.25
352.083	92.25
352.311	86.25
352.538	75.25
352.765	85.25
352.992	89.25
353.22	93.25
353.447	103.25
353.674	93.25
353.901	93.25
354.128	93.25
354.355	79.25
354.583	91.25
354.81	81.25
355.037	70.25
355.264	84.25
355.491	96.25
355.718	87.25
355.945	85.25
356.172	86.25
356.399	87.25
356.626	85.25
356.853	94.25
357.08	94.25
357.307	93.25
357.534	80.25
357.761	90.25
357.988	96.25
358.215	94.25
358.441	78.25
358.668	74.25
358.895	90.25
359.122	90.25
359.349	89.25
359.576	93.25
359.802	90.25
360.029	95.25
360.256	96.25
360.483	77.25
360.709	85.25
360.936	92.25
361.163	87.25
361.39	92.25
361.616	92.25
361.843	91.25
362.07	90.25
362.296	88.25
362.523	78.25
362.749	86.25
362.976	82.25
363.203	93.25
363.429	71.25
363.656	76.25
363.882	85.25
364.109	94.25
364.335	81.25
364.562	94.25
364.788	85.25
365.015	104.25
365.241	88.25
365.468	107.25
365.694	96.25
365.92	89.25
366.147	92.25
366.373	82.25
366.599	86.25
366.826	76.25
367.052	79.25
367.278	87.25
367.505	92.25
367.731	90.25
367.957	100.25
368.184	79.25
368.41	84.25
368.636	86.25
368.862	82.25
369.089	78.25
369.315	88.25
369.541	84.25
369.767	101.25
369.993	86.25
370.219	74.25
370.445	93.25
370.672	91.25
370.898	106.25
371.124	104.25
371.35	83.25
371.576	83.25
371.802	96.25
372.028	83.25
372.254	93.25
372.48	96.25
372.706	88.25
372.932	81.25
373.158	84.25
373.384	82.25
373.61	85.25
373.835	87.25
374.061	97.25
374.287	96.25
374.513	90.25
374.739	88.25
374.965	77.25
375.191	92.25
375.416	86.25
375.642	83.25
375.868	79.25
376.094	87.25
376.319	88.25
376.545	96.25
376.771	96.25
376.997	82.25
377.222	80.25
377.448	88.25
377.674	86.25
377.899	89.25
378.125	96.25
378.35	87.25
378.576	77.25
378.802	86.25
379.027	78.25
379.253	96.25
379.478	93.25
379.704	95.25
379.929	91.25
380.155	90.25
380.38	94.25
380.606	92.25
380.831	86.25
381.057	88.25
381.282	91.25
381.507	91.25
381.733	88.25
381.958	92.25
382.184	100.25
382.409	86.25
382.634	96.25
382.86	90.25
383.085	89.25
383.31	88.25
383.535	106.25
383.761	81.25
383.986	89.25
384.211	72.25
384.436	93.25
384.662	72.25
384.887	80.25
385.112	73.25
385.337	95.25
385.562	97.25
385.787	105.25
386.013	109.25
386.238	93.25
386.463	92.25
386.688	106.25
386.913	76.25
387.138	90.25
387.363	85.25
387.588	92.25
387.813	77.25
388.038	87.25
388.263	88.25
388.488	88.25
388.713	92.25
388.938	102.25
389.163	93.25
389.387	88.25
389.612	88.25
389.837	95.25
390.062	90.25
390.287	81.25
390.512	78.25
390.736	90.25
390.961	92.25
391.186	94.25
391.411	88.25
391.636	79.25
391.86	89.25
392.085	106.25
392.31	90.25
392.534	93.25
392.759	84.25
392.984	89.25
393.208	99.25
393.433	95.25
393.658	100.25
393.882	100.25
394.107	81.25
394.331	86.25
394.556	92.25
394.78	97.25
395.005	84.25
395.229	88.25
395.454	88.25
395.678	104.25
395.903	90.25
396.127	95.25
396.352	76.25
396.576	87.25
396.801	93.25
397.025	76.25
397.249	108.25
397.474	89.25
397.698	105.25
397.922	92.25
398.147	87.25
398.371	72.25
398.595	97.25
398.82	81.25
399.044	106.25
399.268	90.25
399.492	105.25
399.717	100.25
399.941	101.25
400.165	89.25
400.389	89.25
400.613	85.25
400.837	93.25
401.062	97.25
401.286	96.25
401.51	95.25
401.734	82.25
401.958	100.25
402.182	84.25
402.406	92.25
402.63	86.25
402.854	94.25
403.078	97.25
403.302	98.25
403.526	88.25
403.75	90.25
403.974	90.25
404.198	109.25
404.422	97.25
404.645	89.25
404.869	92.25
405.093	103.25
405.317	92.25
405.541	91.25
405.765	94.25
405.988	100.25
406.212	81.25
406.436	87.25
406.66	104.25
406.883	85.25
407.107	98.25
407.331	96.25
407.555	102.25
407.778	110.25
408.002	95.25
408.226	67.25
408.449	105.25
408.673	82.25
408.896	90.25
409.12	79.25
409.344	89.25
409.567	85.25
409.791	94.25
410.014	106.25
410.238	81.25
410.461	112.25
410.685	91.25
410.908	84.25
411.132	80.25
411.355	90.25
411.578	105.25
411.802	97.25
412.025	101.25
412.249	91.25
412.472	75.25
412.695	82.25
412.919	98.25
413.142	76.25
413.365	69.25
413.589	84.25
413.812	82.25
414.035	82.25
414.258	83.25
414.482	92.25
414.705	108.25
414.928	116.25
415.151	88.25
415.374	92.25
415.597	92.25
415.821	104.25
416.044	76.25
416.267	86.25
416.49	104.25
416.713	90.25
416.936	100.25
417.159	81.25
417.382	95.25
417.605	91.25
417.828	103.25
418.051	92.25
418.274	97.25
418.497	81.25
418.72	101.25
418.943	86.25
419.166	86.25
419.389	96.25
419.611	93.25
419.834	84.25
420.057	95.25
420.28	90.25
420.503	86.25
420.726	85.25
420.948	78.25
421.171	92.25
421.394	92.25
421.617	88.25
421.839	91.25
422.062	89.25
422.285	91.25
422.507	98.25
422.73	97.25
422.953	99.25
423.175	82.25
423.398	90.25
423.621	88.25
423.843	92.25
424.066	78.25
424.288	88.25
424.511	93.25
424.733	89.25
424.956	95.25
425.178	89.25
425.401	96.25
425.623	104.25
425.846	93.25
426.068	89.25
426.291	93.25
426.513	85.25
426.735	82.25
426.958	88.25
427.18	90.25
427.402	93.25
427.625	89.25
427.847	75.25
428.069	93.25
428.292	87.25
428.514	96.25
428.736	87.25
428.958	96.25
429.181	97.25
429.403	97.25
429.625	85.25
429.847	95.25
430.069	92.25
430.292	79.25
430.514	81.25
430.736	83.25
430.958	84.25
431.18	77.25
431.402	86.25
431.624	89.25
431.846	92.25
432.068	94.25
432.29	86.25
432.512	93.25
432.734	96.25
432.956	96.25
433.178	94.25
433.4	96.25
433.622	89.25
433.844	87.25
434.066	88.25
434.287	104.25
434.509	91.25
434.731	87.25
434.953	87.25
435.175	86.25
435.397	105.25
435.618	86.25
435.84	89.25
436.062	76.25
436.284	97.25
436.505	85.25
436.727	100.25
436.949	98.25
437.17	91.25
437.392	88.25
437.614	95.25
437.835	87.25
438.057	75.25
438.278	83.25
438.5	87.25
438.721	97.25
438.943	90.25
439.165	80.25
439.386	95.25
439.608	93.25
439.829	100.25
440.05	89.25
440.272	90.25
440.493	78.25
440.715	78.25
440.936	89.25
441.158	94.25
441.379	80.25
441.6	78.25
441.822	88.25
442.043	87.25
442.264	82.25
442.486	95.25
442.707	78.25
442.928	76.25
443.149	90.25
443.371	88.25
443.592	93.25
443.813	90.25
444.034	84.25
444.255	94.25
444.476	91.25
444.698	87.25
444.919	100.25
445.14	179.25
445.361	118.25
445.582	89.25
445.803	72.25
446.024	84.25
446.245	96.25
446.466	116.25
446.687	90.25
446.908	84.25
447.129	78.25
447.35	92.25
447.571	100.25
447.792	77.25
448.013	90.25
448.234	82.25
448.455	90.25
448.675	104.25
448.896	94.25
449.117	96.25
449.338	86.25
449.559	86.25
449.779	80.25
450	90.25
450.221	99.25
450.442	70.25
450.662	95.25
450.883	84.25
451.104	90.25
451.324	76.25
451.545	79.25
451.766	97.25
451.986	73.25
452.207	85.25
452.428	92.25
452.648	88.25
452.869	84.25
453.089	85.25
453.31	94.25
453.53	102.25
453.751	85.25
453.971	93.25
454.192	93.25
454.412	93.25
454.633	97.25
454.853	76.25
455.073	70.25
455.294	84.25
455.514	89.25
455.734	81.25
455.955	88.25
456.175	96.25
456.395	79.25
456.616	89.25
456.836	77.25
457.056	98.25
457.276	82.25
457.497	90.25
457.717	89.25
457.937	79.25
458.157	86.25
458.377	87.25
458.598	72.25
458.818	86.25
459.038	89.25
459.258	71.25
459.478	88.25
459.698	87.25
459.918	95.25
460.138	93.25
460.358	93.25
460.578	87.25
460.798	93.25
461.018	104.25
461.238	90.25
461.458	90.25
461.678	71.25
461.898	86.25
462.118	85.25
462.338	88.25
462.558	96.25
462.777	105.25
462.997	120.25
463.217	89.25
463.437	114.25
463.657	100.25
463.876	93.25
464.096	87.25
464.316	102.25
464.536	86.25
464.755	89.25
464.975	103.25
465.195	85.25
465.414	75.25
465.634	76.25
465.854	87.25
466.073	83.25
466.293	77.25
466.512	80.25
466.732	84.25
466.951	93.25
467.171	93.25
467.391	95.25
467.61	91.25
467.829	90.25
468.049	87.25
468.268	89.25
468.488	89.25
468.707	93.25
468.927	94.25
469.146	88.25
469.365	89.25
469.585	87.25
469.804	84.25
470.023	70.25
470.243	82.25
470.462	96.25
470.681	87.25
470.901	85.25
471.12	91.25
471.339	76.25
471.558	86.25
471.777	78.25
471.997	83.25
472.216	101.25
472.435	85.25
472.654	86.25
472.873	104.25
473.092	85.25
473.311	72.25
473.53	93.25
473.749	94.25
473.968	97.25
474.187	92.25
474.406	89.25
474.625	97.25
474.844	87.25
475.063	81.25
475.282	77.25
475.501	91.25
475.72	109.25
475.939	104.25
476.158	106.25
476.377	92.25
476.596	91.25
476.814	93.25
477.033	98.25
477.252	91.25
477.471	96.25
477.69	89.25
477.908	92.25
478.127	85.25
478.346	79.25
478.564	88.25
478.783	95.25
479.002	84.25
479.22	87.25
479.439	92.25
479.658	88.25
479.876	86.25
480.095	88.25
480.313	89.25
480.532	98.25
480.751	88.25
480.969	93.25
481.188	82.25
481.406	100.25
481.624	91.25
481.843	108.25
482.061	91.25
482.28	99.25
482.498	82.25
482.717	83.25
482.935	84.25
483.153	81.25
483.372	90.25
483.59	107.25
483.808	79.25
484.027	84.25
484.245	84.25
484.463	88.25
484.681	94.25
484.9	85.25
485.118	92.25
485.336	95.25
485.554	86.25
485.772	80.25
485.99	99.25
486.209	97.25
486.427	98.25
486.645	101.25
486.863	91.25
487.081	89.25
487.299	85.25
487.517	81.25
487.735	92.25
487.953	84.25
488.171	94.25
488.389	88.25
488.607	91.25
488.825	86.25
489.043	80.25
489.261	101.25
489.479	92.25
489.696	79.25
489.914	93.25
490.132	100.25
490.35	84.25
490.568	87.25
490.786	101.25
491.003	89.25
491.221	93.25
491.439	96.25
491.657	92.25
491.874	77.25
492.092	91.25
492.31	85.25
492.527	78.25
492.745	102.25
492.963	84.25
493.18	105.25
493.398	112.25
493.615	93.25
493.833	99.25
494.05	87.25
494.268	88.25
494.485	88.25
494.703	91.25
494.92	100.25
495.138	96.25
495.355	93.25
495.573	101.25
495.79	90.25
496.008	85.25
496.225	102.25
496.442	96.25
496.66	96.25
496.877	92.25
497.094	94.25
497.312	100.25
497.529	89.25
497.746	102.25
497.963	92.25
498.181	87.25
498.398	105.25
498.615	83.25
498.832	89.25
499.049	109.25
499.267	100.25
499.484	100.25
499.701	109.25
499.918	105.25
500.135	124.25
500.352	113.25
500.569	118.25
500.786	125.25
501.003	108.25
501.22	104.25
501.437	98.25
501.654	94.25
501.871	106.25
502.088	85.25
502.305	94.25
502.522	86.25
502.739	110.25
502.956	105.25
503.172	96.25
503.389	92.25
503.606	93.25
503.823	89.25
504.04	81.25
504.256	98.25
504.473	88.25
504.69	93.25
504.907	100.25
505.123	81.25
505.34	84.25
505.557	94.25
505.773	81.25
505.99	67.25
506.207	76.25
506.423	97.25
506.64	98.25
506.856	97.25
507.073	89.25
507.289	98.25
507.506	87.25
507.722	77.25
507.939	90.25
508.155	83.25
508.372	84.25
508.588	108.25
508.805	100.25
509.021	99.25
509.238	90.25
509.454	92.25
509.67	88.25
509.887	80.25
510.103	94.25
510.319	101.25
510.536	84.25
510.752	108.25
510.968	88.25
511.184	104.25
511.401	91.25
511.617	102.25
511.833	86.25
512.049	93.25
512.265	88.25
512.481	110.25
512.698	106.25
512.914	95.25
513.13	98.25
513.346	104.25
513.562	100.25
513.778	94.25
513.994	93.25
514.21	86.25
514.426	96.25
514.642	102.25
514.858	90.25
515.074	93.25
515.29	90.25
515.506	79.25
515.721	88.25
515.937	94.25
516.153	90.25
516.369	93.25
516.585	100.25
516.801	100.25
517.016	94.25
517.232	87.25
517.448	94.25
517.664	80.25
517.879	91.25
518.095	89.25
518.311	94.25
