Data from BG_HRD10591_038.txt Node
Date: Fri May 16 15:14:41 EDT 2025
User: Yrep
Spectrometer: HR+D1059
Trigger mode: 1
Integration Time (sec): 1.000000E-1
Scans to average: 1
Electric dark correction enabled: true
Nonlinearity correction enabled: false
Boxcar width: 0
XAxis mode: Wavelengths
Number of Pixels in Spectrum: 2048
>>>>>Begin Spectral Data<<<<<
223.165	-7.5
223.4	-7.5
223.635	-7.5
223.869	-8.5
224.104	-21.5
224.338	-14.5
224.573	-18.5
224.808	-8.5
225.042	-9.5
225.277	-6.5
225.511	-0.5
225.746	2.5
225.98	3.5
226.215	10.5
226.449	9.5
226.683	26.5
226.918	22.5
227.152	20.5
227.387	29.5
227.621	33.5
227.856	38.5
228.09	44.5
228.324	40.5
228.559	48.5
228.793	50.5
229.027	66.5
229.262	73.5
229.496	56.5
229.73	79.5
229.964	62.5
230.199	75.5
230.433	74.5
230.667	80.5
230.901	84.5
231.136	72.5
231.37	89.5
231.604	91.5
231.838	72.5
232.072	74.5
232.306	77.5
232.541	75.5
232.775	77.5
233.009	97.5
233.243	71.5
233.477	94.5
233.711	78.5
233.945	80.5
234.179	75.5
234.413	77.5
234.647	74.5
234.881	65.5
235.115	62.5
235.349	90.5
235.583	79.5
235.817	72.5
236.051	78.5
236.285	90.5
236.519	80.5
236.753	77.5
236.987	72.5
237.221	82.5
237.455	85.5
237.689	73.5
237.922	71.5
238.156	73.5
238.39	71.5
238.624	98.5
238.858	71.5
239.091	79.5
239.325	77.5
239.559	73.5
239.793	73.5
240.027	79.5
240.26	81.5
240.494	61.5
240.728	62.5
240.961	72.5
241.195	89.5
241.429	78.5
241.662	64.5
241.896	63.5
242.13	76.5
242.363	84.5
242.597	87.5
242.83	74.5
243.064	77.5
243.298	70.5
243.531	73.5
243.765	76.5
243.998	76.5
244.232	75.5
244.465	72.5
244.699	79.5
244.932	81.5
245.166	79.5
245.399	72.5
245.633	77.5
245.866	82.5
246.099	82.5
246.333	100.5
246.566	72.5
246.8	81.5
247.033	73.5
247.266	70.5
247.5	74.5
247.733	72.5
247.966	87.5
248.2	79.5
248.433	73.5
248.666	80.5
248.899	89.5
249.133	85.5
249.366	67.5
249.599	70.5
249.832	97.5
250.066	75.5
250.299	85.5
250.532	80.5
250.765	78.5
250.998	94.5
251.231	76.5
251.465	62.5
251.698	62.5
251.931	73.5
252.164	78.5
252.397	76.5
252.63	72.5
252.863	68.5
253.096	78.5
253.329	73.5
253.562	70.5
253.795	73.5
254.028	80.5
254.261	91.5
254.494	91.5
254.727	87.5
254.96	81.5
255.193	71.5
255.426	74.5
255.659	79.5
255.892	74.5
256.124	79.5
256.357	86.5
256.59	78.5
256.823	69.5
257.056	79.5
257.289	72.5
257.521	75.5
257.754	77.5
257.987	70.5
258.22	77.5
258.452	96.5
258.685	89.5
258.918	79.5
259.151	71.5
259.383	97.5
259.616	88.5
259.849	90.5
260.081	65.5
260.314	79.5
260.547	75.5
260.779	79.5
261.012	81.5
261.244	72.5
261.477	86.5
261.71	68.5
261.942	73.5
262.175	80.5
262.407	76.5
262.64	87.5
262.872	84.5
263.105	85.5
263.337	90.5
263.57	70.5
263.802	78.5
264.035	77.5
264.267	86.5
264.499	84.5
264.732	93.5
264.964	76.5
265.197	84.5
265.429	83.5
265.661	77.5
265.894	81.5
266.126	84.5
266.358	78.5
266.591	82.5
266.823	93.5
267.055	67.5
267.287	94.5
267.52	91.5
267.752	81.5
267.984	79.5
268.216	95.5
268.448	82.5
268.681	88.5
268.913	87.5
269.145	79.5
269.377	86.5
269.609	88.5
269.841	77.5
270.073	79.5
270.306	79.5
270.538	85.5
270.77	81.5
271.002	72.5
271.234	84.5
271.466	89.5
271.698	78.5
271.93	78.5
272.162	73.5
272.394	89.5
272.626	84.5
272.858	89.5
273.09	85.5
273.322	85.5
273.553	91.5
273.785	90.5
274.017	81.5
274.249	91.5
274.481	88.5
274.713	83.5
274.945	80.5
275.176	81.5
275.408	84.5
275.64	89.5
275.872	97.5
276.104	92.5
276.335	88.5
276.567	84.5
276.799	69.5
277.031	70.5
277.262	103.5
277.494	97.5
277.726	94.5
277.957	75.5
278.189	81.5
278.421	66.5
278.652	80.5
278.884	88.5
279.115	81.5
279.347	74.5
279.579	89.5
279.81	87.5
280.042	85.5
280.273	84.5
280.505	72.5
280.736	79.5
280.968	83.5
281.199	88.5
281.431	90.5
281.662	91.5
281.894	78.5
282.125	76.5
282.356	78.5
282.588	81.5
282.819	83.5
283.051	82.5
283.282	86.5
283.513	94.5
283.745	91.5
283.976	89.5
284.207	66.5
284.439	76.5
284.67	80.5
284.901	87.5
285.132	84.5
285.364	94.5
285.595	72.5
285.826	77.5
286.057	84.5
286.288	83.5
286.52	73.5
286.751	78.5
286.982	74.5
287.213	87.5
287.444	79.5
287.675	96.5
287.906	97.5
288.138	88.5
288.369	100.5
288.6	77.5
288.831	76.5
289.062	95.5
289.293	70.5
289.524	80.5
289.755	84.5
289.986	69.5
290.217	72.5
290.448	90.5
290.679	97.5
290.91	92.5
291.141	81.5
291.371	81.5
291.602	76.5
291.833	78.5
292.064	82.5
292.295	93.5
292.526	70.5
292.757	82.5
292.987	85.5
293.218	82.5
293.449	89.5
293.68	78.5
293.91	82.5
294.141	91.5
294.372	100.5
294.603	92.5
294.833	81.5
295.064	86.5
295.295	85.5
295.525	88.5
295.756	77.5
295.987	82.5
296.217	79.5
296.448	86.5
296.679	68.5
296.909	90.5
297.14	82.5
297.37	77.5
297.601	86.5
297.831	71.5
298.062	73.5
298.292	92.5
298.523	76.5
298.753	73.5
298.984	78.5
299.214	82.5
299.445	82.5
299.675	84.5
299.905	84.5
300.136	87.5
300.366	82.5
300.597	88.5
300.827	100.5
301.057	95.5
301.288	93.5
301.518	96.5
301.748	81.5
301.979	93.5
302.209	70.5
302.439	79.5
302.669	88.5
302.9	72.5
303.13	84.5
303.36	74.5
303.59	81.5
303.82	81.5
304.051	104.5
304.281	88.5
304.511	84.5
304.741	87.5
304.971	79.5
305.201	65.5
305.431	81.5
305.661	90.5
305.891	93.5
306.121	90.5
306.352	92.5
306.582	79.5
306.812	87.5
307.042	80.5
307.272	95.5
307.502	74.5
307.731	80.5
307.961	80.5
308.191	78.5
308.421	72.5
308.651	99.5
308.881	86.5
309.111	85.5
309.341	81.5
309.571	77.5
309.8	88.5
310.03	100.5
310.26	93.5
310.49	84.5
310.72	87.5
310.949	85.5
311.179	75.5
311.409	85.5
311.639	82.5
311.868	94.5
312.098	82.5
312.328	72.5
312.557	83.5
312.787	78.5
313.017	82.5
313.246	96.5
313.476	91.5
313.706	80.5
313.935	77.5
314.165	68.5
314.394	58.5
314.624	80.5
314.853	86.5
315.083	89.5
315.312	85.5
315.542	94.5
315.771	84.5
316.001	86.5
316.23	96.5
316.46	86.5
316.689	90.5
316.919	79.5
317.148	104.5
317.377	90.5
317.607	82.5
317.836	77.5
318.065	76.5
318.295	88.5
318.524	74.5
318.753	92.5
318.983	83.5
319.212	88.5
319.441	78.5
319.67	91.5
319.9	84.5
320.129	80.5
320.358	82.5
320.587	100.5
320.816	87.5
321.046	86.5
321.275	89.5
321.504	89.5
321.733	77.5
321.962	92.5
322.191	86.5
322.42	83.5
322.649	89.5
322.878	91.5
323.108	103.5
323.337	73.5
323.566	84.5
323.795	81.5
324.024	82.5
324.253	96.5
324.482	80.5
324.71	96.5
324.939	84.5
325.168	88.5
325.397	80.5
325.626	74.5
325.855	81.5
326.084	97.5
326.313	81.5
326.542	86.5
326.77	92.5
326.999	81.5
327.228	100.5
327.457	74.5
327.686	91.5
327.914	88.5
328.143	104.5
328.372	82.5
328.6	86.5
328.829	82.5
329.058	85.5
329.287	82.5
329.515	94.5
329.744	82.5
329.972	77.5
330.201	84.5
330.43	70.5
330.658	84.5
330.887	91.5
331.115	86.5
331.344	88.5
331.572	92.5
331.801	75.5
332.03	80.5
332.258	87.5
332.486	86.5
332.715	89.5
332.943	88.5
333.172	81.5
333.4	81.5
333.629	79.5
333.857	82.5
334.085	84.5
334.314	87.5
334.542	95.5
334.771	88.5
334.999	84.5
335.227	96.5
335.455	79.5
335.684	98.5
335.912	92.5
336.14	77.5
336.369	95.5
336.597	84.5
336.825	81.5
337.053	102.5
337.281	78.5
337.51	78.5
337.738	89.5
337.966	90.5
338.194	88.5
338.422	97.5
338.65	93.5
338.878	95.5
339.106	79.5
339.334	96.5
339.562	94.5
339.79	86.5
340.018	91.5
340.246	72.5
340.474	104.5
340.702	86.5
340.93	84.5
341.158	92.5
341.386	85.5
341.614	64.5
341.842	75.5
342.07	100.5
342.298	92.5
342.526	83.5
342.754	93.5
342.981	93.5
343.209	94.5
343.437	109.5
343.665	83.5
343.893	76.5
344.12	92.5
344.348	95.5
344.576	88.5
344.804	89.5
345.031	79.5
345.259	94.5
345.487	90.5
345.714	89.5
345.942	78.5
346.17	85.5
346.397	80.5
346.625	74.5
346.853	86.5
347.08	86.5
347.308	86.5
347.535	82.5
347.763	76.5
347.99	88.5
348.218	74.5
348.445	71.5
348.673	80.5
348.9	98.5
349.128	84.5
349.355	79.5
349.583	78.5
349.81	64.5
350.037	80.5
350.265	93.5
350.492	79.5
350.72	75.5
350.947	96.5
351.174	85.5
351.402	100.5
351.629	84.5
351.856	80.5
352.083	81.5
352.311	82.5
352.538	80.5
352.765	85.5
352.992	90.5
353.22	84.5
353.447	69.5
353.674	82.5
353.901	77.5
354.128	84.5
354.355	85.5
354.583	91.5
354.81	90.5
355.037	85.5
355.264	87.5
355.491	73.5
355.718	79.5
355.945	77.5
356.172	82.5
356.399	74.5
356.626	71.5
356.853	77.5
357.08	94.5
357.307	85.5
357.534	88.5
357.761	76.5
357.988	81.5
358.215	74.5
358.441	87.5
358.668	88.5
358.895	82.5
359.122	82.5
359.349	76.5
359.576	85.5
359.802	82.5
360.029	102.5
360.256	81.5
360.483	88.5
360.709	74.5
360.936	80.5
361.163	84.5
361.39	73.5
361.616	76.5
361.843	94.5
362.07	75.5
362.296	77.5
362.523	86.5
362.749	92.5
362.976	92.5
363.203	86.5
363.429	79.5
363.656	86.5
363.882	85.5
364.109	82.5
364.335	94.5
364.562	93.5
364.788	73.5
365.015	90.5
365.241	101.5
365.468	89.5
365.694	89.5
365.92	86.5
366.147	77.5
366.373	73.5
366.599	80.5
366.826	89.5
367.052	88.5
367.278	96.5
367.505	89.5
367.731	86.5
367.957	72.5
368.184	87.5
368.41	92.5
368.636	84.5
368.862	99.5
369.089	89.5
369.315	92.5
369.541	78.5
369.767	79.5
369.993	88.5
370.219	87.5
370.445	85.5
370.672	97.5
370.898	69.5
371.124	84.5
371.35	84.5
371.576	84.5
371.802	81.5
372.028	92.5
372.254	100.5
372.48	76.5
372.706	97.5
372.932	88.5
373.158	72.5
373.384	86.5
373.61	86.5
373.835	81.5
374.061	64.5
374.287	86.5
374.513	73.5
374.739	89.5
374.965	69.5
375.191	81.5
375.416	90.5
375.642	84.5
375.868	73.5
376.094	86.5
376.319	82.5
376.545	84.5
376.771	84.5
376.997	79.5
377.222	72.5
377.448	89.5
377.674	95.5
377.899	84.5
378.125	76.5
378.35	86.5
378.576	91.5
378.802	95.5
379.027	90.5
379.253	74.5
379.478	83.5
379.704	84.5
379.929	82.5
380.155	77.5
380.38	76.5
380.606	78.5
380.831	84.5
381.057	81.5
381.282	95.5
381.507	89.5
381.733	84.5
381.958	60.5
382.184	86.5
382.409	89.5
382.634	89.5
382.86	78.5
383.085	92.5
383.31	86.5
383.535	79.5
383.761	72.5
383.986	67.5
384.211	86.5
384.436	95.5
384.662	74.5
384.887	90.5
385.112	84.5
385.337	78.5
385.562	80.5
385.787	87.5
386.013	93.5
386.238	84.5
386.463	77.5
386.688	104.5
386.913	85.5
387.138	80.5
387.363	84.5
387.588	95.5
387.813	103.5
388.038	60.5
388.263	86.5
388.488	73.5
388.713	80.5
388.938	90.5
389.163	74.5
389.387	92.5
389.612	76.5
389.837	89.5
390.062	83.5
390.287	67.5
390.512	85.5
390.736	86.5
390.961	77.5
391.186	96.5
391.411	73.5
391.636	101.5
391.86	85.5
392.085	81.5
392.31	76.5
392.534	80.5
392.759	79.5
392.984	73.5
393.208	90.5
393.433	73.5
393.658	85.5
393.882	87.5
394.107	66.5
394.331	83.5
394.556	85.5
394.78	74.5
395.005	97.5
395.229	84.5
395.454	78.5
395.678	88.5
395.903	86.5
396.127	83.5
396.352	86.5
396.576	85.5
396.801	77.5
397.025	81.5
397.249	94.5
397.474	84.5
397.698	80.5
397.922	89.5
398.147	78.5
398.371	63.5
398.595	79.5
398.82	65.5
399.044	82.5
399.268	91.5
399.492	72.5
399.717	68.5
399.941	73.5
400.165	77.5
400.389	73.5
400.613	85.5
400.837	79.5
401.062	80.5
401.286	79.5
401.51	81.5
401.734	73.5
401.958	78.5
402.182	82.5
402.406	86.5
402.63	80.5
402.854	85.5
403.078	80.5
403.302	84.5
403.526	86.5
403.75	80.5
403.974	80.5
404.198	71.5
404.422	71.5
404.645	75.5
404.869	83.5
405.093	78.5
405.317	79.5
405.541	101.5
405.765	72.5
405.988	63.5
406.212	86.5
406.436	93.5
406.66	78.5
406.883	96.5
407.107	77.5
407.331	79.5
407.555	76.5
407.778	85.5
408.002	81.5
408.226	79.5
408.449	100.5
408.673	95.5
408.896	77.5
409.12	70.5
409.344	77.5
409.567	91.5
409.791	75.5
410.014	84.5
410.238	79.5
410.461	67.5
410.685	99.5
410.908	85.5
411.132	82.5
411.355	75.5
411.578	85.5
411.802	84.5
412.025	82.5
412.249	86.5
412.472	67.5
412.695	86.5
412.919	72.5
413.142	77.5
413.365	82.5
413.589	73.5
413.812	91.5
414.035	89.5
414.258	85.5
414.482	85.5
414.705	80.5
414.928	78.5
415.151	78.5
415.374	80.5
415.597	95.5
415.821	94.5
416.044	89.5
416.267	85.5
416.49	83.5
416.713	84.5
416.936	76.5
417.159	84.5
417.382	67.5
417.605	72.5
417.828	71.5
418.051	74.5
418.274	90.5
418.497	78.5
418.72	90.5
418.943	87.5
419.166	81.5
419.389	84.5
419.611	92.5
419.834	74.5
420.057	81.5
420.28	71.5
420.503	74.5
420.726	82.5
420.948	80.5
421.171	85.5
421.394	86.5
421.617	82.5
421.839	61.5
422.062	80.5
422.285	78.5
422.507	75.5
422.73	73.5
422.953	81.5
423.175	73.5
423.398	61.5
423.621	92.5
423.843	71.5
424.066	81.5
424.288	84.5
424.511	74.5
424.733	87.5
424.956	80.5
425.178	61.5
425.401	76.5
425.623	83.5
425.846	68.5
426.068	84.5
426.291	74.5
426.513	90.5
426.735	89.5
426.958	65.5
427.18	76.5
427.402	75.5
427.625	70.5
427.847	67.5
428.069	69.5
428.292	81.5
428.514	71.5
428.736	76.5
428.958	79.5
429.181	66.5
429.403	64.5
429.625	77.5
429.847	83.5
430.069	74.5
430.292	80.5
430.514	88.5
430.736	80.5
430.958	84.5
431.18	77.5
431.402	78.5
431.624	76.5
431.846	64.5
432.068	74.5
432.29	68.5
432.512	86.5
432.734	84.5
432.956	57.5
433.178	85.5
433.4	72.5
433.622	73.5
433.844	89.5
434.066	80.5
434.287	82.5
434.509	82.5
434.731	86.5
434.953	73.5
435.175	91.5
435.397	84.5
435.618	77.5
435.84	75.5
436.062	80.5
436.284	84.5
436.505	83.5
436.727	79.5
436.949	86.5
437.17	89.5
437.392	72.5
437.614	73.5
437.835	64.5
438.057	82.5
438.278	70.5
438.5	81.5
438.721	78.5
438.943	87.5
439.165	84.5
439.386	89.5
439.608	76.5
439.829	78.5
440.05	87.5
440.272	72.5
440.493	88.5
440.715	79.5
440.936	77.5
441.158	88.5
441.379	76.5
441.6	77.5
441.822	82.5
442.043	86.5
442.264	64.5
442.486	80.5
442.707	89.5
442.928	97.5
443.149	75.5
443.371	74.5
443.592	73.5
443.813	77.5
444.034	74.5
444.255	86.5
444.476	76.5
444.698	74.5
444.919	78.5
445.14	166.5
445.361	126.5
445.582	82.5
445.803	83.5
446.024	67.5
446.245	89.5
446.466	70.5
446.687	71.5
446.908	82.5
447.129	72.5
447.35	65.5
447.571	82.5
447.792	76.5
448.013	78.5
448.234	89.5
448.455	80.5
448.675	80.5
448.896	84.5
449.117	76.5
449.338	50.5
449.559	86.5
449.779	76.5
450	86.5
450.221	84.5
450.442	82.5
450.662	72.5
450.883	82.5
451.104	97.5
451.324	96.5
451.545	74.5
451.766	78.5
451.986	83.5
452.207	84.5
452.428	67.5
452.648	79.5
452.869	83.5
453.089	75.5
453.31	79.5
453.53	85.5
453.751	74.5
453.971	83.5
454.192	87.5
454.412	78.5
454.633	94.5
454.853	72.5
455.073	80.5
455.294	71.5
455.514	79.5
455.734	78.5
455.955	72.5
456.175	69.5
456.395	68.5
456.616	82.5
456.836	78.5
457.056	68.5
457.276	72.5
457.497	85.5
457.717	87.5
457.937	82.5
458.157	79.5
458.377	79.5
458.598	86.5
458.818	84.5
459.038	96.5
459.258	67.5
459.478	83.5
459.698	83.5
459.918	96.5
460.138	73.5
460.358	89.5
460.578	71.5
460.798	72.5
461.018	83.5
461.238	80.5
461.458	70.5
461.678	84.5
461.898	85.5
462.118	80.5
462.338	84.5
462.558	79.5
462.777	85.5
462.997	84.5
463.217	64.5
463.437	79.5
463.657	92.5
463.876	83.5
464.096	75.5
464.316	85.5
464.536	77.5
464.755	78.5
464.975	83.5
465.195	83.5
465.414	75.5
465.634	73.5
465.854	79.5
466.073	84.5
466.293	78.5
466.512	75.5
466.732	79.5
466.951	80.5
467.171	73.5
467.391	76.5
467.61	76.5
467.829	85.5
468.049	79.5
468.268	77.5
468.488	74.5
468.707	73.5
468.927	76.5
469.146	68.5
469.365	85.5
469.585	86.5
469.804	78.5
470.023	76.5
470.243	80.5
470.462	66.5
470.681	76.5
470.901	80.5
471.12	94.5
471.339	80.5
471.558	69.5
471.777	73.5
471.997	86.5
472.216	80.5
472.435	77.5
472.654	72.5
472.873	77.5
473.092	86.5
473.311	82.5
473.53	75.5
473.749	93.5
473.968	81.5
474.187	84.5
474.406	84.5
474.625	77.5
474.844	89.5
475.063	89.5
475.282	89.5
475.501	75.5
475.72	83.5
475.939	80.5
476.158	67.5
476.377	81.5
476.596	78.5
476.814	78.5
477.033	84.5
477.252	85.5
477.471	72.5
477.69	68.5
477.908	94.5
478.127	78.5
478.346	88.5
478.564	80.5
478.783	80.5
479.002	76.5
479.22	73.5
479.439	79.5
479.658	78.5
479.876	78.5
480.095	100.5
480.313	78.5
480.532	71.5
480.751	78.5
480.969	89.5
481.188	76.5
481.406	93.5
481.624	89.5
481.843	76.5
482.061	86.5
482.28	84.5
482.498	86.5
482.717	75.5
482.935	68.5
483.153	78.5
483.372	78.5
483.59	89.5
483.808	87.5
484.027	95.5
484.245	75.5
484.463	82.5
484.681	90.5
484.9	97.5
485.118	82.5
485.336	67.5
485.554	70.5
485.772	85.5
485.99	77.5
486.209	84.5
486.427	80.5
486.645	77.5
486.863	77.5
487.081	72.5
487.299	79.5
487.517	82.5
487.735	78.5
487.953	86.5
488.171	102.5
488.389	89.5
488.607	83.5
488.825	81.5
489.043	88.5
489.261	84.5
489.479	88.5
489.696	87.5
489.914	81.5
490.132	84.5
490.35	94.5
490.568	89.5
490.786	78.5
491.003	73.5
491.221	81.5
491.439	70.5
491.657	82.5
491.874	72.5
492.092	82.5
492.31	93.5
492.527	80.5
492.745	76.5
492.963	73.5
493.18	86.5
493.398	84.5
493.615	84.5
493.833	73.5
494.05	85.5
494.268	79.5
494.485	76.5
494.703	85.5
494.92	86.5
495.138	88.5
495.355	84.5
495.573	90.5
495.79	84.5
496.008	71.5
496.225	76.5
496.442	80.5
496.66	73.5
496.877	84.5
497.094	74.5
497.312	79.5
497.529	81.5
497.746	89.5
497.963	80.5
498.181	79.5
498.398	85.5
498.615	81.5
498.832	82.5
499.049	78.5
499.267	88.5
499.484	73.5
499.701	72.5
499.918	63.5
500.135	76.5
500.352	72.5
500.569	79.5
500.786	89.5
501.003	81.5
501.22	96.5
501.437	90.5
501.654	85.5
501.871	65.5
502.088	73.5
502.305	79.5
502.522	88.5
502.739	87.5
502.956	67.5
503.172	97.5
503.389	89.5
503.606	82.5
503.823	64.5
504.04	71.5
504.256	88.5
504.473	81.5
504.69	70.5
504.907	87.5
505.123	83.5
505.34	85.5
505.557	96.5
505.773	92.5
505.99	74.5
506.207	100.5
506.423	89.5
506.64	60.5
506.856	76.5
507.073	89.5
507.289	82.5
507.506	74.5
507.722	97.5
507.939	87.5
508.155	85.5
508.372	75.5
508.588	80.5
508.805	70.5
509.021	66.5
509.238	83.5
509.454	70.5
509.67	73.5
509.887	71.5
510.103	96.5
510.319	78.5
510.536	80.5
510.752	88.5
510.968	90.5
511.184	85.5
511.401	79.5
511.617	82.5
511.833	93.5
512.049	84.5
512.265	72.5
512.481	85.5
512.698	92.5
512.914	93.5
513.13	84.5
513.346	81.5
513.562	74.5
513.778	71.5
513.994	75.5
514.21	85.5
514.426	77.5
514.642	82.5
514.858	86.5
515.074	74.5
515.29	88.5
515.506	84.5
515.721	76.5
515.937	95.5
516.153	80.5
516.369	92.5
516.585	72.5
516.801	80.5
517.016	75.5
517.232	84.5
517.448	82.5
517.664	79.5
517.879	90.5
518.095	73.5
518.311	79.5
518.527	73.5
518.742	62.5
518.958	73.5
519.173	96.5
519.389	80.5
519.605	78.5
519.82	92.5
520.036	81.5
520.251	80.5
520.467	86.5
520.682	85.5
520.898	85.5
521.113	71.5
521.329	94.5
521.544	93.5
521.76	81.5
521.975	82.5
522.19	80.5
522.406	79.5
522.621	82.5
522.836	79.5
523.052	92.5
523.267	85.5
523.482	84.5
523.698	69.5
523.913	87.5
524.128	73.5
524.343	90.5
524.559	95.5
524.774	84.5
524.989	84.5
525.204	79.5
525.419	90.5
525.634	88.5
525.849	87.5
526.064	81.5
526.28	97.5
526.495	96.5
526.71	89.5
526.925	87.5
527.14	92.5
527.355	82.5
527.57	95.5
527.785	91.5
527.999	77.5
528.214	79.5
528.429	74.5
528.644	88.5
528.859	89.5
529.074	85.5
529.289	92.5
529.503	70.5
529.718	84.5
529.933	85.5
530.148	72.5
530.363	89.5
530.577	90.5
530.792	74.5
531.007	76.5
531.221	81.5
531.436	82.5
531.651	89.5
531.865	73.5
532.08	74.5
532.295	83.5
532.509	85.5
532.724	72.5
532.938	81.5
533.153	74.5
533.367	90.5
533.582	76.5
533.796	84.5
534.011	89.5
534.225	100.5
534.44	90.5
534.654	86.5
534.868	75.5
535.083	78.5
535.297	88.5
535.511	89.5
535.726	92.5
535.94	81.5
536.154	65.5
536.369	75.5
536.583	62.5
536.797	95.5
537.011	100.5
537.225	82.5
537.44	93.5
537.654	77.5
537.868	88.5
538.082	82.5
538.296	87.5
538.51	101.5
538.724	86.5
538.938	79.5
539.153	89.5
539.367	87.5
539.581	92.5
539.795	84.5
540.009	80.5
540.222	82.5
540.436	81.5
