Data from BG_HRD10591_070.txt Node
Date: Fri May 16 15:14:57 EDT 2025
User: Yrep
Spectrometer: HR+D1059
Trigger mode: 1
Integration Time (sec): 1.000000E-1
Scans to average: 1
Electric dark correction enabled: true
Nonlinearity correction enabled: false
Boxcar width: 0
XAxis mode: Wavelengths
Number of Pixels in Spectrum: 2048
>>>>>Begin Spectral Data<<<<<
223.165	-9.19
223.4	-9.19
223.635	-9.19
223.869	-19.19
224.104	-15.19
224.338	-8.19
224.573	-14.19
224.808	-17.19
225.042	-18.19
225.277	-13.19
225.511	-1.19
225.746	0.81
225.98	13.81
226.215	8.81
226.449	9.81
226.683	17.81
226.918	30.81
227.152	33.81
227.387	39.81
227.621	39.81
227.856	49.81
228.09	41.81
228.324	49.81
228.559	57.81
228.793	53.81
229.027	60.81
229.262	72.81
229.496	61.81
229.73	65.81
229.964	65.81
230.199	51.81
230.433	77.81
230.667	64.81
230.901	73.81
231.136	73.81
231.37	77.81
231.604	80.81
231.838	85.81
232.072	65.81
232.306	80.81
232.541	83.81
232.775	78.81
233.009	80.81
233.243	89.81
233.477	84.81
233.711	78.81
233.945	79.81
234.179	77.81
234.413	77.81
234.647	71.81
234.881	61.81
235.115	83.81
235.349	93.81
235.583	65.81
235.817	77.81
236.051	80.81
236.285	69.81
236.519	74.81
236.753	94.81
236.987	77.81
237.221	82.81
237.455	63.81
237.689	78.81
237.922	76.81
238.156	83.81
238.39	76.81
238.624	65.81
238.858	75.81
239.091	70.81
239.325	81.81
239.559	69.81
239.793	77.81
240.027	80.81
240.26	80.81
240.494	65.81
240.728	65.81
240.961	84.81
241.195	67.81
241.429	77.81
241.662	75.81
241.896	76.81
242.13	71.81
242.363	79.81
242.597	69.81
242.83	68.81
243.064	69.81
243.298	66.81
243.531	74.81
243.765	79.81
243.998	82.81
244.232	86.81
244.465	84.81
244.699	75.81
244.932	87.81
245.166	79.81
245.399	73.81
245.633	74.81
245.866	79.81
246.099	73.81
246.333	93.81
246.566	78.81
246.8	80.81
247.033	75.81
247.266	71.81
247.5	69.81
247.733	66.81
247.966	83.81
248.2	82.81
248.433	75.81
248.666	79.81
248.899	71.81
249.133	93.81
249.366	81.81
249.599	64.81
249.832	70.81
250.066	90.81
250.299	73.81
250.532	67.81
250.765	75.81
250.998	74.81
251.231	79.81
251.465	83.81
251.698	76.81
251.931	83.81
252.164	87.81
252.397	78.81
252.63	63.81
252.863	84.81
253.096	74.81
253.329	69.81
253.562	75.81
253.795	85.81
254.028	86.81
254.261	87.81
254.494	86.81
254.727	71.81
254.96	87.81
255.193	85.81
255.426	69.81
255.659	75.81
255.892	83.81
256.124	75.81
256.357	61.81
256.59	93.81
256.823	89.81
257.056	82.81
257.289	72.81
257.521	50.81
257.754	69.81
257.987	69.81
258.22	86.81
258.452	78.81
258.685	76.81
258.918	68.81
259.151	91.81
259.383	81.81
259.616	70.81
259.849	83.81
260.081	81.81
260.314	78.81
260.547	83.81
260.779	70.81
261.012	85.81
261.244	84.81
261.477	69.81
261.71	67.81
261.942	76.81
262.175	76.81
262.407	73.81
262.64	71.81
262.872	53.81
263.105	68.81
263.337	86.81
263.57	79.81
263.802	76.81
264.035	75.81
264.267	78.81
264.499	84.81
264.732	69.81
264.964	66.81
265.197	76.81
265.429	75.81
265.661	80.81
265.894	77.81
266.126	79.81
266.358	84.81
266.591	73.81
266.823	71.81
267.055	86.81
267.287	90.81
267.52	89.81
267.752	85.81
267.984	75.81
268.216	67.81
268.448	78.81
268.681	91.81
268.913	89.81
269.145	86.81
269.377	100.81
269.609	81.81
269.841	80.81
270.073	93.81
270.306	93.81
270.538	91.81
270.77	81.81
271.002	65.81
271.234	79.81
271.466	92.81
271.698	92.81
271.93	78.81
272.162	88.81
272.394	91.81
272.626	80.81
272.858	71.81
273.09	84.81
273.322	90.81
273.553	92.81
273.785	75.81
274.017	85.81
274.249	76.81
274.481	85.81
274.713	65.81
274.945	87.81
275.176	80.81
275.408	92.81
275.64	77.81
275.872	88.81
276.104	76.81
276.335	86.81
276.567	80.81
276.799	81.81
277.031	95.81
277.262	89.81
277.494	77.81
277.726	96.81
277.957	74.81
278.189	80.81
278.421	69.81
278.652	76.81
278.884	86.81
279.115	95.81
279.347	89.81
279.579	89.81
279.81	76.81
280.042	85.81
280.273	77.81
280.505	85.81
280.736	80.81
280.968	76.81
281.199	76.81
281.431	83.81
281.662	83.81
281.894	84.81
282.125	87.81
282.356	88.81
282.588	92.81
282.819	77.81
283.051	83.81
283.282	79.81
283.513	92.81
283.745	83.81
283.976	84.81
284.207	89.81
284.439	73.81
284.67	79.81
284.901	80.81
285.132	83.81
285.364	92.81
285.595	79.81
285.826	87.81
286.057	100.81
286.288	83.81
286.52	100.81
286.751	79.81
286.982	89.81
287.213	96.81
287.444	68.81
287.675	83.81
287.906	91.81
288.138	100.81
288.369	81.81
288.6	88.81
288.831	83.81
289.062	84.81
289.293	78.81
289.524	86.81
289.755	89.81
289.986	79.81
290.217	88.81
290.448	96.81
290.679	77.81
290.91	90.81
291.141	83.81
291.371	92.81
291.602	90.81
291.833	82.81
292.064	87.81
292.295	96.81
292.526	106.81
292.757	88.81
292.987	95.81
293.218	86.81
293.449	102.81
293.68	81.81
293.91	91.81
294.141	75.81
294.372	79.81
294.603	72.81
294.833	87.81
295.064	109.81
295.295	84.81
295.525	92.81
295.756	100.81
295.987	93.81
296.217	96.81
296.448	97.81
296.679	78.81
296.909	78.81
297.14	89.81
297.37	86.81
297.601	91.81
297.831	91.81
298.062	89.81
298.292	86.81
298.523	80.81
298.753	86.81
298.984	75.81
299.214	96.81
299.445	81.81
299.675	69.81
299.905	83.81
300.136	87.81
300.366	80.81
300.597	91.81
300.827	73.81
301.057	69.81
301.288	102.81
301.518	84.81
301.748	79.81
301.979	94.81
302.209	95.81
302.439	87.81
302.669	89.81
302.9	79.81
303.13	83.81
303.36	84.81
303.59	101.81
303.82	71.81
304.051	90.81
304.281	87.81
304.511	84.81
304.741	85.81
304.971	75.81
305.201	79.81
305.431	74.81
305.661	87.81
305.891	92.81
306.121	70.81
306.352	77.81
306.582	93.81
306.812	104.81
307.042	88.81
307.272	86.81
307.502	78.81
307.731	89.81
307.961	91.81
308.191	75.81
308.421	79.81
308.651	80.81
308.881	94.81
309.111	73.81
309.341	90.81
309.571	83.81
309.8	87.81
310.03	86.81
310.26	88.81
310.49	79.81
310.72	95.81
310.949	88.81
311.179	88.81
311.409	81.81
311.639	81.81
311.868	92.81
312.098	94.81
312.328	88.81
312.557	96.81
312.787	94.81
313.017	99.81
313.246	77.81
313.476	72.81
313.706	69.81
313.935	77.81
314.165	87.81
314.394	86.81
314.624	93.81
314.853	103.81
315.083	69.81
315.312	76.81
315.542	80.81
315.771	89.81
316.001	93.81
316.23	93.81
316.46	83.81
316.689	80.81
316.919	88.81
317.148	90.81
317.377	103.81
317.607	87.81
317.836	87.81
318.065	82.81
318.295	81.81
318.524	92.81
318.753	87.81
318.983	83.81
319.212	80.81
319.441	91.81
319.67	83.81
319.9	89.81
320.129	79.81
320.358	104.81
320.587	102.81
320.816	78.81
321.046	91.81
321.275	101.81
321.504	77.81
321.733	85.81
321.962	90.81
322.191	98.81
322.42	82.81
322.649	77.81
322.878	93.81
323.108	83.81
323.337	102.81
323.566	84.81
323.795	81.81
324.024	81.81
324.253	88.81
324.482	87.81
324.71	91.81
324.939	99.81
325.168	83.81
325.397	87.81
325.626	91.81
325.855	97.81
326.084	89.81
326.313	88.81
326.542	84.81
326.77	81.81
326.999	79.81
327.228	88.81
327.457	83.81
327.686	83.81
327.914	94.81
328.143	84.81
328.372	83.81
328.6	80.81
328.829	87.81
329.058	84.81
329.287	90.81
329.515	72.81
329.744	99.81
329.972	89.81
330.201	97.81
330.43	92.81
330.658	88.81
330.887	81.81
331.115	99.81
331.344	66.81
331.572	75.81
331.801	86.81
332.03	71.81
332.258	89.81
332.486	89.81
332.715	97.81
332.943	104.81
333.172	93.81
333.4	91.81
333.629	80.81
333.857	84.81
334.085	78.81
334.314	87.81
334.542	87.81
334.771	104.81
334.999	92.81
335.227	94.81
335.455	84.81
335.684	84.81
335.912	78.81
336.14	72.81
336.369	87.81
336.597	93.81
336.825	88.81
337.053	111.81
337.281	88.81
337.51	81.81
337.738	87.81
337.966	91.81
338.194	97.81
338.422	104.81
338.65	91.81
338.878	93.81
339.106	83.81
339.334	93.81
339.562	71.81
339.79	77.81
340.018	95.81
340.246	84.81
340.474	89.81
340.702	78.81
340.93	92.81
341.158	82.81
341.386	84.81
341.614	92.81
341.842	93.81
342.07	84.81
342.298	75.81
342.526	90.81
342.754	86.81
342.981	80.81
343.209	87.81
343.437	98.81
343.665	81.81
343.893	85.81
344.12	92.81
344.348	94.81
344.576	84.81
344.804	84.81
345.031	97.81
345.259	79.81
345.487	83.81
345.714	77.81
345.942	91.81
346.17	92.81
346.397	84.81
346.625	72.81
346.853	100.81
347.08	104.81
347.308	81.81
347.535	83.81
347.763	78.81
347.99	78.81
348.218	83.81
348.445	93.81
348.673	88.81
348.9	90.81
349.128	78.81
349.355	82.81
349.583	88.81
349.81	81.81
350.037	87.81
350.265	78.81
350.492	78.81
350.72	84.81
350.947	85.81
351.174	74.81
351.402	71.81
351.629	84.81
351.856	87.81
352.083	94.81
352.311	101.81
352.538	87.81
352.765	90.81
352.992	94.81
353.22	93.81
353.447	88.81
353.674	79.81
353.901	74.81
354.128	88.81
354.355	86.81
354.583	92.81
354.81	92.81
355.037	88.81
355.264	100.81
355.491	77.81
355.718	85.81
355.945	80.81
356.172	83.81
356.399	73.81
356.626	76.81
356.853	94.81
357.08	92.81
357.307	85.81
357.534	76.81
357.761	91.81
357.988	85.81
358.215	97.81
358.441	83.81
358.668	88.81
358.895	92.81
359.122	90.81
359.349	97.81
359.576	104.81
359.802	95.81
360.029	88.81
360.256	85.81
360.483	81.81
360.709	90.81
360.936	84.81
361.163	78.81
361.39	74.81
361.616	73.81
361.843	88.81
362.07	84.81
362.296	95.81
362.523	77.81
362.749	89.81
362.976	88.81
363.203	73.81
363.429	87.81
363.656	81.81
363.882	68.81
364.109	88.81
364.335	88.81
364.562	97.81
364.788	94.81
365.015	71.81
365.241	84.81
365.468	92.81
365.694	86.81
365.92	73.81
366.147	66.81
366.373	91.81
366.599	88.81
366.826	87.81
367.052	77.81
367.278	93.81
367.505	78.81
367.731	101.81
367.957	81.81
368.184	81.81
368.41	84.81
368.636	66.81
368.862	77.81
369.089	87.81
369.315	99.81
369.541	84.81
369.767	81.81
369.993	84.81
370.219	79.81
370.445	84.81
370.672	97.81
370.898	87.81
371.124	79.81
371.35	92.81
371.576	95.81
371.802	88.81
372.028	102.81
372.254	82.81
372.48	93.81
372.706	87.81
372.932	86.81
373.158	89.81
373.384	77.81
373.61	87.81
373.835	82.81
374.061	80.81
374.287	98.81
374.513	94.81
374.739	92.81
374.965	77.81
375.191	72.81
375.416	90.81
375.642	88.81
375.868	75.81
376.094	96.81
376.319	82.81
376.545	79.81
376.771	80.81
376.997	94.81
377.222	87.81
377.448	96.81
377.674	87.81
377.899	99.81
378.125	93.81
378.35	100.81
378.576	88.81
378.802	83.81
379.027	79.81
379.253	85.81
379.478	88.81
379.704	89.81
379.929	83.81
380.155	84.81
380.38	93.81
380.606	92.81
380.831	84.81
381.057	86.81
381.282	89.81
381.507	86.81
381.733	111.81
381.958	78.81
382.184	85.81
382.409	79.81
382.634	77.81
382.86	83.81
383.085	98.81
383.31	95.81
383.535	83.81
383.761	84.81
383.986	86.81
384.211	101.81
384.436	95.81
384.662	80.81
384.887	69.81
385.112	92.81
385.337	85.81
385.562	88.81
385.787	88.81
386.013	80.81
386.238	82.81
386.463	89.81
386.688	97.81
386.913	77.81
387.138	80.81
387.363	84.81
387.588	93.81
387.813	92.81
388.038	78.81
388.263	79.81
388.488	88.81
388.713	81.81
388.938	99.81
389.163	94.81
389.387	89.81
389.612	83.81
389.837	100.81
390.062	89.81
390.287	81.81
390.512	79.81
390.736	92.81
390.961	92.81
391.186	92.81
391.411	92.81
391.636	107.81
391.86	89.81
392.085	98.81
392.31	79.81
392.534	91.81
392.759	84.81
392.984	79.81
393.208	85.81
393.433	105.81
393.658	90.81
393.882	84.81
394.107	81.81
394.331	80.81
394.556	94.81
394.78	99.81
395.005	94.81
395.229	88.81
395.454	84.81
395.678	80.81
395.903	90.81
396.127	100.81
396.352	78.81
396.576	93.81
396.801	88.81
397.025	90.81
397.249	97.81
397.474	91.81
397.698	95.81
397.922	88.81
398.147	100.81
398.371	88.81
398.595	88.81
398.82	91.81
399.044	92.81
399.268	94.81
399.492	89.81
399.717	94.81
399.941	97.81
400.165	88.81
400.389	95.81
400.613	91.81
400.837	86.81
401.062	102.81
401.286	91.81
401.51	89.81
401.734	80.81
401.958	84.81
402.182	84.81
402.406	88.81
402.63	88.81
402.854	84.81
403.078	89.81
403.302	88.81
403.526	92.81
403.75	90.81
403.974	92.81
404.198	90.81
404.422	95.81
404.645	81.81
404.869	92.81
405.093	88.81
405.317	85.81
405.541	89.81
405.765	92.81
405.988	91.81
406.212	92.81
406.436	93.81
406.66	96.81
406.883	81.81
407.107	92.81
407.331	103.81
407.555	99.81
407.778	96.81
408.002	85.81
408.226	96.81
408.449	93.81
408.673	78.81
408.896	95.81
409.12	87.81
409.344	84.81
409.567	92.81
409.791	100.81
410.014	77.81
410.238	85.81
410.461	89.81
410.685	91.81
410.908	102.81
411.132	95.81
411.355	93.81
411.578	92.81
411.802	86.81
412.025	77.81
412.249	95.81
412.472	101.81
412.695	89.81
412.919	100.81
413.142	93.81
413.365	107.81
413.589	92.81
413.812	102.81
414.035	89.81
414.258	88.81
414.482	105.81
414.705	100.81
414.928	94.81
415.151	92.81
415.374	83.81
415.597	81.81
415.821	84.81
416.044	88.81
416.267	85.81
416.49	88.81
416.713	93.81
416.936	95.81
417.159	102.81
417.382	73.81
417.605	89.81
417.828	89.81
418.051	82.81
418.274	104.81
418.497	87.81
418.72	86.81
418.943	107.81
419.166	91.81
419.389	85.81
419.611	110.81
419.834	88.81
420.057	101.81
420.28	91.81
420.503	94.81
420.726	87.81
420.948	85.81
421.171	103.81
421.394	92.81
421.617	82.81
421.839	79.81
422.062	90.81
422.285	83.81
422.507	87.81
422.73	91.81
422.953	90.81
423.175	85.81
423.398	105.81
423.621	99.81
423.843	99.81
424.066	91.81
424.288	88.81
424.511	92.81
424.733	94.81
424.956	87.81
425.178	80.81
425.401	95.81
425.623	85.81
425.846	93.81
426.068	97.81
426.291	99.81
426.513	82.81
426.735	87.81
426.958	89.81
427.18	86.81
427.402	91.81
427.625	72.81
427.847	83.81
428.069	83.81
428.292	86.81
428.514	89.81
428.736	85.81
428.958	93.81
429.181	86.81
429.403	89.81
429.625	78.81
429.847	84.81
430.069	88.81
430.292	86.81
430.514	80.81
430.736	94.81
430.958	96.81
431.18	80.81
431.402	91.81
431.624	84.81
431.846	84.81
432.068	88.81
432.29	86.81
432.512	87.81
432.734	88.81
432.956	93.81
433.178	95.81
433.4	78.81
433.622	82.81
433.844	97.81
434.066	76.81
434.287	87.81
434.509	84.81
434.731	89.81
434.953	93.81
435.175	100.81
435.397	85.81
435.618	88.81
435.84	101.81
436.062	91.81
436.284	80.81
436.505	83.81
436.727	86.81
436.949	72.81
437.17	93.81
437.392	79.81
437.614	88.81
437.835	89.81
438.057	87.81
438.278	83.81
438.5	70.81
438.721	91.81
438.943	91.81
439.165	91.81
439.386	82.81
439.608	97.81
439.829	90.81
440.05	110.81
440.272	93.81
440.493	94.81
440.715	86.81
440.936	99.81
441.158	83.81
441.379	87.81
441.6	84.81
441.822	94.81
442.043	77.81
442.264	79.81
442.486	89.81
442.707	80.81
442.928	79.81
443.149	93.81
443.371	89.81
443.592	74.81
443.813	87.81
444.034	95.81
444.255	90.81
444.476	96.81
444.698	84.81
444.919	93.81
445.14	168.81
445.361	129.81
445.582	86.81
445.803	83.81
446.024	82.81
446.245	100.81
446.466	83.81
446.687	75.81
446.908	81.81
447.129	94.81
447.35	76.81
447.571	86.81
447.792	106.81
448.013	96.81
448.234	75.81
448.455	81.81
448.675	104.81
448.896	90.81
449.117	78.81
449.338	80.81
449.559	91.81
449.779	92.81
450	89.81
450.221	101.81
450.442	95.81
450.662	97.81
450.883	93.81
451.104	103.81
451.324	103.81
451.545	93.81
451.766	81.81
451.986	84.81
452.207	87.81
452.428	92.81
452.648	92.81
452.869	80.81
453.089	93.81
453.31	109.81
453.53	81.81
453.751	67.81
453.971	84.81
454.192	84.81
454.412	91.81
454.633	74.81
454.853	83.81
455.073	94.81
455.294	80.81
455.514	89.81
455.734	81.81
455.955	96.81
456.175	72.81
456.395	84.81
456.616	92.81
456.836	75.81
457.056	80.81
457.276	73.81
457.497	79.81
457.717	79.81
457.937	73.81
458.157	86.81
458.377	93.81
458.598	89.81
458.818	86.81
459.038	88.81
459.258	79.81
459.478	85.81
459.698	87.81
459.918	89.81
460.138	75.81
460.358	85.81
460.578	93.81
460.798	88.81
461.018	84.81
461.238	87.81
461.458	99.81
461.678	77.81
461.898	91.81
462.118	96.81
462.338	99.81
462.558	91.81
462.777	95.81
462.997	84.81
463.217	93.81
463.437	101.81
463.657	95.81
463.876	93.81
464.096	91.81
464.316	79.81
464.536	96.81
464.755	106.81
464.975	97.81
465.195	100.81
465.414	96.81
465.634	88.81
465.854	90.81
466.073	91.81
466.293	86.81
466.512	86.81
466.732	96.81
466.951	108.81
467.171	87.81
467.391	86.81
467.61	88.81
467.829	79.81
468.049	83.81
468.268	104.81
468.488	82.81
468.707	89.81
468.927	85.81
469.146	94.81
469.365	82.81
469.585	88.81
469.804	83.81
470.023	83.81
470.243	93.81
470.462	82.81
470.681	83.81
470.901	92.81
471.12	84.81
471.339	80.81
471.558	87.81
471.777	85.81
471.997	75.81
472.216	86.81
472.435	81.81
472.654	85.81
472.873	83.81
473.092	81.81
473.311	89.81
473.53	102.81
473.749	96.81
473.968	83.81
474.187	100.81
474.406	86.81
474.625	92.81
474.844	87.81
475.063	89.81
475.282	81.81
475.501	88.81
475.72	81.81
475.939	71.81
476.158	90.81
476.377	80.81
476.596	96.81
476.814	80.81
477.033	82.81
477.252	97.81
477.471	74.81
477.69	91.81
477.908	85.81
478.127	94.81
478.346	87.81
478.564	77.81
478.783	88.81
479.002	92.81
479.22	91.81
479.439	87.81
479.658	81.81
479.876	110.81
480.095	86.81
480.313	85.81
480.532	107.81
480.751	93.81
480.969	85.81
481.188	91.81
481.406	87.81
481.624	88.81
481.843	91.81
482.061	88.81
482.28	87.81
482.498	79.81
482.717	81.81
482.935	93.81
483.153	96.81
483.372	103.81
483.59	89.81
483.808	93.81
484.027	97.81
484.245	95.81
484.463	83.81
484.681	89.81
484.9	91.81
485.118	96.81
485.336	87.81
485.554	87.81
485.772	85.81
485.99	94.81
486.209	87.81
486.427	85.81
486.645	99.81
486.863	81.81
487.081	89.81
487.299	76.81
487.517	93.81
487.735	83.81
487.953	85.81
488.171	91.81
488.389	99.81
488.607	95.81
488.825	87.81
489.043	95.81
489.261	84.81
489.479	93.81
489.696	83.81
489.914	86.81
490.132	86.81
490.35	87.81
490.568	102.81
490.786	86.81
491.003	78.81
491.221	76.81
491.439	90.81
491.657	92.81
491.874	92.81
492.092	63.81
492.31	91.81
492.527	88.81
492.745	88.81
492.963	86.81
493.18	92.81
493.398	85.81
493.615	93.81
493.833	92.81
494.05	90.81
494.268	83.81
494.485	100.81
494.703	85.81
494.92	85.81
495.138	93.81
495.355	102.81
495.573	91.81
495.79	83.81
496.008	92.81
496.225	89.81
496.442	82.81
496.66	88.81
496.877	89.81
497.094	92.81
497.312	94.81
497.529	102.81
497.746	96.81
497.963	80.81
498.181	91.81
498.398	95.81
498.615	92.81
498.832	88.81
499.049	100.81
499.267	102.81
499.484	102.81
499.701	89.81
499.918	93.81
500.135	113.81
500.352	125.81
500.569	107.81
500.786	115.81
501.003	118.81
501.22	111.81
501.437	92.81
501.654	102.81
501.871	107.81
502.088	103.81
502.305	101.81
502.522	92.81
502.739	95.81
502.956	101.81
503.172	90.81
503.389	90.81
503.606	91.81
503.823	96.81
504.04	110.81
504.256	96.81
504.473	93.81
504.69	93.81
504.907	79.81
505.123	87.81
505.34	97.81
505.557	80.81
505.773	94.81
505.99	80.81
506.207	93.81
506.423	85.81
506.64	81.81
506.856	89.81
507.073	88.81
507.289	86.81
507.506	91.81
507.722	94.81
507.939	79.81
508.155	91.81
508.372	84.81
508.588	88.81
508.805	89.81
509.021	92.81
509.238	95.81
509.454	92.81
509.67	77.81
509.887	78.81
510.103	71.81
510.319	76.81
510.536	91.81
510.752	83.81
510.968	96.81
511.184	97.81
511.401	95.81
511.617	89.81
511.833	86.81
512.049	94.81
512.265	102.81
512.481	79.81
512.698	92.81
512.914	75.81
513.13	86.81
513.346	71.81
513.562	88.81
513.778	91.81
513.994	97.81
514.21	88.81
514.426	94.81
514.642	92.81
514.858	95.81
515.074	107.81
515.29	93.81
515.506	101.81
515.721	93.81
515.937	97.81
516.153	105.81
516.369	92.81
516.585	73.81
516.801	83.81
517.016	87.81
517.232	91.81
517.448	96.81
517.664	90.81
517.879	99.81
518.095	92.81
518.311	103.81
518.527	103.81
518.742	100.81
518.958	83.81
