Data from BG_HRD10591_071.txt Node
Date: Fri May 16 15:14:58 EDT 2025
User: Yrep
Spectrometer: HR+D1059
Trigger mode: 1
Integration Time (sec): 1.000000E-1
Scans to average: 1
Electric dark correction enabled: true
Nonlinearity correction enabled: false
Boxcar width: 0
XAxis mode: Wavelengths
Number of Pixels in Spectrum: 2048
>>>>>Begin Spectral Data<<<<<
223.165	-13.5
223.4	-13.5
223.635	-13.5
223.869	-22.5
224.104	-14.5
224.338	-9.5
224.573	-22.5
224.808	-6.5
225.042	-0.5
225.277	-7.5
225.511	-12.5
225.746	1.5
225.98	0.5
226.215	17.5
226.449	14.5
226.683	21.5
226.918	29.5
227.152	24.5
227.387	30.5
227.621	44.5
227.856	35.5
228.09	46.5
228.324	61.5
228.559	59.5
228.793	46.5
229.027	70.5
229.262	68.5
229.496	67.5
229.73	78.5
229.964	88.5
230.199	72.5
230.433	63.5
230.667	67.5
230.901	74.5
231.136	67.5
231.37	76.5
231.604	80.5
231.838	70.5
232.072	65.5
232.306	82.5
232.541	71.5
232.775	79.5
233.009	87.5
233.243	89.5
233.477	75.5
233.711	74.5
233.945	76.5
234.179	73.5
234.413	70.5
234.647	75.5
234.881	89.5
235.115	79.5
235.349	74.5
235.583	89.5
235.817	71.5
236.051	71.5
236.285	70.5
236.519	76.5
236.753	75.5
236.987	78.5
237.221	87.5
237.455	86.5
237.689	72.5
237.922	79.5
238.156	83.5
238.39	69.5
238.624	68.5
238.858	77.5
239.091	71.5
239.325	62.5
239.559	82.5
239.793	82.5
240.027	87.5
240.26	68.5
240.494	55.5
240.728	69.5
240.961	61.5
241.195	69.5
241.429	77.5
241.662	73.5
241.896	71.5
242.13	81.5
242.363	70.5
242.597	65.5
242.83	56.5
243.064	80.5
243.298	77.5
243.531	62.5
243.765	82.5
243.998	80.5
244.232	73.5
244.465	85.5
244.699	59.5
244.932	68.5
245.166	79.5
245.399	78.5
245.633	75.5
245.866	80.5
246.099	84.5
246.333	81.5
246.566	95.5
246.8	78.5
247.033	75.5
247.266	72.5
247.5	76.5
247.733	75.5
247.966	96.5
248.2	78.5
248.433	85.5
248.666	81.5
248.899	75.5
249.133	84.5
249.366	73.5
249.599	83.5
249.832	84.5
250.066	80.5
250.299	78.5
250.532	76.5
250.765	82.5
250.998	88.5
251.231	69.5
251.465	81.5
251.698	87.5
251.931	70.5
252.164	81.5
252.397	71.5
252.63	82.5
252.863	72.5
253.096	90.5
253.329	95.5
253.562	73.5
253.795	92.5
254.028	69.5
254.261	78.5
254.494	84.5
254.727	83.5
254.96	70.5
255.193	71.5
255.426	65.5
255.659	79.5
255.892	73.5
256.124	93.5
256.357	85.5
256.59	92.5
256.823	87.5
257.056	78.5
257.289	73.5
257.521	89.5
257.754	84.5
257.987	87.5
258.22	68.5
258.452	73.5
258.685	72.5
258.918	68.5
259.151	77.5
259.383	75.5
259.616	76.5
259.849	75.5
260.081	96.5
260.314	83.5
260.547	85.5
260.779	91.5
261.012	69.5
261.244	78.5
261.477	82.5
261.71	69.5
261.942	75.5
262.175	90.5
262.407	73.5
262.64	73.5
262.872	92.5
263.105	71.5
263.337	81.5
263.57	85.5
263.802	84.5
264.035	84.5
264.267	80.5
264.499	72.5
264.732	84.5
264.964	88.5
265.197	82.5
265.429	88.5
265.661	81.5
265.894	77.5
266.126	87.5
266.358	75.5
266.591	86.5
266.823	92.5
267.055	85.5
267.287	63.5
267.52	77.5
267.752	82.5
267.984	75.5
268.216	76.5
268.448	91.5
268.681	84.5
268.913	79.5
269.145	78.5
269.377	72.5
269.609	67.5
269.841	83.5
270.073	77.5
270.306	87.5
270.538	85.5
270.77	81.5
271.002	76.5
271.234	75.5
271.466	93.5
271.698	86.5
271.93	90.5
272.162	91.5
272.394	69.5
272.626	78.5
272.858	79.5
273.09	89.5
273.322	81.5
273.553	75.5
273.785	92.5
274.017	80.5
274.249	74.5
274.481	91.5
274.713	79.5
274.945	71.5
275.176	72.5
275.408	78.5
275.64	81.5
275.872	79.5
276.104	86.5
276.335	72.5
276.567	81.5
276.799	89.5
277.031	85.5
277.262	87.5
277.494	96.5
277.726	77.5
277.957	89.5
278.189	87.5
278.421	60.5
278.652	77.5
278.884	81.5
279.115	77.5
279.347	70.5
279.579	87.5
279.81	72.5
280.042	90.5
280.273	81.5
280.505	80.5
280.736	83.5
280.968	76.5
281.199	88.5
281.431	81.5
281.662	91.5
281.894	78.5
282.125	84.5
282.356	87.5
282.588	78.5
282.819	85.5
283.051	71.5
283.282	83.5
283.513	66.5
283.745	80.5
283.976	69.5
284.207	81.5
284.439	91.5
284.67	95.5
284.901	93.5
285.132	75.5
285.364	80.5
285.595	81.5
285.826	88.5
286.057	88.5
286.288	83.5
286.52	91.5
286.751	83.5
286.982	80.5
287.213	82.5
287.444	82.5
287.675	78.5
287.906	85.5
288.138	80.5
288.369	84.5
288.6	82.5
288.831	79.5
289.062	73.5
289.293	95.5
289.524	99.5
289.755	94.5
289.986	76.5
290.217	84.5
290.448	88.5
290.679	83.5
290.91	86.5
291.141	86.5
291.371	84.5
291.602	69.5
291.833	69.5
292.064	84.5
292.295	83.5
292.526	83.5
292.757	90.5
292.987	84.5
293.218	72.5
293.449	81.5
293.68	82.5
293.91	86.5
294.141	93.5
294.372	98.5
294.603	83.5
294.833	88.5
295.064	84.5
295.295	81.5
295.525	78.5
295.756	105.5
295.987	83.5
296.217	80.5
296.448	77.5
296.679	86.5
296.909	86.5
297.14	75.5
297.37	95.5
297.601	80.5
297.831	81.5
298.062	76.5
298.292	78.5
298.523	85.5
298.753	83.5
298.984	82.5
299.214	95.5
299.445	104.5
299.675	92.5
299.905	86.5
300.136	84.5
300.366	89.5
300.597	94.5
300.827	91.5
301.057	81.5
301.288	81.5
301.518	93.5
301.748	90.5
301.979	97.5
302.209	92.5
302.439	95.5
302.669	91.5
302.9	84.5
303.13	72.5
303.36	89.5
303.59	92.5
303.82	78.5
304.051	83.5
304.281	79.5
304.511	91.5
304.741	94.5
304.971	73.5
305.201	83.5
305.431	94.5
305.661	91.5
305.891	86.5
306.121	73.5
306.352	92.5
306.582	80.5
306.812	86.5
307.042	93.5
307.272	102.5
307.502	96.5
307.731	101.5
307.961	80.5
308.191	73.5
308.421	84.5
308.651	86.5
308.881	70.5
309.111	92.5
309.341	88.5
309.571	96.5
309.8	87.5
310.03	98.5
310.26	87.5
310.49	83.5
310.72	91.5
310.949	87.5
311.179	88.5
311.409	79.5
311.639	102.5
311.868	83.5
312.098	82.5
312.328	88.5
312.557	85.5
312.787	91.5
313.017	96.5
313.246	90.5
313.476	101.5
313.706	84.5
313.935	69.5
314.165	76.5
314.394	80.5
314.624	81.5
314.853	87.5
315.083	89.5
315.312	97.5
315.542	88.5
315.771	86.5
316.001	74.5
316.23	85.5
316.46	71.5
316.689	71.5
316.919	80.5
317.148	74.5
317.377	96.5
317.607	95.5
317.836	87.5
318.065	87.5
318.295	85.5
318.524	88.5
318.753	88.5
318.983	94.5
319.212	89.5
319.441	96.5
319.67	78.5
319.9	79.5
320.129	89.5
320.358	89.5
320.587	100.5
320.816	67.5
321.046	82.5
321.275	79.5
321.504	94.5
321.733	90.5
321.962	84.5
322.191	86.5
322.42	79.5
322.649	83.5
322.878	76.5
323.108	86.5
323.337	95.5
323.566	77.5
323.795	72.5
324.024	92.5
324.253	95.5
324.482	107.5
324.71	95.5
324.939	91.5
325.168	77.5
325.397	91.5
325.626	91.5
325.855	90.5
326.084	93.5
326.313	99.5
326.542	84.5
326.77	89.5
326.999	100.5
327.228	88.5
327.457	90.5
327.686	89.5
327.914	94.5
328.143	105.5
328.372	91.5
328.6	78.5
328.829	86.5
329.058	76.5
329.287	80.5
329.515	87.5
329.744	90.5
329.972	88.5
330.201	95.5
330.43	83.5
330.658	83.5
330.887	86.5
331.115	84.5
331.344	79.5
331.572	99.5
331.801	93.5
332.03	84.5
332.258	93.5
332.486	81.5
332.715	92.5
332.943	89.5
333.172	87.5
333.4	78.5
333.629	85.5
333.857	89.5
334.085	83.5
334.314	93.5
334.542	87.5
334.771	74.5
334.999	79.5
335.227	90.5
335.455	93.5
335.684	87.5
335.912	98.5
336.14	77.5
336.369	94.5
336.597	86.5
336.825	99.5
337.053	83.5
337.281	92.5
337.51	87.5
337.738	93.5
337.966	91.5
338.194	94.5
338.422	81.5
338.65	75.5
338.878	88.5
339.106	97.5
339.334	92.5
339.562	96.5
339.79	89.5
340.018	95.5
340.246	80.5
340.474	83.5
340.702	85.5
340.93	79.5
341.158	84.5
341.386	99.5
341.614	87.5
341.842	97.5
342.07	99.5
342.298	89.5
342.526	91.5
342.754	88.5
342.981	84.5
343.209	86.5
343.437	99.5
343.665	87.5
343.893	91.5
344.12	89.5
344.348	92.5
344.576	99.5
344.804	93.5
345.031	89.5
345.259	86.5
345.487	82.5
345.714	84.5
345.942	85.5
346.17	85.5
346.397	87.5
346.625	93.5
346.853	94.5
347.08	86.5
347.308	108.5
347.535	90.5
347.763	89.5
347.99	91.5
348.218	99.5
348.445	86.5
348.673	77.5
348.9	85.5
349.128	88.5
349.355	71.5
349.583	91.5
349.81	90.5
350.037	81.5
350.265	90.5
350.492	89.5
350.72	78.5
350.947	85.5
351.174	87.5
351.402	83.5
351.629	81.5
351.856	79.5
352.083	84.5
352.311	93.5
352.538	76.5
352.765	83.5
352.992	101.5
353.22	92.5
353.447	71.5
353.674	83.5
353.901	84.5
354.128	81.5
354.355	71.5
354.583	79.5
354.81	91.5
355.037	87.5
355.264	75.5
355.491	89.5
355.718	101.5
355.945	101.5
356.172	93.5
356.399	85.5
356.626	94.5
356.853	85.5
357.08	95.5
357.307	73.5
357.534	87.5
357.761	88.5
357.988	80.5
358.215	66.5
358.441	91.5
358.668	92.5
358.895	85.5
359.122	102.5
359.349	95.5
359.576	91.5
359.802	85.5
360.029	86.5
360.256	77.5
360.483	93.5
360.709	95.5
360.936	79.5
361.163	94.5
361.39	84.5
361.616	73.5
361.843	75.5
362.07	91.5
362.296	86.5
362.523	95.5
362.749	90.5
362.976	87.5
363.203	96.5
363.429	77.5
363.656	89.5
363.882	85.5
364.109	80.5
364.335	76.5
364.562	83.5
364.788	78.5
365.015	76.5
365.241	80.5
365.468	91.5
365.694	76.5
365.92	79.5
366.147	91.5
366.373	84.5
366.599	96.5
366.826	95.5
367.052	78.5
367.278	86.5
367.505	72.5
367.731	106.5
367.957	83.5
368.184	81.5
368.41	101.5
368.636	88.5
368.862	83.5
369.089	86.5
369.315	83.5
369.541	88.5
369.767	86.5
369.993	93.5
370.219	94.5
370.445	77.5
370.672	90.5
370.898	85.5
371.124	82.5
371.35	86.5
371.576	99.5
371.802	87.5
372.028	87.5
372.254	100.5
372.48	97.5
372.706	87.5
372.932	93.5
373.158	80.5
373.384	89.5
373.61	92.5
373.835	93.5
374.061	85.5
374.287	89.5
374.513	88.5
374.739	89.5
374.965	81.5
375.191	91.5
375.416	92.5
375.642	103.5
375.868	91.5
376.094	91.5
376.319	92.5
376.545	89.5
376.771	91.5
376.997	89.5
377.222	77.5
377.448	96.5
377.674	91.5
377.899	83.5
378.125	78.5
378.35	78.5
378.576	83.5
378.802	90.5
379.027	91.5
379.253	94.5
379.478	79.5
379.704	95.5
379.929	83.5
380.155	79.5
380.38	76.5
380.606	79.5
380.831	90.5
381.057	81.5
381.282	75.5
381.507	79.5
381.733	97.5
381.958	76.5
382.184	96.5
382.409	89.5
382.634	94.5
382.86	79.5
383.085	78.5
383.31	85.5
383.535	91.5
383.761	91.5
383.986	98.5
384.211	90.5
384.436	85.5
384.662	85.5
384.887	87.5
385.112	88.5
385.337	86.5
385.562	85.5
385.787	83.5
386.013	84.5
386.238	85.5
386.463	94.5
386.688	91.5
386.913	88.5
387.138	81.5
387.363	95.5
387.588	89.5
387.813	87.5
388.038	96.5
388.263	81.5
388.488	100.5
388.713	94.5
388.938	81.5
389.163	85.5
389.387	102.5
389.612	88.5
389.837	91.5
390.062	84.5
390.287	88.5
390.512	95.5
390.736	83.5
390.961	72.5
391.186	85.5
391.411	87.5
391.636	93.5
391.86	87.5
392.085	92.5
392.31	87.5
392.534	80.5
392.759	84.5
392.984	83.5
393.208	89.5
393.433	89.5
393.658	95.5
393.882	89.5
394.107	92.5
394.331	86.5
394.556	85.5
394.78	93.5
395.005	88.5
395.229	79.5
395.454	93.5
395.678	87.5
395.903	89.5
396.127	80.5
396.352	85.5
396.576	88.5
396.801	93.5
397.025	83.5
397.249	73.5
397.474	89.5
397.698	83.5
397.922	105.5
398.147	88.5
398.371	87.5
398.595	102.5
398.82	88.5
399.044	81.5
399.268	84.5
399.492	110.5
399.717	99.5
399.941	101.5
400.165	94.5
400.389	91.5
400.613	93.5
400.837	88.5
401.062	85.5
401.286	87.5
401.51	95.5
401.734	93.5
401.958	102.5
402.182	96.5
402.406	89.5
402.63	99.5
402.854	105.5
403.078	91.5
403.302	91.5
403.526	88.5
403.75	81.5
403.974	92.5
404.198	90.5
404.422	86.5
404.645	95.5
404.869	81.5
405.093	88.5
405.317	89.5
405.541	109.5
405.765	80.5
405.988	90.5
406.212	94.5
406.436	93.5
406.66	81.5
406.883	92.5
407.107	83.5
407.331	87.5
407.555	84.5
407.778	86.5
408.002	95.5
408.226	97.5
408.449	79.5
408.673	93.5
408.896	85.5
409.12	89.5
409.344	86.5
409.567	90.5
409.791	110.5
410.014	97.5
410.238	91.5
410.461	97.5
410.685	88.5
410.908	92.5
411.132	75.5
411.355	84.5
411.578	89.5
411.802	89.5
412.025	98.5
412.249	100.5
412.472	88.5
412.695	88.5
412.919	87.5
413.142	98.5
413.365	79.5
413.589	91.5
413.812	93.5
414.035	93.5
414.258	92.5
414.482	86.5
414.705	96.5
414.928	82.5
415.151	84.5
415.374	99.5
415.597	92.5
415.821	83.5
416.044	87.5
416.267	91.5
416.49	104.5
416.713	99.5
416.936	98.5
417.159	76.5
417.382	83.5
417.605	89.5
417.828	85.5
418.051	92.5
418.274	88.5
418.497	84.5
418.72	85.5
418.943	86.5
419.166	91.5
419.389	92.5
419.611	87.5
419.834	93.5
420.057	115.5
420.28	103.5
420.503	90.5
420.726	76.5
420.948	92.5
421.171	84.5
421.394	89.5
421.617	86.5
421.839	76.5
422.062	85.5
422.285	93.5
422.507	100.5
422.73	93.5
422.953	87.5
423.175	89.5
423.398	85.5
423.621	90.5
423.843	96.5
424.066	86.5
424.288	99.5
424.511	95.5
424.733	97.5
424.956	79.5
425.178	88.5
425.401	94.5
425.623	86.5
425.846	93.5
426.068	76.5
426.291	73.5
426.513	92.5
426.735	95.5
426.958	76.5
427.18	91.5
427.402	93.5
427.625	103.5
427.847	80.5
428.069	90.5
428.292	80.5
428.514	83.5
428.736	80.5
428.958	91.5
429.181	91.5
429.403	87.5
429.625	84.5
429.847	90.5
430.069	81.5
430.292	93.5
430.514	90.5
430.736	83.5
430.958	87.5
431.18	101.5
431.402	96.5
431.624	101.5
431.846	87.5
432.068	101.5
432.29	92.5
432.512	82.5
432.734	95.5
432.956	92.5
433.178	92.5
433.4	81.5
433.622	83.5
433.844	101.5
434.066	84.5
434.287	71.5
434.509	90.5
434.731	101.5
434.953	81.5
435.175	86.5
435.397	94.5
435.618	84.5
435.84	93.5
436.062	92.5
436.284	99.5
436.505	72.5
436.727	83.5
436.949	76.5
437.17	90.5
437.392	93.5
437.614	94.5
437.835	100.5
438.057	92.5
438.278	85.5
438.5	95.5
438.721	84.5
438.943	104.5
439.165	84.5
439.386	86.5
439.608	79.5
439.829	84.5
440.05	100.5
440.272	85.5
440.493	81.5
440.715	94.5
440.936	92.5
441.158	90.5
441.379	108.5
441.6	91.5
441.822	73.5
442.043	86.5
442.264	93.5
442.486	83.5
442.707	75.5
442.928	88.5
443.149	85.5
443.371	101.5
443.592	88.5
443.813	100.5
444.034	88.5
444.255	83.5
444.476	91.5
444.698	84.5
444.919	75.5
445.14	185.5
445.361	142.5
445.582	100.5
445.803	81.5
446.024	75.5
446.245	88.5
446.466	96.5
446.687	83.5
446.908	99.5
447.129	92.5
447.35	96.5
447.571	91.5
447.792	85.5
448.013	89.5
448.234	92.5
448.455	100.5
448.675	89.5
448.896	99.5
449.117	73.5
449.338	94.5
449.559	105.5
449.779	83.5
450	101.5
450.221	83.5
450.442	77.5
450.662	88.5
450.883	89.5
451.104	94.5
451.324	87.5
451.545	79.5
451.766	87.5
451.986	84.5
452.207	102.5
452.428	95.5
452.648	95.5
452.869	92.5
453.089	87.5
453.31	86.5
453.53	103.5
453.751	89.5
453.971	89.5
454.192	81.5
454.412	83.5
454.633	73.5
454.853	77.5
455.073	79.5
455.294	83.5
455.514	97.5
455.734	89.5
455.955	83.5
456.175	79.5
456.395	101.5
456.616	85.5
456.836	93.5
457.056	80.5
457.276	83.5
457.497	95.5
457.717	90.5
457.937	76.5
458.157	90.5
458.377	88.5
458.598	87.5
458.818	88.5
459.038	90.5
459.258	97.5
459.478	79.5
459.698	97.5
459.918	107.5
460.138	96.5
460.358	92.5
460.578	85.5
460.798	95.5
461.018	101.5
461.238	89.5
461.458	91.5
461.678	89.5
461.898	103.5
462.118	77.5
462.338	86.5
462.558	88.5
462.777	81.5
462.997	85.5
463.217	104.5
463.437	85.5
463.657	109.5
463.876	99.5
464.096	81.5
464.316	94.5
464.536	81.5
464.755	89.5
464.975	91.5
465.195	89.5
465.414	86.5
465.634	83.5
465.854	85.5
466.073	89.5
466.293	93.5
466.512	86.5
466.732	95.5
466.951	80.5
467.171	72.5
467.391	78.5
467.61	94.5
467.829	93.5
468.049	74.5
468.268	93.5
468.488	89.5
468.707	86.5
468.927	88.5
469.146	92.5
469.365	77.5
469.585	95.5
469.804	76.5
470.023	87.5
470.243	85.5
470.462	99.5
470.681	71.5
470.901	85.5
471.12	112.5
471.339	93.5
471.558	93.5
471.777	83.5
471.997	85.5
472.216	85.5
472.435	98.5
472.654	81.5
472.873	87.5
473.092	93.5
473.311	78.5
473.53	77.5
473.749	84.5
473.968	94.5
474.187	87.5
474.406	91.5
474.625	73.5
474.844	79.5
475.063	93.5
475.282	84.5
475.501	70.5
475.72	99.5
475.939	79.5
476.158	88.5
476.377	89.5
476.596	89.5
476.814	87.5
477.033	89.5
477.252	89.5
477.471	75.5
477.69	89.5
477.908	92.5
478.127	93.5
478.346	89.5
478.564	92.5
478.783	85.5
479.002	90.5
479.22	99.5
479.439	83.5
479.658	75.5
479.876	85.5
480.095	96.5
480.313	86.5
480.532	91.5
480.751	87.5
480.969	91.5
481.188	86.5
481.406	90.5
481.624	83.5
481.843	102.5
482.061	88.5
482.28	79.5
482.498	88.5
482.717	89.5
482.935	78.5
483.153	80.5
483.372	88.5
483.59	85.5
483.808	99.5
484.027	96.5
484.245	92.5
484.463	94.5
484.681	94.5
484.9	90.5
485.118	85.5
485.336	94.5
485.554	86.5
485.772	87.5
485.99	92.5
486.209	87.5
486.427	95.5
486.645	93.5
486.863	96.5
487.081	90.5
487.299	77.5
487.517	91.5
487.735	88.5
487.953	93.5
488.171	90.5
488.389	80.5
488.607	91.5
488.825	87.5
489.043	80.5
489.261	91.5
489.479	76.5
489.696	82.5
489.914	102.5
490.132	90.5
490.35	103.5
490.568	86.5
490.786	89.5
491.003	97.5
491.221	94.5
491.439	91.5
491.657	92.5
491.874	87.5
492.092	97.5
492.31	90.5
492.527	79.5
492.745	84.5
492.963	88.5
493.18	95.5
493.398	89.5
493.615	91.5
493.833	93.5
494.05	95.5
494.268	85.5
494.485	87.5
494.703	90.5
494.92	87.5
495.138	92.5
495.355	87.5
495.573	91.5
495.79	87.5
496.008	88.5
496.225	77.5
496.442	80.5
496.66	95.5
496.877	96.5
497.094	99.5
497.312	89.5
497.529	90.5
497.746	96.5
497.963	92.5
498.181	101.5
498.398	97.5
498.615	95.5
498.832	84.5
499.049	89.5
499.267	90.5
499.484	77.5
499.701	94.5
499.918	121.5
500.135	120.5
500.352	115.5
500.569	116.5
500.786	108.5
501.003	108.5
501.22	107.5
501.437	101.5
501.654	94.5
501.871	101.5
502.088	93.5
502.305	87.5
502.522	101.5
502.739	91.5
502.956	84.5
503.172	97.5
503.389	95.5
503.606	104.5
503.823	92.5
504.04	77.5
504.256	86.5
504.473	87.5
504.69	91.5
504.907	96.5
505.123	96.5
505.34	80.5
505.557	100.5
505.773	108.5
505.99	95.5
506.207	79.5
506.423	84.5
506.64	91.5
506.856	74.5
507.073	78.5
507.289	76.5
507.506	98.5
507.722	107.5
507.939	99.5
508.155	86.5
508.372	91.5
508.588	86.5
508.805	87.5
509.021	87.5
509.238	95.5
509.454	100.5
509.67	84.5
509.887	83.5
510.103	85.5
510.319	99.5
510.536	85.5
510.752	85.5
510.968	85.5
511.184	76.5
511.401	88.5
511.617	85.5
511.833	105.5
512.049	88.5
512.265	92.5
512.481	88.5
512.698	96.5
512.914	87.5
513.13	90.5
513.346	83.5
513.562	81.5
513.778	69.5
513.994	95.5
514.21	86.5
514.426	84.5
514.642	102.5
514.858	90.5
515.074	86.5
515.29	101.5
515.506	104.5
515.721	96.5
515.937	99.5
516.153	88.5
516.369	77.5
516.585	91.5
516.801	91.5
517.016	86.5
517.232	92.5
517.448	91.5
517.664	100.5
517.879	88.5
518.095	92.5
518.311	94.5
518.527	102.5
518.742	101.5
518.958	90.5
519.173	99.5
519.389	90.5
519.605	88.5
519.82	77.5
520.036	86.5
520.251	95.5
520.467	87.5
520.682	96.5
520.898	99.5
521.113	99.5
521.329	75.5
521.544	87.5
521.76	95.5
521.975	84.5
522.19	88.5
522.406	72.5
522.621	87.5
522.836	87.5
523.052	98.5
523.267	87.5
523.482	112.5
523.698	83.5
523.913	91.5
524.128	89.5
524.343	90.5
524.559	90.5
524.774	96.5
524.989	105.5
525.204	81.5
525.419	94.5
525.634	93.5
525.849	85.5
526.064	94.5
526.28	87.5
526.495	85.5
526.71	101.5
526.925	93.5
527.14	95.5
527.355	96.5
527.57	95.5
527.785	85.5
527.999	87.5
528.214	80.5
528.429	84.5
528.644	87.5
528.859	88.5
529.074	86.5
529.289	102.5
529.503	80.5
529.718	92.5
529.933	91.5
530.148	99.5
530.363	85.5
530.577	92.5
530.792	91.5
531.007	92.5
531.221	111.5
531.436	81.5
531.651	86.5
531.865	83.5
532.08	81.5
532.295	94.5
532.509	85.5
532.724	83.5
532.938	85.5
533.153	104.5
533.367	90.5
533.582	84.5
533.796	79.5
534.011	91.5
534.225	85.5
534.44	83.5
534.654	85.5
534.868	100.5
535.083	104.5
535.297	99.5
535.511	95.5
535.726	86.5
535.94	84.5
536.154	94.5
536.369	85.5
536.583	89.5
536.797	102.5
537.011	93.5
537.225	89.5
537.44	75.5
537.654	85.5
537.868	89.5
538.082	75.5
538.296	91.5
538.51	88.5
538.724	96.5
538.938	91.5
539.153	107.5
539.367	78.5
