Data from BG_HRD10591_048.txt Node
Date: Fri May 16 15:14:46 EDT 2025
User: Yrep
Spectrometer: HR+D1059
Trigger mode: 1
Integration Time (sec): 1.000000E-1
Scans to average: 1
Electric dark correction enabled: true
Nonlinearity correction enabled: false
Boxcar width: 0
XAxis mode: Wavelengths
Number of Pixels in Spectrum: 2048
>>>>>Begin Spectral Data<<<<<
223.165	-22.88
223.4	-22.88
223.635	-22.88
223.869	-20.88
224.104	-24.88
224.338	-14.88
224.573	-9.88
224.808	-20.88
225.042	-15.88
225.277	1.12
225.511	4.12
225.746	6.12
225.98	3.12
226.215	11.12
226.449	25.12
226.683	18.12
226.918	28.12
227.152	33.12
227.387	37.12
227.621	33.12
227.856	53.12
228.09	57.12
228.324	53.12
228.559	57.12
228.793	55.12
229.027	61.12
229.262	62.12
229.496	68.12
229.73	60.12
229.964	69.12
230.199	65.12
230.433	79.12
230.667	81.12
230.901	69.12
231.136	83.12
231.37	85.12
231.604	77.12
231.838	78.12
232.072	97.12
232.306	91.12
232.541	78.12
232.775	77.12
233.009	71.12
233.243	72.12
233.477	75.12
233.711	86.12
233.945	82.12
234.179	76.12
234.413	85.12
234.647	77.12
234.881	70.12
235.115	76.12
235.349	68.12
235.583	75.12
235.817	73.12
236.051	77.12
236.285	93.12
236.519	74.12
236.753	85.12
236.987	75.12
237.221	78.12
237.455	69.12
237.689	77.12
237.922	78.12
238.156	75.12
238.39	66.12
238.624	77.12
238.858	69.12
239.091	73.12
239.325	74.12
239.559	68.12
239.793	75.12
240.027	79.12
240.26	72.12
240.494	61.12
240.728	53.12
240.961	78.12
241.195	89.12
241.429	71.12
241.662	81.12
241.896	75.12
242.13	77.12
242.363	68.12
242.597	70.12
242.83	67.12
243.064	71.12
243.298	76.12
243.531	71.12
243.765	71.12
243.998	78.12
244.232	88.12
244.465	71.12
244.699	79.12
244.932	88.12
245.166	80.12
245.399	71.12
245.633	87.12
245.866	82.12
246.099	83.12
246.333	72.12
246.566	86.12
246.8	79.12
247.033	80.12
247.266	72.12
247.5	78.12
247.733	83.12
247.966	79.12
248.2	68.12
248.433	63.12
248.666	76.12
248.899	73.12
249.133	83.12
249.366	77.12
249.599	92.12
249.832	82.12
250.066	83.12
250.299	83.12
250.532	83.12
250.765	86.12
250.998	81.12
251.231	71.12
251.465	75.12
251.698	87.12
251.931	73.12
252.164	74.12
252.397	61.12
252.63	64.12
252.863	73.12
253.096	84.12
253.329	75.12
253.562	73.12
253.795	82.12
254.028	81.12
254.261	74.12
254.494	77.12
254.727	68.12
254.96	89.12
255.193	78.12
255.426	92.12
255.659	76.12
255.892	89.12
256.124	86.12
256.357	94.12
256.59	81.12
256.823	90.12
257.056	81.12
257.289	83.12
257.521	94.12
257.754	75.12
257.987	82.12
258.22	85.12
258.452	86.12
258.685	81.12
258.918	74.12
259.151	79.12
259.383	76.12
259.616	84.12
259.849	79.12
260.081	77.12
260.314	71.12
260.547	74.12
260.779	69.12
261.012	85.12
261.244	81.12
261.477	91.12
261.71	67.12
261.942	80.12
262.175	70.12
262.407	82.12
262.64	74.12
262.872	87.12
263.105	79.12
263.337	85.12
263.57	78.12
263.802	89.12
264.035	77.12
264.267	90.12
264.499	81.12
264.732	83.12
264.964	99.12
265.197	74.12
265.429	71.12
265.661	80.12
265.894	82.12
266.126	78.12
266.358	76.12
266.591	89.12
266.823	78.12
267.055	74.12
267.287	86.12
267.52	74.12
267.752	85.12
267.984	88.12
268.216	83.12
268.448	86.12
268.681	74.12
268.913	79.12
269.145	96.12
269.377	90.12
269.609	90.12
269.841	79.12
270.073	80.12
270.306	86.12
270.538	80.12
270.77	84.12
271.002	86.12
271.234	84.12
271.466	82.12
271.698	77.12
271.93	68.12
272.162	89.12
272.394	86.12
272.626	77.12
272.858	74.12
273.09	102.12
273.322	76.12
273.553	77.12
273.785	97.12
274.017	90.12
274.249	82.12
274.481	89.12
274.713	80.12
274.945	86.12
275.176	83.12
275.408	78.12
275.64	79.12
275.872	81.12
276.104	71.12
276.335	88.12
276.567	99.12
276.799	88.12
277.031	76.12
277.262	77.12
277.494	71.12
277.726	87.12
277.957	75.12
278.189	88.12
278.421	83.12
278.652	87.12
278.884	81.12
279.115	76.12
279.347	94.12
279.579	74.12
279.81	81.12
280.042	75.12
280.273	104.12
280.505	94.12
280.736	80.12
280.968	85.12
281.199	85.12
281.431	84.12
281.662	72.12
281.894	97.12
282.125	92.12
282.356	95.12
282.588	81.12
282.819	81.12
283.051	75.12
283.282	79.12
283.513	69.12
283.745	81.12
283.976	83.12
284.207	80.12
284.439	90.12
284.67	78.12
284.901	83.12
285.132	73.12
285.364	78.12
285.595	67.12
285.826	83.12
286.057	79.12
286.288	77.12
286.52	70.12
286.751	78.12
286.982	83.12
287.213	93.12
287.444	85.12
287.675	80.12
287.906	88.12
288.138	90.12
288.369	78.12
288.6	79.12
288.831	78.12
289.062	74.12
289.293	90.12
289.524	94.12
289.755	92.12
289.986	93.12
290.217	83.12
290.448	92.12
290.679	75.12
290.91	92.12
291.141	73.12
291.371	82.12
291.602	85.12
291.833	89.12
292.064	90.12
292.295	90.12
292.526	82.12
292.757	72.12
292.987	89.12
293.218	86.12
293.449	80.12
293.68	90.12
293.91	87.12
294.141	82.12
294.372	79.12
294.603	93.12
294.833	82.12
295.064	85.12
295.295	92.12
295.525	82.12
295.756	97.12
295.987	69.12
296.217	102.12
296.448	83.12
296.679	89.12
296.909	78.12
297.14	83.12
297.37	76.12
297.601	89.12
297.831	81.12
298.062	78.12
298.292	77.12
298.523	91.12
298.753	91.12
298.984	86.12
299.214	91.12
299.445	75.12
299.675	79.12
299.905	77.12
300.136	87.12
300.366	99.12
300.597	85.12
300.827	85.12
301.057	76.12
301.288	88.12
301.518	77.12
301.748	79.12
301.979	91.12
302.209	90.12
302.439	77.12
302.669	83.12
302.9	80.12
303.13	77.12
303.36	82.12
303.59	70.12
303.82	74.12
304.051	82.12
304.281	99.12
304.511	102.12
304.741	92.12
304.971	89.12
305.201	82.12
305.431	97.12
305.661	71.12
305.891	78.12
306.121	90.12
306.352	84.12
306.582	81.12
306.812	99.12
307.042	79.12
307.272	85.12
307.502	90.12
307.731	94.12
307.961	83.12
308.191	97.12
308.421	79.12
308.651	71.12
308.881	100.12
309.111	78.12
309.341	75.12
309.571	97.12
309.8	97.12
310.03	74.12
310.26	73.12
310.49	90.12
310.72	76.12
310.949	92.12
311.179	79.12
311.409	83.12
311.639	77.12
311.868	89.12
312.098	89.12
312.328	90.12
312.557	84.12
312.787	88.12
313.017	83.12
313.246	94.12
313.476	82.12
313.706	78.12
313.935	70.12
314.165	92.12
314.394	80.12
314.624	86.12
314.853	76.12
315.083	81.12
315.312	76.12
315.542	80.12
315.771	83.12
316.001	90.12
316.23	67.12
316.46	94.12
316.689	81.12
316.919	98.12
317.148	83.12
317.377	88.12
317.607	69.12
317.836	72.12
318.065	85.12
318.295	76.12
318.524	87.12
318.753	90.12
318.983	77.12
319.212	77.12
319.441	85.12
319.67	83.12
319.9	81.12
320.129	81.12
320.358	69.12
320.587	80.12
320.816	86.12
321.046	80.12
321.275	101.12
321.504	72.12
321.733	81.12
321.962	71.12
322.191	78.12
322.42	101.12
322.649	94.12
322.878	85.12
323.108	81.12
323.337	78.12
323.566	82.12
323.795	72.12
324.024	70.12
324.253	74.12
324.482	86.12
324.71	70.12
324.939	98.12
325.168	95.12
325.397	85.12
325.626	83.12
325.855	69.12
326.084	85.12
326.313	99.12
326.542	93.12
326.77	81.12
326.999	76.12
327.228	79.12
327.457	81.12
327.686	85.12
327.914	98.12
328.143	86.12
328.372	83.12
328.6	84.12
328.829	86.12
329.058	93.12
329.287	93.12
329.515	92.12
329.744	94.12
329.972	86.12
330.201	93.12
330.43	66.12
330.658	82.12
330.887	82.12
331.115	79.12
331.344	78.12
331.572	92.12
331.801	79.12
332.03	73.12
332.258	79.12
332.486	83.12
332.715	82.12
332.943	89.12
333.172	72.12
333.4	93.12
333.629	87.12
333.857	66.12
334.085	70.12
334.314	90.12
334.542	92.12
334.771	82.12
334.999	90.12
335.227	81.12
335.455	66.12
335.684	99.12
335.912	82.12
336.14	66.12
336.369	81.12
336.597	86.12
336.825	86.12
337.053	90.12
337.281	77.12
337.51	84.12
337.738	90.12
337.966	81.12
338.194	81.12
338.422	80.12
338.65	80.12
338.878	84.12
339.106	89.12
339.334	87.12
339.562	84.12
339.79	83.12
340.018	98.12
340.246	73.12
340.474	73.12
340.702	77.12
340.93	81.12
341.158	92.12
341.386	86.12
341.614	89.12
341.842	90.12
342.07	73.12
342.298	72.12
342.526	61.12
342.754	81.12
342.981	107.12
343.209	77.12
343.437	98.12
343.665	80.12
343.893	71.12
344.12	81.12
344.348	85.12
344.576	83.12
344.804	76.12
345.031	74.12
345.259	85.12
345.487	94.12
345.714	75.12
345.942	94.12
346.17	92.12
346.397	94.12
346.625	85.12
346.853	93.12
347.08	103.12
347.308	77.12
347.535	86.12
347.763	84.12
347.99	85.12
348.218	77.12
348.445	81.12
348.673	89.12
348.9	81.12
349.128	86.12
349.355	78.12
349.583	86.12
349.81	85.12
350.037	88.12
350.265	73.12
350.492	74.12
350.72	80.12
350.947	78.12
351.174	94.12
351.402	96.12
351.629	80.12
351.856	75.12
352.083	79.12
352.311	86.12
352.538	85.12
352.765	83.12
352.992	71.12
353.22	84.12
353.447	72.12
353.674	80.12
353.901	85.12
354.128	68.12
354.355	88.12
354.583	80.12
354.81	81.12
355.037	84.12
355.264	85.12
355.491	59.12
355.718	76.12
355.945	77.12
356.172	81.12
356.399	79.12
356.626	81.12
356.853	93.12
357.08	87.12
357.307	87.12
357.534	86.12
357.761	94.12
357.988	76.12
358.215	67.12
358.441	82.12
358.668	77.12
358.895	74.12
359.122	101.12
359.349	78.12
359.576	69.12
359.802	85.12
360.029	75.12
360.256	80.12
360.483	69.12
360.709	95.12
360.936	85.12
361.163	84.12
361.39	93.12
361.616	78.12
361.843	75.12
362.07	78.12
362.296	90.12
362.523	90.12
362.749	79.12
362.976	76.12
363.203	85.12
363.429	78.12
363.656	81.12
363.882	77.12
364.109	99.12
364.335	86.12
364.562	85.12
364.788	83.12
365.015	85.12
365.241	86.12
365.468	77.12
365.694	83.12
365.92	78.12
366.147	98.12
366.373	81.12
366.599	89.12
366.826	86.12
367.052	93.12
367.278	73.12
367.505	83.12
367.731	91.12
367.957	92.12
368.184	92.12
368.41	75.12
368.636	78.12
368.862	75.12
369.089	87.12
369.315	88.12
369.541	91.12
369.767	103.12
369.993	81.12
370.219	81.12
370.445	78.12
370.672	86.12
370.898	82.12
371.124	87.12
371.35	97.12
371.576	77.12
371.802	80.12
372.028	78.12
372.254	86.12
372.48	91.12
372.706	85.12
372.932	82.12
373.158	79.12
373.384	73.12
373.61	77.12
373.835	99.12
374.061	74.12
374.287	81.12
374.513	70.12
374.739	70.12
374.965	77.12
375.191	75.12
375.416	72.12
375.642	92.12
375.868	91.12
376.094	74.12
376.319	81.12
376.545	75.12
376.771	87.12
376.997	75.12
377.222	81.12
377.448	70.12
377.674	85.12
377.899	76.12
378.125	85.12
378.35	83.12
378.576	69.12
378.802	69.12
379.027	87.12
379.253	81.12
379.478	71.12
379.704	88.12
379.929	101.12
380.155	80.12
380.38	67.12
380.606	85.12
380.831	85.12
381.057	72.12
381.282	83.12
381.507	80.12
381.733	89.12
381.958	83.12
382.184	78.12
382.409	69.12
382.634	75.12
382.86	85.12
383.085	79.12
383.31	77.12
383.535	77.12
383.761	74.12
383.986	79.12
384.211	73.12
384.436	81.12
384.662	84.12
384.887	83.12
385.112	78.12
385.337	87.12
385.562	85.12
385.787	78.12
386.013	86.12
386.238	77.12
386.463	79.12
386.688	84.12
386.913	77.12
387.138	80.12
387.363	80.12
387.588	82.12
387.813	79.12
388.038	83.12
388.263	87.12
388.488	76.12
388.713	92.12
388.938	73.12
389.163	83.12
389.387	78.12
389.612	58.12
389.837	79.12
390.062	79.12
390.287	79.12
390.512	75.12
390.736	83.12
390.961	92.12
391.186	71.12
391.411	87.12
391.636	63.12
391.86	78.12
392.085	71.12
392.31	82.12
392.534	82.12
392.759	90.12
392.984	78.12
393.208	80.12
393.433	73.12
393.658	78.12
393.882	90.12
394.107	64.12
394.331	89.12
394.556	79.12
394.78	83.12
395.005	73.12
395.229	83.12
395.454	79.12
395.678	67.12
395.903	89.12
396.127	71.12
396.352	77.12
396.576	79.12
396.801	69.12
397.025	71.12
397.249	91.12
397.474	87.12
397.698	84.12
397.922	106.12
398.147	82.12
398.371	61.12
398.595	89.12
398.82	75.12
399.044	90.12
399.268	82.12
399.492	92.12
399.717	77.12
399.941	85.12
400.165	69.12
400.389	73.12
400.613	87.12
400.837	80.12
401.062	71.12
401.286	97.12
401.51	97.12
401.734	82.12
401.958	83.12
402.182	79.12
402.406	63.12
402.63	88.12
402.854	85.12
403.078	79.12
403.302	81.12
403.526	84.12
403.75	78.12
403.974	73.12
404.198	65.12
404.422	78.12
404.645	83.12
404.869	86.12
405.093	84.12
405.317	88.12
405.541	83.12
405.765	87.12
405.988	81.12
406.212	78.12
406.436	87.12
406.66	98.12
406.883	71.12
407.107	71.12
407.331	79.12
407.555	79.12
407.778	61.12
408.002	67.12
408.226	85.12
408.449	73.12
408.673	78.12
408.896	71.12
409.12	82.12
409.344	78.12
409.567	80.12
409.791	76.12
410.014	85.12
410.238	95.12
410.461	80.12
410.685	71.12
410.908	73.12
411.132	92.12
411.355	88.12
411.578	85.12
411.802	65.12
412.025	73.12
412.249	82.12
412.472	73.12
412.695	72.12
412.919	79.12
413.142	85.12
413.365	71.12
413.589	73.12
413.812	83.12
414.035	89.12
414.258	71.12
414.482	63.12
414.705	84.12
414.928	87.12
415.151	78.12
415.374	77.12
415.597	79.12
415.821	86.12
416.044	101.12
416.267	71.12
416.49	90.12
416.713	87.12
416.936	83.12
417.159	83.12
417.382	67.12
417.605	90.12
417.828	87.12
418.051	97.12
418.274	87.12
418.497	73.12
418.72	74.12
418.943	71.12
419.166	91.12
419.389	81.12
419.611	85.12
419.834	84.12
420.057	90.12
420.28	75.12
420.503	64.12
420.726	79.12
420.948	79.12
421.171	68.12
421.394	83.12
421.617	75.12
421.839	75.12
422.062	82.12
422.285	94.12
422.507	91.12
422.73	79.12
422.953	73.12
423.175	73.12
423.398	74.12
423.621	66.12
423.843	89.12
424.066	87.12
424.288	89.12
424.511	73.12
424.733	89.12
424.956	78.12
425.178	63.12
425.401	77.12
425.623	86.12
425.846	80.12
426.068	69.12
426.291	71.12
426.513	74.12
426.735	90.12
426.958	95.12
427.18	83.12
427.402	92.12
427.625	88.12
427.847	74.12
428.069	77.12
428.292	88.12
428.514	89.12
428.736	77.12
428.958	91.12
429.181	83.12
429.403	80.12
429.625	75.12
429.847	92.12
430.069	75.12
430.292	85.12
430.514	78.12
430.736	77.12
430.958	86.12
431.18	79.12
431.402	86.12
431.624	77.12
431.846	73.12
432.068	78.12
432.29	73.12
432.512	79.12
432.734	82.12
432.956	77.12
433.178	91.12
433.4	89.12
433.622	84.12
433.844	78.12
434.066	76.12
434.287	76.12
434.509	86.12
434.731	75.12
434.953	71.12
435.175	81.12
435.397	81.12
435.618	83.12
435.84	78.12
436.062	69.12
436.284	71.12
436.505	72.12
436.727	77.12
436.949	84.12
437.17	77.12
437.392	105.12
437.614	89.12
437.835	81.12
438.057	74.12
438.278	75.12
438.5	75.12
438.721	71.12
438.943	77.12
439.165	73.12
439.386	81.12
439.608	83.12
439.829	83.12
440.05	79.12
440.272	67.12
440.493	81.12
440.715	69.12
440.936	66.12
441.158	86.12
441.379	67.12
441.6	85.12
441.822	83.12
442.043	86.12
442.264	83.12
442.486	84.12
442.707	79.12
442.928	81.12
443.149	83.12
443.371	75.12
443.592	82.12
443.813	76.12
444.034	72.12
444.255	97.12
444.476	49.12
444.698	76.12
444.919	67.12
445.14	170.12
445.361	118.12
445.582	89.12
445.803	65.12
446.024	75.12
446.245	78.12
446.466	84.12
446.687	99.12
446.908	79.12
447.129	84.12
447.35	85.12
447.571	78.12
447.792	89.12
448.013	75.12
448.234	76.12
448.455	92.12
448.675	75.12
448.896	74.12
449.117	57.12
449.338	71.12
449.559	65.12
449.779	84.12
450	86.12
450.221	77.12
450.442	82.12
450.662	69.12
450.883	73.12
451.104	81.12
451.324	85.12
451.545	84.12
451.766	71.12
451.986	69.12
452.207	86.12
452.428	72.12
452.648	69.12
452.869	83.12
453.089	68.12
453.31	73.12
453.53	78.12
453.751	79.12
453.971	69.12
454.192	87.12
454.412	70.12
454.633	75.12
454.853	81.12
455.073	81.12
455.294	78.12
455.514	79.12
455.734	67.12
455.955	75.12
456.175	85.12
456.395	69.12
456.616	84.12
456.836	66.12
457.056	89.12
457.276	71.12
457.497	83.12
457.717	71.12
457.937	82.12
458.157	80.12
458.377	83.12
458.598	76.12
458.818	69.12
459.038	77.12
459.258	80.12
459.478	92.12
459.698	87.12
459.918	81.12
460.138	85.12
460.358	72.12
460.578	67.12
460.798	83.12
461.018	98.12
461.238	69.12
461.458	71.12
461.678	78.12
461.898	90.12
462.118	73.12
462.338	70.12
462.558	76.12
462.777	78.12
462.997	86.12
463.217	78.12
463.437	87.12
463.657	94.12
463.876	90.12
464.096	81.12
464.316	79.12
464.536	81.12
464.755	53.12
464.975	78.12
465.195	76.12
465.414	76.12
465.634	72.12
465.854	81.12
466.073	81.12
466.293	70.12
466.512	90.12
466.732	103.12
466.951	87.12
467.171	84.12
467.391	69.12
467.61	81.12
467.829	79.12
468.049	71.12
468.268	74.12
468.488	75.12
468.707	95.12
468.927	82.12
469.146	66.12
469.365	72.12
469.585	70.12
469.804	73.12
470.023	84.12
470.243	85.12
470.462	84.12
470.681	87.12
470.901	86.12
471.12	73.12
471.339	85.12
471.558	73.12
471.777	82.12
471.997	86.12
472.216	78.12
472.435	76.12
472.654	83.12
472.873	73.12
473.092	89.12
473.311	69.12
473.53	70.12
473.749	73.12
473.968	77.12
474.187	71.12
474.406	82.12
474.625	74.12
474.844	92.12
475.063	60.12
475.282	82.12
475.501	79.12
475.72	82.12
475.939	71.12
476.158	86.12
476.377	91.12
476.596	93.12
476.814	69.12
477.033	74.12
477.252	80.12
477.471	75.12
477.69	85.12
477.908	90.12
478.127	103.12
478.346	77.12
478.564	83.12
478.783	91.12
479.002	74.12
479.22	73.12
479.439	92.12
479.658	69.12
479.876	86.12
480.095	73.12
480.313	77.12
480.532	74.12
480.751	78.12
480.969	80.12
481.188	77.12
481.406	82.12
481.624	69.12
481.843	81.12
482.061	67.12
482.28	97.12
482.498	78.12
482.717	81.12
482.935	67.12
483.153	73.12
483.372	82.12
483.59	87.12
483.808	81.12
484.027	84.12
484.245	85.12
484.463	77.12
484.681	94.12
484.9	110.12
485.118	75.12
485.336	81.12
485.554	79.12
485.772	85.12
485.99	89.12
486.209	88.12
486.427	77.12
486.645	81.12
486.863	75.12
487.081	81.12
487.299	90.12
487.517	91.12
487.735	85.12
487.953	71.12
488.171	77.12
488.389	88.12
488.607	83.12
488.825	73.12
489.043	83.12
489.261	93.12
489.479	77.12
489.696	94.12
489.914	81.12
490.132	93.12
490.35	86.12
490.568	73.12
490.786	74.12
491.003	69.12
491.221	65.12
491.439	82.12
491.657	81.12
491.874	90.12
492.092	75.12
492.31	77.12
492.527	68.12
492.745	76.12
492.963	83.12
493.18	100.12
493.398	63.12
493.615	74.12
493.833	92.12
494.05	78.12
494.268	82.12
494.485	61.12
494.703	83.12
494.92	77.12
495.138	85.12
495.355	73.12
495.573	84.12
495.79	76.12
496.008	86.12
496.225	77.12
496.442	72.12
496.66	97.12
496.877	78.12
497.094	79.12
497.312	90.12
497.529	79.12
497.746	67.12
497.963	72.12
498.181	93.12
498.398	99.12
498.615	77.12
498.832	84.12
499.049	78.12
499.267	71.12
499.484	94.12
499.701	85.12
499.918	79.12
500.135	63.12
500.352	75.12
500.569	93.12
500.786	89.12
501.003	74.12
501.22	82.12
501.437	79.12
501.654	79.12
501.871	88.12
502.088	87.12
502.305	78.12
502.522	80.12
502.739	63.12
502.956	80.12
503.172	81.12
503.389	70.12
503.606	87.12
503.823	77.12
504.04	81.12
504.256	83.12
504.473	76.12
504.69	88.12
504.907	86.12
505.123	81.12
505.34	87.12
505.557	84.12
505.773	83.12
505.99	81.12
506.207	70.12
506.423	73.12
506.64	85.12
506.856	86.12
507.073	92.12
507.289	86.12
507.506	66.12
507.722	76.12
507.939	76.12
508.155	88.12
508.372	84.12
508.588	79.12
508.805	79.12
509.021	64.12
509.238	76.12
509.454	93.12
509.67	87.12
509.887	80.12
510.103	78.12
510.319	91.12
510.536	88.12
510.752	75.12
510.968	87.12
511.184	81.12
511.401	83.12
511.617	84.12
511.833	77.12
512.049	84.12
512.265	84.12
512.481	79.12
512.698	92.12
512.914	81.12
513.13	77.12
513.346	81.12
513.562	90.12
513.778	90.12
513.994	84.12
514.21	82.12
514.426	76.12
514.642	81.12
514.858	78.12
515.074	91.12
515.29	91.12
515.506	90.12
515.721	69.12
515.937	61.12
516.153	81.12
516.369	90.12
516.585	83.12
516.801	65.12
517.016	63.12
517.232	83.12
517.448	76.12
517.664	88.12
517.879	84.12
518.095	73.12
518.311	85.12
518.527	78.12
518.742	76.12
518.958	77.12
519.173	82.12
519.389	84.12
519.605	82.12
519.82	76.12
520.036	95.12
