Data from BG_HRD10591_096.txt Node
Date: Fri May 16 15:15:10 EDT 2025
User: Yrep
Spectrometer: HR+D1059
Trigger mode: 1
Integration Time (sec): 1.000000E-1
Scans to average: 1
Electric dark correction enabled: true
Nonlinearity correction enabled: false
Boxcar width: 0
XAxis mode: Wavelengths
Number of Pixels in Spectrum: 2048
>>>>>Begin Spectral Data<<<<<
223.165	-37.56
223.4	-37.56
223.635	-37.56
223.869	-7.56
224.104	-17.56
224.338	-19.56
224.573	-6.56
224.808	-10.56
225.042	-26.56
225.277	0.44
225.511	6.44
225.746	-4.56
225.98	-8.56
226.215	22.44
226.449	19.44
226.683	14.44
226.918	31.44
227.152	44.44
227.387	32.44
227.621	36.44
227.856	45.44
228.09	51.44
228.324	39.44
228.559	61.44
228.793	58.44
229.027	79.44
229.262	63.44
229.496	71.44
229.73	72.44
229.964	70.44
230.199	72.44
230.433	75.44
230.667	90.44
230.901	78.44
231.136	75.44
231.37	70.44
231.604	61.44
231.838	92.44
232.072	84.44
232.306	83.44
232.541	78.44
232.775	70.44
233.009	85.44
233.243	68.44
233.477	72.44
233.711	71.44
233.945	66.44
234.179	92.44
234.413	88.44
234.647	67.44
234.881	67.44
235.115	74.44
235.349	63.44
235.583	74.44
235.817	72.44
236.051	68.44
236.285	67.44
236.519	78.44
236.753	93.44
236.987	77.44
237.221	64.44
237.455	84.44
237.689	80.44
237.922	72.44
238.156	87.44
238.39	63.44
238.624	89.44
238.858	76.44
239.091	78.44
239.325	65.44
239.559	82.44
239.793	69.44
240.027	79.44
240.26	88.44
240.494	87.44
240.728	74.44
240.961	80.44
241.195	82.44
241.429	79.44
241.662	82.44
241.896	70.44
242.13	77.44
242.363	76.44
242.597	84.44
242.83	83.44
243.064	79.44
243.298	83.44
243.531	80.44
243.765	76.44
243.998	81.44
244.232	78.44
244.465	79.44
244.699	77.44
244.932	87.44
245.166	76.44
245.399	81.44
245.633	72.44
245.866	85.44
246.099	79.44
246.333	76.44
246.566	79.44
246.8	88.44
247.033	84.44
247.266	76.44
247.5	75.44
247.733	68.44
247.966	102.44
248.2	75.44
248.433	72.44
248.666	76.44
248.899	75.44
249.133	83.44
249.366	95.44
249.599	79.44
249.832	73.44
250.066	76.44
250.299	77.44
250.532	90.44
250.765	85.44
250.998	78.44
251.231	72.44
251.465	85.44
251.698	94.44
251.931	62.44
252.164	76.44
252.397	65.44
252.63	79.44
252.863	83.44
253.096	79.44
253.329	72.44
253.562	79.44
253.795	82.44
254.028	81.44
254.261	84.44
254.494	78.44
254.727	68.44
254.96	90.44
255.193	82.44
255.426	77.44
255.659	71.44
255.892	97.44
256.124	63.44
256.357	87.44
256.59	79.44
256.823	104.44
257.056	88.44
257.289	77.44
257.521	78.44
257.754	92.44
257.987	78.44
258.22	68.44
258.452	82.44
258.685	92.44
258.918	74.44
259.151	83.44
259.383	73.44
259.616	84.44
259.849	72.44
260.081	78.44
260.314	79.44
260.547	73.44
260.779	85.44
261.012	92.44
261.244	63.44
261.477	86.44
261.71	85.44
261.942	79.44
262.175	85.44
262.407	86.44
262.64	71.44
262.872	71.44
263.105	81.44
263.337	88.44
263.57	88.44
263.802	78.44
264.035	72.44
264.267	78.44
264.499	81.44
264.732	88.44
264.964	85.44
265.197	94.44
265.429	98.44
265.661	90.44
265.894	83.44
266.126	82.44
266.358	76.44
266.591	78.44
266.823	87.44
267.055	75.44
267.287	101.44
267.52	81.44
267.752	86.44
267.984	82.44
268.216	93.44
268.448	87.44
268.681	91.44
268.913	91.44
269.145	80.44
269.377	81.44
269.609	85.44
269.841	96.44
270.073	105.44
270.306	82.44
270.538	92.44
270.77	88.44
271.002	76.44
271.234	82.44
271.466	90.44
271.698	99.44
271.93	92.44
272.162	90.44
272.394	80.44
272.626	82.44
272.858	80.44
273.09	94.44
273.322	85.44
273.553	82.44
273.785	82.44
274.017	69.44
274.249	90.44
274.481	86.44
274.713	77.44
274.945	88.44
275.176	97.44
275.408	90.44
275.64	95.44
275.872	76.44
276.104	91.44
276.335	77.44
276.567	81.44
276.799	80.44
277.031	110.44
277.262	91.44
277.494	93.44
277.726	79.44
277.957	82.44
278.189	91.44
278.421	79.44
278.652	83.44
278.884	78.44
279.115	86.44
279.347	88.44
279.579	94.44
279.81	86.44
280.042	86.44
280.273	82.44
280.505	90.44
280.736	82.44
280.968	74.44
281.199	66.44
281.431	93.44
281.662	91.44
281.894	85.44
282.125	77.44
282.356	83.44
282.588	79.44
282.819	80.44
283.051	67.44
283.282	82.44
283.513	86.44
283.745	92.44
283.976	90.44
284.207	87.44
284.439	84.44
284.67	90.44
284.901	82.44
285.132	82.44
285.364	86.44
285.595	66.44
285.826	85.44
286.057	87.44
286.288	90.44
286.52	74.44
286.751	82.44
286.982	76.44
287.213	87.44
287.444	94.44
287.675	83.44
287.906	91.44
288.138	78.44
288.369	85.44
288.6	85.44
288.831	90.44
289.062	70.44
289.293	72.44
289.524	83.44
289.755	76.44
289.986	77.44
290.217	97.44
290.448	95.44
290.679	78.44
290.91	81.44
291.141	78.44
291.371	77.44
291.602	83.44
291.833	87.44
292.064	93.44
292.295	88.44
292.526	86.44
292.757	93.44
292.987	86.44
293.218	79.44
293.449	76.44
293.68	72.44
293.91	84.44
294.141	102.44
294.372	100.44
294.603	79.44
294.833	88.44
295.064	76.44
295.295	79.44
295.525	87.44
295.756	92.44
295.987	93.44
296.217	85.44
296.448	80.44
296.679	85.44
296.909	80.44
297.14	82.44
297.37	95.44
297.601	98.44
297.831	84.44
298.062	82.44
298.292	72.44
298.523	92.44
298.753	99.44
298.984	93.44
299.214	92.44
299.445	89.44
299.675	79.44
299.905	76.44
300.136	87.44
300.366	70.44
300.597	86.44
300.827	72.44
301.057	80.44
301.288	98.44
301.518	82.44
301.748	78.44
301.979	102.44
302.209	80.44
302.439	82.44
302.669	86.44
302.9	78.44
303.13	87.44
303.36	84.44
303.59	81.44
303.82	84.44
304.051	85.44
304.281	88.44
304.511	95.44
304.741	83.44
304.971	81.44
305.201	87.44
305.431	100.44
305.661	97.44
305.891	72.44
306.121	83.44
306.352	83.44
306.582	72.44
306.812	94.44
307.042	91.44
307.272	86.44
307.502	93.44
307.731	80.44
307.961	82.44
308.191	82.44
308.421	86.44
308.651	93.44
308.881	93.44
309.111	75.44
309.341	85.44
309.571	93.44
309.8	91.44
310.03	89.44
310.26	74.44
310.49	90.44
310.72	81.44
310.949	81.44
311.179	84.44
311.409	86.44
311.639	84.44
311.868	91.44
312.098	90.44
312.328	104.44
312.557	88.44
312.787	94.44
313.017	80.44
313.246	74.44
313.476	97.44
313.706	85.44
313.935	81.44
314.165	82.44
314.394	85.44
314.624	84.44
314.853	93.44
315.083	94.44
315.312	89.44
315.542	79.44
315.771	87.44
316.001	84.44
316.23	73.44
316.46	89.44
316.689	91.44
316.919	86.44
317.148	89.44
317.377	93.44
317.607	73.44
317.836	78.44
318.065	85.44
318.295	82.44
318.524	99.44
318.753	98.44
318.983	84.44
319.212	96.44
319.441	84.44
319.67	70.44
319.9	70.44
320.129	88.44
320.358	101.44
320.587	99.44
320.816	92.44
321.046	92.44
321.275	101.44
321.504	91.44
321.733	84.44
321.962	85.44
322.191	93.44
322.42	80.44
322.649	76.44
322.878	74.44
323.108	90.44
323.337	86.44
323.566	95.44
323.795	83.44
324.024	75.44
324.253	85.44
324.482	88.44
324.71	98.44
324.939	98.44
325.168	96.44
325.397	91.44
325.626	91.44
325.855	79.44
326.084	95.44
326.313	82.44
326.542	73.44
326.77	91.44
326.999	75.44
327.228	84.44
327.457	92.44
327.686	93.44
327.914	99.44
328.143	93.44
328.372	86.44
328.6	87.44
328.829	88.44
329.058	78.44
329.287	73.44
329.515	91.44
329.744	95.44
329.972	83.44
330.201	70.44
330.43	89.44
330.658	92.44
330.887	86.44
331.115	83.44
331.344	72.44
331.572	76.44
331.801	83.44
332.03	75.44
332.258	83.44
332.486	97.44
332.715	94.44
332.943	82.44
333.172	87.44
333.4	97.44
333.629	94.44
333.857	87.44
334.085	81.44
334.314	101.44
334.542	92.44
334.771	95.44
334.999	103.44
335.227	93.44
335.455	94.44
335.684	91.44
335.912	98.44
336.14	80.44
336.369	77.44
336.597	81.44
336.825	98.44
337.053	92.44
337.281	87.44
337.51	89.44
337.738	83.44
337.966	84.44
338.194	82.44
338.422	94.44
338.65	82.44
338.878	80.44
339.106	95.44
339.334	78.44
339.562	90.44
339.79	77.44
340.018	91.44
340.246	94.44
340.474	78.44
340.702	77.44
340.93	91.44
341.158	101.44
341.386	82.44
341.614	84.44
341.842	86.44
342.07	101.44
342.298	91.44
342.526	74.44
342.754	83.44
342.981	72.44
343.209	92.44
343.437	106.44
343.665	90.44
343.893	109.44
344.12	101.44
344.348	90.44
344.576	102.44
344.804	102.44
345.031	76.44
345.259	62.44
345.487	80.44
345.714	92.44
345.942	94.44
346.17	88.44
346.397	88.44
346.625	103.44
346.853	105.44
347.08	82.44
347.308	105.44
347.535	93.44
347.763	95.44
347.99	99.44
348.218	94.44
348.445	84.44
348.673	84.44
348.9	98.44
349.128	78.44
349.355	95.44
349.583	88.44
349.81	76.44
350.037	88.44
350.265	94.44
350.492	90.44
350.72	88.44
350.947	91.44
351.174	93.44
351.402	91.44
351.629	78.44
351.856	101.44
352.083	75.44
352.311	100.44
352.538	86.44
352.765	89.44
352.992	103.44
353.22	91.44
353.447	86.44
353.674	76.44
353.901	94.44
354.128	75.44
354.355	87.44
354.583	78.44
354.81	90.44
355.037	85.44
355.264	101.44
355.491	89.44
355.718	95.44
355.945	99.44
356.172	73.44
356.399	71.44
356.626	91.44
356.853	80.44
357.08	86.44
357.307	86.44
357.534	77.44
357.761	93.44
357.988	96.44
358.215	83.44
358.441	94.44
358.668	92.44
358.895	87.44
359.122	94.44
359.349	83.44
359.576	80.44
359.802	87.44
360.029	84.44
360.256	84.44
360.483	90.44
360.709	91.44
360.936	79.44
361.163	83.44
361.39	86.44
361.616	85.44
361.843	76.44
362.07	89.44
362.296	86.44
362.523	85.44
362.749	86.44
362.976	88.44
363.203	110.44
363.429	79.44
363.656	81.44
363.882	76.44
364.109	85.44
364.335	84.44
364.562	77.44
364.788	77.44
365.015	92.44
365.241	90.44
365.468	87.44
365.694	98.44
365.92	83.44
366.147	87.44
366.373	94.44
366.599	89.44
366.826	91.44
367.052	83.44
367.278	101.44
367.505	89.44
367.731	84.44
367.957	81.44
368.184	74.44
368.41	92.44
368.636	80.44
368.862	93.44
369.089	107.44
369.315	82.44
369.541	88.44
369.767	90.44
369.993	63.44
370.219	90.44
370.445	88.44
370.672	91.44
370.898	75.44
371.124	73.44
371.35	77.44
371.576	74.44
371.802	101.44
372.028	74.44
372.254	75.44
372.48	68.44
372.706	83.44
372.932	69.44
373.158	83.44
373.384	84.44
373.61	83.44
373.835	99.44
374.061	88.44
374.287	74.44
374.513	101.44
374.739	76.44
374.965	93.44
375.191	72.44
375.416	92.44
375.642	86.44
375.868	77.44
376.094	93.44
376.319	79.44
376.545	103.44
376.771	83.44
376.997	74.44
377.222	83.44
377.448	79.44
377.674	89.44
377.899	85.44
378.125	76.44
378.35	66.44
378.576	85.44
378.802	91.44
379.027	79.44
379.253	89.44
379.478	90.44
379.704	88.44
379.929	88.44
380.155	85.44
380.38	82.44
380.606	85.44
380.831	80.44
381.057	90.44
381.282	76.44
381.507	65.44
381.733	98.44
381.958	102.44
382.184	90.44
382.409	77.44
382.634	88.44
382.86	76.44
383.085	100.44
383.31	104.44
383.535	85.44
383.761	95.44
383.986	95.44
384.211	82.44
384.436	85.44
384.662	82.44
384.887	87.44
385.112	94.44
385.337	83.44
385.562	89.44
385.787	92.44
386.013	100.44
386.238	106.44
386.463	95.44
386.688	92.44
386.913	75.44
387.138	88.44
387.363	102.44
387.588	101.44
387.813	86.44
388.038	99.44
388.263	77.44
388.488	87.44
388.713	77.44
388.938	83.44
389.163	78.44
389.387	85.44
389.612	84.44
389.837	87.44
390.062	85.44
390.287	87.44
390.512	87.44
390.736	101.44
390.961	87.44
391.186	86.44
391.411	89.44
391.636	95.44
391.86	79.44
392.085	78.44
392.31	76.44
392.534	80.44
392.759	89.44
392.984	98.44
393.208	88.44
393.433	90.44
393.658	95.44
393.882	91.44
394.107	83.44
394.331	78.44
394.556	83.44
394.78	84.44
395.005	73.44
395.229	75.44
395.454	75.44
395.678	89.44
395.903	86.44
396.127	100.44
396.352	82.44
396.576	89.44
396.801	84.44
397.025	92.44
397.249	91.44
397.474	100.44
397.698	88.44
397.922	93.44
398.147	83.44
398.371	98.44
398.595	89.44
398.82	96.44
399.044	78.44
399.268	76.44
399.492	99.44
399.717	100.44
399.941	73.44
400.165	90.44
400.389	83.44
400.613	81.44
400.837	74.44
401.062	78.44
401.286	67.44
401.51	85.44
401.734	83.44
401.958	86.44
402.182	86.44
402.406	83.44
402.63	77.44
402.854	94.44
403.078	81.44
403.302	90.44
403.526	99.44
403.75	97.44
403.974	76.44
404.198	87.44
404.422	93.44
404.645	84.44
404.869	82.44
405.093	86.44
405.317	89.44
405.541	96.44
405.765	89.44
405.988	100.44
406.212	88.44
406.436	89.44
406.66	89.44
406.883	90.44
407.107	90.44
407.331	87.44
407.555	100.44
407.778	103.44
408.002	94.44
408.226	89.44
408.449	93.44
408.673	81.44
408.896	84.44
409.12	82.44
409.344	79.44
409.567	92.44
409.791	90.44
410.014	71.44
410.238	78.44
410.461	87.44
410.685	90.44
410.908	88.44
411.132	91.44
411.355	74.44
411.578	92.44
411.802	72.44
412.025	87.44
412.249	86.44
412.472	84.44
412.695	91.44
412.919	103.44
413.142	83.44
413.365	85.44
413.589	87.44
413.812	87.44
414.035	82.44
414.258	95.44
414.482	79.44
414.705	88.44
414.928	82.44
415.151	89.44
415.374	95.44
415.597	71.44
415.821	76.44
416.044	89.44
416.267	108.44
416.49	88.44
416.713	76.44
416.936	76.44
417.159	105.44
417.382	102.44
417.605	77.44
417.828	82.44
418.051	98.44
418.274	86.44
418.497	84.44
418.72	95.44
418.943	100.44
419.166	95.44
419.389	98.44
419.611	93.44
419.834	95.44
420.057	88.44
420.28	81.44
420.503	102.44
420.726	84.44
420.948	89.44
421.171	96.44
421.394	95.44
421.617	96.44
421.839	82.44
422.062	78.44
422.285	88.44
422.507	86.44
422.73	91.44
422.953	83.44
423.175	85.44
423.398	94.44
423.621	95.44
423.843	92.44
424.066	79.44
424.288	84.44
424.511	84.44
424.733	69.44
424.956	82.44
425.178	74.44
425.401	85.44
425.623	99.44
425.846	88.44
426.068	83.44
426.291	84.44
426.513	102.44
426.735	74.44
426.958	86.44
427.18	82.44
427.402	92.44
427.625	91.44
427.847	86.44
428.069	82.44
428.292	86.44
428.514	90.44
428.736	87.44
428.958	88.44
429.181	104.44
429.403	83.44
429.625	74.44
429.847	86.44
430.069	74.44
430.292	86.44
430.514	86.44
430.736	105.44
430.958	87.44
431.18	92.44
431.402	79.44
431.624	84.44
431.846	84.44
432.068	84.44
432.29	92.44
432.512	83.44
432.734	79.44
432.956	85.44
433.178	104.44
433.4	84.44
433.622	78.44
433.844	95.44
434.066	65.44
434.287	82.44
434.509	74.44
434.731	91.44
434.953	84.44
435.175	104.44
435.397	96.44
435.618	83.44
435.84	102.44
436.062	81.44
436.284	71.44
436.505	74.44
436.727	86.44
436.949	89.44
437.17	91.44
437.392	96.44
437.614	96.44
437.835	98.44
438.057	90.44
438.278	95.44
438.5	82.44
438.721	80.44
438.943	94.44
439.165	85.44
439.386	95.44
439.608	84.44
439.829	95.44
440.05	86.44
440.272	86.44
440.493	79.44
440.715	82.44
440.936	89.44
441.158	87.44
441.379	89.44
441.6	85.44
441.822	84.44
442.043	91.44
442.264	97.44
442.486	93.44
442.707	92.44
442.928	94.44
443.149	88.44
443.371	83.44
443.592	92.44
443.813	84.44
444.034	83.44
444.255	104.44
444.476	101.44
444.698	88.44
444.919	82.44
445.14	178.44
445.361	117.44
445.582	92.44
445.803	83.44
446.024	85.44
446.245	83.44
446.466	95.44
446.687	82.44
446.908	92.44
447.129	85.44
447.35	90.44
447.571	93.44
447.792	86.44
448.013	70.44
448.234	88.44
448.455	90.44
448.675	92.44
448.896	85.44
449.117	98.44
449.338	87.44
449.559	87.44
449.779	89.44
450	90.44
450.221	79.44
450.442	83.44
450.662	92.44
450.883	88.44
451.104	90.44
451.324	93.44
451.545	87.44
451.766	83.44
451.986	85.44
452.207	90.44
452.428	90.44
452.648	82.44
452.869	84.44
453.089	99.44
453.31	96.44
453.53	91.44
453.751	79.44
453.971	86.44
454.192	78.44
454.412	89.44
454.633	89.44
454.853	82.44
455.073	80.44
455.294	92.44
455.514	84.44
455.734	92.44
455.955	82.44
456.175	100.44
456.395	86.44
456.616	89.44
456.836	86.44
457.056	89.44
457.276	77.44
457.497	80.44
457.717	84.44
457.937	78.44
458.157	87.44
458.377	99.44
458.598	80.44
458.818	84.44
459.038	90.44
459.258	96.44
459.478	77.44
459.698	92.44
459.918	85.44
460.138	92.44
460.358	94.44
460.578	80.44
460.798	88.44
461.018	92.44
461.238	95.44
461.458	98.44
461.678	91.44
461.898	102.44
462.118	94.44
462.338	88.44
462.558	84.44
462.777	86.44
462.997	96.44
463.217	103.44
463.437	93.44
463.657	88.44
463.876	98.44
464.096	104.44
464.316	98.44
464.536	104.44
464.755	93.44
464.975	96.44
465.195	89.44
465.414	95.44
465.634	88.44
465.854	87.44
466.073	88.44
466.293	92.44
466.512	85.44
466.732	86.44
466.951	86.44
467.171	82.44
467.391	79.44
467.61	89.44
467.829	86.44
468.049	86.44
468.268	90.44
468.488	68.44
468.707	76.44
468.927	90.44
469.146	93.44
469.365	89.44
469.585	94.44
469.804	90.44
470.023	94.44
470.243	92.44
470.462	90.44
470.681	90.44
470.901	86.44
471.12	95.44
471.339	72.44
471.558	83.44
471.777	86.44
471.997	90.44
472.216	93.44
472.435	86.44
472.654	92.44
472.873	78.44
473.092	102.44
473.311	100.44
473.53	84.44
473.749	86.44
473.968	89.44
474.187	95.44
474.406	91.44
474.625	78.44
474.844	82.44
475.063	74.44
475.282	78.44
475.501	98.44
475.72	94.44
475.939	103.44
476.158	78.44
476.377	103.44
476.596	86.44
476.814	88.44
477.033	92.44
477.252	76.44
477.471	78.44
477.69	81.44
477.908	94.44
478.127	83.44
478.346	86.44
478.564	102.44
478.783	87.44
479.002	85.44
479.22	94.44
479.439	93.44
479.658	93.44
479.876	87.44
480.095	82.44
480.313	78.44
480.532	89.44
480.751	87.44
480.969	99.44
481.188	92.44
481.406	90.44
481.624	90.44
481.843	88.44
482.061	91.44
482.28	72.44
482.498	82.44
482.717	81.44
482.935	83.44
483.153	86.44
483.372	101.44
483.59	100.44
483.808	92.44
484.027	79.44
484.245	88.44
484.463	86.44
484.681	87.44
484.9	95.44
485.118	91.44
485.336	79.44
485.554	88.44
485.772	89.44
485.99	80.44
486.209	87.44
486.427	69.44
486.645	77.44
486.863	93.44
487.081	88.44
487.299	95.44
487.517	98.44
487.735	82.44
487.953	93.44
488.171	95.44
488.389	100.44
488.607	103.44
488.825	91.44
489.043	86.44
489.261	94.44
489.479	87.44
489.696	67.44
489.914	94.44
490.132	82.44
490.35	87.44
490.568	90.44
490.786	86.44
491.003	99.44
491.221	78.44
491.439	93.44
491.657	90.44
491.874	98.44
492.092	73.44
492.31	86.44
492.527	67.44
492.745	84.44
492.963	79.44
493.18	106.44
493.398	100.44
493.615	90.44
493.833	84.44
494.05	101.44
494.268	87.44
494.485	86.44
494.703	84.44
494.92	91.44
495.138	86.44
495.355	94.44
495.573	95.44
495.79	74.44
496.008	92.44
496.225	88.44
496.442	84.44
496.66	81.44
496.877	92.44
497.094	88.44
497.312	87.44
497.529	95.44
497.746	99.44
497.963	92.44
498.181	84.44
498.398	86.44
498.615	90.44
498.832	93.44
499.049	93.44
499.267	100.44
499.484	86.44
499.701	92.44
499.918	103.44
500.135	108.44
500.352	104.44
500.569	114.44
500.786	126.44
501.003	116.44
501.22	100.44
501.437	113.44
501.654	82.44
501.871	95.44
502.088	104.44
502.305	108.44
502.522	98.44
502.739	85.44
502.956	92.44
503.172	86.44
503.389	92.44
503.606	87.44
503.823	101.44
504.04	100.44
504.256	95.44
504.473	96.44
504.69	100.44
504.907	89.44
505.123	86.44
505.34	106.44
505.557	95.44
505.773	82.44
505.99	98.44
506.207	82.44
506.423	89.44
506.64	101.44
506.856	96.44
507.073	93.44
507.289	110.44
507.506	93.44
507.722	90.44
507.939	82.44
508.155	91.44
508.372	84.44
508.588	73.44
508.805	82.44
509.021	95.44
509.238	96.44
509.454	79.44
509.67	87.44
509.887	83.44
510.103	107.44
510.319	87.44
510.536	100.44
510.752	75.44
510.968	84.44
511.184	96.44
511.401	94.44
511.617	80.44
511.833	104.44
512.049	89.44
512.265	66.44
512.481	85.44
512.698	90.44
512.914	78.44
513.13	73.44
513.346	88.44
513.562	91.44
513.778	88.44
513.994	86.44
514.21	86.44
514.426	98.44
514.642	81.44
514.858	95.44
515.074	92.44
515.29	84.44
515.506	94.44
515.721	91.44
515.937	100.44
516.153	84.44
516.369	94.44
516.585	76.44
516.801	90.44
517.016	97.44
517.232	101.44
517.448	92.44
517.664	94.44
517.879	80.44
518.095	88.44
518.311	99.44
518.527	84.44
518.742	82.44
518.958	73.44
