Data from BG_HRD10591_050.txt Node
Date: Fri May 16 15:14:47 EDT 2025
User: Yrep
Spectrometer: HR+D1059
Trigger mode: 1
Integration Time (sec): 1.000000E-1
Scans to average: 1
Electric dark correction enabled: true
Nonlinearity correction enabled: false
Boxcar width: 0
XAxis mode: Wavelengths
Number of Pixels in Spectrum: 2048
>>>>>Begin Spectral Data<<<<<
223.165	-20.94
223.4	-20.94
223.635	-20.94
223.869	-29.94
224.104	-23.94
224.338	-21.94
224.573	-14.94
224.808	-2.94
225.042	-9.94
225.277	3.06
225.511	-6.94
225.746	-1.94
225.98	15.06
226.215	14.06
226.449	16.06
226.683	24.06
226.918	28.06
227.152	33.06
227.387	28.06
227.621	46.06
227.856	40.06
228.09	46.06
228.324	44.06
228.559	57.06
228.793	53.06
229.027	56.06
229.262	75.06
229.496	63.06
229.73	68.06
229.964	61.06
230.199	58.06
230.433	77.06
230.667	57.06
230.901	76.06
231.136	74.06
231.37	71.06
231.604	83.06
231.838	76.06
232.072	77.06
232.306	72.06
232.541	85.06
232.775	82.06
233.009	84.06
233.243	85.06
233.477	62.06
233.711	84.06
233.945	80.06
234.179	80.06
234.413	73.06
234.647	66.06
234.881	80.06
235.115	75.06
235.349	70.06
235.583	74.06
235.817	64.06
236.051	76.06
236.285	71.06
236.519	74.06
236.753	81.06
236.987	71.06
237.221	71.06
237.455	77.06
237.689	71.06
237.922	67.06
238.156	72.06
238.39	73.06
238.624	68.06
238.858	77.06
239.091	74.06
239.325	81.06
239.559	73.06
239.793	58.06
240.027	80.06
240.26	64.06
240.494	77.06
240.728	68.06
240.961	69.06
241.195	69.06
241.429	67.06
241.662	89.06
241.896	60.06
242.13	81.06
242.363	81.06
242.597	73.06
242.83	77.06
243.064	78.06
243.298	75.06
243.531	82.06
243.765	70.06
243.998	76.06
244.232	63.06
244.465	66.06
244.699	77.06
244.932	77.06
245.166	85.06
245.399	85.06
245.633	75.06
245.866	77.06
246.099	71.06
246.333	73.06
246.566	84.06
246.8	60.06
247.033	67.06
247.266	73.06
247.5	73.06
247.733	78.06
247.966	88.06
248.2	65.06
248.433	74.06
248.666	80.06
248.899	60.06
249.133	81.06
249.366	86.06
249.599	88.06
249.832	70.06
250.066	79.06
250.299	76.06
250.532	92.06
250.765	77.06
250.998	98.06
251.231	70.06
251.465	73.06
251.698	74.06
251.931	89.06
252.164	90.06
252.397	88.06
252.63	89.06
252.863	78.06
253.096	76.06
253.329	86.06
253.562	78.06
253.795	62.06
254.028	77.06
254.261	79.06
254.494	72.06
254.727	78.06
254.96	80.06
255.193	77.06
255.426	80.06
255.659	90.06
255.892	64.06
256.124	73.06
256.357	82.06
256.59	90.06
256.823	88.06
257.056	76.06
257.289	81.06
257.521	84.06
257.754	70.06
257.987	73.06
258.22	68.06
258.452	85.06
258.685	71.06
258.918	85.06
259.151	77.06
259.383	77.06
259.616	65.06
259.849	85.06
260.081	88.06
260.314	85.06
260.547	88.06
260.779	79.06
261.012	78.06
261.244	72.06
261.477	93.06
261.71	89.06
261.942	82.06
262.175	79.06
262.407	77.06
262.64	74.06
262.872	89.06
263.105	76.06
263.337	79.06
263.57	79.06
263.802	54.06
264.035	75.06
264.267	62.06
264.499	82.06
264.732	73.06
264.964	85.06
265.197	73.06
265.429	66.06
265.661	69.06
265.894	72.06
266.126	85.06
266.358	88.06
266.591	72.06
266.823	80.06
267.055	92.06
267.287	81.06
267.52	83.06
267.752	79.06
267.984	85.06
268.216	76.06
268.448	68.06
268.681	90.06
268.913	91.06
269.145	74.06
269.377	81.06
269.609	80.06
269.841	80.06
270.073	72.06
270.306	99.06
270.538	76.06
270.77	77.06
271.002	72.06
271.234	83.06
271.466	72.06
271.698	81.06
271.93	77.06
272.162	85.06
272.394	77.06
272.626	86.06
272.858	88.06
273.09	80.06
273.322	78.06
273.553	77.06
273.785	80.06
274.017	90.06
274.249	87.06
274.481	85.06
274.713	78.06
274.945	60.06
275.176	68.06
275.408	96.06
275.64	77.06
275.872	77.06
276.104	80.06
276.335	91.06
276.567	77.06
276.799	74.06
277.031	86.06
277.262	78.06
277.494	82.06
277.726	82.06
277.957	67.06
278.189	72.06
278.421	81.06
278.652	82.06
278.884	80.06
279.115	84.06
279.347	92.06
279.579	84.06
279.81	88.06
280.042	96.06
280.273	86.06
280.505	77.06
280.736	81.06
280.968	93.06
281.199	89.06
281.431	81.06
281.662	89.06
281.894	75.06
282.125	73.06
282.356	85.06
282.588	96.06
282.819	92.06
283.051	73.06
283.282	90.06
283.513	77.06
283.745	83.06
283.976	77.06
284.207	83.06
284.439	82.06
284.67	93.06
284.901	76.06
285.132	91.06
285.364	83.06
285.595	85.06
285.826	79.06
286.057	69.06
286.288	92.06
286.52	94.06
286.751	83.06
286.982	74.06
287.213	83.06
287.444	83.06
287.675	87.06
287.906	87.06
288.138	84.06
288.369	77.06
288.6	84.06
288.831	83.06
289.062	85.06
289.293	86.06
289.524	82.06
289.755	81.06
289.986	81.06
290.217	81.06
290.448	98.06
290.679	80.06
290.91	93.06
291.141	92.06
291.371	89.06
291.602	80.06
291.833	100.06
292.064	94.06
292.295	86.06
292.526	78.06
292.757	93.06
292.987	84.06
293.218	94.06
293.449	93.06
293.68	105.06
293.91	76.06
294.141	98.06
294.372	94.06
294.603	87.06
294.833	90.06
295.064	100.06
295.295	70.06
295.525	90.06
295.756	70.06
295.987	70.06
296.217	81.06
296.448	77.06
296.679	79.06
296.909	89.06
297.14	96.06
297.37	81.06
297.601	90.06
297.831	90.06
298.062	89.06
298.292	85.06
298.523	90.06
298.753	78.06
298.984	104.06
299.214	92.06
299.445	84.06
299.675	83.06
299.905	78.06
300.136	67.06
300.366	76.06
300.597	87.06
300.827	92.06
301.057	84.06
301.288	93.06
301.518	84.06
301.748	91.06
301.979	102.06
302.209	84.06
302.439	89.06
302.669	84.06
302.9	86.06
303.13	81.06
303.36	89.06
303.59	97.06
303.82	92.06
304.051	100.06
304.281	98.06
304.511	96.06
304.741	86.06
304.971	75.06
305.201	81.06
305.431	83.06
305.661	74.06
305.891	82.06
306.121	75.06
306.352	88.06
306.582	82.06
306.812	78.06
307.042	104.06
307.272	94.06
307.502	75.06
307.731	85.06
307.961	84.06
308.191	83.06
308.421	89.06
308.651	95.06
308.881	90.06
309.111	70.06
309.341	85.06
309.571	90.06
309.8	88.06
310.03	73.06
310.26	85.06
310.49	84.06
310.72	78.06
310.949	82.06
311.179	82.06
311.409	77.06
311.639	87.06
311.868	85.06
312.098	91.06
312.328	86.06
312.557	82.06
312.787	73.06
313.017	93.06
313.246	96.06
313.476	92.06
313.706	96.06
313.935	77.06
314.165	84.06
314.394	72.06
314.624	91.06
314.853	83.06
315.083	85.06
315.312	82.06
315.542	82.06
315.771	93.06
316.001	97.06
316.23	88.06
316.46	80.06
316.689	73.06
316.919	90.06
317.148	80.06
317.377	94.06
317.607	82.06
317.836	80.06
318.065	90.06
318.295	86.06
318.524	98.06
318.753	81.06
318.983	80.06
319.212	83.06
319.441	84.06
319.67	87.06
319.9	80.06
320.129	78.06
320.358	84.06
320.587	92.06
320.816	89.06
321.046	78.06
321.275	84.06
321.504	96.06
321.733	88.06
321.962	105.06
322.191	88.06
322.42	96.06
322.649	97.06
322.878	82.06
323.108	96.06
323.337	99.06
323.566	79.06
323.795	84.06
324.024	97.06
324.253	93.06
324.482	88.06
324.71	82.06
324.939	90.06
325.168	74.06
325.397	90.06
325.626	89.06
325.855	78.06
326.084	96.06
326.313	85.06
326.542	92.06
326.77	84.06
326.999	83.06
327.228	103.06
327.457	90.06
327.686	89.06
327.914	86.06
328.143	106.06
328.372	82.06
328.6	86.06
328.829	82.06
329.058	76.06
329.287	84.06
329.515	78.06
329.744	84.06
329.972	91.06
330.201	84.06
330.43	86.06
330.658	74.06
330.887	97.06
331.115	85.06
331.344	73.06
331.572	78.06
331.801	93.06
332.03	77.06
332.258	86.06
332.486	81.06
332.715	81.06
332.943	96.06
333.172	77.06
333.4	91.06
333.629	81.06
333.857	81.06
334.085	86.06
334.314	86.06
334.542	87.06
334.771	88.06
334.999	93.06
335.227	92.06
335.455	91.06
335.684	97.06
335.912	96.06
336.14	94.06
336.369	85.06
336.597	98.06
336.825	88.06
337.053	88.06
337.281	89.06
337.51	93.06
337.738	76.06
337.966	80.06
338.194	85.06
338.422	86.06
338.65	75.06
338.878	82.06
339.106	88.06
339.334	83.06
339.562	82.06
339.79	94.06
340.018	101.06
340.246	89.06
340.474	79.06
340.702	90.06
340.93	100.06
341.158	78.06
341.386	84.06
341.614	94.06
341.842	76.06
342.07	75.06
342.298	77.06
342.526	90.06
342.754	80.06
342.981	92.06
343.209	85.06
343.437	106.06
343.665	85.06
343.893	93.06
344.12	96.06
344.348	98.06
344.576	82.06
344.804	90.06
345.031	84.06
345.259	77.06
345.487	77.06
345.714	77.06
345.942	73.06
346.17	85.06
346.397	82.06
346.625	89.06
346.853	88.06
347.08	83.06
347.308	93.06
347.535	96.06
347.763	84.06
347.99	100.06
348.218	88.06
348.445	88.06
348.673	81.06
348.9	85.06
349.128	86.06
349.355	94.06
349.583	86.06
349.81	80.06
350.037	80.06
350.265	86.06
350.492	94.06
350.72	83.06
350.947	87.06
351.174	87.06
351.402	100.06
351.629	88.06
351.856	84.06
352.083	85.06
352.311	91.06
352.538	90.06
352.765	78.06
352.992	92.06
353.22	81.06
353.447	82.06
353.674	90.06
353.901	94.06
354.128	83.06
354.355	110.06
354.583	94.06
354.81	85.06
355.037	93.06
355.264	84.06
355.491	89.06
355.718	81.06
355.945	89.06
356.172	94.06
356.399	87.06
356.626	85.06
356.853	86.06
357.08	88.06
357.307	72.06
357.534	93.06
357.761	104.06
357.988	94.06
358.215	88.06
358.441	86.06
358.668	97.06
358.895	89.06
359.122	86.06
359.349	82.06
359.576	91.06
359.802	88.06
360.029	104.06
360.256	82.06
360.483	88.06
360.709	77.06
360.936	81.06
361.163	91.06
361.39	74.06
361.616	82.06
361.843	85.06
362.07	86.06
362.296	85.06
362.523	89.06
362.749	73.06
362.976	80.06
363.203	89.06
363.429	76.06
363.656	94.06
363.882	91.06
364.109	84.06
364.335	95.06
364.562	73.06
364.788	85.06
365.015	88.06
365.241	85.06
365.468	88.06
365.694	89.06
365.92	93.06
366.147	82.06
366.373	89.06
366.599	73.06
366.826	84.06
367.052	86.06
367.278	100.06
367.505	80.06
367.731	86.06
367.957	79.06
368.184	83.06
368.41	87.06
368.636	92.06
368.862	80.06
369.089	74.06
369.315	82.06
369.541	86.06
369.767	104.06
369.993	91.06
370.219	82.06
370.445	74.06
370.672	76.06
370.898	87.06
371.124	89.06
371.35	77.06
371.576	83.06
371.802	91.06
372.028	71.06
372.254	90.06
372.48	82.06
372.706	76.06
372.932	85.06
373.158	77.06
373.384	89.06
373.61	87.06
373.835	93.06
374.061	77.06
374.287	85.06
374.513	77.06
374.739	96.06
374.965	82.06
375.191	90.06
375.416	76.06
375.642	99.06
375.868	85.06
376.094	91.06
376.319	84.06
376.545	94.06
376.771	82.06
376.997	76.06
377.222	75.06
377.448	79.06
377.674	85.06
377.899	85.06
378.125	96.06
378.35	72.06
378.576	83.06
378.802	93.06
379.027	81.06
379.253	73.06
379.478	89.06
379.704	80.06
379.929	78.06
380.155	77.06
380.38	82.06
380.606	85.06
380.831	68.06
381.057	92.06
381.282	95.06
381.507	79.06
381.733	94.06
381.958	84.06
382.184	80.06
382.409	89.06
382.634	77.06
382.86	83.06
383.085	78.06
383.31	93.06
383.535	86.06
383.761	83.06
383.986	86.06
384.211	77.06
384.436	89.06
384.662	92.06
384.887	90.06
385.112	97.06
385.337	83.06
385.562	79.06
385.787	102.06
386.013	83.06
386.238	84.06
386.463	80.06
386.688	91.06
386.913	90.06
387.138	107.06
387.363	96.06
387.588	93.06
387.813	80.06
388.038	88.06
388.263	84.06
388.488	82.06
388.713	88.06
388.938	86.06
389.163	89.06
389.387	85.06
389.612	89.06
389.837	88.06
390.062	82.06
390.287	90.06
390.512	82.06
390.736	100.06
390.961	89.06
391.186	84.06
391.411	86.06
391.636	81.06
391.86	92.06
392.085	87.06
392.31	80.06
392.534	91.06
392.759	90.06
392.984	85.06
393.208	108.06
393.433	86.06
393.658	107.06
393.882	96.06
394.107	96.06
394.331	94.06
394.556	87.06
394.78	93.06
395.005	87.06
395.229	90.06
395.454	88.06
395.678	96.06
395.903	82.06
396.127	86.06
396.352	87.06
396.576	97.06
396.801	84.06
397.025	82.06
397.249	87.06
397.474	78.06
397.698	82.06
397.922	84.06
398.147	84.06
398.371	91.06
398.595	95.06
398.82	89.06
399.044	104.06
399.268	91.06
399.492	93.06
399.717	88.06
399.941	95.06
400.165	90.06
400.389	89.06
400.613	90.06
400.837	84.06
401.062	87.06
401.286	85.06
401.51	80.06
401.734	92.06
401.958	86.06
402.182	96.06
402.406	87.06
402.63	91.06
402.854	86.06
403.078	73.06
403.302	90.06
403.526	103.06
403.75	93.06
403.974	90.06
404.198	81.06
404.422	102.06
404.645	78.06
404.869	104.06
405.093	89.06
405.317	103.06
405.541	97.06
405.765	100.06
405.988	89.06
406.212	85.06
406.436	81.06
406.66	82.06
406.883	85.06
407.107	91.06
407.331	88.06
407.555	80.06
407.778	99.06
408.002	96.06
408.226	101.06
408.449	80.06
408.673	90.06
408.896	92.06
409.12	98.06
409.344	94.06
409.567	85.06
409.791	86.06
410.014	82.06
410.238	80.06
410.461	92.06
410.685	81.06
410.908	88.06
411.132	82.06
411.355	71.06
411.578	92.06
411.802	74.06
412.025	87.06
412.249	87.06
412.472	87.06
412.695	99.06
412.919	77.06
413.142	88.06
413.365	98.06
413.589	89.06
413.812	86.06
414.035	102.06
414.258	106.06
414.482	85.06
414.705	99.06
414.928	75.06
415.151	92.06
415.374	86.06
415.597	85.06
415.821	101.06
416.044	82.06
416.267	94.06
416.49	95.06
416.713	73.06
416.936	71.06
417.159	88.06
417.382	89.06
417.605	89.06
417.828	81.06
418.051	86.06
418.274	96.06
418.497	93.06
418.72	96.06
418.943	88.06
419.166	88.06
419.389	82.06
419.611	84.06
419.834	84.06
420.057	91.06
420.28	92.06
420.503	74.06
420.726	85.06
420.948	89.06
421.171	94.06
421.394	91.06
421.617	85.06
421.839	79.06
422.062	76.06
422.285	83.06
422.507	78.06
422.73	79.06
422.953	96.06
423.175	80.06
423.398	91.06
423.621	83.06
423.843	91.06
424.066	82.06
424.288	91.06
424.511	94.06
424.733	91.06
424.956	64.06
425.178	87.06
425.401	98.06
425.623	84.06
425.846	101.06
426.068	83.06
426.291	100.06
426.513	80.06
426.735	86.06
426.958	81.06
427.18	80.06
427.402	91.06
427.625	73.06
427.847	100.06
428.069	82.06
428.292	84.06
428.514	84.06
428.736	92.06
428.958	92.06
429.181	90.06
429.403	81.06
429.625	81.06
429.847	85.06
430.069	94.06
430.292	89.06
430.514	84.06
430.736	98.06
430.958	96.06
431.18	87.06
431.402	92.06
431.624	96.06
431.846	96.06
432.068	103.06
432.29	88.06
432.512	86.06
432.734	76.06
432.956	89.06
433.178	100.06
433.4	88.06
433.622	96.06
433.844	94.06
434.066	74.06
434.287	80.06
434.509	99.06
434.731	89.06
434.953	98.06
435.175	93.06
435.397	97.06
435.618	100.06
435.84	97.06
436.062	95.06
436.284	83.06
436.505	86.06
436.727	82.06
436.949	88.06
437.17	67.06
437.392	77.06
437.614	73.06
437.835	85.06
438.057	99.06
438.278	88.06
438.5	96.06
438.721	102.06
438.943	93.06
439.165	100.06
439.386	92.06
439.608	82.06
439.829	75.06
440.05	87.06
440.272	91.06
440.493	88.06
440.715	86.06
440.936	83.06
441.158	76.06
441.379	89.06
441.6	86.06
441.822	92.06
442.043	93.06
442.264	85.06
442.486	89.06
442.707	88.06
442.928	80.06
443.149	91.06
443.371	68.06
443.592	76.06
443.813	90.06
444.034	87.06
444.255	96.06
444.476	96.06
444.698	80.06
444.919	98.06
445.14	182.06
445.361	126.06
445.582	97.06
445.803	84.06
446.024	84.06
446.245	93.06
446.466	89.06
446.687	77.06
446.908	93.06
447.129	87.06
447.35	84.06
447.571	96.06
447.792	97.06
448.013	78.06
448.234	81.06
448.455	89.06
448.675	85.06
448.896	83.06
449.117	76.06
449.338	79.06
449.559	89.06
449.779	90.06
450	78.06
450.221	74.06
450.442	88.06
450.662	76.06
450.883	90.06
451.104	84.06
451.324	80.06
451.545	92.06
451.766	86.06
451.986	84.06
452.207	107.06
452.428	73.06
452.648	78.06
452.869	82.06
453.089	91.06
453.31	83.06
453.53	89.06
453.751	82.06
453.971	81.06
454.192	72.06
454.412	97.06
454.633	87.06
454.853	93.06
455.073	77.06
455.294	94.06
455.514	87.06
455.734	89.06
455.955	82.06
456.175	97.06
456.395	74.06
456.616	78.06
456.836	81.06
457.056	80.06
457.276	70.06
457.497	81.06
457.717	77.06
457.937	80.06
458.157	82.06
458.377	82.06
458.598	88.06
458.818	78.06
459.038	84.06
459.258	87.06
459.478	72.06
459.698	72.06
459.918	93.06
460.138	104.06
460.358	106.06
460.578	83.06
460.798	102.06
461.018	86.06
461.238	103.06
461.458	87.06
461.678	95.06
461.898	73.06
462.118	68.06
462.338	96.06
462.558	99.06
462.777	92.06
462.997	86.06
463.217	86.06
463.437	84.06
463.657	89.06
463.876	98.06
464.096	98.06
464.316	105.06
464.536	89.06
464.755	84.06
464.975	85.06
465.195	108.06
465.414	87.06
465.634	93.06
465.854	97.06
466.073	68.06
466.293	83.06
466.512	79.06
466.732	77.06
466.951	86.06
467.171	91.06
467.391	78.06
467.61	97.06
467.829	84.06
468.049	84.06
468.268	74.06
468.488	82.06
468.707	82.06
468.927	85.06
469.146	89.06
469.365	82.06
469.585	90.06
469.804	92.06
470.023	80.06
470.243	83.06
470.462	94.06
470.681	85.06
470.901	73.06
471.12	88.06
471.339	84.06
471.558	81.06
471.777	86.06
471.997	101.06
472.216	84.06
472.435	80.06
472.654	68.06
472.873	85.06
473.092	76.06
473.311	94.06
473.53	65.06
473.749	82.06
473.968	77.06
474.187	76.06
474.406	82.06
474.625	90.06
474.844	88.06
475.063	84.06
475.282	100.06
475.501	85.06
475.72	75.06
475.939	76.06
476.158	93.06
476.377	80.06
476.596	88.06
476.814	100.06
477.033	68.06
477.252	84.06
477.471	97.06
477.69	103.06
477.908	86.06
478.127	106.06
478.346	82.06
478.564	92.06
478.783	83.06
479.002	74.06
479.22	87.06
479.439	100.06
479.658	76.06
479.876	91.06
480.095	99.06
480.313	91.06
480.532	92.06
480.751	80.06
480.969	78.06
481.188	80.06
481.406	104.06
481.624	96.06
481.843	81.06
482.061	87.06
482.28	92.06
482.498	101.06
482.717	82.06
482.935	100.06
483.153	76.06
483.372	93.06
483.59	85.06
483.808	91.06
484.027	84.06
484.245	95.06
484.463	85.06
484.681	97.06
484.9	89.06
485.118	77.06
485.336	79.06
485.554	83.06
485.772	92.06
485.99	78.06
486.209	84.06
486.427	86.06
486.645	88.06
486.863	89.06
487.081	84.06
487.299	90.06
487.517	82.06
487.735	78.06
487.953	69.06
488.171	98.06
488.389	90.06
488.607	98.06
488.825	82.06
489.043	83.06
489.261	87.06
489.479	92.06
489.696	92.06
489.914	90.06
490.132	80.06
490.35	90.06
490.568	78.06
490.786	81.06
491.003	88.06
491.221	88.06
491.439	100.06
491.657	94.06
491.874	84.06
492.092	82.06
492.31	82.06
492.527	94.06
492.745	84.06
492.963	82.06
493.18	91.06
493.398	85.06
493.615	82.06
493.833	91.06
494.05	102.06
494.268	100.06
494.485	79.06
494.703	91.06
494.92	104.06
495.138	102.06
495.355	84.06
495.573	88.06
495.79	82.06
496.008	85.06
496.225	102.06
496.442	93.06
496.66	101.06
496.877	83.06
497.094	83.06
497.312	95.06
497.529	92.06
497.746	76.06
497.963	93.06
498.181	108.06
498.398	98.06
498.615	120.06
498.832	81.06
499.049	94.06
499.267	98.06
499.484	96.06
499.701	106.06
499.918	112.06
500.135	123.06
500.352	117.06
500.569	96.06
500.786	111.06
501.003	101.06
501.22	97.06
501.437	97.06
501.654	104.06
501.871	93.06
502.088	89.06
502.305	100.06
502.522	100.06
502.739	87.06
502.956	86.06
503.172	96.06
503.389	96.06
503.606	83.06
503.823	88.06
504.04	91.06
504.256	80.06
504.473	83.06
504.69	76.06
504.907	93.06
505.123	77.06
505.34	74.06
505.557	91.06
505.773	98.06
505.99	92.06
506.207	91.06
506.423	102.06
506.64	93.06
506.856	76.06
507.073	88.06
507.289	86.06
507.506	101.06
507.722	86.06
507.939	93.06
508.155	89.06
508.372	83.06
508.588	88.06
508.805	91.06
509.021	79.06
509.238	94.06
509.454	83.06
509.67	93.06
509.887	91.06
510.103	89.06
510.319	93.06
510.536	74.06
510.752	87.06
510.968	93.06
511.184	77.06
511.401	85.06
511.617	79.06
511.833	98.06
512.049	88.06
512.265	81.06
512.481	98.06
512.698	88.06
512.914	91.06
513.13	87.06
513.346	106.06
513.562	92.06
513.778	83.06
513.994	65.06
514.21	81.06
514.426	87.06
514.642	80.06
514.858	99.06
515.074	78.06
515.29	103.06
515.506	80.06
515.721	91.06
515.937	76.06
516.153	90.06
516.369	84.06
516.585	91.06
516.801	89.06
517.016	102.06
517.232	77.06
517.448	82.06
517.664	87.06
517.879	92.06
518.095	87.06
518.311	94.06
518.527	84.06
518.742	74.06
518.958	91.06
519.173	92.06
