Data from BG_HRD10591_042.txt Node
Date: Fri May 16 15:14:43 EDT 2025
User: Yrep
Spectrometer: HR+D1059
Trigger mode: 1
Integration Time (sec): 1.000000E-1
Scans to average: 1
Electric dark correction enabled: true
Nonlinearity correction enabled: false
Boxcar width: 0
XAxis mode: Wavelengths
Number of Pixels in Spectrum: 2048
>>>>>Begin Spectral Data<<<<<
223.165	-20.19
223.4	-20.19
223.635	-20.19
223.869	-6.19
224.104	-6.19
224.338	-16.19
224.573	-18.19
224.808	-20.19
225.042	-23.19
225.277	-9.19
225.511	-3.19
225.746	0.81
225.98	3.81
226.215	10.81
226.449	13.81
226.683	13.81
226.918	38.81
227.152	40.81
227.387	33.81
227.621	42.81
227.856	44.81
228.09	46.81
228.324	50.81
228.559	42.81
228.793	59.81
229.027	62.81
229.262	54.81
229.496	70.81
229.73	74.81
229.964	70.81
230.199	66.81
230.433	70.81
230.667	76.81
230.901	66.81
231.136	86.81
231.37	83.81
231.604	87.81
231.838	77.81
232.072	73.81
232.306	90.81
232.541	82.81
232.775	86.81
233.009	82.81
233.243	79.81
233.477	80.81
233.711	89.81
233.945	73.81
234.179	84.81
234.413	86.81
234.647	83.81
234.881	76.81
235.115	90.81
235.349	80.81
235.583	80.81
235.817	83.81
236.051	80.81
236.285	78.81
236.519	78.81
236.753	81.81
236.987	92.81
237.221	78.81
237.455	74.81
237.689	77.81
237.922	84.81
238.156	84.81
238.39	77.81
238.624	68.81
238.858	76.81
239.091	62.81
239.325	79.81
239.559	76.81
239.793	89.81
240.027	82.81
240.26	84.81
240.494	84.81
240.728	93.81
240.961	78.81
241.195	84.81
241.429	76.81
241.662	62.81
241.896	75.81
242.13	82.81
242.363	72.81
242.597	74.81
242.83	80.81
243.064	81.81
243.298	65.81
243.531	63.81
243.765	75.81
243.998	82.81
244.232	82.81
244.465	93.81
244.699	76.81
244.932	84.81
245.166	79.81
245.399	73.81
245.633	70.81
245.866	77.81
246.099	88.81
246.333	85.81
246.566	72.81
246.8	70.81
247.033	84.81
247.266	77.81
247.5	62.81
247.733	73.81
247.966	80.81
248.2	81.81
248.433	86.81
248.666	77.81
248.899	59.81
249.133	84.81
249.366	84.81
249.599	69.81
249.832	79.81
250.066	63.81
250.299	74.81
250.532	89.81
250.765	87.81
250.998	78.81
251.231	80.81
251.465	77.81
251.698	76.81
251.931	70.81
252.164	70.81
252.397	79.81
252.63	85.81
252.863	81.81
253.096	78.81
253.329	66.81
253.562	75.81
253.795	86.81
254.028	96.81
254.261	72.81
254.494	90.81
254.727	85.81
254.96	84.81
255.193	69.81
255.426	78.81
255.659	84.81
255.892	81.81
256.124	63.81
256.357	76.81
256.59	80.81
256.823	82.81
257.056	76.81
257.289	82.81
257.521	89.81
257.754	80.81
257.987	78.81
258.22	101.81
258.452	67.81
258.685	82.81
258.918	73.81
259.151	76.81
259.383	86.81
259.616	89.81
259.849	77.81
260.081	85.81
260.314	82.81
260.547	82.81
260.779	72.81
261.012	76.81
261.244	77.81
261.477	86.81
261.71	101.81
261.942	80.81
262.175	82.81
262.407	79.81
262.64	80.81
262.872	72.81
263.105	84.81
263.337	87.81
263.57	75.81
263.802	84.81
264.035	78.81
264.267	78.81
264.499	79.81
264.732	73.81
264.964	86.81
265.197	85.81
265.429	92.81
265.661	82.81
265.894	77.81
266.126	80.81
266.358	78.81
266.591	79.81
266.823	89.81
267.055	76.81
267.287	78.81
267.52	70.81
267.752	83.81
267.984	69.81
268.216	93.81
268.448	92.81
268.681	89.81
268.913	88.81
269.145	77.81
269.377	90.81
269.609	91.81
269.841	83.81
270.073	94.81
270.306	95.81
270.538	88.81
270.77	86.81
271.002	84.81
271.234	84.81
271.466	73.81
271.698	82.81
271.93	73.81
272.162	73.81
272.394	87.81
272.626	83.81
272.858	71.81
273.09	89.81
273.322	72.81
273.553	77.81
273.785	101.81
274.017	80.81
274.249	93.81
274.481	72.81
274.713	72.81
274.945	77.81
275.176	75.81
275.408	81.81
275.64	87.81
275.872	82.81
276.104	70.81
276.335	102.81
276.567	87.81
276.799	86.81
277.031	76.81
277.262	93.81
277.494	83.81
277.726	89.81
277.957	78.81
278.189	94.81
278.421	83.81
278.652	90.81
278.884	82.81
279.115	96.81
279.347	76.81
279.579	104.81
279.81	91.81
280.042	84.81
280.273	84.81
280.505	87.81
280.736	96.81
280.968	100.81
281.199	80.81
281.431	84.81
281.662	86.81
281.894	97.81
282.125	116.81
282.356	104.81
282.588	76.81
282.819	88.81
283.051	62.81
283.282	93.81
283.513	88.81
283.745	72.81
283.976	79.81
284.207	77.81
284.439	98.81
284.67	100.81
284.901	92.81
285.132	82.81
285.364	78.81
285.595	84.81
285.826	81.81
286.057	90.81
286.288	70.81
286.52	89.81
286.751	76.81
286.982	87.81
287.213	94.81
287.444	89.81
287.675	87.81
287.906	80.81
288.138	75.81
288.369	81.81
288.6	86.81
288.831	84.81
289.062	80.81
289.293	88.81
289.524	74.81
289.755	97.81
289.986	88.81
290.217	102.81
290.448	93.81
290.679	95.81
290.91	80.81
291.141	87.81
291.371	85.81
291.602	76.81
291.833	89.81
292.064	68.81
292.295	78.81
292.526	104.81
292.757	84.81
292.987	84.81
293.218	76.81
293.449	88.81
293.68	84.81
293.91	74.81
294.141	96.81
294.372	78.81
294.603	83.81
294.833	85.81
295.064	78.81
295.295	81.81
295.525	78.81
295.756	90.81
295.987	101.81
296.217	80.81
296.448	100.81
296.679	77.81
296.909	93.81
297.14	81.81
297.37	81.81
297.601	81.81
297.831	75.81
298.062	71.81
298.292	93.81
298.523	98.81
298.753	90.81
298.984	83.81
299.214	96.81
299.445	85.81
299.675	89.81
299.905	74.81
300.136	95.81
300.366	91.81
300.597	82.81
300.827	88.81
301.057	78.81
301.288	88.81
301.518	88.81
301.748	74.81
301.979	100.81
302.209	88.81
302.439	76.81
302.669	82.81
302.9	86.81
303.13	86.81
303.36	82.81
303.59	82.81
303.82	92.81
304.051	91.81
304.281	88.81
304.511	96.81
304.741	92.81
304.971	91.81
305.201	70.81
305.431	84.81
305.661	96.81
305.891	85.81
306.121	81.81
306.352	80.81
306.582	80.81
306.812	89.81
307.042	71.81
307.272	82.81
307.502	84.81
307.731	82.81
307.961	98.81
308.191	81.81
308.421	87.81
308.651	90.81
308.881	96.81
309.111	96.81
309.341	80.81
309.571	89.81
309.8	80.81
310.03	97.81
310.26	88.81
310.49	85.81
310.72	81.81
310.949	77.81
311.179	84.81
311.409	87.81
311.639	79.81
311.868	77.81
312.098	87.81
312.328	93.81
312.557	94.81
312.787	90.81
313.017	104.81
313.246	61.81
313.476	73.81
313.706	85.81
313.935	88.81
314.165	90.81
314.394	83.81
314.624	85.81
314.853	84.81
315.083	88.81
315.312	94.81
315.542	93.81
315.771	89.81
316.001	92.81
316.23	92.81
316.46	101.81
316.689	86.81
316.919	100.81
317.148	86.81
317.377	92.81
317.607	86.81
317.836	97.81
318.065	82.81
318.295	87.81
318.524	78.81
318.753	78.81
318.983	79.81
319.212	77.81
319.441	73.81
319.67	93.81
319.9	78.81
320.129	83.81
320.358	109.81
320.587	92.81
320.816	88.81
321.046	91.81
321.275	101.81
321.504	95.81
321.733	93.81
321.962	94.81
322.191	85.81
322.42	87.81
322.649	91.81
322.878	76.81
323.108	86.81
323.337	82.81
323.566	92.81
323.795	90.81
324.024	83.81
324.253	92.81
324.482	86.81
324.71	82.81
324.939	76.81
325.168	92.81
325.397	81.81
325.626	80.81
325.855	83.81
326.084	90.81
326.313	82.81
326.542	81.81
326.77	82.81
326.999	84.81
327.228	89.81
327.457	76.81
327.686	74.81
327.914	92.81
328.143	92.81
328.372	86.81
328.6	86.81
328.829	86.81
329.058	83.81
329.287	82.81
329.515	74.81
329.744	63.81
329.972	87.81
330.201	87.81
330.43	92.81
330.658	87.81
330.887	97.81
331.115	100.81
331.344	80.81
331.572	86.81
331.801	93.81
332.03	83.81
332.258	82.81
332.486	98.81
332.715	80.81
332.943	80.81
333.172	81.81
333.4	85.81
333.629	97.81
333.857	74.81
334.085	74.81
334.314	84.81
334.542	81.81
334.771	78.81
334.999	93.81
335.227	80.81
335.455	85.81
335.684	91.81
335.912	85.81
336.14	94.81
336.369	91.81
336.597	76.81
336.825	92.81
337.053	87.81
337.281	88.81
337.51	78.81
337.738	103.81
337.966	76.81
338.194	77.81
338.422	75.81
338.65	78.81
338.878	77.81
339.106	91.81
339.334	97.81
339.562	84.81
339.79	100.81
340.018	90.81
340.246	74.81
340.474	103.81
340.702	74.81
340.93	83.81
341.158	90.81
341.386	75.81
341.614	99.81
341.842	84.81
342.07	81.81
342.298	76.81
342.526	83.81
342.754	89.81
342.981	90.81
343.209	86.81
343.437	93.81
343.665	84.81
343.893	95.81
344.12	80.81
344.348	97.81
344.576	89.81
344.804	87.81
345.031	92.81
345.259	98.81
345.487	90.81
345.714	80.81
345.942	89.81
346.17	78.81
346.397	90.81
346.625	95.81
346.853	79.81
347.08	78.81
347.308	83.81
347.535	89.81
347.763	88.81
347.99	96.81
348.218	81.81
348.445	73.81
348.673	85.81
348.9	78.81
349.128	85.81
349.355	81.81
349.583	80.81
349.81	72.81
350.037	81.81
350.265	89.81
350.492	71.81
350.72	92.81
350.947	83.81
351.174	76.81
351.402	90.81
351.629	92.81
351.856	86.81
352.083	81.81
352.311	84.81
352.538	86.81
352.765	89.81
352.992	102.81
353.22	82.81
353.447	84.81
353.674	93.81
353.901	88.81
354.128	89.81
354.355	79.81
354.583	71.81
354.81	80.81
355.037	94.81
355.264	80.81
355.491	81.81
355.718	88.81
355.945	81.81
356.172	81.81
356.399	76.81
356.626	79.81
356.853	87.81
357.08	82.81
357.307	86.81
357.534	71.81
357.761	72.81
357.988	94.81
358.215	93.81
358.441	96.81
358.668	78.81
358.895	105.81
359.122	94.81
359.349	89.81
359.576	89.81
359.802	70.81
360.029	78.81
360.256	84.81
360.483	72.81
360.709	68.81
360.936	81.81
361.163	76.81
361.39	71.81
361.616	83.81
361.843	80.81
362.07	84.81
362.296	83.81
362.523	84.81
362.749	78.81
362.976	92.81
363.203	91.81
363.429	70.81
363.656	95.81
363.882	89.81
364.109	80.81
364.335	90.81
364.562	90.81
364.788	76.81
365.015	84.81
365.241	92.81
365.468	85.81
365.694	90.81
365.92	92.81
366.147	89.81
366.373	78.81
366.599	73.81
366.826	70.81
367.052	74.81
367.278	98.81
367.505	84.81
367.731	88.81
367.957	88.81
368.184	81.81
368.41	85.81
368.636	88.81
368.862	90.81
369.089	87.81
369.315	80.81
369.541	80.81
369.767	94.81
369.993	98.81
370.219	83.81
370.445	85.81
370.672	89.81
370.898	84.81
371.124	78.81
371.35	109.81
371.576	86.81
371.802	97.81
372.028	64.81
372.254	76.81
372.48	80.81
372.706	72.81
372.932	83.81
373.158	83.81
373.384	89.81
373.61	79.81
373.835	88.81
374.061	90.81
374.287	80.81
374.513	79.81
374.739	91.81
374.965	94.81
375.191	80.81
375.416	82.81
375.642	95.81
375.868	96.81
376.094	88.81
376.319	86.81
376.545	78.81
376.771	76.81
376.997	81.81
377.222	82.81
377.448	88.81
377.674	79.81
377.899	87.81
378.125	88.81
378.35	88.81
378.576	86.81
378.802	83.81
379.027	78.81
379.253	96.81
379.478	88.81
379.704	89.81
379.929	83.81
380.155	80.81
380.38	91.81
380.606	82.81
380.831	89.81
381.057	95.81
381.282	89.81
381.507	84.81
381.733	85.81
381.958	82.81
382.184	86.81
382.409	84.81
382.634	73.81
382.86	88.81
383.085	82.81
383.31	88.81
383.535	84.81
383.761	92.81
383.986	85.81
384.211	94.81
384.436	90.81
384.662	85.81
384.887	88.81
385.112	77.81
385.337	93.81
385.562	80.81
385.787	95.81
386.013	88.81
386.238	93.81
386.463	70.81
386.688	88.81
386.913	83.81
387.138	85.81
387.363	84.81
387.588	95.81
387.813	89.81
388.038	81.81
388.263	92.81
388.488	67.81
388.713	72.81
388.938	82.81
389.163	98.81
389.387	80.81
389.612	87.81
389.837	95.81
390.062	95.81
390.287	88.81
390.512	82.81
390.736	87.81
390.961	85.81
391.186	80.81
391.411	78.81
391.636	91.81
391.86	83.81
392.085	103.81
392.31	74.81
392.534	77.81
392.759	80.81
392.984	79.81
393.208	85.81
393.433	80.81
393.658	72.81
393.882	90.81
394.107	85.81
394.331	80.81
394.556	64.81
394.78	78.81
395.005	75.81
395.229	78.81
395.454	83.81
395.678	85.81
395.903	81.81
396.127	90.81
396.352	74.81
396.576	75.81
396.801	80.81
397.025	84.81
397.249	80.81
397.474	89.81
397.698	98.81
397.922	85.81
398.147	80.81
398.371	85.81
398.595	96.81
398.82	86.81
399.044	75.81
399.268	89.81
399.492	80.81
399.717	86.81
399.941	96.81
400.165	74.81
400.389	87.81
400.613	86.81
400.837	85.81
401.062	96.81
401.286	89.81
401.51	76.81
401.734	81.81
401.958	105.81
402.182	75.81
402.406	96.81
402.63	85.81
402.854	80.81
403.078	75.81
403.302	81.81
403.526	72.81
403.75	84.81
403.974	74.81
404.198	90.81
404.422	82.81
404.645	81.81
404.869	77.81
405.093	86.81
405.317	76.81
405.541	85.81
405.765	81.81
405.988	81.81
406.212	83.81
406.436	95.81
406.66	78.81
406.883	90.81
407.107	90.81
407.331	85.81
407.555	87.81
407.778	75.81
408.002	81.81
408.226	89.81
408.449	71.81
408.673	82.81
408.896	88.81
409.12	90.81
409.344	84.81
409.567	78.81
409.791	78.81
410.014	92.81
410.238	76.81
410.461	90.81
410.685	84.81
410.908	71.81
411.132	90.81
411.355	87.81
411.578	82.81
411.802	74.81
412.025	78.81
412.249	85.81
412.472	96.81
412.695	92.81
412.919	88.81
413.142	79.81
413.365	78.81
413.589	72.81
413.812	81.81
414.035	80.81
414.258	83.81
414.482	85.81
414.705	95.81
414.928	76.81
415.151	81.81
415.374	93.81
415.597	82.81
415.821	83.81
416.044	84.81
416.267	88.81
416.49	85.81
416.713	73.81
416.936	73.81
417.159	76.81
417.382	83.81
417.605	86.81
417.828	97.81
418.051	85.81
418.274	75.81
418.497	79.81
418.72	98.81
418.943	78.81
419.166	92.81
419.389	89.81
419.611	79.81
419.834	74.81
420.057	89.81
420.28	82.81
420.503	87.81
420.726	66.81
420.948	76.81
421.171	74.81
421.394	80.81
421.617	89.81
421.839	88.81
422.062	81.81
422.285	84.81
422.507	83.81
422.73	69.81
422.953	81.81
423.175	90.81
423.398	76.81
423.621	90.81
423.843	96.81
424.066	76.81
424.288	72.81
424.511	77.81
424.733	88.81
424.956	92.81
425.178	88.81
425.401	88.81
425.623	76.81
425.846	77.81
426.068	95.81
426.291	76.81
426.513	88.81
426.735	79.81
426.958	80.81
427.18	91.81
427.402	77.81
427.625	72.81
427.847	92.81
428.069	100.81
428.292	91.81
428.514	87.81
428.736	65.81
428.958	86.81
429.181	70.81
429.403	82.81
429.625	93.81
429.847	89.81
430.069	84.81
430.292	67.81
430.514	82.81
430.736	89.81
430.958	72.81
431.18	90.81
431.402	97.81
431.624	86.81
431.846	70.81
432.068	82.81
432.29	77.81
432.512	81.81
432.734	72.81
432.956	88.81
433.178	84.81
433.4	82.81
433.622	85.81
433.844	76.81
434.066	85.81
434.287	75.81
434.509	78.81
434.731	87.81
434.953	88.81
435.175	87.81
435.397	82.81
435.618	90.81
435.84	93.81
436.062	89.81
436.284	77.81
436.505	78.81
436.727	85.81
436.949	92.81
437.17	89.81
437.392	94.81
437.614	77.81
437.835	83.81
438.057	84.81
438.278	95.81
438.5	88.81
438.721	90.81
438.943	95.81
439.165	88.81
439.386	75.81
439.608	87.81
439.829	80.81
440.05	70.81
440.272	78.81
440.493	80.81
440.715	74.81
440.936	89.81
441.158	83.81
441.379	77.81
441.6	75.81
441.822	73.81
442.043	80.81
442.264	78.81
442.486	86.81
442.707	86.81
442.928	75.81
443.149	81.81
443.371	80.81
443.592	92.81
443.813	65.81
444.034	93.81
444.255	81.81
444.476	67.81
444.698	82.81
444.919	97.81
445.14	157.81
445.361	124.81
445.582	94.81
445.803	92.81
446.024	95.81
446.245	80.81
446.466	84.81
446.687	78.81
446.908	82.81
447.129	88.81
447.35	72.81
447.571	82.81
447.792	85.81
448.013	88.81
448.234	77.81
448.455	96.81
448.675	82.81
448.896	77.81
449.117	75.81
449.338	86.81
449.559	79.81
449.779	74.81
450	85.81
450.221	80.81
450.442	84.81
450.662	84.81
450.883	76.81
451.104	87.81
451.324	92.81
451.545	70.81
451.766	69.81
451.986	81.81
452.207	80.81
452.428	74.81
452.648	97.81
452.869	81.81
453.089	73.81
453.31	86.81
453.53	84.81
453.751	81.81
453.971	84.81
454.192	87.81
454.412	92.81
454.633	79.81
454.853	81.81
455.073	87.81
455.294	88.81
455.514	89.81
455.734	81.81
455.955	76.81
456.175	77.81
456.395	84.81
456.616	83.81
456.836	84.81
457.056	77.81
457.276	81.81
457.497	81.81
457.717	88.81
457.937	86.81
458.157	82.81
458.377	80.81
458.598	86.81
458.818	68.81
459.038	77.81
459.258	84.81
459.478	84.81
459.698	71.81
459.918	80.81
460.138	67.81
460.358	79.81
460.578	86.81
460.798	84.81
461.018	60.81
461.238	65.81
461.458	91.81
461.678	93.81
461.898	84.81
462.118	86.81
462.338	92.81
462.558	78.81
462.777	74.81
462.997	77.81
463.217	101.81
463.437	87.81
463.657	75.81
463.876	76.81
464.096	86.81
464.316	78.81
464.536	104.81
464.755	76.81
464.975	88.81
465.195	92.81
465.414	76.81
465.634	76.81
465.854	78.81
466.073	77.81
466.293	93.81
466.512	73.81
466.732	82.81
466.951	81.81
467.171	89.81
467.391	76.81
467.61	86.81
467.829	66.81
468.049	85.81
468.268	73.81
468.488	72.81
468.707	89.81
468.927	82.81
469.146	67.81
469.365	92.81
469.585	93.81
469.804	83.81
470.023	84.81
470.243	93.81
470.462	79.81
470.681	92.81
470.901	76.81
471.12	81.81
471.339	90.81
471.558	86.81
471.777	74.81
471.997	83.81
472.216	89.81
472.435	79.81
472.654	92.81
472.873	80.81
473.092	87.81
473.311	87.81
473.53	86.81
473.749	65.81
473.968	70.81
474.187	94.81
474.406	80.81
474.625	87.81
474.844	93.81
475.063	75.81
475.282	92.81
475.501	75.81
475.72	89.81
475.939	78.81
476.158	82.81
476.377	76.81
476.596	87.81
476.814	67.81
477.033	73.81
477.252	80.81
477.471	78.81
477.69	81.81
477.908	90.81
478.127	85.81
478.346	78.81
478.564	81.81
478.783	79.81
479.002	84.81
479.22	81.81
479.439	85.81
479.658	89.81
479.876	87.81
480.095	78.81
480.313	82.81
480.532	87.81
480.751	84.81
480.969	71.81
481.188	77.81
481.406	76.81
481.624	82.81
481.843	86.81
482.061	80.81
482.28	72.81
482.498	86.81
482.717	80.81
482.935	74.81
483.153	78.81
483.372	75.81
483.59	89.81
483.808	86.81
484.027	80.81
484.245	80.81
484.463	93.81
484.681	84.81
484.9	76.81
485.118	69.81
485.336	67.81
485.554	91.81
485.772	88.81
485.99	90.81
486.209	84.81
486.427	79.81
486.645	90.81
486.863	93.81
487.081	81.81
487.299	74.81
487.517	85.81
487.735	78.81
487.953	79.81
488.171	76.81
488.389	66.81
488.607	92.81
488.825	78.81
489.043	84.81
489.261	81.81
489.479	84.81
489.696	82.81
489.914	86.81
490.132	87.81
490.35	76.81
490.568	72.81
490.786	87.81
491.003	82.81
491.221	89.81
491.439	81.81
491.657	81.81
491.874	74.81
492.092	81.81
492.31	79.81
492.527	71.81
492.745	89.81
492.963	88.81
493.18	77.81
493.398	84.81
493.615	92.81
493.833	78.81
494.05	87.81
494.268	88.81
494.485	78.81
494.703	86.81
494.92	94.81
495.138	80.81
495.355	87.81
495.573	87.81
495.79	94.81
496.008	81.81
496.225	93.81
496.442	87.81
496.66	81.81
496.877	77.81
497.094	94.81
497.312	83.81
497.529	78.81
497.746	77.81
497.963	97.81
498.181	86.81
498.398	74.81
498.615	84.81
498.832	80.81
499.049	78.81
499.267	81.81
499.484	80.81
499.701	88.81
499.918	78.81
500.135	72.81
500.352	89.81
500.569	86.81
500.786	81.81
501.003	80.81
501.22	80.81
501.437	90.81
501.654	82.81
501.871	84.81
502.088	76.81
502.305	70.81
502.522	81.81
502.739	78.81
502.956	95.81
503.172	87.81
503.389	77.81
503.606	73.81
503.823	94.81
504.04	89.81
504.256	77.81
504.473	74.81
504.69	61.81
504.907	79.81
505.123	88.81
505.34	77.81
505.557	88.81
505.773	82.81
505.99	86.81
506.207	77.81
506.423	86.81
506.64	78.81
506.856	80.81
507.073	88.81
507.289	80.81
507.506	76.81
507.722	102.81
507.939	66.81
508.155	90.81
508.372	75.81
508.588	82.81
508.805	82.81
509.021	88.81
509.238	98.81
509.454	84.81
509.67	82.81
509.887	79.81
510.103	89.81
510.319	80.81
510.536	84.81
510.752	77.81
510.968	91.81
511.184	73.81
511.401	73.81
511.617	87.81
511.833	68.81
512.049	81.81
512.265	87.81
512.481	74.81
512.698	86.81
512.914	76.81
513.13	86.81
513.346	80.81
513.562	85.81
513.778	79.81
513.994	94.81
514.21	78.81
514.426	93.81
514.642	87.81
514.858	81.81
515.074	82.81
515.29	95.81
515.506	93.81
515.721	80.81
515.937	86.81
516.153	82.81
516.369	73.81
516.585	93.81
516.801	81.81
517.016	80.81
517.232	80.81
517.448	75.81
517.664	76.81
517.879	84.81
518.095	74.81
518.311	73.81
518.527	79.81
518.742	85.81
518.958	89.81
519.173	96.81
519.389	79.81
519.605	99.81
519.82	88.81
520.036	89.81
