Data from BG_HRD10591_007.txt Node
Date: Fri May 16 15:14:26 EDT 2025
User: Yrep
Spectrometer: HR+D1059
Trigger mode: 1
Integration Time (sec): 1.000000E-1
Scans to average: 1
Electric dark correction enabled: true
Nonlinearity correction enabled: false
Boxcar width: 0
XAxis mode: Wavelengths
Number of Pixels in Spectrum: 2048
>>>>>Begin Spectral Data<<<<<
223.165	-20.88
223.4	-20.88
223.635	-20.88
223.869	-14.88
224.104	-22.88
224.338	-17.88
224.573	-20.88
224.808	-14.88
225.042	-3.88
225.277	-16.88
225.511	-6.88
225.746	3.12
225.98	10.12
226.215	13.12
226.449	8.12
226.683	32.12
226.918	45.12
227.152	28.12
227.387	48.12
227.621	36.12
227.856	56.12
228.09	46.12
228.324	58.12
228.559	70.12
228.793	66.12
229.027	46.12
229.262	70.12
229.496	56.12
229.73	56.12
229.964	72.12
230.199	72.12
230.433	89.12
230.667	82.12
230.901	76.12
231.136	70.12
231.37	75.12
231.604	66.12
231.838	73.12
232.072	74.12
232.306	85.12
232.541	77.12
232.775	78.12
233.009	79.12
233.243	87.12
233.477	85.12
233.711	63.12
233.945	68.12
234.179	71.12
234.413	62.12
234.647	88.12
234.881	77.12
235.115	80.12
235.349	91.12
235.583	78.12
235.817	69.12
236.051	76.12
236.285	65.12
236.519	75.12
236.753	72.12
236.987	62.12
237.221	72.12
237.455	68.12
237.689	54.12
237.922	76.12
238.156	72.12
238.39	77.12
238.624	61.12
238.858	74.12
239.091	76.12
239.325	70.12
239.559	65.12
239.793	76.12
240.027	77.12
240.26	72.12
240.494	83.12
240.728	64.12
240.961	74.12
241.195	69.12
241.429	74.12
241.662	66.12
241.896	73.12
242.13	74.12
242.363	82.12
242.597	69.12
242.83	78.12
243.064	88.12
243.298	74.12
243.531	80.12
243.765	79.12
243.998	76.12
244.232	63.12
244.465	66.12
244.699	73.12
244.932	78.12
245.166	84.12
245.399	68.12
245.633	68.12
245.866	78.12
246.099	70.12
246.333	72.12
246.566	76.12
246.8	74.12
247.033	78.12
247.266	77.12
247.5	74.12
247.733	77.12
247.966	81.12
248.2	76.12
248.433	76.12
248.666	86.12
248.899	87.12
249.133	85.12
249.366	87.12
249.599	72.12
249.832	62.12
250.066	86.12
250.299	77.12
250.532	78.12
250.765	62.12
250.998	75.12
251.231	74.12
251.465	71.12
251.698	67.12
251.931	72.12
252.164	80.12
252.397	77.12
252.63	82.12
252.863	73.12
253.096	71.12
253.329	76.12
253.562	92.12
253.795	76.12
254.028	78.12
254.261	80.12
254.494	68.12
254.727	72.12
254.96	78.12
255.193	68.12
255.426	73.12
255.659	61.12
255.892	77.12
256.124	90.12
256.357	77.12
256.59	72.12
256.823	89.12
257.056	74.12
257.289	84.12
257.521	62.12
257.754	84.12
257.987	79.12
258.22	82.12
258.452	91.12
258.685	68.12
258.918	65.12
259.151	69.12
259.383	82.12
259.616	87.12
259.849	70.12
260.081	65.12
260.314	75.12
260.547	77.12
260.779	73.12
261.012	75.12
261.244	68.12
261.477	97.12
261.71	82.12
261.942	80.12
262.175	71.12
262.407	98.12
262.64	75.12
262.872	92.12
263.105	62.12
263.337	74.12
263.57	77.12
263.802	91.12
264.035	72.12
264.267	77.12
264.499	69.12
264.732	76.12
264.964	83.12
265.197	85.12
265.429	87.12
265.661	73.12
265.894	66.12
266.126	81.12
266.358	99.12
266.591	82.12
266.823	78.12
267.055	98.12
267.287	77.12
267.52	69.12
267.752	86.12
267.984	87.12
268.216	91.12
268.448	74.12
268.681	72.12
268.913	62.12
269.145	77.12
269.377	84.12
269.609	86.12
269.841	86.12
270.073	87.12
270.306	78.12
270.538	70.12
270.77	72.12
271.002	77.12
271.234	67.12
271.466	80.12
271.698	74.12
271.93	58.12
272.162	85.12
272.394	58.12
272.626	82.12
272.858	76.12
273.09	85.12
273.322	68.12
273.553	96.12
273.785	95.12
274.017	85.12
274.249	68.12
274.481	74.12
274.713	74.12
274.945	85.12
275.176	65.12
275.408	86.12
275.64	81.12
275.872	66.12
276.104	84.12
276.335	73.12
276.567	92.12
276.799	92.12
277.031	81.12
277.262	89.12
277.494	78.12
277.726	85.12
277.957	70.12
278.189	80.12
278.421	68.12
278.652	85.12
278.884	86.12
279.115	79.12
279.347	86.12
279.579	80.12
279.81	71.12
280.042	84.12
280.273	93.12
280.505	87.12
280.736	80.12
280.968	92.12
281.199	89.12
281.431	82.12
281.662	86.12
281.894	91.12
282.125	76.12
282.356	81.12
282.588	86.12
282.819	81.12
283.051	80.12
283.282	78.12
283.513	83.12
283.745	81.12
283.976	77.12
284.207	81.12
284.439	80.12
284.67	72.12
284.901	75.12
285.132	84.12
285.364	88.12
285.595	85.12
285.826	84.12
286.057	96.12
286.288	81.12
286.52	79.12
286.751	74.12
286.982	69.12
287.213	78.12
287.444	87.12
287.675	85.12
287.906	81.12
288.138	102.12
288.369	76.12
288.6	77.12
288.831	83.12
289.062	86.12
289.293	67.12
289.524	77.12
289.755	84.12
289.986	83.12
290.217	84.12
290.448	87.12
290.679	88.12
290.91	63.12
291.141	74.12
291.371	81.12
291.602	80.12
291.833	84.12
292.064	82.12
292.295	73.12
292.526	83.12
292.757	85.12
292.987	81.12
293.218	87.12
293.449	85.12
293.68	87.12
293.91	70.12
294.141	96.12
294.372	84.12
294.603	84.12
294.833	76.12
295.064	69.12
295.295	74.12
295.525	82.12
295.756	71.12
295.987	76.12
296.217	71.12
296.448	90.12
296.679	98.12
296.909	67.12
297.14	72.12
297.37	79.12
297.601	75.12
297.831	89.12
298.062	84.12
298.292	85.12
298.523	82.12
298.753	82.12
298.984	66.12
299.214	85.12
299.445	73.12
299.675	94.12
299.905	90.12
300.136	90.12
300.366	80.12
300.597	86.12
300.827	84.12
301.057	88.12
301.288	89.12
301.518	78.12
301.748	75.12
301.979	91.12
302.209	80.12
302.439	80.12
302.669	88.12
302.9	73.12
303.13	80.12
303.36	75.12
303.59	87.12
303.82	78.12
304.051	85.12
304.281	82.12
304.511	83.12
304.741	81.12
304.971	86.12
305.201	85.12
305.431	76.12
305.661	85.12
305.891	85.12
306.121	82.12
306.352	74.12
306.582	71.12
306.812	78.12
307.042	76.12
307.272	76.12
307.502	74.12
307.731	80.12
307.961	65.12
308.191	71.12
308.421	80.12
308.651	92.12
308.881	86.12
309.111	78.12
309.341	75.12
309.571	93.12
309.8	73.12
310.03	89.12
310.26	76.12
310.49	78.12
310.72	84.12
310.949	82.12
311.179	75.12
311.409	75.12
311.639	86.12
311.868	91.12
312.098	82.12
312.328	91.12
312.557	88.12
312.787	87.12
313.017	78.12
313.246	75.12
313.476	73.12
313.706	75.12
313.935	68.12
314.165	91.12
314.394	86.12
314.624	79.12
314.853	84.12
315.083	71.12
315.312	80.12
315.542	89.12
315.771	85.12
316.001	86.12
316.23	80.12
316.46	88.12
316.689	86.12
316.919	88.12
317.148	88.12
317.377	81.12
317.607	82.12
317.836	62.12
318.065	82.12
318.295	88.12
318.524	91.12
318.753	92.12
318.983	78.12
319.212	83.12
319.441	75.12
319.67	83.12
319.9	88.12
320.129	82.12
320.358	88.12
320.587	92.12
320.816	84.12
321.046	78.12
321.275	78.12
321.504	94.12
321.733	78.12
321.962	93.12
322.191	69.12
322.42	73.12
322.649	86.12
322.878	90.12
323.108	97.12
323.337	84.12
323.566	80.12
323.795	89.12
324.024	73.12
324.253	68.12
324.482	67.12
324.71	84.12
324.939	87.12
325.168	84.12
325.397	91.12
325.626	98.12
325.855	68.12
326.084	81.12
326.313	84.12
326.542	82.12
326.77	94.12
326.999	81.12
327.228	88.12
327.457	69.12
327.686	83.12
327.914	93.12
328.143	84.12
328.372	89.12
328.6	84.12
328.829	88.12
329.058	75.12
329.287	76.12
329.515	85.12
329.744	67.12
329.972	82.12
330.201	88.12
330.43	80.12
330.658	77.12
330.887	93.12
331.115	88.12
331.344	72.12
331.572	86.12
331.801	70.12
332.03	84.12
332.258	71.12
332.486	70.12
332.715	82.12
332.943	70.12
333.172	86.12
333.4	77.12
333.629	80.12
333.857	75.12
334.085	87.12
334.314	88.12
334.542	72.12
334.771	78.12
334.999	72.12
335.227	75.12
335.455	80.12
335.684	84.12
335.912	84.12
336.14	66.12
336.369	87.12
336.597	82.12
336.825	83.12
337.053	81.12
337.281	83.12
337.51	85.12
337.738	78.12
337.966	85.12
338.194	71.12
338.422	80.12
338.65	79.12
338.878	97.12
339.106	91.12
339.334	87.12
339.562	74.12
339.79	75.12
340.018	81.12
340.246	76.12
340.474	76.12
340.702	67.12
340.93	68.12
341.158	71.12
341.386	82.12
341.614	67.12
341.842	66.12
342.07	89.12
342.298	81.12
342.526	79.12
342.754	74.12
342.981	83.12
343.209	92.12
343.437	91.12
343.665	78.12
343.893	78.12
344.12	77.12
344.348	80.12
344.576	88.12
344.804	77.12
345.031	92.12
345.259	83.12
345.487	84.12
345.714	76.12
345.942	74.12
346.17	85.12
346.397	70.12
346.625	75.12
346.853	86.12
347.08	68.12
347.308	86.12
347.535	79.12
347.763	93.12
347.99	72.12
348.218	80.12
348.445	92.12
348.673	81.12
348.9	82.12
349.128	78.12
349.355	72.12
349.583	75.12
349.81	76.12
350.037	68.12
350.265	71.12
350.492	82.12
350.72	82.12
350.947	89.12
351.174	71.12
351.402	68.12
351.629	68.12
351.856	75.12
352.083	84.12
352.311	71.12
352.538	78.12
352.765	83.12
352.992	94.12
353.22	72.12
353.447	79.12
353.674	85.12
353.901	89.12
354.128	84.12
354.355	69.12
354.583	73.12
354.81	83.12
355.037	77.12
355.264	84.12
355.491	89.12
355.718	83.12
355.945	91.12
356.172	71.12
356.399	76.12
356.626	82.12
356.853	86.12
357.08	86.12
357.307	84.12
357.534	69.12
357.761	86.12
357.988	73.12
358.215	79.12
358.441	84.12
358.668	72.12
358.895	82.12
359.122	69.12
359.349	72.12
359.576	81.12
359.802	54.12
360.029	76.12
360.256	72.12
360.483	75.12
360.709	80.12
360.936	79.12
361.163	80.12
361.39	98.12
361.616	78.12
361.843	85.12
362.07	76.12
362.296	83.12
362.523	79.12
362.749	74.12
362.976	75.12
363.203	76.12
363.429	92.12
363.656	83.12
363.882	61.12
364.109	71.12
364.335	76.12
364.562	74.12
364.788	60.12
365.015	63.12
365.241	88.12
365.468	78.12
365.694	84.12
365.92	96.12
366.147	84.12
366.373	70.12
366.599	98.12
366.826	81.12
367.052	79.12
367.278	74.12
367.505	78.12
367.731	84.12
367.957	78.12
368.184	74.12
368.41	84.12
368.636	83.12
368.862	88.12
369.089	78.12
369.315	80.12
369.541	92.12
369.767	59.12
369.993	78.12
370.219	81.12
370.445	68.12
370.672	73.12
370.898	81.12
371.124	84.12
371.35	88.12
371.576	79.12
371.802	83.12
372.028	75.12
372.254	74.12
372.48	70.12
372.706	74.12
372.932	69.12
373.158	74.12
373.384	85.12
373.61	78.12
373.835	72.12
374.061	80.12
374.287	69.12
374.513	83.12
374.739	77.12
374.965	76.12
375.191	84.12
375.416	85.12
375.642	83.12
375.868	89.12
376.094	77.12
376.319	89.12
376.545	80.12
376.771	72.12
376.997	84.12
377.222	82.12
377.448	74.12
377.674	93.12
377.899	82.12
378.125	64.12
378.35	93.12
378.576	73.12
378.802	81.12
379.027	84.12
379.253	87.12
379.478	86.12
379.704	96.12
379.929	76.12
380.155	82.12
380.38	84.12
380.606	83.12
380.831	77.12
381.057	69.12
381.282	80.12
381.507	79.12
381.733	83.12
381.958	75.12
382.184	88.12
382.409	92.12
382.634	80.12
382.86	73.12
383.085	75.12
383.31	89.12
383.535	81.12
383.761	81.12
383.986	98.12
384.211	79.12
384.436	82.12
384.662	85.12
384.887	65.12
385.112	76.12
385.337	92.12
385.562	80.12
385.787	75.12
386.013	74.12
386.238	68.12
386.463	81.12
386.688	72.12
386.913	77.12
387.138	73.12
387.363	92.12
387.588	63.12
387.813	84.12
388.038	77.12
388.263	80.12
388.488	71.12
388.713	76.12
388.938	74.12
389.163	78.12
389.387	83.12
389.612	76.12
389.837	77.12
390.062	86.12
390.287	60.12
390.512	85.12
390.736	69.12
390.961	74.12
391.186	84.12
391.411	84.12
391.636	75.12
391.86	88.12
392.085	80.12
392.31	88.12
392.534	92.12
392.759	78.12
392.984	78.12
393.208	75.12
393.433	78.12
393.658	87.12
393.882	87.12
394.107	83.12
394.331	79.12
394.556	78.12
394.78	76.12
395.005	74.12
395.229	90.12
395.454	88.12
395.678	78.12
395.903	90.12
396.127	76.12
396.352	85.12
396.576	80.12
396.801	71.12
397.025	72.12
397.249	61.12
397.474	85.12
397.698	75.12
397.922	83.12
398.147	79.12
398.371	73.12
398.595	93.12
398.82	75.12
399.044	79.12
399.268	85.12
399.492	89.12
399.717	80.12
399.941	72.12
400.165	83.12
400.389	81.12
400.613	76.12
400.837	82.12
401.062	74.12
401.286	72.12
401.51	78.12
401.734	82.12
401.958	87.12
402.182	87.12
402.406	90.12
402.63	71.12
402.854	80.12
403.078	77.12
403.302	70.12
403.526	71.12
403.75	76.12
403.974	65.12
404.198	77.12
404.422	82.12
404.645	74.12
404.869	76.12
405.093	75.12
405.317	87.12
405.541	82.12
405.765	90.12
405.988	94.12
406.212	69.12
406.436	76.12
406.66	70.12
406.883	91.12
407.107	85.12
407.331	76.12
407.555	82.12
407.778	80.12
408.002	63.12
408.226	65.12
408.449	70.12
408.673	68.12
408.896	82.12
409.12	84.12
409.344	81.12
409.567	78.12
409.791	84.12
410.014	77.12
410.238	91.12
410.461	77.12
410.685	89.12
410.908	80.12
411.132	74.12
411.355	73.12
411.578	91.12
411.802	71.12
412.025	63.12
412.249	76.12
412.472	79.12
412.695	75.12
412.919	82.12
413.142	69.12
413.365	58.12
413.589	81.12
413.812	80.12
414.035	70.12
414.258	80.12
414.482	68.12
414.705	72.12
414.928	70.12
415.151	83.12
415.374	82.12
415.597	82.12
415.821	59.12
416.044	70.12
416.267	82.12
416.49	74.12
416.713	73.12
416.936	65.12
417.159	79.12
417.382	72.12
417.605	78.12
417.828	76.12
418.051	74.12
418.274	84.12
418.497	78.12
418.72	84.12
418.943	94.12
419.166	87.12
419.389	91.12
419.611	60.12
419.834	80.12
420.057	78.12
420.28	70.12
420.503	74.12
420.726	85.12
420.948	68.12
421.171	80.12
421.394	63.12
421.617	88.12
421.839	84.12
422.062	80.12
422.285	85.12
422.507	89.12
422.73	73.12
422.953	84.12
423.175	80.12
423.398	72.12
423.621	77.12
423.843	76.12
424.066	84.12
424.288	82.12
424.511	81.12
424.733	72.12
424.956	76.12
425.178	72.12
425.401	70.12
425.623	74.12
425.846	75.12
426.068	68.12
426.291	80.12
426.513	80.12
426.735	80.12
426.958	74.12
427.18	75.12
427.402	80.12
427.625	78.12
427.847	80.12
428.069	70.12
428.292	76.12
428.514	82.12
428.736	88.12
428.958	75.12
429.181	82.12
429.403	74.12
429.625	65.12
429.847	85.12
430.069	75.12
430.292	78.12
430.514	74.12
430.736	80.12
430.958	78.12
431.18	85.12
431.402	79.12
431.624	73.12
431.846	83.12
432.068	78.12
432.29	74.12
432.512	72.12
432.734	81.12
432.956	85.12
433.178	81.12
433.4	73.12
433.622	90.12
433.844	74.12
434.066	88.12
434.287	66.12
434.509	64.12
434.731	75.12
434.953	72.12
435.175	75.12
435.397	80.12
435.618	76.12
435.84	79.12
436.062	77.12
436.284	83.12
436.505	83.12
436.727	73.12
436.949	76.12
437.17	70.12
437.392	76.12
437.614	81.12
437.835	78.12
438.057	80.12
438.278	80.12
438.5	77.12
438.721	76.12
438.943	78.12
439.165	76.12
439.386	82.12
439.608	67.12
439.829	72.12
440.05	78.12
440.272	73.12
440.493	69.12
440.715	85.12
440.936	89.12
441.158	75.12
441.379	70.12
441.6	76.12
441.822	68.12
442.043	68.12
442.264	68.12
442.486	69.12
442.707	79.12
442.928	88.12
443.149	69.12
443.371	74.12
443.592	84.12
443.813	69.12
444.034	76.12
444.255	75.12
444.476	70.12
444.698	68.12
444.919	79.12
445.14	151.12
445.361	90.12
445.582	76.12
445.803	72.12
446.024	73.12
446.245	84.12
446.466	84.12
446.687	82.12
446.908	79.12
447.129	75.12
447.35	84.12
447.571	88.12
447.792	82.12
448.013	74.12
448.234	75.12
448.455	75.12
448.675	71.12
448.896	76.12
449.117	74.12
449.338	78.12
449.559	68.12
449.779	63.12
450	84.12
450.221	79.12
450.442	82.12
450.662	78.12
450.883	71.12
451.104	79.12
451.324	74.12
451.545	73.12
451.766	81.12
451.986	82.12
452.207	72.12
452.428	89.12
452.648	70.12
452.869	83.12
453.089	80.12
453.31	82.12
453.53	78.12
453.751	72.12
453.971	81.12
454.192	77.12
454.412	65.12
454.633	83.12
454.853	85.12
455.073	71.12
455.294	71.12
455.514	76.12
455.734	85.12
455.955	72.12
456.175	88.12
456.395	73.12
456.616	86.12
456.836	87.12
457.056	78.12
457.276	85.12
457.497	76.12
457.717	67.12
457.937	71.12
458.157	65.12
458.377	74.12
458.598	72.12
458.818	79.12
459.038	68.12
459.258	81.12
459.478	93.12
459.698	71.12
459.918	80.12
460.138	72.12
460.358	68.12
460.578	72.12
460.798	80.12
461.018	75.12
461.238	76.12
461.458	70.12
461.678	77.12
461.898	90.12
462.118	85.12
462.338	77.12
462.558	88.12
462.777	86.12
462.997	84.12
463.217	86.12
463.437	81.12
463.657	78.12
463.876	73.12
464.096	96.12
464.316	66.12
464.536	79.12
464.755	82.12
464.975	74.12
465.195	89.12
465.414	67.12
465.634	85.12
465.854	83.12
466.073	75.12
466.293	84.12
466.512	76.12
466.732	77.12
466.951	87.12
467.171	59.12
467.391	69.12
467.61	80.12
467.829	61.12
468.049	84.12
468.268	68.12
468.488	82.12
468.707	80.12
468.927	89.12
469.146	62.12
469.365	77.12
469.585	67.12
469.804	97.12
470.023	82.12
470.243	74.12
470.462	65.12
470.681	74.12
470.901	68.12
471.12	80.12
471.339	89.12
471.558	72.12
471.777	73.12
471.997	67.12
472.216	59.12
472.435	73.12
472.654	80.12
472.873	64.12
473.092	82.12
473.311	76.12
473.53	82.12
473.749	75.12
473.968	78.12
474.187	80.12
474.406	80.12
474.625	79.12
474.844	80.12
475.063	91.12
475.282	76.12
475.501	69.12
475.72	91.12
475.939	77.12
476.158	84.12
476.377	80.12
476.596	69.12
476.814	69.12
477.033	75.12
477.252	74.12
477.471	74.12
477.69	78.12
477.908	73.12
478.127	81.12
478.346	80.12
478.564	85.12
478.783	71.12
479.002	74.12
479.22	78.12
479.439	75.12
479.658	72.12
479.876	83.12
480.095	74.12
480.313	82.12
480.532	74.12
480.751	88.12
480.969	68.12
481.188	80.12
481.406	71.12
481.624	76.12
481.843	71.12
482.061	79.12
482.28	76.12
482.498	86.12
482.717	77.12
482.935	87.12
483.153	83.12
483.372	87.12
483.59	97.12
483.808	89.12
484.027	84.12
484.245	83.12
484.463	68.12
484.681	88.12
484.9	81.12
485.118	84.12
485.336	76.12
485.554	91.12
485.772	73.12
485.99	84.12
486.209	77.12
486.427	79.12
486.645	76.12
486.863	76.12
487.081	69.12
487.299	68.12
487.517	72.12
487.735	77.12
487.953	76.12
488.171	86.12
488.389	72.12
488.607	82.12
488.825	84.12
489.043	74.12
489.261	76.12
489.479	75.12
489.696	71.12
489.914	84.12
490.132	79.12
490.35	78.12
490.568	61.12
490.786	67.12
491.003	68.12
491.221	78.12
491.439	74.12
491.657	58.12
491.874	84.12
492.092	64.12
492.31	82.12
492.527	66.12
492.745	65.12
492.963	80.12
493.18	90.12
493.398	73.12
493.615	74.12
493.833	85.12
494.05	82.12
494.268	68.12
494.485	79.12
494.703	89.12
494.92	75.12
495.138	78.12
495.355	80.12
495.573	71.12
495.79	74.12
496.008	80.12
496.225	77.12
496.442	70.12
496.66	83.12
496.877	72.12
497.094	72.12
497.312	74.12
497.529	94.12
497.746	72.12
497.963	82.12
498.181	76.12
498.398	79.12
498.615	91.12
498.832	83.12
499.049	85.12
499.267	88.12
499.484	79.12
499.701	67.12
499.918	91.12
500.135	78.12
500.352	60.12
500.569	80.12
500.786	70.12
501.003	98.12
501.22	75.12
501.437	69.12
501.654	67.12
501.871	76.12
502.088	73.12
502.305	82.12
502.522	63.12
502.739	77.12
502.956	90.12
503.172	80.12
503.389	58.12
503.606	78.12
503.823	75.12
504.04	59.12
504.256	85.12
504.473	81.12
504.69	77.12
504.907	60.12
505.123	76.12
505.34	83.12
505.557	77.12
505.773	96.12
505.99	80.12
506.207	83.12
506.423	73.12
506.64	82.12
506.856	84.12
507.073	79.12
507.289	78.12
507.506	64.12
507.722	80.12
507.939	84.12
508.155	89.12
508.372	88.12
508.588	76.12
508.805	88.12
509.021	85.12
509.238	89.12
509.454	90.12
509.67	77.12
509.887	76.12
510.103	77.12
510.319	76.12
510.536	89.12
510.752	76.12
510.968	78.12
511.184	81.12
511.401	76.12
511.617	84.12
511.833	75.12
512.049	82.12
512.265	77.12
512.481	76.12
512.698	80.12
512.914	86.12
513.13	73.12
513.346	80.12
513.562	82.12
513.778	78.12
513.994	75.12
514.21	75.12
514.426	82.12
514.642	80.12
514.858	79.12
515.074	101.12
515.29	87.12
515.506	70.12
515.721	84.12
515.937	75.12
516.153	84.12
516.369	80.12
516.585	72.12
516.801	76.12
517.016	81.12
517.232	63.12
517.448	78.12
517.664	76.12
517.879	89.12
518.095	70.12
518.311	84.12
518.527	77.12
518.742	87.12
518.958	79.12
519.173	84.12
519.389	80.12
519.605	84.12
519.82	68.12
520.036	74.12
520.251	80.12
