Data from BG_HRD10591_052.txt Node
Date: Fri May 16 15:14:48 EDT 2025
User: Yrep
Spectrometer: HR+D1059
Trigger mode: 1
Integration Time (sec): 1.000000E-1
Scans to average: 1
Electric dark correction enabled: true
Nonlinearity correction enabled: false
Boxcar width: 0
XAxis mode: Wavelengths
Number of Pixels in Spectrum: 2048
>>>>>Begin Spectral Data<<<<<
223.165	-24.06
223.4	-24.06
223.635	-24.06
223.869	-12.06
224.104	-17.06
224.338	-23.06
224.573	-7.06
224.808	-21.06
225.042	-22.06
225.277	-8.06
225.511	-6.06
225.746	1.94
225.98	18.94
226.215	10.94
226.449	25.94
226.683	27.94
226.918	19.94
227.152	34.94
227.387	27.94
227.621	40.94
227.856	39.94
228.09	46.94
228.324	50.94
228.559	46.94
228.793	40.94
229.027	70.94
229.262	63.94
229.496	61.94
229.73	66.94
229.964	71.94
230.199	72.94
230.433	76.94
230.667	59.94
230.901	45.94
231.136	78.94
231.37	64.94
231.604	78.94
231.838	82.94
232.072	70.94
232.306	67.94
232.541	64.94
232.775	81.94
233.009	61.94
233.243	80.94
233.477	66.94
233.711	80.94
233.945	83.94
234.179	85.94
234.413	71.94
234.647	72.94
234.881	78.94
235.115	64.94
235.349	75.94
235.583	48.94
235.817	71.94
236.051	84.94
236.285	77.94
236.519	68.94
236.753	66.94
236.987	74.94
237.221	64.94
237.455	71.94
237.689	67.94
237.922	66.94
238.156	59.94
238.39	74.94
238.624	68.94
238.858	84.94
239.091	72.94
239.325	63.94
239.559	65.94
239.793	71.94
240.027	70.94
240.26	68.94
240.494	62.94
240.728	71.94
240.961	63.94
241.195	79.94
241.429	48.94
241.662	68.94
241.896	76.94
242.13	69.94
242.363	63.94
242.597	82.94
242.83	58.94
243.064	75.94
243.298	68.94
243.531	76.94
243.765	66.94
243.998	75.94
244.232	65.94
244.465	80.94
244.699	83.94
244.932	75.94
245.166	61.94
245.399	67.94
245.633	70.94
245.866	60.94
246.099	69.94
246.333	75.94
246.566	72.94
246.8	68.94
247.033	66.94
247.266	85.94
247.5	76.94
247.733	79.94
247.966	80.94
248.2	70.94
248.433	84.94
248.666	82.94
248.899	66.94
249.133	67.94
249.366	91.94
249.599	72.94
249.832	72.94
250.066	71.94
250.299	83.94
250.532	66.94
250.765	64.94
250.998	80.94
251.231	82.94
251.465	74.94
251.698	83.94
251.931	72.94
252.164	53.94
252.397	74.94
252.63	65.94
252.863	67.94
253.096	75.94
253.329	78.94
253.562	85.94
253.795	68.94
254.028	91.94
254.261	78.94
254.494	75.94
254.727	70.94
254.96	87.94
255.193	88.94
255.426	75.94
255.659	56.94
255.892	67.94
256.124	52.94
256.357	67.94
256.59	86.94
256.823	78.94
257.056	75.94
257.289	73.94
257.521	83.94
257.754	75.94
257.987	60.94
258.22	70.94
258.452	79.94
258.685	94.94
258.918	73.94
259.151	87.94
259.383	82.94
259.616	70.94
259.849	76.94
260.081	81.94
260.314	70.94
260.547	84.94
260.779	73.94
261.012	77.94
261.244	66.94
261.477	80.94
261.71	69.94
261.942	81.94
262.175	81.94
262.407	79.94
262.64	72.94
262.872	82.94
263.105	75.94
263.337	96.94
263.57	64.94
263.802	71.94
264.035	64.94
264.267	80.94
264.499	72.94
264.732	78.94
264.964	74.94
265.197	72.94
265.429	78.94
265.661	80.94
265.894	88.94
266.126	89.94
266.358	78.94
266.591	76.94
266.823	78.94
267.055	89.94
267.287	70.94
267.52	84.94
267.752	82.94
267.984	71.94
268.216	72.94
268.448	81.94
268.681	61.94
268.913	96.94
269.145	86.94
269.377	76.94
269.609	79.94
269.841	83.94
270.073	76.94
270.306	78.94
270.538	86.94
270.77	87.94
271.002	74.94
271.234	84.94
271.466	70.94
271.698	73.94
271.93	81.94
272.162	65.94
272.394	84.94
272.626	77.94
272.858	73.94
273.09	78.94
273.322	70.94
273.553	71.94
273.785	79.94
274.017	74.94
274.249	80.94
274.481	88.94
274.713	91.94
274.945	84.94
275.176	70.94
275.408	90.94
275.64	96.94
275.872	82.94
276.104	73.94
276.335	90.94
276.567	74.94
276.799	69.94
277.031	86.94
277.262	86.94
277.494	81.94
277.726	71.94
277.957	75.94
278.189	90.94
278.421	74.94
278.652	79.94
278.884	70.94
279.115	83.94
279.347	68.94
279.579	74.94
279.81	83.94
280.042	83.94
280.273	63.94
280.505	81.94
280.736	63.94
280.968	86.94
281.199	60.94
281.431	74.94
281.662	69.94
281.894	81.94
282.125	92.94
282.356	78.94
282.588	79.94
282.819	82.94
283.051	84.94
283.282	81.94
283.513	79.94
283.745	88.94
283.976	81.94
284.207	72.94
284.439	87.94
284.67	85.94
284.901	90.94
285.132	73.94
285.364	78.94
285.595	82.94
285.826	82.94
286.057	88.94
286.288	90.94
286.52	86.94
286.751	84.94
286.982	75.94
287.213	67.94
287.444	82.94
287.675	79.94
287.906	75.94
288.138	82.94
288.369	72.94
288.6	81.94
288.831	82.94
289.062	79.94
289.293	77.94
289.524	90.94
289.755	79.94
289.986	78.94
290.217	82.94
290.448	73.94
290.679	86.94
290.91	97.94
291.141	83.94
291.371	80.94
291.602	82.94
291.833	108.94
292.064	92.94
292.295	94.94
292.526	74.94
292.757	68.94
292.987	89.94
293.218	93.94
293.449	84.94
293.68	82.94
293.91	98.94
294.141	72.94
294.372	89.94
294.603	74.94
294.833	76.94
295.064	93.94
295.295	82.94
295.525	85.94
295.756	78.94
295.987	82.94
296.217	69.94
296.448	88.94
296.679	83.94
296.909	99.94
297.14	95.94
297.37	76.94
297.601	85.94
297.831	99.94
298.062	84.94
298.292	107.94
298.523	82.94
298.753	89.94
298.984	85.94
299.214	88.94
299.445	82.94
299.675	84.94
299.905	68.94
300.136	91.94
300.366	94.94
300.597	92.94
300.827	87.94
301.057	74.94
301.288	80.94
301.518	92.94
301.748	90.94
301.979	83.94
302.209	72.94
302.439	79.94
302.669	87.94
302.9	95.94
303.13	73.94
303.36	82.94
303.59	75.94
303.82	85.94
304.051	81.94
304.281	84.94
304.511	75.94
304.741	81.94
304.971	75.94
305.201	82.94
305.431	101.94
305.661	89.94
305.891	82.94
306.121	90.94
306.352	79.94
306.582	76.94
306.812	74.94
307.042	80.94
307.272	95.94
307.502	76.94
307.731	68.94
307.961	85.94
308.191	64.94
308.421	86.94
308.651	91.94
308.881	84.94
309.111	72.94
309.341	86.94
309.571	81.94
309.8	78.94
310.03	91.94
310.26	90.94
310.49	81.94
310.72	90.94
310.949	76.94
311.179	82.94
311.409	82.94
311.639	84.94
311.868	91.94
312.098	69.94
312.328	78.94
312.557	87.94
312.787	76.94
313.017	81.94
313.246	86.94
313.476	76.94
313.706	90.94
313.935	84.94
314.165	84.94
314.394	85.94
314.624	83.94
314.853	82.94
315.083	92.94
315.312	89.94
315.542	83.94
315.771	80.94
316.001	76.94
316.23	71.94
316.46	82.94
316.689	70.94
316.919	70.94
317.148	75.94
317.377	89.94
317.607	83.94
317.836	80.94
318.065	85.94
318.295	83.94
318.524	80.94
318.753	76.94
318.983	78.94
319.212	91.94
319.441	92.94
319.67	92.94
319.9	82.94
320.129	74.94
320.358	80.94
320.587	87.94
320.816	69.94
321.046	81.94
321.275	83.94
321.504	80.94
321.733	82.94
321.962	91.94
322.191	81.94
322.42	84.94
322.649	72.94
322.878	74.94
323.108	73.94
323.337	86.94
323.566	58.94
323.795	78.94
324.024	82.94
324.253	79.94
324.482	89.94
324.71	87.94
324.939	99.94
325.168	86.94
325.397	86.94
325.626	89.94
325.855	86.94
326.084	82.94
326.313	88.94
326.542	74.94
326.77	85.94
326.999	76.94
327.228	90.94
327.457	77.94
327.686	85.94
327.914	83.94
328.143	73.94
328.372	75.94
328.6	90.94
328.829	79.94
329.058	81.94
329.287	90.94
329.515	84.94
329.744	90.94
329.972	86.94
330.201	77.94
330.43	89.94
330.658	70.94
330.887	80.94
331.115	72.94
331.344	90.94
331.572	90.94
331.801	80.94
332.03	78.94
332.258	92.94
332.486	75.94
332.715	85.94
332.943	83.94
333.172	101.94
333.4	86.94
333.629	88.94
333.857	81.94
334.085	73.94
334.314	92.94
334.542	72.94
334.771	89.94
334.999	94.94
335.227	90.94
335.455	82.94
335.684	85.94
335.912	90.94
336.14	82.94
336.369	92.94
336.597	100.94
336.825	79.94
337.053	72.94
337.281	78.94
337.51	98.94
337.738	74.94
337.966	92.94
338.194	86.94
338.422	79.94
338.65	74.94
338.878	79.94
339.106	86.94
339.334	95.94
339.562	90.94
339.79	86.94
340.018	70.94
340.246	71.94
340.474	91.94
340.702	82.94
340.93	81.94
341.158	89.94
341.386	91.94
341.614	80.94
341.842	75.94
342.07	88.94
342.298	81.94
342.526	70.94
342.754	83.94
342.981	82.94
343.209	94.94
343.437	93.94
343.665	79.94
343.893	82.94
344.12	91.94
344.348	91.94
344.576	83.94
344.804	88.94
345.031	92.94
345.259	83.94
345.487	80.94
345.714	84.94
345.942	59.94
346.17	61.94
346.397	77.94
346.625	86.94
346.853	86.94
347.08	83.94
347.308	64.94
347.535	88.94
347.763	83.94
347.99	70.94
348.218	91.94
348.445	82.94
348.673	72.94
348.9	74.94
349.128	89.94
349.355	84.94
349.583	71.94
349.81	88.94
350.037	70.94
350.265	74.94
350.492	87.94
350.72	65.94
350.947	74.94
351.174	78.94
351.402	78.94
351.629	77.94
351.856	89.94
352.083	66.94
352.311	84.94
352.538	74.94
352.765	75.94
352.992	86.94
353.22	102.94
353.447	77.94
353.674	74.94
353.901	87.94
354.128	77.94
354.355	80.94
354.583	85.94
354.81	96.94
355.037	80.94
355.264	66.94
355.491	73.94
355.718	86.94
355.945	78.94
356.172	73.94
356.399	85.94
356.626	82.94
356.853	83.94
357.08	76.94
357.307	84.94
357.534	71.94
357.761	90.94
357.988	75.94
358.215	82.94
358.441	77.94
358.668	80.94
358.895	73.94
359.122	89.94
359.349	77.94
359.576	88.94
359.802	81.94
360.029	82.94
360.256	80.94
360.483	69.94
360.709	69.94
360.936	76.94
361.163	88.94
361.39	97.94
361.616	80.94
361.843	93.94
362.07	91.94
362.296	79.94
362.523	76.94
362.749	73.94
362.976	85.94
363.203	90.94
363.429	76.94
363.656	72.94
363.882	93.94
364.109	90.94
364.335	92.94
364.562	87.94
364.788	82.94
365.015	88.94
365.241	86.94
365.468	86.94
365.694	77.94
365.92	85.94
366.147	82.94
366.373	86.94
366.599	81.94
366.826	79.94
367.052	80.94
367.278	72.94
367.505	67.94
367.731	83.94
367.957	85.94
368.184	82.94
368.41	90.94
368.636	81.94
368.862	82.94
369.089	88.94
369.315	86.94
369.541	84.94
369.767	72.94
369.993	78.94
370.219	74.94
370.445	72.94
370.672	79.94
370.898	84.94
371.124	86.94
371.35	81.94
371.576	81.94
371.802	75.94
372.028	80.94
372.254	90.94
372.48	97.94
372.706	90.94
372.932	83.94
373.158	80.94
373.384	76.94
373.61	79.94
373.835	77.94
374.061	71.94
374.287	85.94
374.513	82.94
374.739	76.94
374.965	98.94
375.191	91.94
375.416	82.94
375.642	79.94
375.868	88.94
376.094	73.94
376.319	80.94
376.545	73.94
376.771	87.94
376.997	81.94
377.222	72.94
377.448	72.94
377.674	73.94
377.899	83.94
378.125	77.94
378.35	92.94
378.576	70.94
378.802	75.94
379.027	84.94
379.253	99.94
379.478	80.94
379.704	80.94
379.929	94.94
380.155	54.94
380.38	80.94
380.606	89.94
380.831	75.94
381.057	89.94
381.282	87.94
381.507	74.94
381.733	91.94
381.958	83.94
382.184	86.94
382.409	63.94
382.634	89.94
382.86	84.94
383.085	80.94
383.31	82.94
383.535	79.94
383.761	79.94
383.986	86.94
384.211	73.94
384.436	72.94
384.662	85.94
384.887	83.94
385.112	85.94
385.337	70.94
385.562	78.94
385.787	96.94
386.013	71.94
386.238	85.94
386.463	94.94
386.688	99.94
386.913	98.94
387.138	83.94
387.363	76.94
387.588	77.94
387.813	102.94
388.038	92.94
388.263	72.94
388.488	82.94
388.713	96.94
388.938	90.94
389.163	80.94
389.387	79.94
389.612	76.94
389.837	85.94
390.062	80.94
390.287	98.94
390.512	82.94
390.736	104.94
390.961	80.94
391.186	80.94
391.411	85.94
391.636	78.94
391.86	92.94
392.085	78.94
392.31	90.94
392.534	82.94
392.759	72.94
392.984	79.94
393.208	91.94
393.433	91.94
393.658	78.94
393.882	75.94
394.107	91.94
394.331	84.94
394.556	98.94
394.78	80.94
395.005	88.94
395.229	66.94
395.454	74.94
395.678	80.94
395.903	66.94
396.127	89.94
396.352	82.94
396.576	82.94
396.801	81.94
397.025	77.94
397.249	73.94
397.474	101.94
397.698	73.94
397.922	70.94
398.147	88.94
398.371	73.94
398.595	75.94
398.82	73.94
399.044	98.94
399.268	86.94
399.492	101.94
399.717	94.94
399.941	93.94
400.165	83.94
400.389	86.94
400.613	88.94
400.837	69.94
401.062	82.94
401.286	90.94
401.51	80.94
401.734	78.94
401.958	82.94
402.182	98.94
402.406	72.94
402.63	86.94
402.854	81.94
403.078	79.94
403.302	76.94
403.526	103.94
403.75	86.94
403.974	81.94
404.198	80.94
404.422	82.94
404.645	85.94
404.869	84.94
405.093	84.94
405.317	81.94
405.541	98.94
405.765	90.94
405.988	90.94
406.212	102.94
406.436	72.94
406.66	97.94
406.883	88.94
407.107	89.94
407.331	67.94
407.555	90.94
407.778	80.94
408.002	87.94
408.226	87.94
408.449	88.94
408.673	96.94
408.896	88.94
409.12	88.94
409.344	75.94
409.567	90.94
409.791	84.94
410.014	78.94
410.238	74.94
410.461	83.94
410.685	78.94
410.908	89.94
411.132	70.94
411.355	84.94
411.578	100.94
411.802	78.94
412.025	74.94
412.249	91.94
412.472	98.94
412.695	80.94
412.919	89.94
413.142	84.94
413.365	74.94
413.589	86.94
413.812	74.94
414.035	88.94
414.258	93.94
414.482	72.94
414.705	79.94
414.928	86.94
415.151	79.94
415.374	82.94
415.597	86.94
415.821	87.94
416.044	82.94
416.267	81.94
416.49	73.94
416.713	82.94
416.936	82.94
417.159	72.94
417.382	86.94
417.605	82.94
417.828	105.94
418.051	75.94
418.274	84.94
418.497	97.94
418.72	90.94
418.943	83.94
419.166	82.94
419.389	86.94
419.611	86.94
419.834	85.94
420.057	75.94
420.28	71.94
420.503	95.94
420.726	84.94
420.948	82.94
421.171	77.94
421.394	81.94
421.617	94.94
421.839	82.94
422.062	75.94
422.285	75.94
422.507	71.94
422.73	90.94
422.953	81.94
423.175	66.94
423.398	70.94
423.621	89.94
423.843	90.94
424.066	79.94
424.288	86.94
424.511	68.94
424.733	87.94
424.956	95.94
425.178	90.94
425.401	105.94
425.623	71.94
425.846	68.94
426.068	70.94
426.291	69.94
426.513	79.94
426.735	85.94
426.958	100.94
427.18	87.94
427.402	86.94
427.625	88.94
427.847	81.94
428.069	85.94
428.292	74.94
428.514	80.94
428.736	75.94
428.958	84.94
429.181	95.94
429.403	78.94
429.625	80.94
429.847	73.94
430.069	94.94
430.292	91.94
430.514	84.94
430.736	90.94
430.958	89.94
431.18	77.94
431.402	91.94
431.624	75.94
431.846	85.94
432.068	86.94
432.29	82.94
432.512	97.94
432.734	82.94
432.956	84.94
433.178	95.94
433.4	86.94
433.622	94.94
433.844	94.94
434.066	88.94
434.287	81.94
434.509	78.94
434.731	76.94
434.953	90.94
435.175	89.94
435.397	83.94
435.618	84.94
435.84	69.94
436.062	78.94
436.284	81.94
436.505	74.94
436.727	79.94
436.949	74.94
437.17	72.94
437.392	84.94
437.614	71.94
437.835	84.94
438.057	87.94
438.278	87.94
438.5	80.94
438.721	86.94
438.943	94.94
439.165	85.94
439.386	78.94
439.608	83.94
439.829	82.94
440.05	89.94
440.272	74.94
440.493	79.94
440.715	92.94
440.936	90.94
441.158	81.94
441.379	91.94
441.6	85.94
441.822	91.94
442.043	78.94
442.264	90.94
442.486	91.94
442.707	91.94
442.928	94.94
443.149	96.94
443.371	78.94
443.592	79.94
443.813	83.94
444.034	73.94
444.255	81.94
444.476	95.94
444.698	82.94
444.919	85.94
445.14	141.94
445.361	134.94
445.582	91.94
445.803	80.94
446.024	85.94
446.245	90.94
446.466	80.94
446.687	80.94
446.908	84.94
447.129	86.94
447.35	97.94
447.571	80.94
447.792	86.94
448.013	80.94
448.234	77.94
448.455	76.94
448.675	90.94
448.896	83.94
449.117	69.94
449.338	81.94
449.559	89.94
449.779	80.94
450	68.94
450.221	84.94
450.442	87.94
450.662	72.94
450.883	79.94
451.104	89.94
451.324	76.94
451.545	73.94
451.766	70.94
451.986	77.94
452.207	94.94
452.428	87.94
452.648	83.94
452.869	74.94
453.089	83.94
453.31	85.94
453.53	82.94
453.751	77.94
453.971	79.94
454.192	94.94
454.412	89.94
454.633	95.94
454.853	94.94
455.073	81.94
455.294	72.94
455.514	78.94
455.734	73.94
455.955	80.94
456.175	81.94
456.395	84.94
456.616	90.94
456.836	82.94
457.056	78.94
457.276	82.94
457.497	79.94
457.717	82.94
457.937	74.94
458.157	88.94
458.377	83.94
458.598	89.94
458.818	83.94
459.038	80.94
459.258	81.94
459.478	84.94
459.698	78.94
459.918	92.94
460.138	91.94
460.358	97.94
460.578	85.94
460.798	84.94
461.018	76.94
461.238	83.94
461.458	80.94
461.678	80.94
461.898	90.94
462.118	87.94
462.338	83.94
462.558	83.94
462.777	83.94
462.997	95.94
463.217	109.94
463.437	94.94
463.657	79.94
463.876	82.94
464.096	75.94
464.316	90.94
464.536	92.94
464.755	88.94
464.975	77.94
465.195	90.94
465.414	75.94
465.634	90.94
465.854	81.94
466.073	91.94
466.293	78.94
466.512	74.94
466.732	81.94
466.951	90.94
467.171	89.94
467.391	75.94
467.61	76.94
467.829	78.94
468.049	86.94
468.268	82.94
468.488	94.94
468.707	84.94
468.927	80.94
469.146	79.94
469.365	75.94
469.585	91.94
469.804	87.94
470.023	76.94
470.243	89.94
470.462	79.94
470.681	80.94
470.901	88.94
471.12	87.94
471.339	89.94
471.558	87.94
471.777	75.94
471.997	92.94
472.216	82.94
472.435	84.94
472.654	86.94
472.873	94.94
473.092	83.94
473.311	84.94
473.53	76.94
473.749	81.94
473.968	98.94
474.187	87.94
474.406	102.94
474.625	94.94
474.844	80.94
475.063	73.94
475.282	76.94
475.501	75.94
475.72	83.94
475.939	75.94
476.158	81.94
476.377	87.94
476.596	78.94
476.814	97.94
477.033	86.94
477.252	83.94
477.471	88.94
477.69	94.94
477.908	82.94
478.127	81.94
478.346	82.94
478.564	92.94
478.783	83.94
479.002	97.94
479.22	98.94
479.439	88.94
479.658	91.94
479.876	101.94
480.095	88.94
480.313	84.94
480.532	86.94
480.751	96.94
480.969	94.94
481.188	97.94
481.406	76.94
481.624	88.94
481.843	87.94
482.061	73.94
482.28	86.94
482.498	77.94
482.717	82.94
482.935	83.94
483.153	86.94
483.372	89.94
483.59	91.94
483.808	101.94
484.027	83.94
484.245	87.94
484.463	90.94
484.681	94.94
484.9	79.94
485.118	91.94
485.336	83.94
485.554	73.94
485.772	84.94
485.99	79.94
486.209	92.94
486.427	94.94
486.645	83.94
486.863	86.94
487.081	95.94
487.299	101.94
487.517	91.94
487.735	87.94
487.953	86.94
488.171	97.94
488.389	80.94
488.607	71.94
488.825	86.94
489.043	90.94
489.261	90.94
489.479	94.94
489.696	87.94
489.914	82.94
490.132	88.94
490.35	71.94
490.568	69.94
490.786	86.94
491.003	89.94
491.221	79.94
491.439	87.94
491.657	83.94
491.874	82.94
492.092	75.94
492.31	88.94
492.527	65.94
492.745	69.94
492.963	78.94
493.18	80.94
493.398	78.94
493.615	95.94
493.833	72.94
494.05	87.94
494.268	103.94
494.485	95.94
494.703	86.94
494.92	95.94
495.138	87.94
495.355	90.94
495.573	75.94
495.79	79.94
496.008	89.94
496.225	81.94
496.442	84.94
496.66	118.94
496.877	91.94
497.094	71.94
497.312	97.94
497.529	102.94
497.746	91.94
497.963	90.94
498.181	87.94
498.398	83.94
498.615	95.94
498.832	102.94
499.049	96.94
499.267	98.94
499.484	102.94
499.701	123.94
499.918	115.94
500.135	117.94
500.352	110.94
500.569	102.94
500.786	110.94
501.003	109.94
501.22	107.94
501.437	95.94
501.654	97.94
501.871	96.94
502.088	85.94
502.305	84.94
502.522	78.94
502.739	87.94
502.956	67.94
503.172	81.94
503.389	87.94
503.606	90.94
503.823	85.94
504.04	84.94
504.256	75.94
504.473	86.94
504.69	75.94
504.907	86.94
505.123	76.94
505.34	87.94
505.557	95.94
505.773	84.94
505.99	83.94
506.207	76.94
506.423	91.94
506.64	89.94
506.856	78.94
507.073	80.94
507.289	94.94
507.506	82.94
507.722	82.94
507.939	82.94
508.155	75.94
508.372	83.94
508.588	94.94
508.805	83.94
509.021	80.94
509.238	97.94
509.454	89.94
509.67	92.94
509.887	101.94
510.103	84.94
510.319	87.94
510.536	86.94
510.752	74.94
510.968	87.94
511.184	83.94
511.401	84.94
511.617	86.94
511.833	74.94
512.049	85.94
512.265	86.94
512.481	81.94
512.698	81.94
512.914	103.94
513.13	96.94
513.346	83.94
513.562	89.94
513.778	86.94
513.994	77.94
514.21	87.94
514.426	83.94
514.642	92.94
514.858	87.94
515.074	82.94
515.29	99.94
515.506	90.94
515.721	87.94
515.937	91.94
516.153	83.94
516.369	95.94
516.585	90.94
516.801	87.94
517.016	105.94
517.232	86.94
517.448	96.94
517.664	85.94
517.879	83.94
518.095	90.94
518.311	80.94
518.527	103.94
518.742	86.94
518.958	86.94
519.173	78.94
519.389	94.94
519.605	79.94
519.82	96.94
