Data from BG_HRD10591_087.txt Node
Date: Fri May 16 15:15:06 EDT 2025
User: Yrep
Spectrometer: HR+D1059
Trigger mode: 1
Integration Time (sec): 1.000000E-1
Scans to average: 1
Electric dark correction enabled: true
Nonlinearity correction enabled: false
Boxcar width: 0
XAxis mode: Wavelengths
Number of Pixels in Spectrum: 2048
>>>>>Begin Spectral Data<<<<<
223.165	-14.69
223.4	-14.69
223.635	-14.69
223.869	-16.69
224.104	-23.69
224.338	-0.69
224.573	-4.69
224.808	-11.69
225.042	0.31
225.277	-6.69
225.511	-6.69
225.746	-9.69
225.98	10.31
226.215	17.31
226.449	10.31
226.683	28.31
226.918	14.31
227.152	14.31
227.387	29.31
227.621	44.31
227.856	45.31
228.09	50.31
228.324	47.31
228.559	45.31
228.793	49.31
229.027	59.31
229.262	66.31
229.496	62.31
229.73	71.31
229.964	72.31
230.199	74.31
230.433	69.31
230.667	82.31
230.901	70.31
231.136	67.31
231.37	79.31
231.604	85.31
231.838	76.31
232.072	66.31
232.306	81.31
232.541	81.31
232.775	86.31
233.009	72.31
233.243	78.31
233.477	76.31
233.711	86.31
233.945	82.31
234.179	67.31
234.413	62.31
234.647	82.31
234.881	72.31
235.115	87.31
235.349	82.31
235.583	77.31
235.817	81.31
236.051	78.31
236.285	77.31
236.519	71.31
236.753	78.31
236.987	80.31
237.221	84.31
237.455	92.31
237.689	66.31
237.922	70.31
238.156	62.31
238.39	67.31
238.624	69.31
238.858	80.31
239.091	86.31
239.325	78.31
239.559	79.31
239.793	64.31
240.027	68.31
240.26	77.31
240.494	82.31
240.728	62.31
240.961	77.31
241.195	82.31
241.429	81.31
241.662	81.31
241.896	89.31
242.13	76.31
242.363	72.31
242.597	61.31
242.83	78.31
243.064	81.31
243.298	66.31
243.531	79.31
243.765	72.31
243.998	60.31
244.232	82.31
244.465	82.31
244.699	77.31
244.932	67.31
245.166	81.31
245.399	92.31
245.633	71.31
245.866	83.31
246.099	64.31
246.333	82.31
246.566	69.31
246.8	83.31
247.033	73.31
247.266	90.31
247.5	73.31
247.733	75.31
247.966	77.31
248.2	98.31
248.433	77.31
248.666	78.31
248.899	65.31
249.133	89.31
249.366	77.31
249.599	68.31
249.832	69.31
250.066	71.31
250.299	92.31
250.532	88.31
250.765	80.31
250.998	70.31
251.231	81.31
251.465	61.31
251.698	90.31
251.931	81.31
252.164	72.31
252.397	84.31
252.63	77.31
252.863	96.31
253.096	81.31
253.329	91.31
253.562	70.31
253.795	64.31
254.028	100.31
254.261	78.31
254.494	68.31
254.727	83.31
254.96	65.31
255.193	68.31
255.426	70.31
255.659	90.31
255.892	73.31
256.124	72.31
256.357	85.31
256.59	75.31
256.823	80.31
257.056	86.31
257.289	68.31
257.521	77.31
257.754	70.31
257.987	73.31
258.22	86.31
258.452	74.31
258.685	70.31
258.918	76.31
259.151	70.31
259.383	78.31
259.616	87.31
259.849	81.31
260.081	80.31
260.314	77.31
260.547	84.31
260.779	71.31
261.012	79.31
261.244	69.31
261.477	86.31
261.71	74.31
261.942	70.31
262.175	82.31
262.407	73.31
262.64	82.31
262.872	87.31
263.105	87.31
263.337	92.31
263.57	69.31
263.802	77.31
264.035	78.31
264.267	92.31
264.499	76.31
264.732	89.31
264.964	75.31
265.197	77.31
265.429	89.31
265.661	75.31
265.894	73.31
266.126	70.31
266.358	79.31
266.591	88.31
266.823	77.31
267.055	75.31
267.287	82.31
267.52	81.31
267.752	74.31
267.984	74.31
268.216	76.31
268.448	80.31
268.681	88.31
268.913	92.31
269.145	78.31
269.377	89.31
269.609	87.31
269.841	84.31
270.073	67.31
270.306	75.31
270.538	75.31
270.77	79.31
271.002	69.31
271.234	85.31
271.466	77.31
271.698	80.31
271.93	84.31
272.162	74.31
272.394	86.31
272.626	87.31
272.858	84.31
273.09	90.31
273.322	82.31
273.553	84.31
273.785	93.31
274.017	80.31
274.249	80.31
274.481	99.31
274.713	90.31
274.945	85.31
275.176	71.31
275.408	72.31
275.64	78.31
275.872	65.31
276.104	72.31
276.335	70.31
276.567	71.31
276.799	79.31
277.031	80.31
277.262	90.31
277.494	70.31
277.726	71.31
277.957	85.31
278.189	84.31
278.421	68.31
278.652	81.31
278.884	78.31
279.115	82.31
279.347	70.31
279.579	85.31
279.81	89.31
280.042	85.31
280.273	76.31
280.505	86.31
280.736	77.31
280.968	89.31
281.199	79.31
281.431	91.31
281.662	87.31
281.894	88.31
282.125	83.31
282.356	94.31
282.588	71.31
282.819	84.31
283.051	78.31
283.282	84.31
283.513	84.31
283.745	84.31
283.976	61.31
284.207	82.31
284.439	83.31
284.67	87.31
284.901	91.31
285.132	86.31
285.364	85.31
285.595	80.31
285.826	81.31
286.057	88.31
286.288	79.31
286.52	78.31
286.751	89.31
286.982	88.31
287.213	81.31
287.444	85.31
287.675	88.31
287.906	72.31
288.138	78.31
288.369	82.31
288.6	77.31
288.831	77.31
289.062	92.31
289.293	92.31
289.524	96.31
289.755	96.31
289.986	82.31
290.217	76.31
290.448	96.31
290.679	90.31
290.91	93.31
291.141	74.31
291.371	87.31
291.602	94.31
291.833	80.31
292.064	91.31
292.295	71.31
292.526	82.31
292.757	74.31
292.987	91.31
293.218	90.31
293.449	79.31
293.68	94.31
293.91	80.31
294.141	88.31
294.372	65.31
294.603	100.31
294.833	76.31
295.064	82.31
295.295	91.31
295.525	82.31
295.756	95.31
295.987	91.31
296.217	76.31
296.448	80.31
296.679	82.31
296.909	92.31
297.14	81.31
297.37	88.31
297.601	73.31
297.831	78.31
298.062	92.31
298.292	78.31
298.523	73.31
298.753	85.31
298.984	92.31
299.214	81.31
299.445	81.31
299.675	84.31
299.905	84.31
300.136	80.31
300.366	89.31
300.597	82.31
300.827	78.31
301.057	77.31
301.288	85.31
301.518	67.31
301.748	85.31
301.979	100.31
302.209	81.31
302.439	76.31
302.669	84.31
302.9	81.31
303.13	85.31
303.36	91.31
303.59	83.31
303.82	86.31
304.051	88.31
304.281	82.31
304.511	83.31
304.741	84.31
304.971	82.31
305.201	83.31
305.431	77.31
305.661	81.31
305.891	84.31
306.121	88.31
306.352	80.31
306.582	72.31
306.812	86.31
307.042	67.31
307.272	87.31
307.502	87.31
307.731	83.31
307.961	87.31
308.191	87.31
308.421	72.31
308.651	88.31
308.881	88.31
309.111	88.31
309.341	73.31
309.571	80.31
309.8	89.31
310.03	95.31
310.26	97.31
310.49	82.31
310.72	87.31
310.949	86.31
311.179	77.31
311.409	77.31
311.639	87.31
311.868	90.31
312.098	87.31
312.328	83.31
312.557	80.31
312.787	93.31
313.017	75.31
313.246	85.31
313.476	90.31
313.706	65.31
313.935	89.31
314.165	93.31
314.394	88.31
314.624	81.31
314.853	106.31
315.083	85.31
315.312	86.31
315.542	99.31
315.771	74.31
316.001	85.31
316.23	84.31
316.46	81.31
316.689	80.31
316.919	79.31
317.148	92.31
317.377	93.31
317.607	80.31
317.836	102.31
318.065	91.31
318.295	74.31
318.524	67.31
318.753	84.31
318.983	80.31
319.212	82.31
319.441	85.31
319.67	87.31
319.9	85.31
320.129	99.31
320.358	92.31
320.587	82.31
320.816	85.31
321.046	82.31
321.275	88.31
321.504	88.31
321.733	85.31
321.962	85.31
322.191	83.31
322.42	84.31
322.649	83.31
322.878	84.31
323.108	83.31
323.337	88.31
323.566	82.31
323.795	83.31
324.024	107.31
324.253	91.31
324.482	91.31
324.71	85.31
324.939	82.31
325.168	76.31
325.397	89.31
325.626	83.31
325.855	89.31
326.084	89.31
326.313	88.31
326.542	89.31
326.77	89.31
326.999	83.31
327.228	86.31
327.457	76.31
327.686	106.31
327.914	88.31
328.143	89.31
328.372	97.31
328.6	82.31
328.829	73.31
329.058	80.31
329.287	92.31
329.515	92.31
329.744	102.31
329.972	91.31
330.201	91.31
330.43	93.31
330.658	92.31
330.887	88.31
331.115	97.31
331.344	88.31
331.572	98.31
331.801	88.31
332.03	93.31
332.258	92.31
332.486	85.31
332.715	93.31
332.943	105.31
333.172	89.31
333.4	69.31
333.629	84.31
333.857	88.31
334.085	90.31
334.314	92.31
334.542	86.31
334.771	104.31
334.999	92.31
335.227	90.31
335.455	87.31
335.684	85.31
335.912	83.31
336.14	89.31
336.369	100.31
336.597	84.31
336.825	101.31
337.053	82.31
337.281	86.31
337.51	86.31
337.738	84.31
337.966	87.31
338.194	84.31
338.422	80.31
338.65	89.31
338.878	85.31
339.106	80.31
339.334	81.31
339.562	86.31
339.79	93.31
340.018	79.31
340.246	80.31
340.474	82.31
340.702	86.31
340.93	84.31
341.158	93.31
341.386	64.31
341.614	89.31
341.842	97.31
342.07	109.31
342.298	103.31
342.526	95.31
342.754	89.31
342.981	86.31
343.209	85.31
343.437	89.31
343.665	88.31
343.893	88.31
344.12	89.31
344.348	93.31
344.576	83.31
344.804	94.31
345.031	81.31
345.259	91.31
345.487	87.31
345.714	74.31
345.942	88.31
346.17	80.31
346.397	91.31
346.625	85.31
346.853	94.31
347.08	80.31
347.308	96.31
347.535	79.31
347.763	90.31
347.99	76.31
348.218	83.31
348.445	82.31
348.673	90.31
348.9	83.31
349.128	81.31
349.355	81.31
349.583	91.31
349.81	96.31
350.037	86.31
350.265	92.31
350.492	80.31
350.72	84.31
350.947	102.31
351.174	71.31
351.402	80.31
351.629	90.31
351.856	77.31
352.083	71.31
352.311	80.31
352.538	82.31
352.765	83.31
352.992	104.31
353.22	102.31
353.447	91.31
353.674	83.31
353.901	75.31
354.128	96.31
354.355	78.31
354.583	86.31
354.81	76.31
355.037	87.31
355.264	77.31
355.491	91.31
355.718	79.31
355.945	90.31
356.172	87.31
356.399	95.31
356.626	78.31
356.853	100.31
357.08	84.31
357.307	80.31
357.534	96.31
357.761	96.31
357.988	89.31
358.215	81.31
358.441	82.31
358.668	90.31
358.895	95.31
359.122	79.31
359.349	72.31
359.576	90.31
359.802	90.31
360.029	94.31
360.256	89.31
360.483	91.31
360.709	94.31
360.936	93.31
361.163	92.31
361.39	86.31
361.616	93.31
361.843	70.31
362.07	99.31
362.296	84.31
362.523	79.31
362.749	79.31
362.976	95.31
363.203	102.31
363.429	82.31
363.656	98.31
363.882	87.31
364.109	68.31
364.335	90.31
364.562	82.31
364.788	77.31
365.015	93.31
365.241	84.31
365.468	76.31
365.694	87.31
365.92	93.31
366.147	77.31
366.373	86.31
366.599	82.31
366.826	76.31
367.052	82.31
367.278	88.31
367.505	80.31
367.731	88.31
367.957	96.31
368.184	88.31
368.41	97.31
368.636	80.31
368.862	83.31
369.089	84.31
369.315	83.31
369.541	88.31
369.767	88.31
369.993	85.31
370.219	85.31
370.445	83.31
370.672	82.31
370.898	78.31
371.124	91.31
371.35	101.31
371.576	74.31
371.802	87.31
372.028	93.31
372.254	93.31
372.48	92.31
372.706	97.31
372.932	96.31
373.158	86.31
373.384	91.31
373.61	85.31
373.835	69.31
374.061	87.31
374.287	86.31
374.513	91.31
374.739	83.31
374.965	85.31
375.191	86.31
375.416	82.31
375.642	76.31
375.868	101.31
376.094	82.31
376.319	83.31
376.545	92.31
376.771	92.31
376.997	81.31
377.222	87.31
377.448	96.31
377.674	89.31
377.899	92.31
378.125	85.31
378.35	96.31
378.576	102.31
378.802	87.31
379.027	93.31
379.253	82.31
379.478	87.31
379.704	81.31
379.929	85.31
380.155	87.31
380.38	77.31
380.606	77.31
380.831	86.31
381.057	90.31
381.282	98.31
381.507	94.31
381.733	77.31
381.958	90.31
382.184	76.31
382.409	81.31
382.634	83.31
382.86	75.31
383.085	93.31
383.31	73.31
383.535	75.31
383.761	92.31
383.986	84.31
384.211	97.31
384.436	85.31
384.662	90.31
384.887	84.31
385.112	96.31
385.337	82.31
385.562	91.31
385.787	85.31
386.013	78.31
386.238	96.31
386.463	80.31
386.688	97.31
386.913	95.31
387.138	80.31
387.363	85.31
387.588	109.31
387.813	86.31
388.038	76.31
388.263	87.31
388.488	92.31
388.713	92.31
388.938	87.31
389.163	90.31
389.387	87.31
389.612	83.31
389.837	96.31
390.062	64.31
390.287	86.31
390.512	74.31
390.736	83.31
390.961	96.31
391.186	82.31
391.411	88.31
391.636	79.31
391.86	90.31
392.085	82.31
392.31	82.31
392.534	79.31
392.759	88.31
392.984	90.31
393.208	97.31
393.433	77.31
393.658	100.31
393.882	88.31
394.107	78.31
394.331	86.31
394.556	80.31
394.78	89.31
395.005	93.31
395.229	87.31
395.454	96.31
395.678	86.31
395.903	88.31
396.127	87.31
396.352	77.31
396.576	82.31
396.801	93.31
397.025	85.31
397.249	93.31
397.474	87.31
397.698	82.31
397.922	93.31
398.147	82.31
398.371	90.31
398.595	85.31
398.82	84.31
399.044	83.31
399.268	85.31
399.492	98.31
399.717	101.31
399.941	96.31
400.165	100.31
400.389	100.31
400.613	88.31
400.837	92.31
401.062	96.31
401.286	89.31
401.51	84.31
401.734	82.31
401.958	84.31
402.182	88.31
402.406	92.31
402.63	72.31
402.854	93.31
403.078	89.31
403.302	102.31
403.526	91.31
403.75	88.31
403.974	76.31
404.198	82.31
404.422	90.31
404.645	89.31
404.869	100.31
405.093	86.31
405.317	85.31
405.541	93.31
405.765	91.31
405.988	87.31
406.212	92.31
406.436	86.31
406.66	97.31
406.883	94.31
407.107	83.31
407.331	88.31
407.555	75.31
407.778	90.31
408.002	103.31
408.226	71.31
408.449	110.31
408.673	90.31
408.896	98.31
409.12	88.31
409.344	82.31
409.567	79.31
409.791	93.31
410.014	102.31
410.238	86.31
410.461	84.31
410.685	94.31
410.908	90.31
411.132	96.31
411.355	89.31
411.578	83.31
411.802	89.31
412.025	77.31
412.249	89.31
412.472	71.31
412.695	92.31
412.919	94.31
413.142	91.31
413.365	80.31
413.589	76.31
413.812	88.31
414.035	77.31
414.258	82.31
414.482	97.31
414.705	92.31
414.928	79.31
415.151	78.31
415.374	82.31
415.597	100.31
415.821	82.31
416.044	80.31
416.267	85.31
416.49	66.31
416.713	96.31
416.936	102.31
417.159	87.31
417.382	89.31
417.605	71.31
417.828	84.31
418.051	72.31
418.274	91.31
418.497	91.31
418.72	86.31
418.943	109.31
419.166	87.31
419.389	102.31
419.611	89.31
419.834	90.31
420.057	93.31
420.28	91.31
420.503	81.31
420.726	97.31
420.948	89.31
421.171	96.31
421.394	75.31
421.617	68.31
421.839	91.31
422.062	100.31
422.285	96.31
422.507	85.31
422.73	92.31
422.953	77.31
423.175	80.31
423.398	87.31
423.621	72.31
423.843	74.31
424.066	85.31
424.288	77.31
424.511	75.31
424.733	96.31
424.956	95.31
425.178	78.31
425.401	87.31
425.623	86.31
425.846	91.31
426.068	79.31
426.291	93.31
426.513	73.31
426.735	89.31
426.958	89.31
427.18	84.31
427.402	87.31
427.625	88.31
427.847	93.31
428.069	90.31
428.292	90.31
428.514	86.31
428.736	80.31
428.958	87.31
429.181	100.31
429.403	82.31
429.625	83.31
429.847	83.31
430.069	81.31
430.292	91.31
430.514	100.31
430.736	93.31
430.958	77.31
431.18	69.31
431.402	72.31
431.624	78.31
431.846	88.31
432.068	76.31
432.29	97.31
432.512	96.31
432.734	91.31
432.956	89.31
433.178	84.31
433.4	91.31
433.622	87.31
433.844	91.31
434.066	91.31
434.287	82.31
434.509	87.31
434.731	80.31
434.953	94.31
435.175	92.31
435.397	96.31
435.618	78.31
435.84	85.31
436.062	84.31
436.284	93.31
436.505	85.31
436.727	101.31
436.949	87.31
437.17	86.31
437.392	78.31
437.614	76.31
437.835	85.31
438.057	90.31
438.278	88.31
438.5	81.31
438.721	96.31
438.943	98.31
439.165	82.31
439.386	90.31
439.608	85.31
439.829	87.31
440.05	93.31
440.272	91.31
440.493	62.31
440.715	77.31
440.936	89.31
441.158	97.31
441.379	81.31
441.6	80.31
441.822	74.31
442.043	96.31
442.264	86.31
442.486	85.31
442.707	104.31
442.928	91.31
443.149	84.31
443.371	88.31
443.592	85.31
443.813	81.31
444.034	78.31
444.255	93.31
444.476	85.31
444.698	86.31
444.919	93.31
445.14	164.31
445.361	128.31
445.582	87.31
445.803	88.31
446.024	80.31
446.245	92.31
446.466	101.31
446.687	96.31
446.908	77.31
447.129	77.31
447.35	75.31
447.571	87.31
447.792	94.31
448.013	90.31
448.234	106.31
448.455	101.31
448.675	76.31
448.896	88.31
449.117	85.31
449.338	97.31
449.559	81.31
449.779	93.31
450	89.31
450.221	76.31
450.442	88.31
450.662	88.31
450.883	71.31
451.104	64.31
451.324	75.31
451.545	79.31
451.766	75.31
451.986	88.31
452.207	79.31
452.428	90.31
452.648	75.31
452.869	87.31
453.089	81.31
453.31	92.31
453.53	89.31
453.751	76.31
453.971	92.31
454.192	88.31
454.412	98.31
454.633	84.31
454.853	93.31
455.073	89.31
455.294	88.31
455.514	94.31
455.734	84.31
455.955	91.31
456.175	77.31
456.395	79.31
456.616	90.31
456.836	81.31
457.056	80.31
457.276	87.31
457.497	82.31
457.717	100.31
457.937	88.31
458.157	86.31
458.377	84.31
458.598	68.31
458.818	98.31
459.038	81.31
459.258	100.31
459.478	92.31
459.698	94.31
459.918	98.31
460.138	83.31
460.358	90.31
460.578	88.31
460.798	86.31
461.018	83.31
461.238	88.31
461.458	86.31
461.678	86.31
461.898	108.31
462.118	100.31
462.338	96.31
462.558	91.31
462.777	80.31
462.997	98.31
463.217	99.31
463.437	98.31
463.657	92.31
463.876	86.31
464.096	86.31
464.316	95.31
464.536	70.31
464.755	80.31
464.975	84.31
465.195	85.31
465.414	75.31
465.634	87.31
465.854	63.31
466.073	96.31
466.293	81.31
466.512	80.31
466.732	85.31
466.951	83.31
467.171	91.31
467.391	98.31
467.61	89.31
467.829	96.31
468.049	84.31
468.268	84.31
468.488	81.31
468.707	84.31
468.927	72.31
469.146	83.31
469.365	70.31
469.585	88.31
469.804	80.31
470.023	90.31
470.243	82.31
470.462	79.31
470.681	81.31
470.901	81.31
471.12	75.31
471.339	85.31
471.558	84.31
471.777	87.31
471.997	92.31
472.216	82.31
472.435	74.31
472.654	87.31
472.873	91.31
473.092	92.31
473.311	83.31
473.53	99.31
473.749	76.31
473.968	88.31
474.187	88.31
474.406	75.31
474.625	78.31
474.844	78.31
475.063	83.31
475.282	89.31
475.501	83.31
475.72	91.31
475.939	80.31
476.158	72.31
476.377	82.31
476.596	80.31
476.814	81.31
477.033	89.31
477.252	90.31
477.471	75.31
477.69	91.31
477.908	95.31
478.127	96.31
478.346	89.31
478.564	96.31
478.783	86.31
479.002	94.31
479.22	94.31
479.439	84.31
479.658	77.31
479.876	84.31
480.095	75.31
480.313	85.31
480.532	86.31
480.751	84.31
480.969	92.31
481.188	75.31
481.406	85.31
481.624	98.31
481.843	82.31
482.061	74.31
482.28	75.31
482.498	92.31
482.717	100.31
482.935	90.31
483.153	90.31
483.372	84.31
483.59	94.31
483.808	91.31
484.027	93.31
484.245	75.31
484.463	93.31
484.681	84.31
484.9	98.31
485.118	86.31
485.336	101.31
485.554	99.31
485.772	91.31
485.99	100.31
486.209	91.31
486.427	88.31
486.645	102.31
486.863	91.31
487.081	93.31
487.299	104.31
487.517	100.31
487.735	77.31
487.953	76.31
488.171	76.31
488.389	87.31
488.607	104.31
488.825	80.31
489.043	96.31
489.261	88.31
489.479	80.31
489.696	105.31
489.914	94.31
490.132	98.31
490.35	89.31
490.568	84.31
490.786	81.31
491.003	91.31
491.221	78.31
491.439	85.31
491.657	93.31
491.874	98.31
492.092	87.31
492.31	91.31
492.527	77.31
492.745	69.31
492.963	98.31
493.18	101.31
493.398	103.31
493.615	101.31
493.833	78.31
494.05	91.31
494.268	87.31
494.485	89.31
494.703	90.31
494.92	86.31
495.138	85.31
495.355	93.31
495.573	104.31
495.79	89.31
496.008	87.31
496.225	79.31
496.442	96.31
496.66	83.31
496.877	76.31
497.094	98.31
497.312	89.31
497.529	92.31
497.746	91.31
497.963	84.31
498.181	106.31
498.398	101.31
498.615	90.31
498.832	76.31
499.049	100.31
499.267	102.31
499.484	97.31
499.701	110.31
499.918	111.31
500.135	100.31
500.352	109.31
500.569	98.31
500.786	107.31
501.003	100.31
501.22	104.31
501.437	88.31
501.654	80.31
501.871	91.31
502.088	89.31
502.305	90.31
502.522	89.31
502.739	81.31
502.956	91.31
503.172	87.31
503.389	90.31
503.606	90.31
503.823	80.31
504.04	79.31
504.256	87.31
504.473	81.31
504.69	98.31
504.907	92.31
505.123	88.31
505.34	70.31
505.557	96.31
505.773	79.31
505.99	86.31
506.207	90.31
506.423	79.31
506.64	67.31
506.856	99.31
507.073	91.31
507.289	85.31
507.506	87.31
507.722	82.31
507.939	90.31
508.155	98.31
508.372	87.31
508.588	82.31
508.805	78.31
509.021	89.31
509.238	94.31
509.454	89.31
509.67	99.31
509.887	88.31
510.103	86.31
510.319	90.31
510.536	92.31
510.752	88.31
510.968	98.31
511.184	91.31
511.401	80.31
511.617	84.31
511.833	91.31
512.049	93.31
512.265	86.31
512.481	78.31
512.698	94.31
512.914	84.31
513.13	86.31
513.346	77.31
513.562	82.31
513.778	85.31
513.994	75.31
514.21	86.31
514.426	92.31
514.642	84.31
514.858	76.31
515.074	80.31
515.29	92.31
515.506	82.31
515.721	89.31
515.937	83.31
516.153	82.31
516.369	99.31
516.585	97.31
516.801	108.31
517.016	98.31
517.232	99.31
517.448	87.31
517.664	87.31
517.879	76.31
518.095	104.31
518.311	91.31
518.527	102.31
518.742	88.31
518.958	74.31
519.173	91.31
519.389	102.31
