Data from BG_HRD10591_026.txt Node
Date: Fri May 16 15:14:35 EDT 2025
User: Yrep
Spectrometer: HR+D1059
Trigger mode: 1
Integration Time (sec): 1.000000E-1
Scans to average: 1
Electric dark correction enabled: true
Nonlinearity correction enabled: false
Boxcar width: 0
XAxis mode: Wavelengths
Number of Pixels in Spectrum: 2048
>>>>>Begin Spectral Data<<<<<
223.165	-13.25
223.4	-13.25
223.635	-13.25
223.869	-5.25
224.104	-30.25
224.338	-15.25
224.573	-19.25
224.808	3.75
225.042	1.75
225.277	-5.25
225.511	5.75
225.746	2.75
225.98	4.75
226.215	0.75
226.449	6.75
226.683	17.75
226.918	17.75
227.152	26.75
227.387	33.75
227.621	50.75
227.856	34.75
228.09	54.75
228.324	52.75
228.559	59.75
228.793	48.75
229.027	52.75
229.262	68.75
229.496	73.75
229.73	62.75
229.964	64.75
230.199	72.75
230.433	66.75
230.667	58.75
230.901	81.75
231.136	76.75
231.37	76.75
231.604	63.75
231.838	91.75
232.072	68.75
232.306	89.75
232.541	81.75
232.775	81.75
233.009	82.75
233.243	87.75
233.477	80.75
233.711	83.75
233.945	78.75
234.179	67.75
234.413	77.75
234.647	77.75
234.881	74.75
235.115	85.75
235.349	70.75
235.583	75.75
235.817	70.75
236.051	62.75
236.285	76.75
236.519	82.75
236.753	68.75
236.987	90.75
237.221	70.75
237.455	93.75
237.689	69.75
237.922	81.75
238.156	72.75
238.39	76.75
238.624	73.75
238.858	83.75
239.091	65.75
239.325	63.75
239.559	78.75
239.793	77.75
240.027	75.75
240.26	79.75
240.494	78.75
240.728	74.75
240.961	62.75
241.195	74.75
241.429	80.75
241.662	82.75
241.896	77.75
242.13	72.75
242.363	69.75
242.597	65.75
242.83	76.75
243.064	73.75
243.298	89.75
243.531	71.75
243.765	70.75
243.998	63.75
244.232	84.75
244.465	76.75
244.699	84.75
244.932	78.75
245.166	81.75
245.399	72.75
245.633	86.75
245.866	81.75
246.099	73.75
246.333	81.75
246.566	82.75
246.8	70.75
247.033	83.75
247.266	80.75
247.5	69.75
247.733	78.75
247.966	72.75
248.2	71.75
248.433	76.75
248.666	75.75
248.899	76.75
249.133	87.75
249.366	82.75
249.599	83.75
249.832	93.75
250.066	68.75
250.299	78.75
250.532	71.75
250.765	78.75
250.998	71.75
251.231	78.75
251.465	82.75
251.698	77.75
251.931	74.75
252.164	84.75
252.397	90.75
252.63	80.75
252.863	80.75
253.096	71.75
253.329	75.75
253.562	86.75
253.795	86.75
254.028	84.75
254.261	76.75
254.494	88.75
254.727	67.75
254.96	84.75
255.193	68.75
255.426	83.75
255.659	75.75
255.892	91.75
256.124	75.75
256.357	73.75
256.59	84.75
256.823	82.75
257.056	85.75
257.289	78.75
257.521	83.75
257.754	80.75
257.987	81.75
258.22	68.75
258.452	70.75
258.685	82.75
258.918	88.75
259.151	99.75
259.383	80.75
259.616	73.75
259.849	89.75
260.081	82.75
260.314	84.75
260.547	81.75
260.779	62.75
261.012	83.75
261.244	72.75
261.477	87.75
261.71	96.75
261.942	86.75
262.175	81.75
262.407	80.75
262.64	89.75
262.872	92.75
263.105	78.75
263.337	83.75
263.57	86.75
263.802	88.75
264.035	63.75
264.267	74.75
264.499	83.75
264.732	89.75
264.964	81.75
265.197	80.75
265.429	78.75
265.661	92.75
265.894	88.75
266.126	78.75
266.358	80.75
266.591	79.75
266.823	76.75
267.055	94.75
267.287	91.75
267.52	85.75
267.752	81.75
267.984	62.75
268.216	82.75
268.448	80.75
268.681	84.75
268.913	89.75
269.145	82.75
269.377	81.75
269.609	91.75
269.841	82.75
270.073	86.75
270.306	81.75
270.538	86.75
270.77	77.75
271.002	84.75
271.234	92.75
271.466	76.75
271.698	79.75
271.93	80.75
272.162	92.75
272.394	89.75
272.626	85.75
272.858	77.75
273.09	84.75
273.322	89.75
273.553	74.75
273.785	108.75
274.017	91.75
274.249	95.75
274.481	78.75
274.713	64.75
274.945	73.75
275.176	88.75
275.408	80.75
275.64	85.75
275.872	79.75
276.104	77.75
276.335	75.75
276.567	87.75
276.799	74.75
277.031	71.75
277.262	75.75
277.494	82.75
277.726	92.75
277.957	83.75
278.189	82.75
278.421	84.75
278.652	80.75
278.884	72.75
279.115	62.75
279.347	93.75
279.579	96.75
279.81	96.75
280.042	81.75
280.273	68.75
280.505	89.75
280.736	80.75
280.968	100.75
281.199	89.75
281.431	72.75
281.662	96.75
281.894	92.75
282.125	93.75
282.356	86.75
282.588	80.75
282.819	90.75
283.051	87.75
283.282	88.75
283.513	83.75
283.745	81.75
283.976	80.75
284.207	86.75
284.439	77.75
284.67	77.75
284.901	100.75
285.132	86.75
285.364	88.75
285.595	88.75
285.826	63.75
286.057	85.75
286.288	87.75
286.52	85.75
286.751	80.75
286.982	80.75
287.213	61.75
287.444	72.75
287.675	86.75
287.906	85.75
288.138	85.75
288.369	85.75
288.6	75.75
288.831	75.75
289.062	87.75
289.293	78.75
289.524	83.75
289.755	103.75
289.986	89.75
290.217	87.75
290.448	93.75
290.679	90.75
290.91	91.75
291.141	90.75
291.371	72.75
291.602	88.75
291.833	77.75
292.064	89.75
292.295	88.75
292.526	85.75
292.757	92.75
292.987	75.75
293.218	85.75
293.449	82.75
293.68	77.75
293.91	81.75
294.141	84.75
294.372	75.75
294.603	86.75
294.833	86.75
295.064	77.75
295.295	97.75
295.525	83.75
295.756	78.75
295.987	80.75
296.217	75.75
296.448	88.75
296.679	72.75
296.909	82.75
297.14	101.75
297.37	94.75
297.601	82.75
297.831	88.75
298.062	82.75
298.292	79.75
298.523	86.75
298.753	81.75
298.984	82.75
299.214	97.75
299.445	92.75
299.675	91.75
299.905	77.75
300.136	104.75
300.366	85.75
300.597	86.75
300.827	105.75
301.057	89.75
301.288	68.75
301.518	90.75
301.748	89.75
301.979	92.75
302.209	97.75
302.439	80.75
302.669	72.75
302.9	92.75
303.13	77.75
303.36	80.75
303.59	86.75
303.82	86.75
304.051	92.75
304.281	85.75
304.511	102.75
304.741	96.75
304.971	89.75
305.201	93.75
305.431	72.75
305.661	88.75
305.891	80.75
306.121	87.75
306.352	82.75
306.582	83.75
306.812	71.75
307.042	82.75
307.272	84.75
307.502	89.75
307.731	88.75
307.961	83.75
308.191	76.75
308.421	74.75
308.651	82.75
308.881	86.75
309.111	69.75
309.341	86.75
309.571	85.75
309.8	70.75
310.03	97.75
310.26	79.75
310.49	88.75
310.72	90.75
310.949	83.75
311.179	94.75
311.409	78.75
311.639	88.75
311.868	91.75
312.098	80.75
312.328	77.75
312.557	84.75
312.787	71.75
313.017	80.75
313.246	94.75
313.476	86.75
313.706	56.75
313.935	79.75
314.165	86.75
314.394	82.75
314.624	97.75
314.853	93.75
315.083	87.75
315.312	81.75
315.542	84.75
315.771	88.75
316.001	90.75
316.23	92.75
316.46	82.75
316.689	93.75
316.919	98.75
317.148	94.75
317.377	70.75
317.607	82.75
317.836	82.75
318.065	79.75
318.295	100.75
318.524	90.75
318.753	89.75
318.983	78.75
319.212	78.75
319.441	85.75
319.67	79.75
319.9	83.75
320.129	90.75
320.358	99.75
320.587	100.75
320.816	75.75
321.046	88.75
321.275	77.75
321.504	84.75
321.733	72.75
321.962	96.75
322.191	85.75
322.42	96.75
322.649	85.75
322.878	91.75
323.108	92.75
323.337	81.75
323.566	91.75
323.795	73.75
324.024	73.75
324.253	99.75
324.482	93.75
324.71	80.75
324.939	87.75
325.168	82.75
325.397	94.75
325.626	90.75
325.855	84.75
326.084	85.75
326.313	88.75
326.542	86.75
326.77	88.75
326.999	92.75
327.228	98.75
327.457	84.75
327.686	76.75
327.914	103.75
328.143	80.75
328.372	85.75
328.6	82.75
328.829	93.75
329.058	79.75
329.287	88.75
329.515	93.75
329.744	83.75
329.972	88.75
330.201	91.75
330.43	87.75
330.658	77.75
330.887	85.75
331.115	67.75
331.344	75.75
331.572	84.75
331.801	87.75
332.03	78.75
332.258	86.75
332.486	83.75
332.715	84.75
332.943	92.75
333.172	83.75
333.4	82.75
333.629	87.75
333.857	86.75
334.085	72.75
334.314	93.75
334.542	95.75
334.771	88.75
334.999	60.75
335.227	82.75
335.455	94.75
335.684	82.75
335.912	89.75
336.14	99.75
336.369	92.75
336.597	82.75
336.825	72.75
337.053	84.75
337.281	89.75
337.51	86.75
337.738	85.75
337.966	77.75
338.194	73.75
338.422	71.75
338.65	70.75
338.878	98.75
339.106	80.75
339.334	87.75
339.562	82.75
339.79	84.75
340.018	73.75
340.246	87.75
340.474	85.75
340.702	86.75
340.93	82.75
341.158	81.75
341.386	87.75
341.614	89.75
341.842	87.75
342.07	92.75
342.298	80.75
342.526	84.75
342.754	88.75
342.981	87.75
343.209	96.75
343.437	91.75
343.665	105.75
343.893	77.75
344.12	80.75
344.348	85.75
344.576	94.75
344.804	89.75
345.031	83.75
345.259	82.75
345.487	84.75
345.714	83.75
345.942	83.75
346.17	80.75
346.397	78.75
346.625	79.75
346.853	85.75
347.08	87.75
347.308	96.75
347.535	76.75
347.763	98.75
347.99	78.75
348.218	85.75
348.445	82.75
348.673	91.75
348.9	86.75
349.128	84.75
349.355	79.75
349.583	85.75
349.81	80.75
350.037	88.75
350.265	83.75
350.492	81.75
350.72	78.75
350.947	90.75
351.174	81.75
351.402	90.75
351.629	70.75
351.856	85.75
352.083	67.75
352.311	75.75
352.538	74.75
352.765	83.75
352.992	84.75
353.22	83.75
353.447	104.75
353.674	92.75
353.901	85.75
354.128	89.75
354.355	84.75
354.583	72.75
354.81	92.75
355.037	86.75
355.264	84.75
355.491	78.75
355.718	82.75
355.945	67.75
356.172	91.75
356.399	96.75
356.626	71.75
356.853	79.75
357.08	96.75
357.307	89.75
357.534	83.75
357.761	82.75
357.988	81.75
358.215	73.75
358.441	91.75
358.668	93.75
358.895	88.75
359.122	92.75
359.349	85.75
359.576	84.75
359.802	82.75
360.029	76.75
360.256	77.75
360.483	92.75
360.709	76.75
360.936	83.75
361.163	91.75
361.39	83.75
361.616	75.75
361.843	84.75
362.07	80.75
362.296	68.75
362.523	82.75
362.749	90.75
362.976	91.75
363.203	90.75
363.429	93.75
363.656	73.75
363.882	90.75
364.109	85.75
364.335	76.75
364.562	84.75
364.788	73.75
365.015	91.75
365.241	94.75
365.468	89.75
365.694	77.75
365.92	74.75
366.147	74.75
366.373	82.75
366.599	89.75
366.826	85.75
367.052	86.75
367.278	87.75
367.505	85.75
367.731	94.75
367.957	87.75
368.184	81.75
368.41	82.75
368.636	81.75
368.862	90.75
369.089	79.75
369.315	84.75
369.541	70.75
369.767	97.75
369.993	93.75
370.219	70.75
370.445	85.75
370.672	64.75
370.898	88.75
371.124	86.75
371.35	75.75
371.576	86.75
371.802	84.75
372.028	82.75
372.254	82.75
372.48	90.75
372.706	85.75
372.932	88.75
373.158	91.75
373.384	83.75
373.61	94.75
373.835	82.75
374.061	84.75
374.287	76.75
374.513	98.75
374.739	80.75
374.965	74.75
375.191	86.75
375.416	93.75
375.642	79.75
375.868	86.75
376.094	107.75
376.319	84.75
376.545	102.75
376.771	86.75
376.997	70.75
377.222	100.75
377.448	85.75
377.674	72.75
377.899	80.75
378.125	82.75
378.35	86.75
378.576	81.75
378.802	81.75
379.027	76.75
379.253	91.75
379.478	87.75
379.704	85.75
379.929	72.75
380.155	75.75
380.38	92.75
380.606	84.75
380.831	79.75
381.057	91.75
381.282	88.75
381.507	94.75
381.733	85.75
381.958	85.75
382.184	87.75
382.409	92.75
382.634	77.75
382.86	89.75
383.085	92.75
383.31	98.75
383.535	78.75
383.761	87.75
383.986	99.75
384.211	104.75
384.436	84.75
384.662	88.75
384.887	84.75
385.112	82.75
385.337	94.75
385.562	76.75
385.787	84.75
386.013	80.75
386.238	89.75
386.463	84.75
386.688	82.75
386.913	87.75
387.138	87.75
387.363	76.75
387.588	97.75
387.813	85.75
388.038	96.75
388.263	82.75
388.488	92.75
388.713	91.75
388.938	90.75
389.163	80.75
389.387	81.75
389.612	96.75
389.837	104.75
390.062	90.75
390.287	86.75
390.512	63.75
390.736	76.75
390.961	80.75
391.186	84.75
391.411	83.75
391.636	107.75
391.86	82.75
392.085	81.75
392.31	92.75
392.534	87.75
392.759	92.75
392.984	84.75
393.208	91.75
393.433	87.75
393.658	78.75
393.882	86.75
394.107	88.75
394.331	88.75
394.556	88.75
394.78	90.75
395.005	81.75
395.229	84.75
395.454	82.75
395.678	87.75
395.903	90.75
396.127	89.75
396.352	96.75
396.576	83.75
396.801	82.75
397.025	85.75
397.249	84.75
397.474	105.75
397.698	96.75
397.922	93.75
398.147	100.75
398.371	89.75
398.595	92.75
398.82	89.75
399.044	92.75
399.268	86.75
399.492	91.75
399.717	117.75
399.941	91.75
400.165	94.75
400.389	80.75
400.613	73.75
400.837	80.75
401.062	93.75
401.286	88.75
401.51	84.75
401.734	83.75
401.958	82.75
402.182	103.75
402.406	91.75
402.63	74.75
402.854	77.75
403.078	81.75
403.302	76.75
403.526	90.75
403.75	109.75
403.974	87.75
404.198	84.75
404.422	96.75
404.645	83.75
404.869	96.75
405.093	83.75
405.317	79.75
405.541	81.75
405.765	92.75
405.988	80.75
406.212	74.75
406.436	98.75
406.66	92.75
406.883	84.75
407.107	81.75
407.331	91.75
407.555	89.75
407.778	105.75
408.002	81.75
408.226	78.75
408.449	85.75
408.673	88.75
408.896	91.75
409.12	83.75
409.344	77.75
409.567	72.75
409.791	85.75
410.014	102.75
410.238	84.75
410.461	82.75
410.685	99.75
410.908	92.75
411.132	76.75
411.355	96.75
411.578	86.75
411.802	81.75
412.025	90.75
412.249	87.75
412.472	87.75
412.695	81.75
412.919	106.75
413.142	98.75
413.365	105.75
413.589	92.75
413.812	84.75
414.035	96.75
414.258	104.75
414.482	91.75
414.705	89.75
414.928	85.75
415.151	97.75
415.374	85.75
415.597	88.75
415.821	77.75
416.044	85.75
416.267	82.75
416.49	87.75
416.713	75.75
416.936	91.75
417.159	81.75
417.382	92.75
417.605	64.75
417.828	87.75
418.051	85.75
418.274	87.75
418.497	91.75
418.72	85.75
418.943	98.75
419.166	80.75
419.389	90.75
419.611	98.75
419.834	69.75
420.057	90.75
420.28	75.75
420.503	72.75
420.726	76.75
420.948	84.75
421.171	96.75
421.394	81.75
421.617	77.75
421.839	90.75
422.062	69.75
422.285	91.75
422.507	97.75
422.73	90.75
422.953	85.75
423.175	85.75
423.398	99.75
423.621	98.75
423.843	78.75
424.066	79.75
424.288	73.75
424.511	102.75
424.733	102.75
424.956	88.75
425.178	86.75
425.401	97.75
425.623	81.75
425.846	88.75
426.068	87.75
426.291	82.75
426.513	94.75
426.735	96.75
426.958	67.75
427.18	103.75
427.402	68.75
427.625	86.75
427.847	88.75
428.069	100.75
428.292	76.75
428.514	77.75
428.736	64.75
428.958	86.75
429.181	92.75
429.403	73.75
429.625	86.75
429.847	80.75
430.069	87.75
430.292	78.75
430.514	88.75
430.736	74.75
430.958	69.75
431.18	80.75
431.402	87.75
431.624	90.75
431.846	94.75
432.068	91.75
432.29	96.75
432.512	87.75
432.734	79.75
432.956	85.75
433.178	84.75
433.4	77.75
433.622	87.75
433.844	102.75
434.066	88.75
434.287	86.75
434.509	106.75
434.731	84.75
434.953	88.75
435.175	63.75
435.397	99.75
435.618	88.75
435.84	86.75
436.062	87.75
436.284	89.75
436.505	87.75
436.727	84.75
436.949	77.75
437.17	84.75
437.392	82.75
437.614	76.75
437.835	87.75
438.057	87.75
438.278	92.75
438.5	91.75
438.721	81.75
438.943	77.75
439.165	96.75
439.386	93.75
439.608	82.75
439.829	89.75
440.05	83.75
440.272	79.75
440.493	74.75
440.715	92.75
440.936	73.75
441.158	83.75
441.379	107.75
441.6	86.75
441.822	92.75
442.043	83.75
442.264	76.75
442.486	96.75
442.707	77.75
442.928	82.75
443.149	87.75
443.371	97.75
443.592	85.75
443.813	97.75
444.034	84.75
444.255	89.75
444.476	67.75
444.698	99.75
444.919	77.75
445.14	164.75
445.361	116.75
445.582	92.75
445.803	93.75
446.024	83.75
446.245	87.75
446.466	96.75
446.687	90.75
446.908	71.75
447.129	84.75
447.35	88.75
447.571	82.75
447.792	93.75
448.013	86.75
448.234	76.75
448.455	85.75
448.675	76.75
448.896	82.75
449.117	78.75
449.338	76.75
449.559	81.75
449.779	72.75
450	91.75
450.221	92.75
450.442	71.75
450.662	83.75
450.883	78.75
451.104	100.75
451.324	83.75
451.545	89.75
451.766	95.75
451.986	87.75
452.207	79.75
452.428	89.75
452.648	84.75
452.869	90.75
453.089	84.75
453.31	98.75
453.53	81.75
453.751	81.75
453.971	96.75
454.192	91.75
454.412	79.75
454.633	69.75
454.853	68.75
455.073	85.75
455.294	84.75
455.514	81.75
455.734	64.75
455.955	78.75
456.175	75.75
456.395	81.75
456.616	77.75
456.836	84.75
457.056	73.75
457.276	74.75
457.497	92.75
457.717	80.75
457.937	85.75
458.157	77.75
458.377	92.75
458.598	92.75
458.818	85.75
459.038	74.75
459.258	84.75
459.478	90.75
459.698	100.75
459.918	87.75
460.138	79.75
460.358	87.75
460.578	99.75
460.798	89.75
461.018	88.75
461.238	78.75
461.458	96.75
461.678	61.75
461.898	86.75
462.118	96.75
462.338	87.75
462.558	98.75
462.777	84.75
462.997	89.75
463.217	89.75
463.437	67.75
463.657	89.75
463.876	88.75
464.096	85.75
464.316	88.75
464.536	96.75
464.755	96.75
464.975	89.75
465.195	87.75
465.414	102.75
465.634	68.75
465.854	79.75
466.073	90.75
466.293	80.75
466.512	77.75
466.732	81.75
466.951	88.75
467.171	89.75
467.391	103.75
467.61	91.75
467.829	87.75
468.049	92.75
468.268	92.75
468.488	85.75
468.707	90.75
468.927	106.75
469.146	76.75
469.365	99.75
469.585	87.75
469.804	87.75
470.023	72.75
470.243	83.75
470.462	80.75
470.681	93.75
470.901	71.75
471.12	96.75
471.339	82.75
471.558	86.75
471.777	84.75
471.997	84.75
472.216	87.75
472.435	97.75
472.654	108.75
472.873	92.75
473.092	89.75
473.311	85.75
473.53	94.75
473.749	88.75
473.968	89.75
474.187	77.75
474.406	79.75
474.625	95.75
474.844	100.75
475.063	90.75
475.282	88.75
475.501	93.75
475.72	85.75
475.939	89.75
476.158	74.75
476.377	100.75
476.596	73.75
476.814	88.75
477.033	86.75
477.252	82.75
477.471	78.75
477.69	84.75
477.908	89.75
478.127	92.75
478.346	89.75
478.564	70.75
478.783	87.75
479.002	91.75
479.22	76.75
479.439	85.75
479.658	100.75
479.876	81.75
480.095	91.75
480.313	93.75
480.532	88.75
480.751	92.75
480.969	84.75
481.188	82.75
481.406	80.75
481.624	87.75
481.843	86.75
482.061	76.75
482.28	93.75
482.498	89.75
482.717	81.75
482.935	73.75
483.153	94.75
483.372	92.75
483.59	91.75
483.808	85.75
484.027	87.75
484.245	86.75
484.463	88.75
484.681	91.75
484.9	81.75
485.118	91.75
485.336	80.75
485.554	81.75
485.772	109.75
485.99	91.75
486.209	90.75
486.427	84.75
486.645	81.75
486.863	83.75
487.081	80.75
487.299	87.75
487.517	96.75
487.735	83.75
487.953	77.75
488.171	94.75
488.389	103.75
488.607	73.75
488.825	94.75
489.043	84.75
489.261	92.75
489.479	91.75
489.696	91.75
489.914	87.75
490.132	87.75
490.35	84.75
490.568	79.75
490.786	84.75
491.003	90.75
491.221	76.75
491.439	89.75
491.657	82.75
491.874	78.75
492.092	82.75
492.31	100.75
492.527	78.75
492.745	91.75
492.963	93.75
493.18	83.75
493.398	89.75
493.615	109.75
493.833	93.75
494.05	91.75
494.268	86.75
494.485	92.75
494.703	93.75
494.92	100.75
495.138	93.75
495.355	104.75
495.573	100.75
495.79	80.75
496.008	91.75
496.225	80.75
496.442	95.75
496.66	98.75
496.877	97.75
497.094	114.75
497.312	96.75
497.529	99.75
497.746	89.75
497.963	92.75
498.181	73.75
498.398	96.75
498.615	98.75
498.832	87.75
499.049	99.75
499.267	105.75
499.484	112.75
499.701	103.75
499.918	96.75
500.135	96.75
500.352	103.75
500.569	105.75
500.786	108.75
501.003	102.75
501.22	89.75
501.437	107.75
501.654	89.75
501.871	100.75
502.088	73.75
502.305	92.75
502.522	82.75
502.739	85.75
502.956	84.75
503.172	99.75
503.389	82.75
503.606	88.75
503.823	83.75
504.04	94.75
504.256	91.75
504.473	82.75
504.69	88.75
504.907	92.75
505.123	90.75
505.34	86.75
505.557	91.75
505.773	82.75
505.99	90.75
506.207	92.75
506.423	82.75
506.64	84.75
506.856	92.75
507.073	91.75
507.289	83.75
507.506	106.75
507.722	88.75
507.939	83.75
508.155	84.75
508.372	86.75
508.588	96.75
508.805	90.75
509.021	81.75
509.238	89.75
509.454	89.75
509.67	92.75
509.887	91.75
510.103	83.75
510.319	91.75
510.536	106.75
510.752	89.75
510.968	82.75
511.184	80.75
511.401	89.75
511.617	85.75
511.833	84.75
512.049	75.75
512.265	83.75
512.481	84.75
512.698	90.75
512.914	86.75
513.13	90.75
513.346	101.75
513.562	93.75
513.778	93.75
513.994	90.75
514.21	80.75
514.426	86.75
514.642	79.75
514.858	96.75
515.074	89.75
515.29	93.75
515.506	82.75
515.721	76.75
515.937	99.75
516.153	78.75
516.369	85.75
516.585	92.75
516.801	96.75
517.016	102.75
517.232	96.75
517.448	83.75
517.664	89.75
517.879	115.75
518.095	86.75
518.311	91.75
518.527	90.75
518.742	93.75
518.958	77.75
519.173	91.75
519.389	93.75
519.605	91.75
