Data from BG_HRD10591_011.txt Node
Date: Fri May 16 15:14:28 EDT 2025
User: Yrep
Spectrometer: HR+D1059
Trigger mode: 1
Integration Time (sec): 1.000000E-1
Scans to average: 1
Electric dark correction enabled: true
Nonlinearity correction enabled: false
Boxcar width: 0
XAxis mode: Wavelengths
Number of Pixels in Spectrum: 2048
>>>>>Begin Spectral Data<<<<<
223.165	-19.88
223.4	-19.88
223.635	-19.88
223.869	-20.88
224.104	-19.88
224.338	-7.88
224.573	-10.88
224.808	-14.88
225.042	-11.88
225.277	2.12
225.511	-0.88
225.746	-1.88
225.98	7.12
226.215	12.12
226.449	14.12
226.683	22.12
226.918	18.12
227.152	33.12
227.387	30.12
227.621	40.12
227.856	45.12
228.09	46.12
228.324	56.12
228.559	65.12
228.793	62.12
229.027	67.12
229.262	69.12
229.496	58.12
229.73	71.12
229.964	65.12
230.199	65.12
230.433	68.12
230.667	73.12
230.901	73.12
231.136	68.12
231.37	75.12
231.604	70.12
231.838	75.12
232.072	77.12
232.306	88.12
232.541	78.12
232.775	77.12
233.009	75.12
233.243	63.12
233.477	87.12
233.711	80.12
233.945	74.12
234.179	82.12
234.413	60.12
234.647	76.12
234.881	81.12
235.115	77.12
235.349	84.12
235.583	78.12
235.817	97.12
236.051	68.12
236.285	80.12
236.519	75.12
236.753	79.12
236.987	77.12
237.221	73.12
237.455	73.12
237.689	69.12
237.922	86.12
238.156	72.12
238.39	57.12
238.624	80.12
238.858	82.12
239.091	73.12
239.325	92.12
239.559	70.12
239.793	68.12
240.027	79.12
240.26	83.12
240.494	92.12
240.728	103.12
240.961	83.12
241.195	80.12
241.429	88.12
241.662	71.12
241.896	79.12
242.13	81.12
242.363	77.12
242.597	85.12
242.83	77.12
243.064	75.12
243.298	75.12
243.531	68.12
243.765	81.12
243.998	86.12
244.232	87.12
244.465	79.12
244.699	85.12
244.932	72.12
245.166	81.12
245.399	86.12
245.633	78.12
245.866	61.12
246.099	79.12
246.333	72.12
246.566	61.12
246.8	89.12
247.033	80.12
247.266	69.12
247.5	93.12
247.733	77.12
247.966	87.12
248.2	67.12
248.433	77.12
248.666	83.12
248.899	65.12
249.133	82.12
249.366	67.12
249.599	79.12
249.832	83.12
250.066	59.12
250.299	94.12
250.532	83.12
250.765	73.12
250.998	75.12
251.231	88.12
251.465	81.12
251.698	80.12
251.931	86.12
252.164	72.12
252.397	82.12
252.63	84.12
252.863	88.12
253.096	72.12
253.329	84.12
253.562	61.12
253.795	59.12
254.028	82.12
254.261	75.12
254.494	74.12
254.727	83.12
254.96	79.12
255.193	84.12
255.426	83.12
255.659	78.12
255.892	78.12
256.124	76.12
256.357	78.12
256.59	96.12
256.823	96.12
257.056	87.12
257.289	86.12
257.521	80.12
257.754	83.12
257.987	96.12
258.22	83.12
258.452	74.12
258.685	89.12
258.918	71.12
259.151	79.12
259.383	91.12
259.616	75.12
259.849	82.12
260.081	71.12
260.314	72.12
260.547	85.12
260.779	71.12
261.012	75.12
261.244	71.12
261.477	84.12
261.71	84.12
261.942	91.12
262.175	80.12
262.407	85.12
262.64	79.12
262.872	71.12
263.105	63.12
263.337	83.12
263.57	89.12
263.802	66.12
264.035	85.12
264.267	67.12
264.499	66.12
264.732	81.12
264.964	94.12
265.197	81.12
265.429	86.12
265.661	81.12
265.894	90.12
266.126	84.12
266.358	99.12
266.591	78.12
266.823	89.12
267.055	71.12
267.287	95.12
267.52	72.12
267.752	88.12
267.984	93.12
268.216	95.12
268.448	84.12
268.681	78.12
268.913	87.12
269.145	83.12
269.377	92.12
269.609	84.12
269.841	83.12
270.073	85.12
270.306	91.12
270.538	69.12
270.77	84.12
271.002	91.12
271.234	97.12
271.466	93.12
271.698	94.12
271.93	80.12
272.162	94.12
272.394	88.12
272.626	75.12
272.858	76.12
273.09	79.12
273.322	88.12
273.553	81.12
273.785	102.12
274.017	89.12
274.249	78.12
274.481	96.12
274.713	86.12
274.945	92.12
275.176	71.12
275.408	83.12
275.64	84.12
275.872	85.12
276.104	94.12
276.335	70.12
276.567	85.12
276.799	86.12
277.031	75.12
277.262	80.12
277.494	83.12
277.726	82.12
277.957	92.12
278.189	83.12
278.421	72.12
278.652	95.12
278.884	101.12
279.115	80.12
279.347	89.12
279.579	87.12
279.81	72.12
280.042	90.12
280.273	75.12
280.505	97.12
280.736	80.12
280.968	75.12
281.199	90.12
281.431	85.12
281.662	73.12
281.894	85.12
282.125	84.12
282.356	91.12
282.588	87.12
282.819	77.12
283.051	83.12
283.282	85.12
283.513	84.12
283.745	93.12
283.976	85.12
284.207	72.12
284.439	95.12
284.67	89.12
284.901	94.12
285.132	85.12
285.364	84.12
285.595	76.12
285.826	91.12
286.057	90.12
286.288	85.12
286.52	71.12
286.751	81.12
286.982	82.12
287.213	91.12
287.444	83.12
287.675	76.12
287.906	95.12
288.138	81.12
288.369	87.12
288.6	92.12
288.831	88.12
289.062	84.12
289.293	83.12
289.524	72.12
289.755	87.12
289.986	90.12
290.217	79.12
290.448	96.12
290.679	115.12
290.91	99.12
291.141	86.12
291.371	92.12
291.602	89.12
291.833	79.12
292.064	103.12
292.295	86.12
292.526	89.12
292.757	72.12
292.987	66.12
293.218	82.12
293.449	85.12
293.68	85.12
293.91	87.12
294.141	79.12
294.372	93.12
294.603	83.12
294.833	64.12
295.064	74.12
295.295	82.12
295.525	87.12
295.756	86.12
295.987	88.12
296.217	75.12
296.448	78.12
296.679	75.12
296.909	87.12
297.14	86.12
297.37	90.12
297.601	66.12
297.831	87.12
298.062	77.12
298.292	90.12
298.523	84.12
298.753	97.12
298.984	78.12
299.214	82.12
299.445	87.12
299.675	76.12
299.905	77.12
300.136	83.12
300.366	77.12
300.597	94.12
300.827	94.12
301.057	86.12
301.288	91.12
301.518	89.12
301.748	79.12
301.979	80.12
302.209	81.12
302.439	87.12
302.669	95.12
302.9	80.12
303.13	83.12
303.36	83.12
303.59	86.12
303.82	80.12
304.051	88.12
304.281	86.12
304.511	89.12
304.741	88.12
304.971	81.12
305.201	85.12
305.431	100.12
305.661	75.12
305.891	88.12
306.121	77.12
306.352	94.12
306.582	93.12
306.812	88.12
307.042	91.12
307.272	81.12
307.502	65.12
307.731	85.12
307.961	93.12
308.191	90.12
308.421	97.12
308.651	85.12
308.881	82.12
309.111	101.12
309.341	83.12
309.571	91.12
309.8	77.12
310.03	75.12
310.26	94.12
310.49	87.12
310.72	73.12
310.949	85.12
311.179	99.12
311.409	87.12
311.639	89.12
311.868	88.12
312.098	85.12
312.328	96.12
312.557	78.12
312.787	95.12
313.017	87.12
313.246	90.12
313.476	87.12
313.706	82.12
313.935	80.12
314.165	84.12
314.394	94.12
314.624	84.12
314.853	90.12
315.083	94.12
315.312	100.12
315.542	90.12
315.771	69.12
316.001	81.12
316.23	81.12
316.46	92.12
316.689	83.12
316.919	91.12
317.148	91.12
317.377	85.12
317.607	106.12
317.836	95.12
318.065	76.12
318.295	81.12
318.524	72.12
318.753	87.12
318.983	74.12
319.212	75.12
319.441	83.12
319.67	80.12
319.9	64.12
320.129	83.12
320.358	77.12
320.587	84.12
320.816	97.12
321.046	90.12
321.275	88.12
321.504	88.12
321.733	87.12
321.962	75.12
322.191	79.12
322.42	76.12
322.649	64.12
322.878	77.12
323.108	82.12
323.337	71.12
323.566	69.12
323.795	88.12
324.024	82.12
324.253	89.12
324.482	83.12
324.71	84.12
324.939	99.12
325.168	94.12
325.397	81.12
325.626	79.12
325.855	80.12
326.084	75.12
326.313	83.12
326.542	89.12
326.77	82.12
326.999	92.12
327.228	83.12
327.457	103.12
327.686	83.12
327.914	75.12
328.143	82.12
328.372	94.12
328.6	91.12
328.829	71.12
329.058	72.12
329.287	92.12
329.515	87.12
329.744	89.12
329.972	73.12
330.201	72.12
330.43	89.12
330.658	75.12
330.887	83.12
331.115	91.12
331.344	81.12
331.572	79.12
331.801	88.12
332.03	77.12
332.258	79.12
332.486	89.12
332.715	92.12
332.943	72.12
333.172	93.12
333.4	87.12
333.629	84.12
333.857	90.12
334.085	100.12
334.314	86.12
334.542	82.12
334.771	91.12
334.999	87.12
335.227	83.12
335.455	83.12
335.684	76.12
335.912	85.12
336.14	82.12
336.369	82.12
336.597	83.12
336.825	92.12
337.053	71.12
337.281	69.12
337.51	82.12
337.738	95.12
337.966	74.12
338.194	82.12
338.422	89.12
338.65	77.12
338.878	88.12
339.106	86.12
339.334	80.12
339.562	91.12
339.79	91.12
340.018	81.12
340.246	93.12
340.474	87.12
340.702	83.12
340.93	91.12
341.158	96.12
341.386	87.12
341.614	91.12
341.842	75.12
342.07	85.12
342.298	93.12
342.526	88.12
342.754	68.12
342.981	75.12
343.209	89.12
343.437	101.12
343.665	77.12
343.893	84.12
344.12	74.12
344.348	79.12
344.576	76.12
344.804	80.12
345.031	78.12
345.259	84.12
345.487	73.12
345.714	81.12
345.942	89.12
346.17	84.12
346.397	82.12
346.625	64.12
346.853	82.12
347.08	90.12
347.308	90.12
347.535	83.12
347.763	94.12
347.99	84.12
348.218	79.12
348.445	69.12
348.673	83.12
348.9	79.12
349.128	95.12
349.355	87.12
349.583	99.12
349.81	96.12
350.037	96.12
350.265	69.12
350.492	74.12
350.72	79.12
350.947	83.12
351.174	78.12
351.402	78.12
351.629	84.12
351.856	85.12
352.083	83.12
352.311	85.12
352.538	82.12
352.765	83.12
352.992	86.12
353.22	77.12
353.447	84.12
353.674	89.12
353.901	84.12
354.128	91.12
354.355	73.12
354.583	77.12
354.81	84.12
355.037	84.12
355.264	80.12
355.491	88.12
355.718	86.12
355.945	81.12
356.172	60.12
356.399	82.12
356.626	75.12
356.853	86.12
357.08	76.12
357.307	75.12
357.534	81.12
357.761	94.12
357.988	76.12
358.215	87.12
358.441	83.12
358.668	81.12
358.895	88.12
359.122	80.12
359.349	57.12
359.576	95.12
359.802	92.12
360.029	97.12
360.256	81.12
360.483	84.12
360.709	75.12
360.936	86.12
361.163	85.12
361.39	75.12
361.616	83.12
361.843	93.12
362.07	96.12
362.296	84.12
362.523	80.12
362.749	80.12
362.976	82.12
363.203	101.12
363.429	72.12
363.656	79.12
363.882	69.12
364.109	71.12
364.335	83.12
364.562	80.12
364.788	71.12
365.015	101.12
365.241	83.12
365.468	88.12
365.694	88.12
365.92	81.12
366.147	86.12
366.373	85.12
366.599	80.12
366.826	79.12
367.052	82.12
367.278	82.12
367.505	80.12
367.731	87.12
367.957	90.12
368.184	77.12
368.41	88.12
368.636	81.12
368.862	84.12
369.089	80.12
369.315	76.12
369.541	88.12
369.767	77.12
369.993	84.12
370.219	76.12
370.445	94.12
370.672	82.12
370.898	78.12
371.124	66.12
371.35	71.12
371.576	91.12
371.802	74.12
372.028	73.12
372.254	84.12
372.48	79.12
372.706	69.12
372.932	78.12
373.158	79.12
373.384	87.12
373.61	77.12
373.835	78.12
374.061	81.12
374.287	85.12
374.513	73.12
374.739	80.12
374.965	79.12
375.191	73.12
375.416	89.12
375.642	86.12
375.868	83.12
376.094	85.12
376.319	78.12
376.545	78.12
376.771	78.12
376.997	88.12
377.222	79.12
377.448	93.12
377.674	80.12
377.899	91.12
378.125	86.12
378.35	76.12
378.576	74.12
378.802	77.12
379.027	89.12
379.253	87.12
379.478	76.12
379.704	80.12
379.929	72.12
380.155	77.12
380.38	83.12
380.606	80.12
380.831	80.12
381.057	91.12
381.282	74.12
381.507	92.12
381.733	84.12
381.958	95.12
382.184	80.12
382.409	77.12
382.634	81.12
382.86	79.12
383.085	97.12
383.31	87.12
383.535	83.12
383.761	90.12
383.986	103.12
384.211	76.12
384.436	68.12
384.662	81.12
384.887	84.12
385.112	70.12
385.337	74.12
385.562	83.12
385.787	71.12
386.013	73.12
386.238	84.12
386.463	80.12
386.688	93.12
386.913	77.12
387.138	69.12
387.363	74.12
387.588	69.12
387.813	81.12
388.038	90.12
388.263	72.12
388.488	80.12
388.713	79.12
388.938	75.12
389.163	84.12
389.387	87.12
389.612	80.12
389.837	63.12
390.062	71.12
390.287	84.12
390.512	72.12
390.736	82.12
390.961	87.12
391.186	90.12
391.411	84.12
391.636	76.12
391.86	79.12
392.085	91.12
392.31	82.12
392.534	84.12
392.759	86.12
392.984	89.12
393.208	88.12
393.433	81.12
393.658	66.12
393.882	80.12
394.107	74.12
394.331	85.12
394.556	75.12
394.78	66.12
395.005	73.12
395.229	70.12
395.454	77.12
395.678	76.12
395.903	75.12
396.127	82.12
396.352	73.12
396.576	71.12
396.801	76.12
397.025	80.12
397.249	68.12
397.474	86.12
397.698	82.12
397.922	72.12
398.147	80.12
398.371	90.12
398.595	73.12
398.82	69.12
399.044	89.12
399.268	83.12
399.492	87.12
399.717	81.12
399.941	74.12
400.165	87.12
400.389	80.12
400.613	65.12
400.837	89.12
401.062	86.12
401.286	83.12
401.51	93.12
401.734	74.12
401.958	80.12
402.182	83.12
402.406	75.12
402.63	76.12
402.854	80.12
403.078	81.12
403.302	62.12
403.526	74.12
403.75	87.12
403.974	80.12
404.198	87.12
404.422	71.12
404.645	75.12
404.869	69.12
405.093	76.12
405.317	77.12
405.541	70.12
405.765	85.12
405.988	63.12
406.212	84.12
406.436	67.12
406.66	86.12
406.883	71.12
407.107	83.12
407.331	88.12
407.555	78.12
407.778	87.12
408.002	81.12
408.226	78.12
408.449	73.12
408.673	65.12
408.896	77.12
409.12	62.12
409.344	68.12
409.567	77.12
409.791	80.12
410.014	69.12
410.238	96.12
410.461	85.12
410.685	83.12
410.908	71.12
411.132	82.12
411.355	74.12
411.578	88.12
411.802	85.12
412.025	76.12
412.249	73.12
412.472	75.12
412.695	71.12
412.919	83.12
413.142	83.12
413.365	86.12
413.589	88.12
413.812	80.12
414.035	77.12
414.258	75.12
414.482	84.12
414.705	83.12
414.928	72.12
415.151	83.12
415.374	86.12
415.597	74.12
415.821	83.12
416.044	85.12
416.267	78.12
416.49	73.12
416.713	72.12
416.936	85.12
417.159	86.12
417.382	75.12
417.605	81.12
417.828	97.12
418.051	80.12
418.274	85.12
418.497	86.12
418.72	79.12
418.943	75.12
419.166	77.12
419.389	78.12
419.611	79.12
419.834	87.12
420.057	69.12
420.28	75.12
420.503	85.12
420.726	69.12
420.948	80.12
421.171	84.12
421.394	85.12
421.617	78.12
421.839	83.12
422.062	77.12
422.285	79.12
422.507	84.12
422.73	71.12
422.953	71.12
423.175	64.12
423.398	84.12
423.621	88.12
423.843	78.12
424.066	80.12
424.288	74.12
424.511	84.12
424.733	68.12
424.956	72.12
425.178	71.12
425.401	80.12
425.623	71.12
425.846	76.12
426.068	84.12
426.291	72.12
426.513	85.12
426.735	75.12
426.958	73.12
427.18	71.12
427.402	93.12
427.625	74.12
427.847	76.12
428.069	81.12
428.292	93.12
428.514	73.12
428.736	80.12
428.958	69.12
429.181	79.12
429.403	82.12
429.625	69.12
429.847	71.12
430.069	77.12
430.292	55.12
430.514	81.12
430.736	84.12
430.958	74.12
431.18	80.12
431.402	74.12
431.624	78.12
431.846	73.12
432.068	75.12
432.29	83.12
432.512	80.12
432.734	79.12
432.956	81.12
433.178	92.12
433.4	79.12
433.622	80.12
433.844	73.12
434.066	68.12
434.287	71.12
434.509	84.12
434.731	87.12
434.953	90.12
435.175	71.12
435.397	98.12
435.618	81.12
435.84	68.12
436.062	80.12
436.284	86.12
436.505	77.12
436.727	77.12
436.949	79.12
437.17	75.12
437.392	76.12
437.614	78.12
437.835	78.12
438.057	91.12
438.278	81.12
438.5	78.12
438.721	83.12
438.943	68.12
439.165	76.12
439.386	79.12
439.608	71.12
439.829	90.12
440.05	83.12
440.272	71.12
440.493	64.12
440.715	87.12
440.936	86.12
441.158	92.12
441.379	83.12
441.6	80.12
441.822	67.12
442.043	87.12
442.264	76.12
442.486	69.12
442.707	83.12
442.928	100.12
443.149	85.12
443.371	75.12
443.592	85.12
443.813	91.12
444.034	81.12
444.255	87.12
444.476	85.12
444.698	91.12
444.919	97.12
445.14	142.12
445.361	111.12
445.582	73.12
445.803	77.12
446.024	86.12
446.245	73.12
446.466	88.12
446.687	75.12
446.908	79.12
447.129	75.12
447.35	83.12
447.571	81.12
447.792	79.12
448.013	70.12
448.234	79.12
448.455	80.12
448.675	87.12
448.896	66.12
449.117	81.12
449.338	68.12
449.559	76.12
449.779	86.12
450	87.12
450.221	74.12
450.442	84.12
450.662	59.12
450.883	74.12
451.104	73.12
451.324	65.12
451.545	86.12
451.766	72.12
451.986	75.12
452.207	76.12
452.428	77.12
452.648	91.12
452.869	80.12
453.089	62.12
453.31	92.12
453.53	79.12
453.751	91.12
453.971	85.12
454.192	73.12
454.412	80.12
454.633	77.12
454.853	79.12
455.073	79.12
455.294	96.12
455.514	79.12
455.734	81.12
455.955	67.12
456.175	71.12
456.395	84.12
456.616	79.12
456.836	75.12
457.056	83.12
457.276	71.12
457.497	96.12
457.717	63.12
457.937	77.12
458.157	71.12
458.377	73.12
458.598	76.12
458.818	79.12
459.038	80.12
459.258	84.12
459.478	84.12
459.698	76.12
459.918	76.12
460.138	80.12
460.358	69.12
460.578	81.12
460.798	88.12
461.018	68.12
461.238	89.12
461.458	72.12
461.678	88.12
461.898	83.12
462.118	78.12
462.338	85.12
462.558	87.12
462.777	83.12
462.997	73.12
463.217	81.12
463.437	88.12
463.657	73.12
463.876	94.12
464.096	67.12
464.316	65.12
464.536	77.12
464.755	91.12
464.975	78.12
465.195	75.12
465.414	89.12
465.634	73.12
465.854	67.12
466.073	89.12
466.293	90.12
466.512	77.12
466.732	83.12
466.951	84.12
467.171	80.12
467.391	84.12
467.61	80.12
467.829	85.12
468.049	75.12
468.268	68.12
468.488	84.12
468.707	92.12
468.927	86.12
469.146	62.12
469.365	92.12
469.585	80.12
469.804	87.12
470.023	91.12
470.243	73.12
470.462	96.12
470.681	88.12
470.901	81.12
471.12	70.12
471.339	80.12
471.558	68.12
471.777	72.12
471.997	80.12
472.216	90.12
472.435	95.12
472.654	75.12
472.873	85.12
473.092	69.12
473.311	78.12
473.53	67.12
473.749	79.12
473.968	80.12
474.187	82.12
474.406	84.12
474.625	70.12
474.844	80.12
475.063	82.12
475.282	75.12
475.501	63.12
475.72	88.12
475.939	76.12
476.158	95.12
476.377	85.12
476.596	92.12
476.814	69.12
477.033	80.12
477.252	89.12
477.471	76.12
477.69	88.12
477.908	69.12
478.127	88.12
478.346	81.12
478.564	88.12
478.783	87.12
479.002	90.12
479.22	84.12
479.439	75.12
479.658	69.12
479.876	80.12
480.095	72.12
480.313	79.12
480.532	81.12
480.751	76.12
480.969	81.12
481.188	88.12
481.406	94.12
481.624	61.12
481.843	79.12
482.061	75.12
482.28	87.12
482.498	79.12
482.717	72.12
482.935	86.12
483.153	81.12
483.372	83.12
483.59	94.12
483.808	86.12
484.027	88.12
484.245	86.12
484.463	85.12
484.681	85.12
484.9	86.12
485.118	93.12
485.336	81.12
485.554	73.12
485.772	81.12
485.99	79.12
486.209	88.12
486.427	99.12
486.645	92.12
486.863	83.12
487.081	81.12
487.299	75.12
487.517	87.12
487.735	79.12
487.953	79.12
488.171	90.12
488.389	94.12
488.607	77.12
488.825	83.12
489.043	60.12
489.261	79.12
489.479	74.12
489.696	85.12
489.914	81.12
490.132	89.12
490.35	78.12
490.568	83.12
490.786	77.12
491.003	88.12
491.221	79.12
491.439	91.12
491.657	78.12
491.874	86.12
492.092	85.12
492.31	75.12
492.527	71.12
492.745	98.12
492.963	84.12
493.18	91.12
493.398	92.12
493.615	85.12
493.833	77.12
494.05	79.12
494.268	79.12
494.485	71.12
494.703	76.12
494.92	82.12
495.138	82.12
495.355	84.12
495.573	84.12
495.79	82.12
496.008	74.12
496.225	76.12
496.442	88.12
496.66	76.12
496.877	99.12
497.094	91.12
497.312	88.12
497.529	84.12
497.746	78.12
497.963	72.12
498.181	82.12
498.398	65.12
498.615	83.12
498.832	96.12
499.049	74.12
499.267	72.12
499.484	93.12
499.701	82.12
499.918	78.12
500.135	87.12
500.352	76.12
500.569	74.12
500.786	72.12
501.003	80.12
501.22	89.12
501.437	90.12
501.654	96.12
501.871	88.12
502.088	99.12
502.305	101.12
502.522	96.12
502.739	100.12
502.956	93.12
503.172	104.12
503.389	95.12
503.606	78.12
503.823	84.12
504.04	83.12
504.256	84.12
504.473	84.12
504.69	82.12
504.907	95.12
505.123	93.12
505.34	80.12
505.557	93.12
505.773	79.12
505.99	84.12
506.207	89.12
506.423	65.12
506.64	88.12
506.856	77.12
507.073	83.12
507.289	93.12
507.506	94.12
507.722	86.12
507.939	86.12
508.155	95.12
508.372	77.12
508.588	77.12
508.805	75.12
509.021	88.12
509.238	81.12
509.454	85.12
509.67	88.12
509.887	99.12
510.103	89.12
510.319	86.12
510.536	92.12
510.752	84.12
510.968	86.12
511.184	81.12
511.401	73.12
511.617	81.12
511.833	72.12
512.049	94.12
512.265	74.12
512.481	88.12
512.698	92.12
512.914	83.12
513.13	88.12
513.346	78.12
513.562	86.12
513.778	72.12
513.994	85.12
514.21	88.12
514.426	80.12
514.642	80.12
514.858	92.12
515.074	79.12
515.29	79.12
515.506	87.12
515.721	77.12
515.937	91.12
516.153	75.12
516.369	77.12
516.585	78.12
516.801	78.12
517.016	81.12
517.232	91.12
517.448	90.12
517.664	76.12
517.879	88.12
518.095	83.12
518.311	80.12
518.527	93.12
518.742	83.12
518.958	77.12
519.173	77.12
519.389	76.12
519.605	77.12
519.82	95.12
520.036	73.12
