Data from BG_HRD10591_036.txt Node
Date: Fri May 16 15:14:40 EDT 2025
User: Yrep
Spectrometer: HR+D1059
Trigger mode: 1
Integration Time (sec): 1.000000E-1
Scans to average: 1
Electric dark correction enabled: true
Nonlinearity correction enabled: false
Boxcar width: 0
XAxis mode: Wavelengths
Number of Pixels in Spectrum: 2048
>>>>>Begin Spectral Data<<<<<
223.165	-15.19
223.4	-15.19
223.635	-15.19
223.869	-18.19
224.104	-16.19
224.338	-15.19
224.573	-12.19
224.808	-17.19
225.042	-22.19
225.277	-13.19
225.511	-0.19
225.746	4.81
225.98	6.81
226.215	16.81
226.449	29.81
226.683	20.81
226.918	22.81
227.152	27.81
227.387	37.81
227.621	34.81
227.856	46.81
228.09	57.81
228.324	50.81
228.559	63.81
228.793	57.81
229.027	55.81
229.262	57.81
229.496	73.81
229.73	63.81
229.964	65.81
230.199	77.81
230.433	82.81
230.667	70.81
230.901	80.81
231.136	65.81
231.37	70.81
231.604	79.81
231.838	79.81
232.072	73.81
232.306	92.81
232.541	68.81
232.775	76.81
233.009	79.81
233.243	77.81
233.477	78.81
233.711	75.81
233.945	69.81
234.179	74.81
234.413	77.81
234.647	93.81
234.881	79.81
235.115	73.81
235.349	79.81
235.583	74.81
235.817	80.81
236.051	91.81
236.285	78.81
236.519	86.81
236.753	72.81
236.987	90.81
237.221	75.81
237.455	72.81
237.689	74.81
237.922	76.81
238.156	80.81
238.39	78.81
238.624	91.81
238.858	61.81
239.091	58.81
239.325	87.81
239.559	88.81
239.793	83.81
240.027	94.81
240.26	75.81
240.494	76.81
240.728	75.81
240.961	75.81
241.195	86.81
241.429	72.81
241.662	84.81
241.896	65.81
242.13	71.81
242.363	59.81
242.597	76.81
242.83	73.81
243.064	78.81
243.298	83.81
243.531	73.81
243.765	66.81
243.998	74.81
244.232	82.81
244.465	71.81
244.699	82.81
244.932	72.81
245.166	82.81
245.399	86.81
245.633	70.81
245.866	93.81
246.099	65.81
246.333	64.81
246.566	76.81
246.8	79.81
247.033	84.81
247.266	72.81
247.5	82.81
247.733	73.81
247.966	77.81
248.2	62.81
248.433	92.81
248.666	90.81
248.899	67.81
249.133	73.81
249.366	78.81
249.599	82.81
249.832	71.81
250.066	69.81
250.299	64.81
250.532	78.81
250.765	82.81
250.998	90.81
251.231	77.81
251.465	87.81
251.698	74.81
251.931	78.81
252.164	73.81
252.397	69.81
252.63	77.81
252.863	74.81
253.096	76.81
253.329	87.81
253.562	68.81
253.795	82.81
254.028	73.81
254.261	70.81
254.494	68.81
254.727	72.81
254.96	78.81
255.193	77.81
255.426	73.81
255.659	78.81
255.892	90.81
256.124	75.81
256.357	77.81
256.59	68.81
256.823	73.81
257.056	84.81
257.289	65.81
257.521	74.81
257.754	85.81
257.987	68.81
258.22	86.81
258.452	70.81
258.685	89.81
258.918	78.81
259.151	73.81
259.383	76.81
259.616	82.81
259.849	84.81
260.081	72.81
260.314	78.81
260.547	99.81
260.779	65.81
261.012	77.81
261.244	87.81
261.477	87.81
261.71	83.81
261.942	80.81
262.175	92.81
262.407	86.81
262.64	80.81
262.872	87.81
263.105	78.81
263.337	84.81
263.57	76.81
263.802	90.81
264.035	90.81
264.267	79.81
264.499	86.81
264.732	76.81
264.964	75.81
265.197	72.81
265.429	78.81
265.661	68.81
265.894	82.81
266.126	84.81
266.358	94.81
266.591	92.81
266.823	90.81
267.055	92.81
267.287	100.81
267.52	74.81
267.752	80.81
267.984	89.81
268.216	104.81
268.448	82.81
268.681	84.81
268.913	88.81
269.145	93.81
269.377	88.81
269.609	74.81
269.841	84.81
270.073	74.81
270.306	92.81
270.538	94.81
270.77	88.81
271.002	76.81
271.234	80.81
271.466	99.81
271.698	97.81
271.93	76.81
272.162	87.81
272.394	98.81
272.626	86.81
272.858	80.81
273.09	73.81
273.322	86.81
273.553	88.81
273.785	78.81
274.017	75.81
274.249	77.81
274.481	93.81
274.713	78.81
274.945	91.81
275.176	79.81
275.408	82.81
275.64	86.81
275.872	87.81
276.104	85.81
276.335	82.81
276.567	82.81
276.799	85.81
277.031	87.81
277.262	84.81
277.494	85.81
277.726	94.81
277.957	96.81
278.189	82.81
278.421	77.81
278.652	76.81
278.884	77.81
279.115	82.81
279.347	90.81
279.579	82.81
279.81	81.81
280.042	84.81
280.273	72.81
280.505	95.81
280.736	77.81
280.968	86.81
281.199	73.81
281.431	80.81
281.662	74.81
281.894	98.81
282.125	90.81
282.356	88.81
282.588	76.81
282.819	101.81
283.051	77.81
283.282	79.81
283.513	92.81
283.745	86.81
283.976	78.81
284.207	87.81
284.439	86.81
284.67	80.81
284.901	83.81
285.132	92.81
285.364	86.81
285.595	78.81
285.826	86.81
286.057	90.81
286.288	86.81
286.52	87.81
286.751	78.81
286.982	78.81
287.213	91.81
287.444	85.81
287.675	87.81
287.906	78.81
288.138	88.81
288.369	91.81
288.6	84.81
288.831	79.81
289.062	84.81
289.293	85.81
289.524	59.81
289.755	74.81
289.986	74.81
290.217	67.81
290.448	64.81
290.679	76.81
290.91	83.81
291.141	76.81
291.371	77.81
291.602	75.81
291.833	79.81
292.064	87.81
292.295	95.81
292.526	90.81
292.757	71.81
292.987	86.81
293.218	93.81
293.449	89.81
293.68	62.81
293.91	77.81
294.141	80.81
294.372	95.81
294.603	92.81
294.833	88.81
295.064	70.81
295.295	96.81
295.525	81.81
295.756	107.81
295.987	86.81
296.217	84.81
296.448	96.81
296.679	74.81
296.909	87.81
297.14	94.81
297.37	89.81
297.601	84.81
297.831	82.81
298.062	91.81
298.292	87.81
298.523	91.81
298.753	93.81
298.984	82.81
299.214	73.81
299.445	81.81
299.675	78.81
299.905	82.81
300.136	77.81
300.366	96.81
300.597	88.81
300.827	86.81
301.057	87.81
301.288	82.81
301.518	77.81
301.748	91.81
301.979	94.81
302.209	90.81
302.439	73.81
302.669	88.81
302.9	77.81
303.13	69.81
303.36	86.81
303.59	89.81
303.82	83.81
304.051	82.81
304.281	107.81
304.511	96.81
304.741	91.81
304.971	101.81
305.201	98.81
305.431	91.81
305.661	87.81
305.891	81.81
306.121	78.81
306.352	88.81
306.582	91.81
306.812	83.81
307.042	91.81
307.272	87.81
307.502	88.81
307.731	79.81
307.961	96.81
308.191	90.81
308.421	89.81
308.651	95.81
308.881	97.81
309.111	86.81
309.341	74.81
309.571	89.81
309.8	74.81
310.03	86.81
310.26	84.81
310.49	69.81
310.72	87.81
310.949	84.81
311.179	73.81
311.409	93.81
311.639	86.81
311.868	79.81
312.098	71.81
312.328	82.81
312.557	91.81
312.787	90.81
313.017	85.81
313.246	88.81
313.476	81.81
313.706	95.81
313.935	98.81
314.165	100.81
314.394	80.81
314.624	88.81
314.853	91.81
315.083	86.81
315.312	92.81
315.542	79.81
315.771	82.81
316.001	74.81
316.23	87.81
316.46	100.81
316.689	90.81
316.919	85.81
317.148	86.81
317.377	84.81
317.607	93.81
317.836	85.81
318.065	83.81
318.295	94.81
318.524	92.81
318.753	82.81
318.983	87.81
319.212	83.81
319.441	95.81
319.67	89.81
319.9	92.81
320.129	80.81
320.358	98.81
320.587	91.81
320.816	90.81
321.046	86.81
321.275	85.81
321.504	78.81
321.733	98.81
321.962	96.81
322.191	73.81
322.42	81.81
322.649	115.81
322.878	89.81
323.108	96.81
323.337	77.81
323.566	75.81
323.795	85.81
324.024	80.81
324.253	72.81
324.482	72.81
324.71	94.81
324.939	78.81
325.168	90.81
325.397	96.81
325.626	76.81
325.855	80.81
326.084	86.81
326.313	78.81
326.542	83.81
326.77	93.81
326.999	82.81
327.228	92.81
327.457	97.81
327.686	84.81
327.914	94.81
328.143	81.81
328.372	70.81
328.6	81.81
328.829	95.81
329.058	91.81
329.287	95.81
329.515	84.81
329.744	84.81
329.972	76.81
330.201	92.81
330.43	78.81
330.658	105.81
330.887	93.81
331.115	88.81
331.344	93.81
331.572	79.81
331.801	92.81
332.03	85.81
332.258	82.81
332.486	68.81
332.715	81.81
332.943	84.81
333.172	83.81
333.4	90.81
333.629	88.81
333.857	86.81
334.085	93.81
334.314	95.81
334.542	87.81
334.771	86.81
334.999	82.81
335.227	100.81
335.455	79.81
335.684	92.81
335.912	90.81
336.14	84.81
336.369	92.81
336.597	90.81
336.825	83.81
337.053	81.81
337.281	88.81
337.51	88.81
337.738	105.81
337.966	99.81
338.194	72.81
338.422	86.81
338.65	94.81
338.878	82.81
339.106	94.81
339.334	70.81
339.562	82.81
339.79	99.81
340.018	82.81
340.246	78.81
340.474	91.81
340.702	79.81
340.93	80.81
341.158	75.81
341.386	76.81
341.614	87.81
341.842	83.81
342.07	80.81
342.298	88.81
342.526	92.81
342.754	73.81
342.981	99.81
343.209	94.81
343.437	104.81
343.665	66.81
343.893	90.81
344.12	81.81
344.348	82.81
344.576	76.81
344.804	95.81
345.031	86.81
345.259	93.81
345.487	77.81
345.714	81.81
345.942	91.81
346.17	85.81
346.397	84.81
346.625	85.81
346.853	106.81
347.08	79.81
347.308	80.81
347.535	84.81
347.763	86.81
347.99	92.81
348.218	95.81
348.445	88.81
348.673	80.81
348.9	104.81
349.128	95.81
349.355	95.81
349.583	84.81
349.81	82.81
350.037	91.81
350.265	90.81
350.492	85.81
350.72	98.81
350.947	90.81
351.174	83.81
351.402	95.81
351.629	92.81
351.856	91.81
352.083	91.81
352.311	86.81
352.538	84.81
352.765	80.81
352.992	85.81
353.22	87.81
353.447	81.81
353.674	95.81
353.901	102.81
354.128	90.81
354.355	82.81
354.583	95.81
354.81	75.81
355.037	78.81
355.264	84.81
355.491	91.81
355.718	85.81
355.945	80.81
356.172	99.81
356.399	83.81
356.626	92.81
356.853	92.81
357.08	80.81
357.307	74.81
357.534	87.81
357.761	90.81
357.988	91.81
358.215	81.81
358.441	94.81
358.668	74.81
358.895	87.81
359.122	81.81
359.349	77.81
359.576	86.81
359.802	92.81
360.029	89.81
360.256	84.81
360.483	87.81
360.709	80.81
360.936	100.81
361.163	98.81
361.39	70.81
361.616	75.81
361.843	94.81
362.07	88.81
362.296	97.81
362.523	84.81
362.749	88.81
362.976	86.81
363.203	101.81
363.429	100.81
363.656	99.81
363.882	88.81
364.109	81.81
364.335	86.81
364.562	85.81
364.788	91.81
365.015	98.81
365.241	93.81
365.468	66.81
365.694	100.81
365.92	90.81
366.147	91.81
366.373	75.81
366.599	77.81
366.826	67.81
367.052	79.81
367.278	77.81
367.505	76.81
367.731	102.81
367.957	88.81
368.184	75.81
368.41	99.81
368.636	88.81
368.862	77.81
369.089	76.81
369.315	82.81
369.541	82.81
369.767	72.81
369.993	93.81
370.219	92.81
370.445	77.81
370.672	91.81
370.898	74.81
371.124	78.81
371.35	74.81
371.576	86.81
371.802	80.81
372.028	99.81
372.254	85.81
372.48	80.81
372.706	76.81
372.932	91.81
373.158	102.81
373.384	78.81
373.61	91.81
373.835	91.81
374.061	76.81
374.287	76.81
374.513	77.81
374.739	92.81
374.965	73.81
375.191	87.81
375.416	89.81
375.642	91.81
375.868	93.81
376.094	92.81
376.319	85.81
376.545	82.81
376.771	86.81
376.997	91.81
377.222	91.81
377.448	77.81
377.674	92.81
377.899	84.81
378.125	83.81
378.35	82.81
378.576	82.81
378.802	82.81
379.027	80.81
379.253	91.81
379.478	82.81
379.704	80.81
379.929	89.81
380.155	88.81
380.38	87.81
380.606	77.81
380.831	84.81
381.057	82.81
381.282	76.81
381.507	88.81
381.733	98.81
381.958	80.81
382.184	69.81
382.409	85.81
382.634	78.81
382.86	96.81
383.085	87.81
383.31	90.81
383.535	84.81
383.761	108.81
383.986	86.81
384.211	91.81
384.436	84.81
384.662	66.81
384.887	86.81
385.112	70.81
385.337	100.81
385.562	73.81
385.787	86.81
386.013	95.81
386.238	81.81
386.463	85.81
386.688	107.81
386.913	84.81
387.138	91.81
387.363	89.81
387.588	89.81
387.813	96.81
388.038	84.81
388.263	88.81
388.488	79.81
388.713	95.81
388.938	90.81
389.163	86.81
389.387	82.81
389.612	87.81
389.837	105.81
390.062	90.81
390.287	96.81
390.512	84.81
390.736	79.81
390.961	87.81
391.186	91.81
391.411	89.81
391.636	91.81
391.86	83.81
392.085	88.81
392.31	109.81
392.534	88.81
392.759	80.81
392.984	86.81
393.208	85.81
393.433	74.81
393.658	91.81
393.882	84.81
394.107	90.81
394.331	86.81
394.556	77.81
394.78	85.81
395.005	100.81
395.229	91.81
395.454	99.81
395.678	102.81
395.903	87.81
396.127	91.81
396.352	100.81
396.576	84.81
396.801	86.81
397.025	84.81
397.249	87.81
397.474	84.81
397.698	98.81
397.922	84.81
398.147	84.81
398.371	82.81
398.595	104.81
398.82	88.81
399.044	88.81
399.268	95.81
399.492	102.81
399.717	98.81
399.941	94.81
400.165	93.81
400.389	94.81
400.613	107.81
400.837	97.81
401.062	89.81
401.286	100.81
401.51	106.81
401.734	78.81
401.958	89.81
402.182	74.81
402.406	96.81
402.63	91.81
402.854	93.81
403.078	74.81
403.302	80.81
403.526	80.81
403.75	96.81
403.974	105.81
404.198	102.81
404.422	100.81
404.645	86.81
404.869	73.81
405.093	84.81
405.317	92.81
405.541	90.81
405.765	93.81
405.988	87.81
406.212	72.81
406.436	91.81
406.66	74.81
406.883	86.81
407.107	95.81
407.331	88.81
407.555	87.81
407.778	102.81
408.002	80.81
408.226	98.81
408.449	85.81
408.673	82.81
408.896	83.81
409.12	73.81
409.344	91.81
409.567	98.81
409.791	91.81
410.014	100.81
410.238	98.81
410.461	91.81
410.685	76.81
410.908	87.81
411.132	94.81
411.355	83.81
411.578	81.81
411.802	93.81
412.025	95.81
412.249	96.81
412.472	107.81
412.695	86.81
412.919	70.81
413.142	83.81
413.365	80.81
413.589	86.81
413.812	86.81
414.035	99.81
414.258	86.81
414.482	78.81
414.705	78.81
414.928	86.81
415.151	91.81
415.374	90.81
415.597	93.81
415.821	79.81
416.044	86.81
416.267	92.81
416.49	93.81
416.713	88.81
416.936	92.81
417.159	83.81
417.382	80.81
417.605	84.81
417.828	89.81
418.051	83.81
418.274	85.81
418.497	91.81
418.72	96.81
418.943	75.81
419.166	81.81
419.389	89.81
419.611	92.81
419.834	84.81
420.057	90.81
420.28	85.81
420.503	83.81
420.726	90.81
420.948	88.81
421.171	98.81
421.394	91.81
421.617	93.81
421.839	79.81
422.062	79.81
422.285	79.81
422.507	77.81
422.73	86.81
422.953	102.81
423.175	86.81
423.398	71.81
423.621	75.81
423.843	90.81
424.066	89.81
424.288	88.81
424.511	90.81
424.733	93.81
424.956	94.81
425.178	84.81
425.401	79.81
425.623	86.81
425.846	84.81
426.068	86.81
426.291	92.81
426.513	78.81
426.735	82.81
426.958	75.81
427.18	88.81
427.402	98.81
427.625	96.81
427.847	90.81
428.069	86.81
428.292	92.81
428.514	80.81
428.736	90.81
428.958	95.81
429.181	82.81
429.403	98.81
429.625	82.81
429.847	91.81
430.069	85.81
430.292	82.81
430.514	72.81
430.736	89.81
430.958	97.81
431.18	87.81
431.402	79.81
431.624	88.81
431.846	84.81
432.068	91.81
432.29	91.81
432.512	93.81
432.734	89.81
432.956	91.81
433.178	85.81
433.4	88.81
433.622	80.81
433.844	89.81
434.066	88.81
434.287	79.81
434.509	82.81
434.731	89.81
434.953	83.81
435.175	84.81
435.397	92.81
435.618	82.81
435.84	100.81
436.062	87.81
436.284	77.81
436.505	70.81
436.727	83.81
436.949	102.81
437.17	72.81
437.392	90.81
437.614	91.81
437.835	87.81
438.057	78.81
438.278	105.81
438.5	71.81
438.721	96.81
438.943	98.81
439.165	74.81
439.386	86.81
439.608	85.81
439.829	90.81
440.05	80.81
440.272	84.81
440.493	107.81
440.715	93.81
440.936	99.81
441.158	88.81
441.379	79.81
441.6	72.81
441.822	91.81
442.043	93.81
442.264	90.81
442.486	91.81
442.707	82.81
442.928	87.81
443.149	98.81
443.371	78.81
443.592	76.81
443.813	87.81
444.034	80.81
444.255	73.81
444.476	95.81
444.698	88.81
444.919	82.81
445.14	177.81
445.361	125.81
445.582	92.81
445.803	84.81
446.024	87.81
446.245	88.81
446.466	75.81
446.687	93.81
446.908	85.81
447.129	86.81
447.35	82.81
447.571	99.81
447.792	100.81
448.013	94.81
448.234	94.81
448.455	77.81
448.675	84.81
448.896	101.81
449.117	89.81
449.338	91.81
449.559	107.81
449.779	78.81
450	70.81
450.221	88.81
450.442	83.81
450.662	81.81
450.883	83.81
451.104	102.81
451.324	87.81
451.545	92.81
451.766	94.81
451.986	81.81
452.207	89.81
452.428	88.81
452.648	80.81
452.869	103.81
453.089	90.81
453.31	95.81
453.53	97.81
453.751	74.81
453.971	85.81
454.192	99.81
454.412	88.81
454.633	74.81
454.853	80.81
455.073	96.81
455.294	97.81
455.514	90.81
455.734	95.81
455.955	71.81
456.175	90.81
456.395	81.81
456.616	93.81
456.836	72.81
457.056	84.81
457.276	84.81
457.497	85.81
457.717	98.81
457.937	93.81
458.157	84.81
458.377	85.81
458.598	91.81
458.818	86.81
459.038	73.81
459.258	88.81
459.478	101.81
459.698	91.81
459.918	76.81
460.138	82.81
460.358	93.81
460.578	74.81
460.798	101.81
461.018	92.81
461.238	91.81
461.458	91.81
461.678	70.81
461.898	82.81
462.118	99.81
462.338	84.81
462.558	90.81
462.777	86.81
462.997	92.81
463.217	92.81
463.437	94.81
463.657	84.81
463.876	94.81
464.096	100.81
464.316	95.81
464.536	84.81
464.755	91.81
464.975	94.81
465.195	80.81
465.414	88.81
465.634	98.81
465.854	77.81
466.073	87.81
466.293	89.81
466.512	78.81
466.732	86.81
466.951	92.81
467.171	81.81
467.391	90.81
467.61	76.81
467.829	98.81
468.049	80.81
468.268	80.81
468.488	80.81
468.707	107.81
468.927	86.81
469.146	83.81
469.365	93.81
469.585	90.81
469.804	88.81
470.023	91.81
470.243	77.81
470.462	77.81
470.681	91.81
470.901	90.81
471.12	74.81
471.339	92.81
471.558	86.81
471.777	71.81
471.997	88.81
472.216	93.81
472.435	90.81
472.654	86.81
472.873	93.81
473.092	67.81
473.311	95.81
473.53	81.81
473.749	90.81
473.968	85.81
474.187	77.81
474.406	89.81
474.625	78.81
474.844	91.81
475.063	91.81
475.282	88.81
475.501	92.81
475.72	71.81
475.939	80.81
476.158	80.81
476.377	94.81
476.596	96.81
476.814	94.81
477.033	86.81
477.252	79.81
477.471	86.81
477.69	94.81
477.908	73.81
478.127	71.81
478.346	79.81
478.564	95.81
478.783	95.81
479.002	81.81
479.22	93.81
479.439	99.81
479.658	80.81
479.876	84.81
480.095	93.81
480.313	91.81
480.532	77.81
480.751	79.81
480.969	98.81
481.188	80.81
481.406	92.81
481.624	74.81
481.843	103.81
482.061	104.81
482.28	79.81
482.498	73.81
482.717	90.81
482.935	95.81
483.153	82.81
483.372	90.81
483.59	89.81
483.808	85.81
484.027	93.81
484.245	83.81
484.463	90.81
484.681	90.81
484.9	96.81
485.118	96.81
485.336	91.81
485.554	94.81
485.772	82.81
485.99	90.81
486.209	91.81
486.427	90.81
486.645	89.81
486.863	88.81
487.081	85.81
487.299	93.81
487.517	91.81
487.735	92.81
487.953	94.81
488.171	90.81
488.389	96.81
488.607	92.81
488.825	71.81
489.043	98.81
489.261	91.81
489.479	91.81
489.696	84.81
489.914	92.81
490.132	93.81
490.35	82.81
490.568	79.81
490.786	100.81
491.003	95.81
491.221	85.81
491.439	119.81
491.657	102.81
491.874	110.81
492.092	96.81
492.31	94.81
492.527	96.81
492.745	106.81
492.963	95.81
493.18	91.81
493.398	94.81
493.615	92.81
493.833	86.81
494.05	94.81
494.268	85.81
494.485	98.81
494.703	93.81
494.92	98.81
495.138	96.81
495.355	91.81
495.573	80.81
495.79	94.81
496.008	91.81
496.225	79.81
496.442	88.81
496.66	87.81
496.877	83.81
497.094	85.81
497.312	102.81
497.529	93.81
497.746	94.81
497.963	87.81
498.181	94.81
498.398	104.81
498.615	99.81
498.832	85.81
499.049	96.81
499.267	87.81
499.484	102.81
499.701	96.81
499.918	96.81
500.135	116.81
500.352	118.81
500.569	110.81
500.786	111.81
501.003	118.81
501.22	94.81
501.437	96.81
501.654	100.81
501.871	86.81
502.088	101.81
502.305	91.81
502.522	100.81
502.739	104.81
502.956	94.81
503.172	91.81
503.389	91.81
503.606	98.81
503.823	106.81
504.04	111.81
504.256	96.81
504.473	92.81
504.69	93.81
504.907	87.81
505.123	102.81
505.34	71.81
505.557	90.81
505.773	85.81
505.99	92.81
506.207	78.81
506.423	88.81
506.64	99.81
506.856	87.81
507.073	86.81
507.289	88.81
507.506	84.81
507.722	97.81
507.939	85.81
508.155	92.81
508.372	88.81
508.588	71.81
508.805	94.81
509.021	91.81
509.238	89.81
509.454	95.81
509.67	81.81
509.887	79.81
510.103	86.81
510.319	84.81
510.536	79.81
510.752	82.81
510.968	90.81
511.184	76.81
511.401	84.81
511.617	87.81
511.833	82.81
512.049	91.81
512.265	86.81
512.481	76.81
512.698	95.81
512.914	92.81
513.13	89.81
513.346	92.81
513.562	105.81
513.778	89.81
513.994	93.81
514.21	92.81
514.426	82.81
514.642	90.81
514.858	92.81
515.074	86.81
515.29	86.81
515.506	101.81
515.721	95.81
515.937	89.81
516.153	76.81
516.369	85.81
516.585	86.81
516.801	87.81
517.016	90.81
517.232	101.81
517.448	86.81
517.664	85.81
517.879	94.81
518.095	86.81
518.311	87.81
518.527	98.81
518.742	88.81
518.958	74.81
519.173	82.81
