Data from BG_HRD10591_005.txt Node
Date: Fri May 16 15:14:25 EDT 2025
User: Yrep
Spectrometer: HR+D1059
Trigger mode: 1
Integration Time (sec): 1.000000E-1
Scans to average: 1
Electric dark correction enabled: true
Nonlinearity correction enabled: false
Boxcar width: 0
XAxis mode: Wavelengths
Number of Pixels in Spectrum: 2048
>>>>>Begin Spectral Data<<<<<
223.165	-4.75
223.4	-4.75
223.635	-4.75
223.869	-22.75
224.104	-29.75
224.338	-15.75
224.573	-6.75
224.808	-4.75
225.042	-15.75
225.277	-10.75
225.511	-1.75
225.746	8.25
225.98	-0.75
226.215	15.25
226.449	26.25
226.683	10.25
226.918	27.25
227.152	26.25
227.387	41.25
227.621	51.25
227.856	54.25
228.09	54.25
228.324	49.25
228.559	57.25
228.793	59.25
229.027	64.25
229.262	71.25
229.496	75.25
229.73	75.25
229.964	83.25
230.199	79.25
230.433	76.25
230.667	86.25
230.901	94.25
231.136	82.25
231.37	90.25
231.604	81.25
231.838	94.25
232.072	81.25
232.306	90.25
232.541	89.25
232.775	92.25
233.009	89.25
233.243	91.25
233.477	79.25
233.711	75.25
233.945	83.25
234.179	87.25
234.413	92.25
234.647	84.25
234.881	86.25
235.115	94.25
235.349	81.25
235.583	89.25
235.817	85.25
236.051	81.25
236.285	92.25
236.519	81.25
236.753	66.25
236.987	68.25
237.221	75.25
237.455	86.25
237.689	99.25
237.922	70.25
238.156	84.25
238.39	78.25
238.624	70.25
238.858	93.25
239.091	80.25
239.325	93.25
239.559	81.25
239.793	66.25
240.027	79.25
240.26	77.25
240.494	82.25
240.728	77.25
240.961	80.25
241.195	68.25
241.429	71.25
241.662	77.25
241.896	79.25
242.13	77.25
242.363	83.25
242.597	71.25
242.83	92.25
243.064	80.25
243.298	86.25
243.531	102.25
243.765	83.25
243.998	88.25
244.232	109.25
244.465	83.25
244.699	73.25
244.932	71.25
245.166	86.25
245.399	89.25
245.633	91.25
245.866	95.25
246.099	85.25
246.333	99.25
246.566	88.25
246.8	91.25
247.033	81.25
247.266	79.25
247.5	90.25
247.733	93.25
247.966	75.25
248.2	87.25
248.433	87.25
248.666	80.25
248.899	80.25
249.133	85.25
249.366	85.25
249.599	92.25
249.832	86.25
250.066	81.25
250.299	87.25
250.532	84.25
250.765	82.25
250.998	93.25
251.231	75.25
251.465	83.25
251.698	99.25
251.931	81.25
252.164	82.25
252.397	85.25
252.63	98.25
252.863	95.25
253.096	84.25
253.329	97.25
253.562	79.25
253.795	94.25
254.028	86.25
254.261	86.25
254.494	86.25
254.727	92.25
254.96	84.25
255.193	92.25
255.426	78.25
255.659	79.25
255.892	77.25
256.124	65.25
256.357	74.25
256.59	93.25
256.823	94.25
257.056	78.25
257.289	73.25
257.521	100.25
257.754	80.25
257.987	92.25
258.22	81.25
258.452	87.25
258.685	85.25
258.918	101.25
259.151	87.25
259.383	78.25
259.616	77.25
259.849	93.25
260.081	101.25
260.314	91.25
260.547	88.25
260.779	90.25
261.012	87.25
261.244	83.25
261.477	82.25
261.71	84.25
261.942	80.25
262.175	79.25
262.407	86.25
262.64	82.25
262.872	100.25
263.105	100.25
263.337	85.25
263.57	83.25
263.802	71.25
264.035	78.25
264.267	85.25
264.499	78.25
264.732	90.25
264.964	76.25
265.197	76.25
265.429	94.25
265.661	88.25
265.894	78.25
266.126	88.25
266.358	99.25
266.591	83.25
266.823	108.25
267.055	100.25
267.287	87.25
267.52	94.25
267.752	90.25
267.984	88.25
268.216	84.25
268.448	87.25
268.681	91.25
268.913	79.25
269.145	88.25
269.377	79.25
269.609	91.25
269.841	89.25
270.073	80.25
270.306	85.25
270.538	93.25
270.77	98.25
271.002	97.25
271.234	92.25
271.466	81.25
271.698	92.25
271.93	98.25
272.162	82.25
272.394	94.25
272.626	82.25
272.858	89.25
273.09	87.25
273.322	96.25
273.553	90.25
273.785	82.25
274.017	87.25
274.249	92.25
274.481	102.25
274.713	75.25
274.945	93.25
275.176	85.25
275.408	93.25
275.64	84.25
275.872	88.25
276.104	92.25
276.335	92.25
276.567	96.25
276.799	85.25
277.031	99.25
277.262	86.25
277.494	70.25
277.726	86.25
277.957	86.25
278.189	92.25
278.421	95.25
278.652	84.25
278.884	84.25
279.115	100.25
279.347	91.25
279.579	83.25
279.81	78.25
280.042	83.25
280.273	90.25
280.505	99.25
280.736	96.25
280.968	94.25
281.199	86.25
281.431	68.25
281.662	90.25
281.894	109.25
282.125	98.25
282.356	99.25
282.588	89.25
282.819	97.25
283.051	97.25
283.282	94.25
283.513	96.25
283.745	85.25
283.976	100.25
284.207	93.25
284.439	90.25
284.67	102.25
284.901	102.25
285.132	88.25
285.364	93.25
285.595	113.25
285.826	76.25
286.057	92.25
286.288	85.25
286.52	87.25
286.751	91.25
286.982	85.25
287.213	103.25
287.444	90.25
287.675	89.25
287.906	103.25
288.138	82.25
288.369	98.25
288.6	74.25
288.831	96.25
289.062	93.25
289.293	93.25
289.524	92.25
289.755	90.25
289.986	89.25
290.217	85.25
290.448	94.25
290.679	88.25
290.91	85.25
291.141	92.25
291.371	105.25
291.602	98.25
291.833	97.25
292.064	91.25
292.295	88.25
292.526	92.25
292.757	95.25
292.987	80.25
293.218	91.25
293.449	94.25
293.68	102.25
293.91	86.25
294.141	118.25
294.372	99.25
294.603	90.25
294.833	89.25
295.064	81.25
295.295	78.25
295.525	78.25
295.756	87.25
295.987	76.25
296.217	91.25
296.448	89.25
296.679	84.25
296.909	92.25
297.14	89.25
297.37	103.25
297.601	100.25
297.831	96.25
298.062	90.25
298.292	82.25
298.523	89.25
298.753	79.25
298.984	83.25
299.214	87.25
299.445	96.25
299.675	102.25
299.905	84.25
300.136	96.25
300.366	99.25
300.597	89.25
300.827	87.25
301.057	94.25
301.288	96.25
301.518	86.25
301.748	102.25
301.979	116.25
302.209	93.25
302.439	86.25
302.669	101.25
302.9	81.25
303.13	89.25
303.36	108.25
303.59	100.25
303.82	91.25
304.051	100.25
304.281	87.25
304.511	93.25
304.741	96.25
304.971	95.25
305.201	89.25
305.431	110.25
305.661	101.25
305.891	92.25
306.121	94.25
306.352	96.25
306.582	86.25
306.812	78.25
307.042	105.25
307.272	89.25
307.502	76.25
307.731	97.25
307.961	98.25
308.191	95.25
308.421	103.25
308.651	100.25
308.881	98.25
309.111	95.25
309.341	93.25
309.571	104.25
309.8	105.25
310.03	86.25
310.26	113.25
310.49	94.25
310.72	105.25
310.949	82.25
311.179	91.25
311.409	85.25
311.639	100.25
311.868	99.25
312.098	94.25
312.328	92.25
312.557	83.25
312.787	97.25
313.017	91.25
313.246	102.25
313.476	103.25
313.706	91.25
313.935	102.25
314.165	84.25
314.394	84.25
314.624	95.25
314.853	83.25
315.083	96.25
315.312	87.25
315.542	108.25
315.771	109.25
316.001	101.25
316.23	97.25
316.46	99.25
316.689	94.25
316.919	83.25
317.148	90.25
317.377	99.25
317.607	90.25
317.836	86.25
318.065	91.25
318.295	79.25
318.524	90.25
318.753	93.25
318.983	105.25
319.212	89.25
319.441	103.25
319.67	107.25
319.9	81.25
320.129	84.25
320.358	85.25
320.587	98.25
320.816	99.25
321.046	92.25
321.275	96.25
321.504	85.25
321.733	92.25
321.962	81.25
322.191	93.25
322.42	95.25
322.649	97.25
322.878	84.25
323.108	80.25
323.337	83.25
323.566	91.25
323.795	88.25
324.024	105.25
324.253	99.25
324.482	97.25
324.71	94.25
324.939	94.25
325.168	88.25
325.397	79.25
325.626	99.25
325.855	89.25
326.084	79.25
326.313	97.25
326.542	88.25
326.77	92.25
326.999	97.25
327.228	84.25
327.457	97.25
327.686	122.25
327.914	77.25
328.143	93.25
328.372	82.25
328.6	81.25
328.829	90.25
329.058	78.25
329.287	88.25
329.515	97.25
329.744	92.25
329.972	98.25
330.201	105.25
330.43	107.25
330.658	77.25
330.887	87.25
331.115	89.25
331.344	89.25
331.572	97.25
331.801	81.25
332.03	99.25
332.258	91.25
332.486	95.25
332.715	82.25
332.943	97.25
333.172	95.25
333.4	98.25
333.629	95.25
333.857	100.25
334.085	101.25
334.314	93.25
334.542	88.25
334.771	88.25
334.999	95.25
335.227	97.25
335.455	93.25
335.684	94.25
335.912	87.25
336.14	94.25
336.369	100.25
336.597	83.25
336.825	95.25
337.053	94.25
337.281	83.25
337.51	77.25
337.738	105.25
337.966	94.25
338.194	75.25
338.422	93.25
338.65	96.25
338.878	79.25
339.106	101.25
339.334	97.25
339.562	93.25
339.79	100.25
340.018	99.25
340.246	82.25
340.474	106.25
340.702	103.25
340.93	95.25
341.158	98.25
341.386	87.25
341.614	88.25
341.842	92.25
342.07	97.25
342.298	99.25
342.526	102.25
342.754	85.25
342.981	96.25
343.209	87.25
343.437	108.25
343.665	95.25
343.893	89.25
344.12	90.25
344.348	98.25
344.576	96.25
344.804	97.25
345.031	108.25
345.259	107.25
345.487	98.25
345.714	81.25
345.942	99.25
346.17	98.25
346.397	98.25
346.625	91.25
346.853	99.25
347.08	94.25
347.308	91.25
347.535	90.25
347.763	93.25
347.99	83.25
348.218	93.25
348.445	97.25
348.673	106.25
348.9	97.25
349.128	95.25
349.355	87.25
349.583	88.25
349.81	91.25
350.037	93.25
350.265	90.25
350.492	102.25
350.72	94.25
350.947	97.25
351.174	98.25
351.402	96.25
351.629	86.25
351.856	96.25
352.083	92.25
352.311	105.25
352.538	94.25
352.765	99.25
352.992	85.25
353.22	105.25
353.447	87.25
353.674	98.25
353.901	99.25
354.128	90.25
354.355	87.25
354.583	94.25
354.81	91.25
355.037	85.25
355.264	78.25
355.491	90.25
355.718	97.25
355.945	81.25
356.172	93.25
356.399	89.25
356.626	90.25
356.853	86.25
357.08	110.25
357.307	90.25
357.534	85.25
357.761	99.25
357.988	95.25
358.215	74.25
358.441	85.25
358.668	97.25
358.895	89.25
359.122	86.25
359.349	86.25
359.576	97.25
359.802	104.25
360.029	87.25
360.256	96.25
360.483	101.25
360.709	97.25
360.936	100.25
361.163	103.25
361.39	75.25
361.616	81.25
361.843	87.25
362.07	99.25
362.296	96.25
362.523	91.25
362.749	102.25
362.976	90.25
363.203	90.25
363.429	81.25
363.656	91.25
363.882	89.25
364.109	93.25
364.335	98.25
364.562	97.25
364.788	87.25
365.015	91.25
365.241	100.25
365.468	106.25
365.694	93.25
365.92	89.25
366.147	87.25
366.373	92.25
366.599	97.25
366.826	97.25
367.052	102.25
367.278	88.25
367.505	90.25
367.731	108.25
367.957	90.25
368.184	86.25
368.41	90.25
368.636	85.25
368.862	99.25
369.089	106.25
369.315	85.25
369.541	85.25
369.767	103.25
369.993	89.25
370.219	95.25
370.445	89.25
370.672	99.25
370.898	99.25
371.124	81.25
371.35	91.25
371.576	85.25
371.802	84.25
372.028	89.25
372.254	86.25
372.48	85.25
372.706	85.25
372.932	97.25
373.158	83.25
373.384	89.25
373.61	95.25
373.835	86.25
374.061	100.25
374.287	108.25
374.513	99.25
374.739	94.25
374.965	101.25
375.191	97.25
375.416	91.25
375.642	86.25
375.868	99.25
376.094	92.25
376.319	97.25
376.545	87.25
376.771	78.25
376.997	86.25
377.222	98.25
377.448	89.25
377.674	88.25
377.899	90.25
378.125	95.25
378.35	106.25
378.576	86.25
378.802	79.25
379.027	97.25
379.253	85.25
379.478	83.25
379.704	96.25
379.929	82.25
380.155	89.25
380.38	90.25
380.606	86.25
380.831	84.25
381.057	86.25
381.282	89.25
381.507	92.25
381.733	95.25
381.958	80.25
382.184	101.25
382.409	91.25
382.634	80.25
382.86	90.25
383.085	95.25
383.31	98.25
383.535	93.25
383.761	85.25
383.986	106.25
384.211	86.25
384.436	97.25
384.662	94.25
384.887	93.25
385.112	94.25
385.337	82.25
385.562	85.25
385.787	101.25
386.013	98.25
386.238	89.25
386.463	96.25
386.688	99.25
386.913	84.25
387.138	92.25
387.363	95.25
387.588	91.25
387.813	96.25
388.038	91.25
388.263	102.25
388.488	88.25
388.713	100.25
388.938	99.25
389.163	93.25
389.387	85.25
389.612	98.25
389.837	108.25
390.062	109.25
390.287	75.25
390.512	93.25
390.736	103.25
390.961	87.25
391.186	97.25
391.411	77.25
391.636	97.25
391.86	100.25
392.085	98.25
392.31	90.25
392.534	91.25
392.759	93.25
392.984	79.25
393.208	91.25
393.433	81.25
393.658	102.25
393.882	97.25
394.107	91.25
394.331	99.25
394.556	93.25
394.78	93.25
395.005	93.25
395.229	83.25
395.454	97.25
395.678	77.25
395.903	103.25
396.127	113.25
396.352	98.25
396.576	93.25
396.801	100.25
397.025	90.25
397.249	102.25
397.474	94.25
397.698	90.25
397.922	100.25
398.147	102.25
398.371	105.25
398.595	91.25
398.82	89.25
399.044	91.25
399.268	92.25
399.492	109.25
399.717	107.25
399.941	96.25
400.165	114.25
400.389	105.25
400.613	104.25
400.837	105.25
401.062	89.25
401.286	100.25
401.51	89.25
401.734	95.25
401.958	101.25
402.182	93.25
402.406	98.25
402.63	106.25
402.854	103.25
403.078	99.25
403.302	84.25
403.526	101.25
403.75	106.25
403.974	89.25
404.198	82.25
404.422	97.25
404.645	90.25
404.869	85.25
405.093	94.25
405.317	96.25
405.541	102.25
405.765	89.25
405.988	99.25
406.212	94.25
406.436	86.25
406.66	79.25
406.883	84.25
407.107	69.25
407.331	95.25
407.555	92.25
407.778	95.25
408.002	94.25
408.226	85.25
408.449	99.25
408.673	98.25
408.896	101.25
409.12	89.25
409.344	86.25
409.567	103.25
409.791	99.25
410.014	101.25
410.238	97.25
410.461	82.25
410.685	93.25
410.908	96.25
411.132	100.25
411.355	92.25
411.578	97.25
411.802	94.25
412.025	99.25
412.249	103.25
412.472	92.25
412.695	110.25
412.919	101.25
413.142	107.25
413.365	104.25
413.589	95.25
413.812	95.25
414.035	106.25
414.258	97.25
414.482	90.25
414.705	86.25
414.928	95.25
415.151	91.25
415.374	94.25
415.597	91.25
415.821	90.25
416.044	89.25
416.267	90.25
416.49	94.25
416.713	95.25
416.936	105.25
417.159	91.25
417.382	86.25
417.605	94.25
417.828	93.25
418.051	86.25
418.274	103.25
418.497	108.25
418.72	93.25
418.943	94.25
419.166	103.25
419.389	97.25
419.611	98.25
419.834	102.25
420.057	86.25
420.28	99.25
420.503	93.25
420.726	87.25
420.948	95.25
421.171	84.25
421.394	88.25
421.617	97.25
421.839	97.25
422.062	97.25
422.285	107.25
422.507	103.25
422.73	93.25
422.953	97.25
423.175	98.25
423.398	102.25
423.621	105.25
423.843	93.25
424.066	88.25
424.288	105.25
424.511	96.25
424.733	116.25
424.956	84.25
425.178	95.25
425.401	82.25
425.623	82.25
425.846	95.25
426.068	85.25
426.291	109.25
426.513	98.25
426.735	97.25
426.958	101.25
427.18	98.25
427.402	96.25
427.625	98.25
427.847	86.25
428.069	93.25
428.292	99.25
428.514	92.25
428.736	97.25
428.958	95.25
429.181	93.25
429.403	99.25
429.625	91.25
429.847	84.25
430.069	91.25
430.292	101.25
430.514	84.25
430.736	90.25
430.958	85.25
431.18	76.25
431.402	90.25
431.624	107.25
431.846	106.25
432.068	97.25
432.29	79.25
432.512	89.25
432.734	84.25
432.956	100.25
433.178	83.25
433.4	93.25
433.622	100.25
433.844	90.25
434.066	86.25
434.287	89.25
434.509	89.25
434.731	91.25
434.953	95.25
435.175	94.25
435.397	87.25
435.618	98.25
435.84	86.25
436.062	107.25
436.284	87.25
436.505	106.25
436.727	89.25
436.949	89.25
437.17	97.25
437.392	101.25
437.614	92.25
437.835	87.25
438.057	93.25
438.278	96.25
438.5	84.25
438.721	75.25
438.943	94.25
439.165	96.25
439.386	94.25
439.608	96.25
439.829	93.25
440.05	94.25
440.272	94.25
440.493	99.25
440.715	99.25
440.936	94.25
441.158	92.25
441.379	89.25
441.6	91.25
441.822	94.25
442.043	103.25
442.264	82.25
442.486	91.25
442.707	89.25
442.928	91.25
443.149	92.25
443.371	93.25
443.592	85.25
443.813	93.25
444.034	103.25
444.255	89.25
444.476	99.25
444.698	99.25
444.919	98.25
445.14	159.25
445.361	143.25
445.582	94.25
445.803	88.25
446.024	94.25
446.245	83.25
446.466	105.25
446.687	105.25
446.908	90.25
447.129	90.25
447.35	93.25
447.571	96.25
447.792	100.25
448.013	104.25
448.234	89.25
448.455	99.25
448.675	90.25
448.896	78.25
449.117	105.25
449.338	85.25
449.559	94.25
449.779	100.25
450	88.25
450.221	101.25
450.442	85.25
450.662	82.25
450.883	89.25
451.104	89.25
451.324	89.25
451.545	100.25
451.766	84.25
451.986	98.25
452.207	86.25
452.428	88.25
452.648	83.25
452.869	79.25
453.089	106.25
453.31	93.25
453.53	78.25
453.751	86.25
453.971	93.25
454.192	95.25
454.412	101.25
454.633	88.25
454.853	92.25
455.073	101.25
455.294	92.25
455.514	92.25
455.734	101.25
455.955	96.25
456.175	75.25
456.395	90.25
456.616	84.25
456.836	112.25
457.056	88.25
457.276	100.25
457.497	93.25
457.717	95.25
457.937	89.25
458.157	93.25
458.377	90.25
458.598	80.25
458.818	86.25
459.038	75.25
459.258	98.25
459.478	94.25
459.698	97.25
459.918	91.25
460.138	83.25
460.358	103.25
460.578	108.25
460.798	74.25
461.018	106.25
461.238	105.25
461.458	84.25
461.678	97.25
461.898	86.25
462.118	112.25
462.338	91.25
462.558	95.25
462.777	92.25
462.997	100.25
463.217	101.25
463.437	97.25
463.657	91.25
463.876	99.25
464.096	100.25
464.316	105.25
464.536	105.25
464.755	89.25
464.975	90.25
465.195	109.25
465.414	85.25
465.634	109.25
465.854	89.25
466.073	93.25
466.293	93.25
466.512	80.25
466.732	93.25
466.951	98.25
467.171	89.25
467.391	107.25
467.61	94.25
467.829	96.25
468.049	83.25
468.268	92.25
468.488	92.25
468.707	84.25
468.927	82.25
469.146	77.25
469.365	107.25
469.585	81.25
469.804	93.25
470.023	97.25
470.243	115.25
470.462	86.25
470.681	99.25
470.901	89.25
471.12	103.25
471.339	98.25
471.558	95.25
471.777	89.25
471.997	83.25
472.216	91.25
472.435	99.25
472.654	84.25
472.873	85.25
473.092	90.25
473.311	87.25
473.53	99.25
473.749	110.25
473.968	98.25
474.187	99.25
474.406	79.25
474.625	89.25
474.844	96.25
475.063	90.25
475.282	105.25
475.501	93.25
475.72	101.25
475.939	95.25
476.158	96.25
476.377	82.25
476.596	97.25
476.814	90.25
477.033	78.25
477.252	91.25
477.471	87.25
477.69	99.25
477.908	82.25
478.127	77.25
478.346	96.25
478.564	111.25
478.783	114.25
479.002	98.25
479.22	99.25
479.439	106.25
479.658	102.25
479.876	91.25
480.095	95.25
480.313	89.25
480.532	89.25
480.751	91.25
480.969	86.25
481.188	94.25
481.406	99.25
481.624	85.25
481.843	93.25
482.061	102.25
482.28	97.25
482.498	109.25
482.717	85.25
482.935	83.25
483.153	96.25
483.372	85.25
483.59	91.25
483.808	109.25
484.027	83.25
484.245	94.25
484.463	93.25
484.681	101.25
484.9	101.25
485.118	101.25
485.336	81.25
485.554	93.25
485.772	88.25
485.99	98.25
486.209	101.25
486.427	95.25
486.645	101.25
486.863	101.25
487.081	100.25
487.299	96.25
487.517	89.25
487.735	92.25
487.953	100.25
488.171	89.25
488.389	93.25
488.607	89.25
488.825	98.25
489.043	96.25
489.261	91.25
489.479	93.25
489.696	102.25
489.914	93.25
490.132	93.25
490.35	94.25
490.568	88.25
490.786	102.25
491.003	100.25
491.221	102.25
491.439	100.25
491.657	90.25
491.874	102.25
492.092	100.25
492.31	93.25
492.527	98.25
492.745	101.25
492.963	96.25
493.18	85.25
493.398	94.25
493.615	90.25
493.833	90.25
494.05	86.25
494.268	90.25
494.485	107.25
494.703	97.25
494.92	98.25
495.138	103.25
495.355	104.25
495.573	95.25
495.79	70.25
496.008	106.25
496.225	93.25
496.442	85.25
496.66	93.25
496.877	93.25
497.094	95.25
497.312	109.25
497.529	103.25
497.746	91.25
497.963	105.25
498.181	93.25
498.398	95.25
498.615	108.25
498.832	98.25
499.049	116.25
499.267	115.25
499.484	104.25
499.701	93.25
499.918	119.25
500.135	116.25
500.352	103.25
500.569	125.25
500.786	138.25
501.003	97.25
501.22	111.25
501.437	121.25
501.654	109.25
501.871	115.25
502.088	103.25
502.305	96.25
502.522	111.25
502.739	109.25
502.956	92.25
503.172	111.25
503.389	102.25
503.606	99.25
503.823	89.25
504.04	88.25
504.256	90.25
504.473	90.25
504.69	99.25
504.907	107.25
505.123	93.25
505.34	81.25
505.557	82.25
505.773	90.25
505.99	86.25
506.207	99.25
506.423	91.25
506.64	85.25
506.856	95.25
507.073	99.25
507.289	89.25
507.506	86.25
507.722	89.25
507.939	100.25
508.155	109.25
508.372	105.25
508.588	90.25
508.805	87.25
509.021	81.25
509.238	82.25
509.454	89.25
509.67	83.25
509.887	93.25
510.103	96.25
510.319	94.25
510.536	98.25
510.752	84.25
510.968	109.25
511.184	89.25
511.401	85.25
511.617	109.25
511.833	98.25
512.049	101.25
512.265	90.25
512.481	87.25
512.698	100.25
512.914	104.25
513.13	103.25
513.346	98.25
513.562	101.25
513.778	95.25
513.994	99.25
514.21	100.25
514.426	94.25
514.642	93.25
514.858	94.25
515.074	99.25
515.29	85.25
515.506	105.25
515.721	95.25
515.937	92.25
516.153	86.25
516.369	94.25
516.585	99.25
516.801	98.25
517.016	99.25
