Data from BG_HRD10591_016.txt Node
Date: Fri May 16 15:14:30 EDT 2025
User: Yrep
Spectrometer: HR+D1059
Trigger mode: 1
Integration Time (sec): 1.000000E-1
Scans to average: 1
Electric dark correction enabled: true
Nonlinearity correction enabled: false
Boxcar width: 0
XAxis mode: Wavelengths
Number of Pixels in Spectrum: 2048
>>>>>Begin Spectral Data<<<<<
223.165	-18.31
223.4	-18.31
223.635	-18.31
223.869	-24.31
224.104	-12.31
224.338	-19.31
224.573	-6.31
224.808	-8.31
225.042	-6.31
225.277	0.69
225.511	-15.31
225.746	3.69
225.98	-2.31
226.215	1.69
226.449	21.69
226.683	17.69
226.918	35.69
227.152	31.69
227.387	30.69
227.621	33.69
227.856	46.69
228.09	31.69
228.324	48.69
228.559	58.69
228.793	67.69
229.027	71.69
229.262	71.69
229.496	73.69
229.73	68.69
229.964	78.69
230.199	59.69
230.433	84.69
230.667	76.69
230.901	100.69
231.136	69.69
231.37	69.69
231.604	83.69
231.838	88.69
232.072	64.69
232.306	86.69
232.541	80.69
232.775	80.69
233.009	71.69
233.243	83.69
233.477	88.69
233.711	90.69
233.945	89.69
234.179	69.69
234.413	92.69
234.647	84.69
234.881	64.69
235.115	79.69
235.349	79.69
235.583	75.69
235.817	88.69
236.051	83.69
236.285	62.69
236.519	72.69
236.753	76.69
236.987	66.69
237.221	81.69
237.455	75.69
237.689	74.69
237.922	74.69
238.156	81.69
238.39	67.69
238.624	73.69
238.858	71.69
239.091	74.69
239.325	72.69
239.559	73.69
239.793	83.69
240.027	90.69
240.26	80.69
240.494	84.69
240.728	71.69
240.961	74.69
241.195	74.69
241.429	76.69
241.662	87.69
241.896	77.69
242.13	75.69
242.363	88.69
242.597	85.69
242.83	73.69
243.064	69.69
243.298	77.69
243.531	73.69
243.765	73.69
243.998	69.69
244.232	83.69
244.465	84.69
244.699	73.69
244.932	78.69
245.166	70.69
245.399	84.69
245.633	66.69
245.866	96.69
246.099	92.69
246.333	90.69
246.566	76.69
246.8	87.69
247.033	75.69
247.266	81.69
247.5	71.69
247.733	69.69
247.966	71.69
248.2	67.69
248.433	79.69
248.666	61.69
248.899	61.69
249.133	79.69
249.366	85.69
249.599	75.69
249.832	89.69
250.066	77.69
250.299	77.69
250.532	83.69
250.765	77.69
250.998	81.69
251.231	84.69
251.465	88.69
251.698	80.69
251.931	87.69
252.164	74.69
252.397	80.69
252.63	77.69
252.863	97.69
253.096	76.69
253.329	86.69
253.562	72.69
253.795	75.69
254.028	91.69
254.261	80.69
254.494	71.69
254.727	88.69
254.96	86.69
255.193	68.69
255.426	71.69
255.659	76.69
255.892	72.69
256.124	77.69
256.357	73.69
256.59	75.69
256.823	77.69
257.056	83.69
257.289	68.69
257.521	85.69
257.754	70.69
257.987	78.69
258.22	82.69
258.452	72.69
258.685	85.69
258.918	79.69
259.151	83.69
259.383	82.69
259.616	86.69
259.849	75.69
260.081	83.69
260.314	77.69
260.547	79.69
260.779	81.69
261.012	76.69
261.244	76.69
261.477	78.69
261.71	88.69
261.942	79.69
262.175	84.69
262.407	75.69
262.64	88.69
262.872	76.69
263.105	70.69
263.337	79.69
263.57	95.69
263.802	95.69
264.035	89.69
264.267	74.69
264.499	91.69
264.732	79.69
264.964	90.69
265.197	82.69
265.429	65.69
265.661	85.69
265.894	72.69
266.126	96.69
266.358	85.69
266.591	85.69
266.823	100.69
267.055	89.69
267.287	98.69
267.52	91.69
267.752	81.69
267.984	91.69
268.216	79.69
268.448	85.69
268.681	89.69
268.913	79.69
269.145	77.69
269.377	87.69
269.609	80.69
269.841	88.69
270.073	71.69
270.306	96.69
270.538	77.69
270.77	89.69
271.002	93.69
271.234	101.69
271.466	92.69
271.698	83.69
271.93	76.69
272.162	88.69
272.394	103.69
272.626	78.69
272.858	79.69
273.09	84.69
273.322	78.69
273.553	89.69
273.785	99.69
274.017	93.69
274.249	79.69
274.481	93.69
274.713	81.69
274.945	88.69
275.176	85.69
275.408	94.69
275.64	83.69
275.872	92.69
276.104	81.69
276.335	80.69
276.567	75.69
276.799	79.69
277.031	77.69
277.262	72.69
277.494	75.69
277.726	91.69
277.957	82.69
278.189	84.69
278.421	102.69
278.652	80.69
278.884	91.69
279.115	82.69
279.347	91.69
279.579	90.69
279.81	85.69
280.042	78.69
280.273	77.69
280.505	88.69
280.736	85.69
280.968	86.69
281.199	75.69
281.431	86.69
281.662	99.69
281.894	78.69
282.125	79.69
282.356	81.69
282.588	79.69
282.819	102.69
283.051	91.69
283.282	77.69
283.513	75.69
283.745	89.69
283.976	91.69
284.207	76.69
284.439	76.69
284.67	92.69
284.901	85.69
285.132	89.69
285.364	92.69
285.595	71.69
285.826	94.69
286.057	84.69
286.288	78.69
286.52	87.69
286.751	88.69
286.982	97.69
287.213	95.69
287.444	91.69
287.675	87.69
287.906	100.69
288.138	96.69
288.369	82.69
288.6	92.69
288.831	106.69
289.062	96.69
289.293	96.69
289.524	91.69
289.755	73.69
289.986	85.69
290.217	75.69
290.448	81.69
290.679	103.69
290.91	104.69
291.141	83.69
291.371	95.69
291.602	71.69
291.833	88.69
292.064	88.69
292.295	88.69
292.526	67.69
292.757	78.69
292.987	84.69
293.218	86.69
293.449	90.69
293.68	82.69
293.91	84.69
294.141	83.69
294.372	77.69
294.603	81.69
294.833	96.69
295.064	89.69
295.295	88.69
295.525	89.69
295.756	77.69
295.987	79.69
296.217	85.69
296.448	90.69
296.679	99.69
296.909	76.69
297.14	89.69
297.37	83.69
297.601	86.69
297.831	79.69
298.062	83.69
298.292	94.69
298.523	100.69
298.753	67.69
298.984	88.69
299.214	83.69
299.445	89.69
299.675	85.69
299.905	85.69
300.136	91.69
300.366	88.69
300.597	85.69
300.827	80.69
301.057	75.69
301.288	80.69
301.518	79.69
301.748	73.69
301.979	96.69
302.209	79.69
302.439	80.69
302.669	68.69
302.9	77.69
303.13	88.69
303.36	92.69
303.59	88.69
303.82	77.69
304.051	87.69
304.281	97.69
304.511	94.69
304.741	90.69
304.971	73.69
305.201	79.69
305.431	77.69
305.661	88.69
305.891	76.69
306.121	106.69
306.352	85.69
306.582	97.69
306.812	86.69
307.042	90.69
307.272	91.69
307.502	80.69
307.731	90.69
307.961	94.69
308.191	83.69
308.421	84.69
308.651	81.69
308.881	89.69
309.111	88.69
309.341	90.69
309.571	81.69
309.8	90.69
310.03	85.69
310.26	91.69
310.49	87.69
310.72	86.69
310.949	84.69
311.179	91.69
311.409	84.69
311.639	89.69
311.868	91.69
312.098	93.69
312.328	80.69
312.557	91.69
312.787	87.69
313.017	94.69
313.246	97.69
313.476	79.69
313.706	93.69
313.935	79.69
314.165	106.69
314.394	85.69
314.624	87.69
314.853	82.69
315.083	81.69
315.312	94.69
315.542	99.69
315.771	80.69
316.001	88.69
316.23	103.69
316.46	95.69
316.689	88.69
316.919	90.69
317.148	93.69
317.377	91.69
317.607	95.69
317.836	92.69
318.065	87.69
318.295	91.69
318.524	86.69
318.753	80.69
318.983	87.69
319.212	99.69
319.441	92.69
319.67	90.69
319.9	83.69
320.129	100.69
320.358	88.69
320.587	93.69
320.816	78.69
321.046	94.69
321.275	86.69
321.504	88.69
321.733	83.69
321.962	93.69
322.191	98.69
322.42	81.69
322.649	80.69
322.878	91.69
323.108	81.69
323.337	87.69
323.566	94.69
323.795	86.69
324.024	89.69
324.253	84.69
324.482	72.69
324.71	96.69
324.939	105.69
325.168	83.69
325.397	86.69
325.626	80.69
325.855	92.69
326.084	95.69
326.313	87.69
326.542	93.69
326.77	92.69
326.999	90.69
327.228	87.69
327.457	90.69
327.686	89.69
327.914	89.69
328.143	91.69
328.372	88.69
328.6	78.69
328.829	90.69
329.058	85.69
329.287	86.69
329.515	85.69
329.744	87.69
329.972	80.69
330.201	80.69
330.43	111.69
330.658	80.69
330.887	89.69
331.115	101.69
331.344	88.69
331.572	97.69
331.801	90.69
332.03	95.69
332.258	93.69
332.486	91.69
332.715	85.69
332.943	79.69
333.172	77.69
333.4	85.69
333.629	83.69
333.857	101.69
334.085	102.69
334.314	86.69
334.542	95.69
334.771	94.69
334.999	91.69
335.227	95.69
335.455	89.69
335.684	84.69
335.912	106.69
336.14	96.69
336.369	90.69
336.597	88.69
336.825	91.69
337.053	85.69
337.281	95.69
337.51	85.69
337.738	93.69
337.966	100.69
338.194	92.69
338.422	85.69
338.65	93.69
338.878	72.69
339.106	87.69
339.334	76.69
339.562	92.69
339.79	105.69
340.018	87.69
340.246	88.69
340.474	95.69
340.702	89.69
340.93	87.69
341.158	86.69
341.386	84.69
341.614	81.69
341.842	88.69
342.07	88.69
342.298	79.69
342.526	82.69
342.754	96.69
342.981	89.69
343.209	100.69
343.437	107.69
343.665	97.69
343.893	89.69
344.12	93.69
344.348	97.69
344.576	94.69
344.804	104.69
345.031	85.69
345.259	78.69
345.487	98.69
345.714	85.69
345.942	96.69
346.17	83.69
346.397	84.69
346.625	74.69
346.853	75.69
347.08	87.69
347.308	81.69
347.535	85.69
347.763	89.69
347.99	87.69
348.218	105.69
348.445	77.69
348.673	92.69
348.9	93.69
349.128	83.69
349.355	85.69
349.583	86.69
349.81	78.69
350.037	83.69
350.265	92.69
350.492	90.69
350.72	70.69
350.947	91.69
351.174	88.69
351.402	80.69
351.629	84.69
351.856	101.69
352.083	92.69
352.311	96.69
352.538	101.69
352.765	79.69
352.992	90.69
353.22	91.69
353.447	81.69
353.674	96.69
353.901	90.69
354.128	87.69
354.355	96.69
354.583	80.69
354.81	86.69
355.037	93.69
355.264	96.69
355.491	108.69
355.718	103.69
355.945	88.69
356.172	83.69
356.399	96.69
356.626	88.69
356.853	93.69
357.08	93.69
357.307	96.69
357.534	85.69
357.761	88.69
357.988	88.69
358.215	97.69
358.441	81.69
358.668	104.69
358.895	92.69
359.122	90.69
359.349	84.69
359.576	81.69
359.802	78.69
360.029	83.69
360.256	98.69
360.483	85.69
360.709	99.69
360.936	96.69
361.163	79.69
361.39	76.69
361.616	80.69
361.843	92.69
362.07	87.69
362.296	95.69
362.523	93.69
362.749	82.69
362.976	99.69
363.203	106.69
363.429	79.69
363.656	83.69
363.882	86.69
364.109	85.69
364.335	75.69
364.562	91.69
364.788	86.69
365.015	99.69
365.241	93.69
365.468	91.69
365.694	78.69
365.92	88.69
366.147	93.69
366.373	80.69
366.599	99.69
366.826	96.69
367.052	82.69
367.278	97.69
367.505	79.69
367.731	86.69
367.957	80.69
368.184	105.69
368.41	83.69
368.636	84.69
368.862	100.69
369.089	90.69
369.315	93.69
369.541	80.69
369.767	85.69
369.993	90.69
370.219	78.69
370.445	75.69
370.672	103.69
370.898	81.69
371.124	88.69
371.35	78.69
371.576	87.69
371.802	63.69
372.028	85.69
372.254	106.69
372.48	83.69
372.706	93.69
372.932	94.69
373.158	97.69
373.384	94.69
373.61	87.69
373.835	89.69
374.061	90.69
374.287	86.69
374.513	94.69
374.739	97.69
374.965	95.69
375.191	90.69
375.416	95.69
375.642	80.69
375.868	78.69
376.094	78.69
376.319	90.69
376.545	86.69
376.771	99.69
376.997	99.69
377.222	86.69
377.448	90.69
377.674	80.69
377.899	92.69
378.125	83.69
378.35	100.69
378.576	84.69
378.802	95.69
379.027	103.69
379.253	99.69
379.478	79.69
379.704	81.69
379.929	85.69
380.155	94.69
380.38	94.69
380.606	101.69
380.831	89.69
381.057	91.69
381.282	84.69
381.507	95.69
381.733	91.69
381.958	84.69
382.184	94.69
382.409	86.69
382.634	106.69
382.86	79.69
383.085	90.69
383.31	97.69
383.535	64.69
383.761	88.69
383.986	88.69
384.211	93.69
384.436	85.69
384.662	92.69
384.887	94.69
385.112	105.69
385.337	105.69
385.562	93.69
385.787	88.69
386.013	87.69
386.238	84.69
386.463	93.69
386.688	101.69
386.913	89.69
387.138	93.69
387.363	98.69
387.588	75.69
387.813	81.69
388.038	91.69
388.263	83.69
388.488	83.69
388.713	84.69
388.938	90.69
389.163	92.69
389.387	85.69
389.612	73.69
389.837	95.69
390.062	101.69
390.287	78.69
390.512	99.69
390.736	81.69
390.961	96.69
391.186	99.69
391.411	83.69
391.636	87.69
391.86	85.69
392.085	95.69
392.31	101.69
392.534	95.69
392.759	87.69
392.984	82.69
393.208	72.69
393.433	82.69
393.658	87.69
393.882	84.69
394.107	95.69
394.331	86.69
394.556	73.69
394.78	83.69
395.005	93.69
395.229	94.69
395.454	95.69
395.678	72.69
395.903	99.69
396.127	85.69
396.352	96.69
396.576	105.69
396.801	99.69
397.025	94.69
397.249	91.69
397.474	85.69
397.698	84.69
397.922	86.69
398.147	93.69
398.371	96.69
398.595	100.69
398.82	103.69
399.044	88.69
399.268	92.69
399.492	94.69
399.717	85.69
399.941	90.69
400.165	95.69
400.389	95.69
400.613	102.69
400.837	81.69
401.062	91.69
401.286	84.69
401.51	86.69
401.734	89.69
401.958	79.69
402.182	83.69
402.406	95.69
402.63	83.69
402.854	95.69
403.078	99.69
403.302	101.69
403.526	103.69
403.75	101.69
403.974	87.69
404.198	88.69
404.422	98.69
404.645	84.69
404.869	100.69
405.093	97.69
405.317	91.69
405.541	88.69
405.765	87.69
405.988	88.69
406.212	80.69
406.436	73.69
406.66	89.69
406.883	85.69
407.107	88.69
407.331	96.69
407.555	92.69
407.778	88.69
408.002	93.69
408.226	84.69
408.449	100.69
408.673	93.69
408.896	89.69
409.12	80.69
409.344	91.69
409.567	92.69
409.791	88.69
410.014	87.69
410.238	83.69
410.461	99.69
410.685	93.69
410.908	94.69
411.132	101.69
411.355	94.69
411.578	90.69
411.802	93.69
412.025	79.69
412.249	93.69
412.472	96.69
412.695	96.69
412.919	92.69
413.142	92.69
413.365	85.69
413.589	95.69
413.812	75.69
414.035	92.69
414.258	85.69
414.482	101.69
414.705	96.69
414.928	93.69
415.151	97.69
415.374	84.69
415.597	104.69
415.821	80.69
416.044	88.69
416.267	87.69
416.49	74.69
416.713	81.69
416.936	87.69
417.159	81.69
417.382	93.69
417.605	83.69
417.828	83.69
418.051	85.69
418.274	91.69
418.497	79.69
418.72	96.69
418.943	86.69
419.166	101.69
419.389	86.69
419.611	85.69
419.834	95.69
420.057	82.69
420.28	81.69
420.503	103.69
420.726	93.69
420.948	87.69
421.171	84.69
421.394	83.69
421.617	92.69
421.839	89.69
422.062	87.69
422.285	75.69
422.507	93.69
422.73	103.69
422.953	95.69
423.175	88.69
423.398	83.69
423.621	101.69
423.843	95.69
424.066	107.69
424.288	103.69
424.511	103.69
424.733	96.69
424.956	96.69
425.178	95.69
425.401	76.69
425.623	96.69
425.846	88.69
426.068	85.69
426.291	99.69
426.513	73.69
426.735	80.69
426.958	104.69
427.18	75.69
427.402	75.69
427.625	73.69
427.847	95.69
428.069	85.69
428.292	100.69
428.514	93.69
428.736	89.69
428.958	87.69
429.181	83.69
429.403	90.69
429.625	89.69
429.847	92.69
430.069	86.69
430.292	84.69
430.514	93.69
430.736	73.69
430.958	84.69
431.18	86.69
431.402	77.69
431.624	88.69
431.846	87.69
432.068	94.69
432.29	91.69
432.512	88.69
432.734	91.69
432.956	80.69
433.178	88.69
433.4	78.69
433.622	81.69
433.844	87.69
434.066	100.69
434.287	97.69
434.509	101.69
434.731	101.69
434.953	82.69
435.175	78.69
435.397	88.69
435.618	78.69
435.84	72.69
436.062	97.69
436.284	92.69
436.505	106.69
436.727	86.69
436.949	90.69
437.17	93.69
437.392	96.69
437.614	102.69
437.835	77.69
438.057	79.69
438.278	80.69
438.5	87.69
438.721	107.69
438.943	86.69
439.165	88.69
439.386	74.69
439.608	85.69
439.829	99.69
440.05	90.69
440.272	92.69
440.493	96.69
440.715	81.69
440.936	96.69
441.158	97.69
441.379	94.69
441.6	87.69
441.822	93.69
442.043	79.69
442.264	93.69
442.486	86.69
442.707	96.69
442.928	80.69
443.149	87.69
443.371	86.69
443.592	81.69
443.813	87.69
444.034	85.69
444.255	89.69
444.476	90.69
444.698	89.69
444.919	108.69
445.14	166.69
445.361	134.69
445.582	95.69
445.803	89.69
446.024	86.69
446.245	102.69
446.466	107.69
446.687	94.69
446.908	84.69
447.129	91.69
447.35	76.69
447.571	94.69
447.792	96.69
448.013	100.69
448.234	80.69
448.455	99.69
448.675	87.69
448.896	80.69
449.117	90.69
449.338	72.69
449.559	91.69
449.779	84.69
450	84.69
450.221	84.69
450.442	88.69
450.662	91.69
450.883	80.69
451.104	83.69
451.324	81.69
451.545	79.69
451.766	100.69
451.986	94.69
452.207	82.69
452.428	89.69
452.648	99.69
452.869	89.69
453.089	95.69
453.31	80.69
453.53	89.69
453.751	96.69
453.971	110.69
454.192	91.69
454.412	88.69
454.633	89.69
454.853	94.69
455.073	95.69
455.294	78.69
455.514	77.69
455.734	89.69
455.955	89.69
456.175	80.69
456.395	96.69
456.616	83.69
456.836	84.69
457.056	94.69
457.276	80.69
457.497	91.69
457.717	94.69
457.937	98.69
458.157	93.69
458.377	91.69
458.598	105.69
458.818	87.69
459.038	94.69
459.258	81.69
459.478	91.69
459.698	104.69
459.918	90.69
460.138	101.69
460.358	101.69
460.578	96.69
460.798	88.69
461.018	88.69
461.238	97.69
461.458	89.69
461.678	88.69
461.898	93.69
462.118	94.69
462.338	96.69
462.558	85.69
462.777	101.69
462.997	96.69
463.217	92.69
463.437	90.69
463.657	103.69
463.876	85.69
464.096	91.69
464.316	93.69
464.536	109.69
464.755	74.69
464.975	94.69
465.195	100.69
465.414	103.69
465.634	87.69
465.854	89.69
466.073	80.69
466.293	79.69
466.512	99.69
466.732	84.69
466.951	99.69
467.171	80.69
467.391	91.69
467.61	91.69
467.829	87.69
468.049	93.69
468.268	90.69
468.488	80.69
468.707	87.69
468.927	75.69
469.146	75.69
469.365	87.69
469.585	88.69
469.804	89.69
470.023	87.69
470.243	85.69
470.462	74.69
470.681	85.69
470.901	84.69
471.12	87.69
471.339	104.69
471.558	83.69
471.777	86.69
471.997	86.69
472.216	100.69
472.435	85.69
472.654	88.69
472.873	88.69
473.092	103.69
473.311	92.69
473.53	77.69
473.749	88.69
473.968	89.69
474.187	83.69
474.406	94.69
474.625	94.69
474.844	81.69
475.063	86.69
475.282	86.69
475.501	88.69
475.72	92.69
475.939	87.69
476.158	81.69
476.377	89.69
476.596	91.69
476.814	103.69
477.033	100.69
477.252	84.69
477.471	84.69
477.69	95.69
477.908	82.69
478.127	94.69
478.346	95.69
478.564	87.69
478.783	82.69
479.002	92.69
479.22	89.69
479.439	100.69
479.658	90.69
479.876	88.69
480.095	96.69
480.313	90.69
480.532	85.69
480.751	101.69
480.969	92.69
481.188	101.69
481.406	102.69
481.624	86.69
481.843	80.69
482.061	99.69
482.28	86.69
482.498	97.69
482.717	99.69
482.935	87.69
483.153	95.69
483.372	92.69
483.59	86.69
483.808	89.69
484.027	86.69
484.245	93.69
484.463	80.69
484.681	103.69
484.9	95.69
485.118	81.69
485.336	94.69
485.554	93.69
485.772	74.69
485.99	85.69
486.209	90.69
486.427	92.69
486.645	91.69
486.863	93.69
487.081	83.69
487.299	95.69
487.517	91.69
487.735	83.69
487.953	96.69
488.171	104.69
488.389	99.69
488.607	102.69
488.825	75.69
489.043	89.69
489.261	102.69
489.479	103.69
489.696	89.69
489.914	94.69
490.132	89.69
490.35	97.69
490.568	102.69
490.786	84.69
491.003	101.69
491.221	97.69
491.439	96.69
491.657	88.69
491.874	101.69
492.092	95.69
492.31	85.69
492.527	96.69
492.745	86.69
492.963	83.69
493.18	88.69
493.398	85.69
493.615	94.69
493.833	81.69
494.05	85.69
494.268	90.69
494.485	86.69
494.703	92.69
494.92	89.69
495.138	100.69
495.355	106.69
495.573	94.69
495.79	94.69
496.008	86.69
496.225	85.69
496.442	88.69
496.66	104.69
496.877	101.69
497.094	88.69
497.312	96.69
497.529	84.69
497.746	103.69
497.963	89.69
498.181	107.69
498.398	83.69
498.615	103.69
498.832	108.69
499.049	97.69
499.267	97.69
499.484	107.69
499.701	103.69
499.918	102.69
500.135	121.69
500.352	122.69
500.569	115.69
500.786	103.69
501.003	107.69
501.22	112.69
501.437	107.69
501.654	95.69
501.871	95.69
502.088	107.69
502.305	99.69
502.522	102.69
502.739	101.69
502.956	96.69
503.172	88.69
503.389	96.69
503.606	95.69
503.823	95.69
504.04	96.69
504.256	101.69
504.473	81.69
504.69	106.69
504.907	94.69
505.123	89.69
505.34	90.69
505.557	101.69
505.773	101.69
505.99	92.69
506.207	82.69
506.423	97.69
506.64	95.69
506.856	84.69
507.073	86.69
507.289	87.69
507.506	88.69
507.722	86.69
507.939	93.69
508.155	89.69
508.372	95.69
508.588	99.69
508.805	93.69
509.021	96.69
509.238	93.69
509.454	80.69
509.67	90.69
509.887	89.69
510.103	99.69
510.319	112.69
510.536	92.69
510.752	85.69
510.968	99.69
511.184	96.69
511.401	71.69
511.617	94.69
511.833	92.69
512.049	94.69
512.265	89.69
512.481	93.69
512.698	95.69
512.914	76.69
513.13	84.69
513.346	84.69
513.562	94.69
513.778	87.69
513.994	103.69
514.21	94.69
514.426	102.69
514.642	103.69
514.858	89.69
515.074	88.69
515.29	104.69
515.506	84.69
515.721	95.69
515.937	103.69
516.153	95.69
516.369	99.69
516.585	97.69
516.801	105.69
517.016	104.69
517.232	101.69
517.448	103.69
517.664	86.69
517.879	110.69
518.095	95.69
518.311	103.69
