Data from BG_HRD10591_097.txt Node
Date: Fri May 16 15:15:11 EDT 2025
User: Yrep
Spectrometer: HR+D1059
Trigger mode: 1
Integration Time (sec): 1.000000E-1
Scans to average: 1
Electric dark correction enabled: true
Nonlinearity correction enabled: false
Boxcar width: 0
XAxis mode: Wavelengths
Number of Pixels in Spectrum: 2048
>>>>>Begin Spectral Data<<<<<
223.165	-21.81
223.4	-21.81
223.635	-21.81
223.869	-23.81
224.104	-19.81
224.338	-12.81
224.573	-16.81
224.808	-14.81
225.042	0.19
225.277	3.19
225.511	2.19
225.746	2.19
225.98	10.19
226.215	22.19
226.449	8.19
226.683	14.19
226.918	22.19
227.152	25.19
227.387	34.19
227.621	34.19
227.856	49.19
228.09	53.19
228.324	53.19
228.559	62.19
228.793	56.19
229.027	64.19
229.262	60.19
229.496	74.19
229.73	65.19
229.964	65.19
230.199	76.19
230.433	74.19
230.667	78.19
230.901	76.19
231.136	77.19
231.37	84.19
231.604	78.19
231.838	68.19
232.072	71.19
232.306	79.19
232.541	78.19
232.775	90.19
233.009	92.19
233.243	93.19
233.477	80.19
233.711	66.19
233.945	88.19
234.179	86.19
234.413	85.19
234.647	90.19
234.881	88.19
235.115	87.19
235.349	70.19
235.583	82.19
235.817	79.19
236.051	85.19
236.285	79.19
236.519	68.19
236.753	68.19
236.987	84.19
237.221	78.19
237.455	89.19
237.689	77.19
237.922	72.19
238.156	69.19
238.39	75.19
238.624	74.19
238.858	76.19
239.091	84.19
239.325	93.19
239.559	74.19
239.793	90.19
240.027	76.19
240.26	79.19
240.494	77.19
240.728	69.19
240.961	86.19
241.195	75.19
241.429	69.19
241.662	79.19
241.896	79.19
242.13	65.19
242.363	70.19
242.597	72.19
242.83	76.19
243.064	78.19
243.298	81.19
243.531	74.19
243.765	83.19
243.998	84.19
244.232	70.19
244.465	78.19
244.699	67.19
244.932	74.19
245.166	83.19
245.399	85.19
245.633	90.19
245.866	92.19
246.099	73.19
246.333	84.19
246.566	76.19
246.8	59.19
247.033	77.19
247.266	78.19
247.5	78.19
247.733	85.19
247.966	78.19
248.2	70.19
248.433	58.19
248.666	83.19
248.899	83.19
249.133	72.19
249.366	78.19
249.599	76.19
249.832	90.19
250.066	83.19
250.299	72.19
250.532	65.19
250.765	83.19
250.998	81.19
251.231	82.19
251.465	86.19
251.698	67.19
251.931	94.19
252.164	66.19
252.397	71.19
252.63	82.19
252.863	74.19
253.096	85.19
253.329	79.19
253.562	92.19
253.795	74.19
254.028	83.19
254.261	90.19
254.494	77.19
254.727	81.19
254.96	89.19
255.193	74.19
255.426	80.19
255.659	78.19
255.892	82.19
256.124	70.19
256.357	86.19
256.59	82.19
256.823	88.19
257.056	69.19
257.289	79.19
257.521	87.19
257.754	65.19
257.987	76.19
258.22	83.19
258.452	93.19
258.685	88.19
258.918	83.19
259.151	84.19
259.383	81.19
259.616	79.19
259.849	72.19
260.081	96.19
260.314	82.19
260.547	70.19
260.779	86.19
261.012	94.19
261.244	76.19
261.477	78.19
261.71	71.19
261.942	75.19
262.175	74.19
262.407	78.19
262.64	81.19
262.872	86.19
263.105	70.19
263.337	86.19
263.57	88.19
263.802	76.19
264.035	75.19
264.267	85.19
264.499	88.19
264.732	90.19
264.964	80.19
265.197	87.19
265.429	86.19
265.661	83.19
265.894	74.19
266.126	86.19
266.358	78.19
266.591	87.19
266.823	83.19
267.055	78.19
267.287	82.19
267.52	84.19
267.752	82.19
267.984	87.19
268.216	74.19
268.448	79.19
268.681	86.19
268.913	85.19
269.145	84.19
269.377	83.19
269.609	98.19
269.841	87.19
270.073	74.19
270.306	72.19
270.538	92.19
270.77	88.19
271.002	78.19
271.234	85.19
271.466	79.19
271.698	81.19
271.93	85.19
272.162	79.19
272.394	86.19
272.626	78.19
272.858	74.19
273.09	74.19
273.322	77.19
273.553	68.19
273.785	87.19
274.017	83.19
274.249	85.19
274.481	95.19
274.713	80.19
274.945	86.19
275.176	85.19
275.408	80.19
275.64	80.19
275.872	81.19
276.104	91.19
276.335	81.19
276.567	86.19
276.799	79.19
277.031	98.19
277.262	89.19
277.494	86.19
277.726	88.19
277.957	109.19
278.189	85.19
278.421	82.19
278.652	90.19
278.884	100.19
279.115	79.19
279.347	76.19
279.579	77.19
279.81	84.19
280.042	80.19
280.273	73.19
280.505	80.19
280.736	82.19
280.968	79.19
281.199	78.19
281.431	74.19
281.662	72.19
281.894	91.19
282.125	82.19
282.356	84.19
282.588	85.19
282.819	89.19
283.051	95.19
283.282	94.19
283.513	91.19
283.745	79.19
283.976	84.19
284.207	95.19
284.439	89.19
284.67	87.19
284.901	93.19
285.132	83.19
285.364	73.19
285.595	91.19
285.826	104.19
286.057	93.19
286.288	92.19
286.52	98.19
286.751	87.19
286.982	87.19
287.213	63.19
287.444	85.19
287.675	85.19
287.906	82.19
288.138	82.19
288.369	84.19
288.6	91.19
288.831	83.19
289.062	92.19
289.293	92.19
289.524	78.19
289.755	106.19
289.986	92.19
290.217	92.19
290.448	91.19
290.679	99.19
290.91	94.19
291.141	98.19
291.371	104.19
291.602	85.19
291.833	89.19
292.064	94.19
292.295	88.19
292.526	74.19
292.757	83.19
292.987	82.19
293.218	100.19
293.449	92.19
293.68	104.19
293.91	77.19
294.141	88.19
294.372	98.19
294.603	73.19
294.833	73.19
295.064	82.19
295.295	88.19
295.525	84.19
295.756	82.19
295.987	82.19
296.217	79.19
296.448	83.19
296.679	78.19
296.909	80.19
297.14	78.19
297.37	90.19
297.601	81.19
297.831	94.19
298.062	82.19
298.292	82.19
298.523	80.19
298.753	91.19
298.984	96.19
299.214	78.19
299.445	102.19
299.675	80.19
299.905	79.19
300.136	93.19
300.366	90.19
300.597	94.19
300.827	79.19
301.057	90.19
301.288	84.19
301.518	93.19
301.748	77.19
301.979	98.19
302.209	86.19
302.439	87.19
302.669	73.19
302.9	80.19
303.13	78.19
303.36	95.19
303.59	90.19
303.82	83.19
304.051	90.19
304.281	92.19
304.511	96.19
304.741	95.19
304.971	89.19
305.201	74.19
305.431	79.19
305.661	94.19
305.891	81.19
306.121	84.19
306.352	89.19
306.582	80.19
306.812	98.19
307.042	81.19
307.272	80.19
307.502	86.19
307.731	88.19
307.961	89.19
308.191	90.19
308.421	85.19
308.651	86.19
308.881	87.19
309.111	86.19
309.341	91.19
309.571	70.19
309.8	87.19
310.03	86.19
310.26	88.19
310.49	87.19
310.72	90.19
310.949	83.19
311.179	77.19
311.409	98.19
311.639	95.19
311.868	90.19
312.098	87.19
312.328	111.19
312.557	93.19
312.787	84.19
313.017	73.19
313.246	80.19
313.476	90.19
313.706	92.19
313.935	74.19
314.165	89.19
314.394	90.19
314.624	86.19
314.853	77.19
315.083	84.19
315.312	92.19
315.542	103.19
315.771	82.19
316.001	93.19
316.23	82.19
316.46	88.19
316.689	96.19
316.919	75.19
317.148	86.19
317.377	82.19
317.607	94.19
317.836	95.19
318.065	77.19
318.295	91.19
318.524	67.19
318.753	83.19
318.983	81.19
319.212	94.19
319.441	80.19
319.67	96.19
319.9	87.19
320.129	73.19
320.358	85.19
320.587	85.19
320.816	83.19
321.046	79.19
321.275	75.19
321.504	91.19
321.733	83.19
321.962	74.19
322.191	104.19
322.42	79.19
322.649	102.19
322.878	91.19
323.108	82.19
323.337	88.19
323.566	83.19
323.795	80.19
324.024	84.19
324.253	80.19
324.482	84.19
324.71	93.19
324.939	83.19
325.168	95.19
325.397	87.19
325.626	88.19
325.855	88.19
326.084	79.19
326.313	94.19
326.542	89.19
326.77	93.19
326.999	79.19
327.228	65.19
327.457	75.19
327.686	87.19
327.914	82.19
328.143	86.19
328.372	93.19
328.6	83.19
328.829	89.19
329.058	84.19
329.287	92.19
329.515	83.19
329.744	100.19
329.972	77.19
330.201	100.19
330.43	96.19
330.658	100.19
330.887	88.19
331.115	89.19
331.344	89.19
331.572	86.19
331.801	75.19
332.03	101.19
332.258	82.19
332.486	88.19
332.715	91.19
332.943	83.19
333.172	99.19
333.4	91.19
333.629	79.19
333.857	76.19
334.085	98.19
334.314	95.19
334.542	88.19
334.771	92.19
334.999	75.19
335.227	87.19
335.455	80.19
335.684	99.19
335.912	102.19
336.14	82.19
336.369	84.19
336.597	90.19
336.825	88.19
337.053	91.19
337.281	95.19
337.51	70.19
337.738	86.19
337.966	85.19
338.194	90.19
338.422	86.19
338.65	102.19
338.878	92.19
339.106	91.19
339.334	85.19
339.562	85.19
339.79	79.19
340.018	93.19
340.246	89.19
340.474	84.19
340.702	76.19
340.93	77.19
341.158	75.19
341.386	87.19
341.614	78.19
341.842	89.19
342.07	88.19
342.298	96.19
342.526	85.19
342.754	73.19
342.981	91.19
343.209	99.19
343.437	110.19
343.665	81.19
343.893	96.19
344.12	87.19
344.348	86.19
344.576	79.19
344.804	83.19
345.031	82.19
345.259	84.19
345.487	81.19
345.714	88.19
345.942	90.19
346.17	91.19
346.397	86.19
346.625	76.19
346.853	89.19
347.08	95.19
347.308	95.19
347.535	102.19
347.763	84.19
347.99	90.19
348.218	90.19
348.445	93.19
348.673	86.19
348.9	90.19
349.128	90.19
349.355	87.19
349.583	78.19
349.81	82.19
350.037	87.19
350.265	80.19
350.492	76.19
350.72	83.19
350.947	81.19
351.174	88.19
351.402	88.19
351.629	75.19
351.856	89.19
352.083	73.19
352.311	77.19
352.538	76.19
352.765	93.19
352.992	98.19
353.22	79.19
353.447	84.19
353.674	86.19
353.901	108.19
354.128	86.19
354.355	74.19
354.583	91.19
354.81	72.19
355.037	99.19
355.264	83.19
355.491	81.19
355.718	92.19
355.945	91.19
356.172	90.19
356.399	83.19
356.626	87.19
356.853	89.19
357.08	91.19
357.307	70.19
357.534	78.19
357.761	87.19
357.988	81.19
358.215	86.19
358.441	86.19
358.668	82.19
358.895	90.19
359.122	92.19
359.349	88.19
359.576	80.19
359.802	87.19
360.029	77.19
360.256	84.19
360.483	74.19
360.709	79.19
360.936	77.19
361.163	74.19
361.39	91.19
361.616	67.19
361.843	77.19
362.07	85.19
362.296	85.19
362.523	80.19
362.749	93.19
362.976	96.19
363.203	84.19
363.429	90.19
363.656	67.19
363.882	100.19
364.109	95.19
364.335	81.19
364.562	80.19
364.788	82.19
365.015	95.19
365.241	89.19
365.468	89.19
365.694	73.19
365.92	86.19
366.147	97.19
366.373	88.19
366.599	85.19
366.826	80.19
367.052	78.19
367.278	83.19
367.505	84.19
367.731	94.19
367.957	88.19
368.184	96.19
368.41	100.19
368.636	86.19
368.862	99.19
369.089	90.19
369.315	84.19
369.541	98.19
369.767	85.19
369.993	84.19
370.219	70.19
370.445	88.19
370.672	71.19
370.898	78.19
371.124	81.19
371.35	77.19
371.576	82.19
371.802	77.19
372.028	96.19
372.254	92.19
372.48	63.19
372.706	83.19
372.932	89.19
373.158	92.19
373.384	93.19
373.61	88.19
373.835	83.19
374.061	83.19
374.287	85.19
374.513	88.19
374.739	81.19
374.965	89.19
375.191	82.19
375.416	92.19
375.642	91.19
375.868	101.19
376.094	91.19
376.319	87.19
376.545	88.19
376.771	81.19
376.997	93.19
377.222	91.19
377.448	90.19
377.674	86.19
377.899	85.19
378.125	84.19
378.35	73.19
378.576	92.19
378.802	91.19
379.027	94.19
379.253	74.19
379.478	79.19
379.704	85.19
379.929	84.19
380.155	83.19
380.38	75.19
380.606	84.19
380.831	84.19
381.057	95.19
381.282	86.19
381.507	69.19
381.733	88.19
381.958	84.19
382.184	75.19
382.409	90.19
382.634	79.19
382.86	71.19
383.085	94.19
383.31	75.19
383.535	84.19
383.761	86.19
383.986	84.19
384.211	81.19
384.436	89.19
384.662	86.19
384.887	86.19
385.112	77.19
385.337	85.19
385.562	85.19
385.787	88.19
386.013	85.19
386.238	76.19
386.463	84.19
386.688	111.19
386.913	85.19
387.138	90.19
387.363	89.19
387.588	85.19
387.813	92.19
388.038	74.19
388.263	92.19
388.488	87.19
388.713	83.19
388.938	101.19
389.163	85.19
389.387	87.19
389.612	89.19
389.837	91.19
390.062	87.19
390.287	96.19
390.512	94.19
390.736	77.19
390.961	103.19
391.186	91.19
391.411	79.19
391.636	72.19
391.86	88.19
392.085	98.19
392.31	84.19
392.534	91.19
392.759	99.19
392.984	89.19
393.208	79.19
393.433	98.19
393.658	75.19
393.882	92.19
394.107	91.19
394.331	82.19
394.556	88.19
394.78	91.19
395.005	100.19
395.229	88.19
395.454	91.19
395.678	81.19
395.903	79.19
396.127	81.19
396.352	91.19
396.576	101.19
396.801	96.19
397.025	80.19
397.249	100.19
397.474	83.19
397.698	84.19
397.922	97.19
398.147	86.19
398.371	91.19
398.595	83.19
398.82	90.19
399.044	79.19
399.268	78.19
399.492	94.19
399.717	91.19
399.941	100.19
400.165	91.19
400.389	82.19
400.613	89.19
400.837	92.19
401.062	104.19
401.286	93.19
401.51	82.19
401.734	80.19
401.958	83.19
402.182	83.19
402.406	77.19
402.63	83.19
402.854	109.19
403.078	107.19
403.302	86.19
403.526	89.19
403.75	87.19
403.974	95.19
404.198	80.19
404.422	88.19
404.645	80.19
404.869	80.19
405.093	95.19
405.317	77.19
405.541	96.19
405.765	89.19
405.988	89.19
406.212	102.19
406.436	87.19
406.66	96.19
406.883	105.19
407.107	98.19
407.331	90.19
407.555	86.19
407.778	107.19
408.002	100.19
408.226	77.19
408.449	86.19
408.673	92.19
408.896	103.19
409.12	93.19
409.344	109.19
409.567	99.19
409.791	92.19
410.014	87.19
410.238	95.19
410.461	96.19
410.685	78.19
410.908	79.19
411.132	82.19
411.355	90.19
411.578	82.19
411.802	99.19
412.025	96.19
412.249	93.19
412.472	82.19
412.695	89.19
412.919	99.19
413.142	90.19
413.365	93.19
413.589	88.19
413.812	78.19
414.035	86.19
414.258	80.19
414.482	88.19
414.705	80.19
414.928	86.19
415.151	85.19
415.374	96.19
415.597	79.19
415.821	77.19
416.044	89.19
416.267	85.19
416.49	85.19
416.713	90.19
416.936	101.19
417.159	73.19
417.382	88.19
417.605	86.19
417.828	99.19
418.051	90.19
418.274	64.19
418.497	87.19
418.72	85.19
418.943	86.19
419.166	95.19
419.389	95.19
419.611	94.19
419.834	88.19
420.057	86.19
420.28	75.19
420.503	94.19
420.726	79.19
420.948	92.19
421.171	94.19
421.394	101.19
421.617	77.19
421.839	86.19
422.062	71.19
422.285	100.19
422.507	94.19
422.73	75.19
422.953	91.19
423.175	98.19
423.398	88.19
423.621	90.19
423.843	91.19
424.066	83.19
424.288	86.19
424.511	101.19
424.733	93.19
424.956	97.19
425.178	89.19
425.401	80.19
425.623	85.19
425.846	100.19
426.068	82.19
426.291	86.19
426.513	78.19
426.735	80.19
426.958	101.19
427.18	92.19
427.402	95.19
427.625	93.19
427.847	86.19
428.069	65.19
428.292	89.19
428.514	89.19
428.736	90.19
428.958	73.19
429.181	85.19
429.403	79.19
429.625	88.19
429.847	78.19
430.069	91.19
430.292	78.19
430.514	84.19
430.736	99.19
430.958	74.19
431.18	78.19
431.402	74.19
431.624	81.19
431.846	87.19
432.068	83.19
432.29	88.19
432.512	96.19
432.734	99.19
432.956	90.19
433.178	88.19
433.4	74.19
433.622	79.19
433.844	91.19
434.066	88.19
434.287	80.19
434.509	92.19
434.731	87.19
434.953	95.19
435.175	91.19
435.397	89.19
435.618	72.19
435.84	98.19
436.062	86.19
436.284	81.19
436.505	94.19
436.727	78.19
436.949	82.19
437.17	86.19
437.392	86.19
437.614	79.19
437.835	85.19
438.057	90.19
438.278	88.19
438.5	83.19
438.721	89.19
438.943	95.19
439.165	85.19
439.386	80.19
439.608	87.19
439.829	89.19
440.05	95.19
440.272	76.19
440.493	89.19
440.715	84.19
440.936	98.19
441.158	89.19
441.379	93.19
441.6	102.19
441.822	92.19
442.043	94.19
442.264	92.19
442.486	86.19
442.707	82.19
442.928	89.19
443.149	93.19
443.371	77.19
443.592	91.19
443.813	80.19
444.034	88.19
444.255	89.19
444.476	95.19
444.698	96.19
444.919	100.19
445.14	186.19
445.361	116.19
445.582	102.19
445.803	78.19
446.024	99.19
446.245	68.19
446.466	90.19
446.687	80.19
446.908	85.19
447.129	77.19
447.35	88.19
447.571	87.19
447.792	75.19
448.013	84.19
448.234	87.19
448.455	78.19
448.675	83.19
448.896	75.19
449.117	85.19
449.338	79.19
449.559	79.19
449.779	92.19
450	84.19
450.221	89.19
450.442	92.19
450.662	79.19
450.883	98.19
451.104	87.19
451.324	94.19
451.545	94.19
451.766	72.19
451.986	90.19
452.207	84.19
452.428	76.19
452.648	93.19
452.869	87.19
453.089	84.19
453.31	95.19
453.53	89.19
453.751	88.19
453.971	98.19
454.192	94.19
454.412	100.19
454.633	88.19
454.853	82.19
455.073	85.19
455.294	78.19
455.514	83.19
455.734	94.19
455.955	89.19
456.175	91.19
456.395	91.19
456.616	86.19
456.836	85.19
457.056	91.19
457.276	87.19
457.497	100.19
457.717	82.19
457.937	88.19
458.157	88.19
458.377	86.19
458.598	84.19
458.818	71.19
459.038	94.19
459.258	91.19
459.478	87.19
459.698	96.19
459.918	88.19
460.138	85.19
460.358	76.19
460.578	89.19
460.798	92.19
461.018	92.19
461.238	91.19
461.458	84.19
461.678	82.19
461.898	86.19
462.118	84.19
462.338	101.19
462.558	100.19
462.777	94.19
462.997	82.19
463.217	79.19
463.437	91.19
463.657	83.19
463.876	112.19
464.096	93.19
464.316	91.19
464.536	89.19
464.755	99.19
464.975	78.19
465.195	74.19
465.414	92.19
465.634	101.19
465.854	94.19
466.073	78.19
466.293	94.19
466.512	83.19
466.732	79.19
466.951	87.19
467.171	91.19
467.391	93.19
467.61	90.19
467.829	80.19
468.049	89.19
468.268	91.19
468.488	96.19
468.707	95.19
468.927	94.19
469.146	96.19
469.365	84.19
469.585	87.19
469.804	105.19
470.023	90.19
470.243	76.19
470.462	91.19
470.681	90.19
470.901	87.19
471.12	82.19
471.339	94.19
471.558	94.19
471.777	101.19
471.997	83.19
472.216	97.19
472.435	90.19
472.654	81.19
472.873	89.19
473.092	86.19
473.311	90.19
473.53	94.19
473.749	87.19
473.968	98.19
474.187	80.19
474.406	82.19
474.625	92.19
474.844	94.19
475.063	108.19
475.282	77.19
475.501	89.19
475.72	90.19
475.939	84.19
476.158	89.19
476.377	91.19
476.596	88.19
476.814	91.19
477.033	106.19
477.252	85.19
477.471	84.19
477.69	94.19
477.908	80.19
478.127	94.19
478.346	107.19
478.564	91.19
478.783	91.19
479.002	83.19
479.22	84.19
479.439	86.19
479.658	87.19
479.876	93.19
480.095	100.19
480.313	88.19
480.532	87.19
480.751	96.19
480.969	90.19
481.188	76.19
481.406	92.19
481.624	85.19
481.843	89.19
482.061	84.19
482.28	78.19
482.498	81.19
482.717	85.19
482.935	98.19
483.153	92.19
483.372	98.19
483.59	88.19
483.808	98.19
484.027	93.19
484.245	94.19
484.463	91.19
484.681	106.19
484.9	95.19
485.118	92.19
485.336	95.19
485.554	86.19
485.772	79.19
485.99	84.19
486.209	87.19
486.427	95.19
486.645	90.19
486.863	98.19
487.081	90.19
487.299	93.19
487.517	94.19
487.735	93.19
487.953	102.19
488.171	95.19
488.389	80.19
488.607	89.19
488.825	86.19
489.043	84.19
489.261	88.19
489.479	91.19
489.696	102.19
489.914	98.19
490.132	78.19
490.35	80.19
490.568	98.19
490.786	75.19
491.003	92.19
491.221	102.19
491.439	93.19
491.657	94.19
491.874	98.19
492.092	91.19
492.31	85.19
492.527	90.19
492.745	89.19
492.963	86.19
493.18	70.19
493.398	87.19
493.615	96.19
493.833	90.19
494.05	92.19
494.268	84.19
494.485	86.19
494.703	86.19
494.92	84.19
495.138	107.19
495.355	85.19
495.573	92.19
495.79	92.19
496.008	98.19
496.225	87.19
496.442	93.19
496.66	95.19
496.877	91.19
497.094	88.19
497.312	92.19
497.529	107.19
497.746	86.19
497.963	88.19
498.181	90.19
498.398	98.19
498.615	90.19
498.832	90.19
499.049	106.19
499.267	99.19
499.484	110.19
499.701	83.19
499.918	108.19
500.135	98.19
500.352	122.19
500.569	119.19
500.786	114.19
501.003	120.19
501.22	104.19
501.437	102.19
501.654	108.19
501.871	110.19
502.088	107.19
502.305	114.19
502.522	109.19
502.739	100.19
502.956	94.19
503.172	107.19
503.389	72.19
503.606	86.19
503.823	99.19
504.04	91.19
504.256	92.19
504.473	97.19
504.69	97.19
504.907	88.19
505.123	90.19
505.34	90.19
505.557	92.19
505.773	100.19
505.99	96.19
506.207	84.19
506.423	91.19
506.64	77.19
506.856	90.19
507.073	90.19
507.289	93.19
507.506	80.19
507.722	91.19
507.939	104.19
508.155	93.19
508.372	101.19
508.588	92.19
508.805	88.19
509.021	96.19
509.238	93.19
509.454	89.19
509.67	107.19
509.887	106.19
510.103	94.19
510.319	92.19
510.536	88.19
510.752	87.19
510.968	93.19
511.184	81.19
511.401	94.19
511.617	92.19
511.833	94.19
512.049	93.19
512.265	86.19
512.481	74.19
512.698	69.19
512.914	87.19
513.13	102.19
513.346	77.19
513.562	95.19
513.778	86.19
513.994	98.19
514.21	100.19
514.426	100.19
514.642	83.19
514.858	98.19
515.074	89.19
515.29	102.19
515.506	106.19
515.721	96.19
515.937	80.19
516.153	79.19
516.369	91.19
516.585	85.19
516.801	86.19
517.016	94.19
517.232	91.19
517.448	82.19
517.664	86.19
517.879	84.19
518.095	102.19
518.311	106.19
518.527	92.19
518.742	91.19
518.958	92.19
