Data from BG_HRD10591_104.txt Node
Date: Fri May 16 15:17:59 EDT 2025
User: Yrep
Spectrometer: HR+D1059
Trigger mode: 1
Integration Time (sec): 1.000000E-1
Scans to average: 1
Electric dark correction enabled: true
Nonlinearity correction enabled: false
Boxcar width: 0
XAxis mode: Wavelengths
Number of Pixels in Spectrum: 2048
>>>>>Begin Spectral Data<<<<<
223.165	-20.62
223.4	-20.62
223.635	-20.62
223.869	-25.62
224.104	-6.62
224.338	-10.62
224.573	-20.62
224.808	-14.62
225.042	-0.62
225.277	4.38
225.511	-12.62
225.746	2.38
225.98	-5.62
226.215	7.38
226.449	17.38
226.683	24.38
226.918	30.38
227.152	31.38
227.387	25.38
227.621	42.38
227.856	45.38
228.09	43.38
228.324	43.38
228.559	57.38
228.793	57.38
229.027	53.38
229.262	51.38
229.496	68.38
229.73	69.38
229.964	71.38
230.199	77.38
230.433	64.38
230.667	77.38
230.901	72.38
231.136	75.38
231.37	79.38
231.604	75.38
231.838	66.38
232.072	84.38
232.306	85.38
232.541	77.38
232.775	82.38
233.009	90.38
233.243	79.38
233.477	80.38
233.711	81.38
233.945	84.38
234.179	90.38
234.413	74.38
234.647	83.38
234.881	78.38
235.115	93.38
235.349	80.38
235.583	78.38
235.817	88.38
236.051	72.38
236.285	61.38
236.519	78.38
236.753	85.38
236.987	78.38
237.221	71.38
237.455	91.38
237.689	74.38
237.922	79.38
238.156	75.38
238.39	70.38
238.624	76.38
238.858	67.38
239.091	81.38
239.325	72.38
239.559	67.38
239.793	73.38
240.027	87.38
240.26	77.38
240.494	59.38
240.728	71.38
240.961	70.38
241.195	64.38
241.429	84.38
241.662	74.38
241.896	85.38
242.13	67.38
242.363	80.38
242.597	71.38
242.83	81.38
243.064	75.38
243.298	67.38
243.531	73.38
243.765	71.38
243.998	75.38
244.232	79.38
244.465	82.38
244.699	76.38
244.932	68.38
245.166	76.38
245.399	76.38
245.633	74.38
245.866	85.38
246.099	69.38
246.333	69.38
246.566	77.38
246.8	76.38
247.033	63.38
247.266	81.38
247.5	86.38
247.733	75.38
247.966	82.38
248.2	71.38
248.433	82.38
248.666	78.38
248.899	84.38
249.133	82.38
249.366	85.38
249.599	61.38
249.832	77.38
250.066	69.38
250.299	83.38
250.532	85.38
250.765	70.38
250.998	72.38
251.231	83.38
251.465	84.38
251.698	67.38
251.931	79.38
252.164	69.38
252.397	79.38
252.63	86.38
252.863	69.38
253.096	68.38
253.329	69.38
253.562	76.38
253.795	92.38
254.028	81.38
254.261	85.38
254.494	70.38
254.727	82.38
254.96	93.38
255.193	96.38
255.426	83.38
255.659	73.38
255.892	69.38
256.124	78.38
256.357	88.38
256.59	86.38
256.823	73.38
257.056	69.38
257.289	74.38
257.521	83.38
257.754	85.38
257.987	74.38
258.22	80.38
258.452	76.38
258.685	59.38
258.918	86.38
259.151	92.38
259.383	76.38
259.616	72.38
259.849	76.38
260.081	66.38
260.314	85.38
260.547	76.38
260.779	75.38
261.012	85.38
261.244	76.38
261.477	89.38
261.71	83.38
261.942	65.38
262.175	87.38
262.407	85.38
262.64	87.38
262.872	84.38
263.105	66.38
263.337	91.38
263.57	92.38
263.802	85.38
264.035	82.38
264.267	77.38
264.499	73.38
264.732	88.38
264.964	79.38
265.197	74.38
265.429	76.38
265.661	78.38
265.894	77.38
266.126	84.38
266.358	75.38
266.591	77.38
266.823	72.38
267.055	56.38
267.287	78.38
267.52	69.38
267.752	88.38
267.984	79.38
268.216	90.38
268.448	90.38
268.681	77.38
268.913	84.38
269.145	73.38
269.377	70.38
269.609	75.38
269.841	89.38
270.073	86.38
270.306	94.38
270.538	90.38
270.77	79.38
271.002	85.38
271.234	78.38
271.466	85.38
271.698	86.38
271.93	84.38
272.162	84.38
272.394	70.38
272.626	76.38
272.858	91.38
273.09	82.38
273.322	89.38
273.553	85.38
273.785	94.38
274.017	81.38
274.249	74.38
274.481	79.38
274.713	85.38
274.945	78.38
275.176	76.38
275.408	73.38
275.64	81.38
275.872	83.38
276.104	82.38
276.335	81.38
276.567	61.38
276.799	78.38
277.031	73.38
277.262	87.38
277.494	76.38
277.726	98.38
277.957	92.38
278.189	81.38
278.421	83.38
278.652	68.38
278.884	89.38
279.115	86.38
279.347	83.38
279.579	80.38
279.81	88.38
280.042	84.38
280.273	89.38
280.505	79.38
280.736	83.38
280.968	88.38
281.199	77.38
281.431	73.38
281.662	70.38
281.894	97.38
282.125	76.38
282.356	86.38
282.588	79.38
282.819	85.38
283.051	67.38
283.282	70.38
283.513	86.38
283.745	85.38
283.976	81.38
284.207	88.38
284.439	83.38
284.67	72.38
284.901	85.38
285.132	104.38
285.364	85.38
285.595	91.38
285.826	71.38
286.057	80.38
286.288	65.38
286.52	77.38
286.751	94.38
286.982	85.38
287.213	74.38
287.444	92.38
287.675	86.38
287.906	92.38
288.138	86.38
288.369	91.38
288.6	83.38
288.831	81.38
289.062	81.38
289.293	87.38
289.524	85.38
289.755	75.38
289.986	81.38
290.217	91.38
290.448	90.38
290.679	95.38
290.91	82.38
291.141	83.38
291.371	80.38
291.602	85.38
291.833	69.38
292.064	79.38
292.295	78.38
292.526	90.38
292.757	78.38
292.987	89.38
293.218	74.38
293.449	67.38
293.68	83.38
293.91	75.38
294.141	82.38
294.372	88.38
294.603	80.38
294.833	87.38
295.064	87.38
295.295	78.38
295.525	68.38
295.756	83.38
295.987	81.38
296.217	76.38
296.448	85.38
296.679	98.38
296.909	103.38
297.14	91.38
297.37	95.38
297.601	85.38
297.831	67.38
298.062	82.38
298.292	92.38
298.523	79.38
298.753	87.38
298.984	82.38
299.214	89.38
299.445	79.38
299.675	84.38
299.905	77.38
300.136	89.38
300.366	83.38
300.597	87.38
300.827	84.38
301.057	82.38
301.288	86.38
301.518	80.38
301.748	84.38
301.979	98.38
302.209	73.38
302.439	83.38
302.669	79.38
302.9	91.38
303.13	86.38
303.36	80.38
303.59	79.38
303.82	97.38
304.051	93.38
304.281	90.38
304.511	93.38
304.741	84.38
304.971	75.38
305.201	75.38
305.431	79.38
305.661	87.38
305.891	74.38
306.121	77.38
306.352	88.38
306.582	87.38
306.812	85.38
307.042	90.38
307.272	80.38
307.502	70.38
307.731	80.38
307.961	78.38
308.191	72.38
308.421	82.38
308.651	79.38
308.881	85.38
309.111	84.38
309.341	83.38
309.571	83.38
309.8	87.38
310.03	86.38
310.26	79.38
310.49	92.38
310.72	78.38
310.949	97.38
311.179	91.38
311.409	99.38
311.639	79.38
311.868	86.38
312.098	90.38
312.328	69.38
312.557	86.38
312.787	73.38
313.017	75.38
313.246	82.38
313.476	86.38
313.706	74.38
313.935	85.38
314.165	83.38
314.394	79.38
314.624	84.38
314.853	99.38
315.083	97.38
315.312	74.38
315.542	80.38
315.771	79.38
316.001	85.38
316.23	86.38
316.46	87.38
316.689	76.38
316.919	83.38
317.148	81.38
317.377	77.38
317.607	77.38
317.836	79.38
318.065	82.38
318.295	77.38
318.524	85.38
318.753	75.38
318.983	74.38
319.212	78.38
319.441	102.38
319.67	87.38
319.9	76.38
320.129	82.38
320.358	83.38
320.587	77.38
320.816	91.38
321.046	90.38
321.275	89.38
321.504	78.38
321.733	86.38
321.962	75.38
322.191	98.38
322.42	83.38
322.649	83.38
322.878	71.38
323.108	95.38
323.337	88.38
323.566	95.38
323.795	85.38
324.024	83.38
324.253	87.38
324.482	82.38
324.71	80.38
324.939	94.38
325.168	93.38
325.397	81.38
325.626	79.38
325.855	92.38
326.084	75.38
326.313	79.38
326.542	79.38
326.77	87.38
326.999	86.38
327.228	78.38
327.457	70.38
327.686	89.38
327.914	88.38
328.143	88.38
328.372	92.38
328.6	79.38
328.829	84.38
329.058	91.38
329.287	83.38
329.515	78.38
329.744	86.38
329.972	83.38
330.201	68.38
330.43	87.38
330.658	82.38
330.887	97.38
331.115	78.38
331.344	77.38
331.572	80.38
331.801	83.38
332.03	91.38
332.258	69.38
332.486	75.38
332.715	88.38
332.943	80.38
333.172	86.38
333.4	88.38
333.629	93.38
333.857	82.38
334.085	78.38
334.314	92.38
334.542	79.38
334.771	73.38
334.999	93.38
335.227	83.38
335.455	94.38
335.684	95.38
335.912	94.38
336.14	75.38
336.369	87.38
336.597	66.38
336.825	87.38
337.053	84.38
337.281	91.38
337.51	86.38
337.738	84.38
337.966	82.38
338.194	85.38
338.422	88.38
338.65	74.38
338.878	91.38
339.106	88.38
339.334	70.38
339.562	80.38
339.79	88.38
340.018	82.38
340.246	72.38
340.474	70.38
340.702	71.38
340.93	91.38
341.158	88.38
341.386	87.38
341.614	93.38
341.842	100.38
342.07	69.38
342.298	62.38
342.526	72.38
342.754	83.38
342.981	87.38
343.209	94.38
343.437	109.38
343.665	76.38
343.893	91.38
344.12	93.38
344.348	82.38
344.576	78.38
344.804	85.38
345.031	83.38
345.259	81.38
345.487	88.38
345.714	94.38
345.942	81.38
346.17	83.38
346.397	84.38
346.625	93.38
346.853	72.38
347.08	67.38
347.308	77.38
347.535	88.38
347.763	97.38
347.99	77.38
348.218	81.38
348.445	84.38
348.673	76.38
348.9	71.38
349.128	68.38
349.355	86.38
349.583	80.38
349.81	71.38
350.037	82.38
350.265	77.38
350.492	82.38
350.72	90.38
350.947	82.38
351.174	80.38
351.402	73.38
351.629	72.38
351.856	77.38
352.083	83.38
352.311	89.38
352.538	85.38
352.765	85.38
352.992	82.38
353.22	75.38
353.447	86.38
353.674	72.38
353.901	92.38
354.128	83.38
354.355	85.38
354.583	78.38
354.81	74.38
355.037	90.38
355.264	75.38
355.491	83.38
355.718	85.38
355.945	82.38
356.172	85.38
356.399	71.38
356.626	95.38
356.853	76.38
357.08	87.38
357.307	77.38
357.534	74.38
357.761	88.38
357.988	89.38
358.215	89.38
358.441	75.38
358.668	82.38
358.895	85.38
359.122	74.38
359.349	81.38
359.576	86.38
359.802	98.38
360.029	75.38
360.256	83.38
360.483	89.38
360.709	87.38
360.936	79.38
361.163	90.38
361.39	75.38
361.616	71.38
361.843	90.38
362.07	81.38
362.296	92.38
362.523	82.38
362.749	68.38
362.976	74.38
363.203	81.38
363.429	84.38
363.656	87.38
363.882	85.38
364.109	87.38
364.335	72.38
364.562	77.38
364.788	96.38
365.015	79.38
365.241	76.38
365.468	93.38
365.694	85.38
365.92	81.38
366.147	77.38
366.373	75.38
366.599	86.38
366.826	65.38
367.052	85.38
367.278	89.38
367.505	71.38
367.731	89.38
367.957	94.38
368.184	89.38
368.41	97.38
368.636	59.38
368.862	85.38
369.089	77.38
369.315	93.38
369.541	82.38
369.767	91.38
369.993	83.38
370.219	61.38
370.445	68.38
370.672	88.38
370.898	78.38
371.124	80.38
371.35	75.38
371.576	86.38
371.802	77.38
372.028	89.38
372.254	89.38
372.48	84.38
372.706	79.38
372.932	70.38
373.158	74.38
373.384	85.38
373.61	77.38
373.835	90.38
374.061	85.38
374.287	82.38
374.513	93.38
374.739	77.38
374.965	92.38
375.191	83.38
375.416	79.38
375.642	69.38
375.868	83.38
376.094	81.38
376.319	77.38
376.545	88.38
376.771	91.38
376.997	82.38
377.222	77.38
377.448	77.38
377.674	79.38
377.899	89.38
378.125	79.38
378.35	82.38
378.576	89.38
378.802	78.38
379.027	75.38
379.253	77.38
379.478	85.38
379.704	87.38
379.929	74.38
380.155	88.38
380.38	71.38
380.606	93.38
380.831	73.38
381.057	72.38
381.282	72.38
381.507	58.38
381.733	82.38
381.958	68.38
382.184	81.38
382.409	72.38
382.634	73.38
382.86	64.38
383.085	69.38
383.31	82.38
383.535	85.38
383.761	91.38
383.986	81.38
384.211	88.38
384.436	74.38
384.662	87.38
384.887	89.38
385.112	73.38
385.337	66.38
385.562	75.38
385.787	93.38
386.013	75.38
386.238	86.38
386.463	77.38
386.688	87.38
386.913	79.38
387.138	79.38
387.363	80.38
387.588	81.38
387.813	79.38
388.038	84.38
388.263	80.38
388.488	87.38
388.713	88.38
388.938	75.38
389.163	86.38
389.387	80.38
389.612	70.38
389.837	71.38
390.062	86.38
390.287	67.38
390.512	104.38
390.736	71.38
390.961	77.38
391.186	91.38
391.411	69.38
391.636	63.38
391.86	72.38
392.085	79.38
392.31	76.38
392.534	76.38
392.759	90.38
392.984	78.38
393.208	75.38
393.433	81.38
393.658	71.38
393.882	69.38
394.107	70.38
394.331	80.38
394.556	82.38
394.78	83.38
395.005	75.38
395.229	73.38
395.454	73.38
395.678	75.38
395.903	77.38
396.127	88.38
396.352	83.38
396.576	85.38
396.801	74.38
397.025	69.38
397.249	80.38
397.474	88.38
397.698	83.38
397.922	75.38
398.147	88.38
398.371	85.38
398.595	77.38
398.82	78.38
399.044	69.38
399.268	74.38
399.492	81.38
399.717	86.38
399.941	66.38
400.165	93.38
400.389	81.38
400.613	86.38
400.837	78.38
401.062	101.38
401.286	90.38
401.51	81.38
401.734	73.38
401.958	70.38
402.182	77.38
402.406	86.38
402.63	83.38
402.854	76.38
403.078	87.38
403.302	70.38
403.526	85.38
403.75	85.38
403.974	77.38
404.198	84.38
404.422	77.38
404.645	76.38
404.869	83.38
405.093	82.38
405.317	83.38
405.541	76.38
405.765	63.38
405.988	86.38
406.212	84.38
406.436	85.38
406.66	78.38
406.883	99.38
407.107	78.38
407.331	88.38
407.555	71.38
407.778	81.38
408.002	81.38
408.226	82.38
408.449	76.38
408.673	75.38
408.896	81.38
409.12	66.38
409.344	78.38
409.567	90.38
409.791	85.38
410.014	94.38
410.238	82.38
410.461	82.38
410.685	81.38
410.908	89.38
411.132	67.38
411.355	89.38
411.578	79.38
411.802	90.38
412.025	70.38
412.249	81.38
412.472	90.38
412.695	81.38
412.919	67.38
413.142	82.38
413.365	85.38
413.589	76.38
413.812	85.38
414.035	98.38
414.258	73.38
414.482	93.38
414.705	87.38
414.928	79.38
415.151	85.38
415.374	80.38
415.597	74.38
415.821	90.38
416.044	91.38
416.267	91.38
416.49	64.38
416.713	84.38
416.936	64.38
417.159	74.38
417.382	82.38
417.605	76.38
417.828	83.38
418.051	83.38
418.274	91.38
418.497	97.38
418.72	79.38
418.943	87.38
419.166	85.38
419.389	83.38
419.611	71.38
419.834	75.38
420.057	79.38
420.28	78.38
420.503	81.38
420.726	83.38
420.948	81.38
421.171	82.38
421.394	83.38
421.617	68.38
421.839	79.38
422.062	74.38
422.285	84.38
422.507	65.38
422.73	69.38
422.953	73.38
423.175	79.38
423.398	85.38
423.621	78.38
423.843	88.38
424.066	84.38
424.288	76.38
424.511	71.38
424.733	76.38
424.956	85.38
425.178	73.38
425.401	84.38
425.623	82.38
425.846	91.38
426.068	92.38
426.291	77.38
426.513	87.38
426.735	73.38
426.958	72.38
427.18	79.38
427.402	85.38
427.625	84.38
427.847	77.38
428.069	77.38
428.292	67.38
428.514	67.38
428.736	82.38
428.958	73.38
429.181	88.38
429.403	79.38
429.625	73.38
429.847	78.38
430.069	77.38
430.292	83.38
430.514	70.38
430.736	71.38
430.958	67.38
431.18	73.38
431.402	86.38
431.624	73.38
431.846	84.38
432.068	81.38
432.29	78.38
432.512	69.38
432.734	82.38
432.956	63.38
433.178	87.38
433.4	85.38
433.622	90.38
433.844	80.38
434.066	93.38
434.287	76.38
434.509	77.38
434.731	86.38
434.953	77.38
435.175	88.38
435.397	84.38
435.618	64.38
435.84	69.38
436.062	76.38
436.284	78.38
436.505	79.38
436.727	86.38
436.949	93.38
437.17	77.38
437.392	85.38
437.614	84.38
437.835	72.38
438.057	78.38
438.278	74.38
438.5	78.38
438.721	82.38
438.943	84.38
439.165	82.38
439.386	76.38
439.608	76.38
439.829	83.38
440.05	79.38
440.272	88.38
440.493	74.38
440.715	87.38
440.936	81.38
441.158	69.38
441.379	78.38
441.6	84.38
441.822	81.38
442.043	79.38
442.264	73.38
442.486	74.38
442.707	88.38
442.928	77.38
443.149	88.38
443.371	70.38
443.592	79.38
443.813	69.38
444.034	77.38
444.255	91.38
444.476	86.38
444.698	75.38
444.919	76.38
445.14	161.38
445.361	121.38
445.582	90.38
445.803	85.38
446.024	77.38
446.245	71.38
446.466	71.38
446.687	74.38
446.908	71.38
447.129	77.38
447.35	86.38
447.571	76.38
447.792	71.38
448.013	83.38
448.234	78.38
448.455	68.38
448.675	83.38
448.896	72.38
449.117	77.38
449.338	77.38
449.559	95.38
449.779	71.38
450	99.38
450.221	86.38
450.442	93.38
450.662	89.38
450.883	90.38
451.104	83.38
451.324	93.38
451.545	73.38
451.766	84.38
451.986	77.38
452.207	85.38
452.428	74.38
452.648	70.38
452.869	84.38
453.089	83.38
453.31	76.38
453.53	67.38
453.751	85.38
453.971	78.38
454.192	84.38
454.412	62.38
454.633	69.38
454.853	81.38
455.073	82.38
455.294	71.38
455.514	81.38
455.734	77.38
455.955	92.38
456.175	85.38
456.395	69.38
456.616	81.38
456.836	73.38
457.056	97.38
457.276	69.38
457.497	82.38
457.717	64.38
457.937	75.38
458.157	67.38
458.377	79.38
458.598	86.38
458.818	70.38
459.038	74.38
459.258	85.38
459.478	80.38
459.698	70.38
459.918	73.38
460.138	84.38
460.358	77.38
460.578	83.38
460.798	77.38
461.018	69.38
461.238	75.38
461.458	91.38
461.678	73.38
461.898	76.38
462.118	87.38
462.338	90.38
462.558	77.38
462.777	67.38
462.997	86.38
463.217	97.38
463.437	77.38
463.657	77.38
463.876	69.38
464.096	89.38
464.316	79.38
464.536	77.38
464.755	86.38
464.975	72.38
465.195	75.38
465.414	73.38
465.634	82.38
465.854	80.38
466.073	87.38
466.293	85.38
466.512	86.38
466.732	83.38
466.951	75.38
467.171	69.38
467.391	97.38
467.61	82.38
467.829	87.38
468.049	67.38
468.268	77.38
468.488	73.38
468.707	74.38
468.927	89.38
469.146	85.38
469.365	82.38
469.585	83.38
469.804	78.38
470.023	70.38
470.243	83.38
470.462	81.38
470.681	88.38
470.901	87.38
471.12	84.38
471.339	95.38
471.558	76.38
471.777	75.38
471.997	75.38
472.216	61.38
472.435	82.38
472.654	79.38
472.873	77.38
473.092	70.38
473.311	82.38
473.53	80.38
473.749	80.38
473.968	79.38
474.187	94.38
474.406	85.38
474.625	83.38
474.844	74.38
475.063	81.38
475.282	84.38
475.501	77.38
475.72	87.38
475.939	77.38
476.158	86.38
476.377	67.38
476.596	79.38
476.814	78.38
477.033	84.38
477.252	84.38
477.471	60.38
477.69	73.38
477.908	85.38
478.127	92.38
478.346	74.38
478.564	86.38
478.783	76.38
479.002	91.38
479.22	95.38
479.439	75.38
479.658	79.38
479.876	78.38
480.095	74.38
480.313	87.38
480.532	78.38
480.751	78.38
480.969	89.38
481.188	81.38
481.406	71.38
481.624	87.38
481.843	87.38
482.061	73.38
482.28	75.38
482.498	86.38
482.717	81.38
482.935	77.38
483.153	80.38
483.372	87.38
483.59	94.38
483.808	90.38
484.027	81.38
484.245	76.38
484.463	71.38
484.681	95.38
484.9	87.38
485.118	66.38
485.336	87.38
485.554	77.38
485.772	85.38
485.99	81.38
486.209	79.38
486.427	89.38
486.645	87.38
486.863	85.38
487.081	77.38
487.299	86.38
487.517	71.38
487.735	89.38
487.953	86.38
488.171	71.38
488.389	74.38
488.607	87.38
488.825	80.38
489.043	77.38
489.261	71.38
489.479	64.38
489.696	87.38
489.914	85.38
490.132	75.38
490.35	74.38
490.568	93.38
490.786	97.38
491.003	83.38
491.221	84.38
491.439	71.38
491.657	90.38
491.874	85.38
492.092	92.38
492.31	97.38
492.527	91.38
492.745	83.38
492.963	78.38
493.18	86.38
493.398	84.38
493.615	84.38
493.833	87.38
494.05	102.38
494.268	83.38
494.485	93.38
494.703	87.38
494.92	79.38
495.138	86.38
495.355	79.38
495.573	88.38
495.79	85.38
496.008	83.38
496.225	101.38
496.442	63.38
496.66	81.38
496.877	85.38
497.094	106.38
497.312	75.38
497.529	84.38
497.746	92.38
497.963	84.38
498.181	88.38
498.398	75.38
498.615	89.38
498.832	67.38
499.049	86.38
499.267	81.38
499.484	74.38
499.701	85.38
499.918	78.38
500.135	88.38
500.352	85.38
500.569	74.38
500.786	90.38
501.003	78.38
501.22	71.38
501.437	76.38
501.654	77.38
501.871	71.38
502.088	79.38
502.305	80.38
502.522	71.38
502.739	71.38
502.956	76.38
503.172	94.38
503.389	73.38
503.606	84.38
503.823	89.38
504.04	90.38
504.256	92.38
504.473	84.38
504.69	88.38
504.907	84.38
505.123	86.38
505.34	80.38
505.557	70.38
505.773	77.38
505.99	76.38
506.207	89.38
506.423	85.38
506.64	100.38
506.856	71.38
507.073	78.38
507.289	91.38
507.506	81.38
507.722	69.38
507.939	71.38
508.155	92.38
508.372	85.38
508.588	83.38
508.805	83.38
509.021	82.38
509.238	75.38
509.454	74.38
509.67	79.38
509.887	77.38
510.103	86.38
510.319	75.38
510.536	78.38
510.752	68.38
510.968	73.38
511.184	75.38
511.401	71.38
511.617	78.38
511.833	85.38
512.049	76.38
512.265	73.38
512.481	85.38
512.698	75.38
512.914	91.38
513.13	73.38
513.346	82.38
513.562	80.38
513.778	84.38
513.994	79.38
514.21	89.38
514.426	74.38
514.642	79.38
514.858	70.38
515.074	81.38
515.29	93.38
515.506	89.38
515.721	87.38
515.937	90.38
516.153	82.38
516.369	86.38
516.585	77.38
516.801	64.38
517.016	67.38
517.232	75.38
517.448	71.38
517.664	81.38
517.879	76.38
518.095	69.38
518.311	81.38
518.527	88.38
518.742	81.38
518.958	95.38
519.173	91.38
519.389	92.38
519.605	73.38
519.82	77.38
520.036	68.38
520.251	83.38
