Data from BG_HRD10591_092.txt Node
Date: Fri May 16 15:15:08 EDT 2025
User: Yrep
Spectrometer: HR+D1059
Trigger mode: 1
Integration Time (sec): 1.000000E-1
Scans to average: 1
Electric dark correction enabled: true
Nonlinearity correction enabled: false
Boxcar width: 0
XAxis mode: Wavelengths
Number of Pixels in Spectrum: 2048
>>>>>Begin Spectral Data<<<<<
223.165	-6.69
223.4	-6.69
223.635	-6.69
223.869	-19.69
224.104	-13.69
224.338	-15.69
224.573	-12.69
224.808	-6.69
225.042	-7.69
225.277	-24.69
225.511	-0.69
225.746	-1.69
225.98	-0.69
226.215	12.31
226.449	30.31
226.683	17.31
226.918	22.31
227.152	28.31
227.387	39.31
227.621	45.31
227.856	35.31
228.09	58.31
228.324	47.31
228.559	67.31
228.793	50.31
229.027	68.31
229.262	72.31
229.496	80.31
229.73	78.31
229.964	61.31
230.199	74.31
230.433	71.31
230.667	81.31
230.901	78.31
231.136	88.31
231.37	73.31
231.604	89.31
231.838	88.31
232.072	84.31
232.306	82.31
232.541	84.31
232.775	85.31
233.009	85.31
233.243	86.31
233.477	76.31
233.711	84.31
233.945	77.31
234.179	99.31
234.413	82.31
234.647	89.31
234.881	85.31
235.115	86.31
235.349	78.31
235.583	75.31
235.817	85.31
236.051	61.31
236.285	72.31
236.519	73.31
236.753	76.31
236.987	75.31
237.221	93.31
237.455	84.31
237.689	79.31
237.922	89.31
238.156	88.31
238.39	74.31
238.624	85.31
238.858	88.31
239.091	77.31
239.325	88.31
239.559	74.31
239.793	64.31
240.027	67.31
240.26	76.31
240.494	64.31
240.728	76.31
240.961	82.31
241.195	79.31
241.429	77.31
241.662	78.31
241.896	73.31
242.13	67.31
242.363	85.31
242.597	78.31
242.83	86.31
243.064	74.31
243.298	73.31
243.531	80.31
243.765	82.31
243.998	75.31
244.232	82.31
244.465	64.31
244.699	75.31
244.932	92.31
245.166	72.31
245.399	75.31
245.633	76.31
245.866	80.31
246.099	84.31
246.333	79.31
246.566	77.31
246.8	81.31
247.033	78.31
247.266	80.31
247.5	75.31
247.733	100.31
247.966	68.31
248.2	75.31
248.433	74.31
248.666	72.31
248.899	77.31
249.133	93.31
249.366	71.31
249.599	77.31
249.832	76.31
250.066	87.31
250.299	81.31
250.532	85.31
250.765	81.31
250.998	70.31
251.231	87.31
251.465	87.31
251.698	89.31
251.931	67.31
252.164	89.31
252.397	83.31
252.63	85.31
252.863	81.31
253.096	76.31
253.329	80.31
253.562	87.31
253.795	86.31
254.028	96.31
254.261	88.31
254.494	91.31
254.727	78.31
254.96	75.31
255.193	78.31
255.426	79.31
255.659	81.31
255.892	75.31
256.124	78.31
256.357	88.31
256.59	73.31
256.823	74.31
257.056	78.31
257.289	82.31
257.521	79.31
257.754	78.31
257.987	92.31
258.22	85.31
258.452	75.31
258.685	83.31
258.918	94.31
259.151	87.31
259.383	89.31
259.616	85.31
259.849	77.31
260.081	73.31
260.314	90.31
260.547	81.31
260.779	70.31
261.012	77.31
261.244	75.31
261.477	86.31
261.71	82.31
261.942	85.31
262.175	78.31
262.407	78.31
262.64	68.31
262.872	74.31
263.105	81.31
263.337	92.31
263.57	88.31
263.802	90.31
264.035	85.31
264.267	74.31
264.499	80.31
264.732	84.31
264.964	80.31
265.197	74.31
265.429	76.31
265.661	81.31
265.894	96.31
266.126	93.31
266.358	93.31
266.591	95.31
266.823	72.31
267.055	70.31
267.287	89.31
267.52	97.31
267.752	77.31
267.984	76.31
268.216	89.31
268.448	93.31
268.681	89.31
268.913	73.31
269.145	87.31
269.377	98.31
269.609	85.31
269.841	84.31
270.073	85.31
270.306	85.31
270.538	83.31
270.77	87.31
271.002	82.31
271.234	65.31
271.466	104.31
271.698	84.31
271.93	85.31
272.162	89.31
272.394	89.31
272.626	90.31
272.858	88.31
273.09	78.31
273.322	80.31
273.553	87.31
273.785	69.31
274.017	86.31
274.249	84.31
274.481	86.31
274.713	73.31
274.945	90.31
275.176	98.31
275.408	73.31
275.64	78.31
275.872	88.31
276.104	81.31
276.335	84.31
276.567	86.31
276.799	95.31
277.031	104.31
277.262	77.31
277.494	82.31
277.726	78.31
277.957	75.31
278.189	85.31
278.421	85.31
278.652	86.31
278.884	84.31
279.115	86.31
279.347	94.31
279.579	83.31
279.81	79.31
280.042	81.31
280.273	95.31
280.505	89.31
280.736	76.31
280.968	95.31
281.199	93.31
281.431	89.31
281.662	77.31
281.894	85.31
282.125	94.31
282.356	81.31
282.588	87.31
282.819	81.31
283.051	80.31
283.282	82.31
283.513	89.31
283.745	92.31
283.976	95.31
284.207	74.31
284.439	86.31
284.67	81.31
284.901	82.31
285.132	94.31
285.364	71.31
285.595	87.31
285.826	88.31
286.057	96.31
286.288	80.31
286.52	93.31
286.751	108.31
286.982	94.31
287.213	84.31
287.444	90.31
287.675	100.31
287.906	85.31
288.138	94.31
288.369	95.31
288.6	83.31
288.831	97.31
289.062	97.31
289.293	98.31
289.524	85.31
289.755	86.31
289.986	103.31
290.217	84.31
290.448	89.31
290.679	98.31
290.91	80.31
291.141	97.31
291.371	91.31
291.602	70.31
291.833	98.31
292.064	88.31
292.295	84.31
292.526	80.31
292.757	86.31
292.987	86.31
293.218	83.31
293.449	88.31
293.68	90.31
293.91	88.31
294.141	97.31
294.372	92.31
294.603	84.31
294.833	87.31
295.064	96.31
295.295	85.31
295.525	81.31
295.756	78.31
295.987	98.31
296.217	88.31
296.448	88.31
296.679	86.31
296.909	86.31
297.14	85.31
297.37	93.31
297.601	82.31
297.831	92.31
298.062	84.31
298.292	94.31
298.523	76.31
298.753	80.31
298.984	101.31
299.214	91.31
299.445	84.31
299.675	76.31
299.905	83.31
300.136	91.31
300.366	91.31
300.597	79.31
300.827	84.31
301.057	87.31
301.288	72.31
301.518	85.31
301.748	77.31
301.979	94.31
302.209	88.31
302.439	78.31
302.669	80.31
302.9	77.31
303.13	85.31
303.36	98.31
303.59	101.31
303.82	91.31
304.051	100.31
304.281	101.31
304.511	95.31
304.741	91.31
304.971	95.31
305.201	81.31
305.431	70.31
305.661	78.31
305.891	93.31
306.121	77.31
306.352	79.31
306.582	95.31
306.812	83.31
307.042	98.31
307.272	86.31
307.502	107.31
307.731	94.31
307.961	84.31
308.191	87.31
308.421	90.31
308.651	100.31
308.881	79.31
309.111	87.31
309.341	97.31
309.571	76.31
309.8	88.31
310.03	93.31
310.26	82.31
310.49	92.31
310.72	84.31
310.949	87.31
311.179	88.31
311.409	94.31
311.639	79.31
311.868	81.31
312.098	94.31
312.328	82.31
312.557	79.31
312.787	95.31
313.017	94.31
313.246	97.31
313.476	90.31
313.706	90.31
313.935	95.31
314.165	89.31
314.394	72.31
314.624	79.31
314.853	100.31
315.083	84.31
315.312	92.31
315.542	96.31
315.771	89.31
316.001	90.31
316.23	99.31
316.46	91.31
316.689	75.31
316.919	82.31
317.148	92.31
317.377	95.31
317.607	96.31
317.836	90.31
318.065	87.31
318.295	98.31
318.524	99.31
318.753	90.31
318.983	88.31
319.212	92.31
319.441	83.31
319.67	96.31
319.9	86.31
320.129	92.31
320.358	100.31
320.587	96.31
320.816	100.31
321.046	97.31
321.275	93.31
321.504	84.31
321.733	85.31
321.962	97.31
322.191	81.31
322.42	100.31
322.649	72.31
322.878	90.31
323.108	96.31
323.337	102.31
323.566	70.31
323.795	80.31
324.024	90.31
324.253	84.31
324.482	96.31
324.71	83.31
324.939	82.31
325.168	105.31
325.397	98.31
325.626	88.31
325.855	93.31
326.084	93.31
326.313	94.31
326.542	92.31
326.77	86.31
326.999	88.31
327.228	95.31
327.457	98.31
327.686	95.31
327.914	84.31
328.143	85.31
328.372	94.31
328.6	88.31
328.829	85.31
329.058	100.31
329.287	92.31
329.515	100.31
329.744	89.31
329.972	97.31
330.201	83.31
330.43	87.31
330.658	77.31
330.887	91.31
331.115	88.31
331.344	93.31
331.572	100.31
331.801	96.31
332.03	84.31
332.258	89.31
332.486	94.31
332.715	95.31
332.943	93.31
333.172	105.31
333.4	100.31
333.629	79.31
333.857	81.31
334.085	97.31
334.314	105.31
334.542	79.31
334.771	84.31
334.999	88.31
335.227	106.31
335.455	102.31
335.684	98.31
335.912	87.31
336.14	84.31
336.369	85.31
336.597	85.31
336.825	80.31
337.053	100.31
337.281	102.31
337.51	82.31
337.738	85.31
337.966	82.31
338.194	102.31
338.422	89.31
338.65	78.31
338.878	86.31
339.106	80.31
339.334	79.31
339.562	100.31
339.79	102.31
340.018	79.31
340.246	112.31
340.474	92.31
340.702	91.31
340.93	98.31
341.158	90.31
341.386	84.31
341.614	85.31
341.842	93.31
342.07	84.31
342.298	75.31
342.526	87.31
342.754	87.31
342.981	90.31
343.209	86.31
343.437	108.31
343.665	90.31
343.893	86.31
344.12	93.31
344.348	100.31
344.576	97.31
344.804	84.31
345.031	93.31
345.259	83.31
345.487	97.31
345.714	82.31
345.942	87.31
346.17	94.31
346.397	100.31
346.625	90.31
346.853	90.31
347.08	86.31
347.308	96.31
347.535	100.31
347.763	97.31
347.99	88.31
348.218	100.31
348.445	80.31
348.673	94.31
348.9	87.31
349.128	88.31
349.355	95.31
349.583	78.31
349.81	76.31
350.037	88.31
350.265	96.31
350.492	87.31
350.72	100.31
350.947	82.31
351.174	96.31
351.402	86.31
351.629	96.31
351.856	92.31
352.083	88.31
352.311	97.31
352.538	90.31
352.765	94.31
352.992	93.31
353.22	95.31
353.447	96.31
353.674	95.31
353.901	88.31
354.128	102.31
354.355	89.31
354.583	94.31
354.81	80.31
355.037	83.31
355.264	87.31
355.491	94.31
355.718	104.31
355.945	94.31
356.172	92.31
356.399	93.31
356.626	86.31
356.853	90.31
357.08	90.31
357.307	87.31
357.534	92.31
357.761	98.31
357.988	94.31
358.215	87.31
358.441	92.31
358.668	80.31
358.895	73.31
359.122	96.31
359.349	85.31
359.576	93.31
359.802	95.31
360.029	83.31
360.256	81.31
360.483	87.31
360.709	98.31
360.936	102.31
361.163	90.31
361.39	90.31
361.616	76.31
361.843	81.31
362.07	94.31
362.296	95.31
362.523	100.31
362.749	78.31
362.976	88.31
363.203	88.31
363.429	85.31
363.656	80.31
363.882	87.31
364.109	96.31
364.335	90.31
364.562	84.31
364.788	83.31
365.015	81.31
365.241	83.31
365.468	77.31
365.694	82.31
365.92	104.31
366.147	90.31
366.373	100.31
366.599	80.31
366.826	90.31
367.052	80.31
367.278	82.31
367.505	79.31
367.731	86.31
367.957	86.31
368.184	81.31
368.41	96.31
368.636	85.31
368.862	78.31
369.089	83.31
369.315	86.31
369.541	95.31
369.767	80.31
369.993	86.31
370.219	89.31
370.445	88.31
370.672	93.31
370.898	84.31
371.124	77.31
371.35	70.31
371.576	87.31
371.802	82.31
372.028	86.31
372.254	100.31
372.48	82.31
372.706	86.31
372.932	107.31
373.158	89.31
373.384	104.31
373.61	91.31
373.835	86.31
374.061	84.31
374.287	85.31
374.513	84.31
374.739	89.31
374.965	101.31
375.191	103.31
375.416	86.31
375.642	92.31
375.868	93.31
376.094	84.31
376.319	81.31
376.545	95.31
376.771	90.31
376.997	77.31
377.222	86.31
377.448	93.31
377.674	87.31
377.899	91.31
378.125	97.31
378.35	93.31
378.576	85.31
378.802	96.31
379.027	85.31
379.253	64.31
379.478	96.31
379.704	90.31
379.929	93.31
380.155	108.31
380.38	102.31
380.606	96.31
380.831	76.31
381.057	91.31
381.282	88.31
381.507	82.31
381.733	86.31
381.958	98.31
382.184	102.31
382.409	95.31
382.634	92.31
382.86	96.31
383.085	106.31
383.31	86.31
383.535	97.31
383.761	87.31
383.986	86.31
384.211	80.31
384.436	108.31
384.662	100.31
384.887	90.31
385.112	85.31
385.337	92.31
385.562	89.31
385.787	90.31
386.013	92.31
386.238	92.31
386.463	97.31
386.688	86.31
386.913	96.31
387.138	100.31
387.363	81.31
387.588	86.31
387.813	98.31
388.038	90.31
388.263	87.31
388.488	86.31
388.713	97.31
388.938	88.31
389.163	78.31
389.387	94.31
389.612	85.31
389.837	93.31
390.062	101.31
390.287	102.31
390.512	90.31
390.736	90.31
390.961	91.31
391.186	84.31
391.411	95.31
391.636	90.31
391.86	76.31
392.085	81.31
392.31	93.31
392.534	93.31
392.759	93.31
392.984	95.31
393.208	95.31
393.433	95.31
393.658	90.31
393.882	84.31
394.107	96.31
394.331	88.31
394.556	81.31
394.78	95.31
395.005	94.31
395.229	81.31
395.454	89.31
395.678	87.31
395.903	113.31
396.127	96.31
396.352	88.31
396.576	80.31
396.801	92.31
397.025	94.31
397.249	80.31
397.474	102.31
397.698	95.31
397.922	105.31
398.147	94.31
398.371	102.31
398.595	86.31
398.82	94.31
399.044	88.31
399.268	89.31
399.492	94.31
399.717	92.31
399.941	92.31
400.165	94.31
400.389	95.31
400.613	66.31
400.837	88.31
401.062	88.31
401.286	95.31
401.51	102.31
401.734	88.31
401.958	104.31
402.182	105.31
402.406	104.31
402.63	90.31
402.854	89.31
403.078	91.31
403.302	76.31
403.526	84.31
403.75	85.31
403.974	99.31
404.198	91.31
404.422	94.31
404.645	87.31
404.869	76.31
405.093	86.31
405.317	97.31
405.541	87.31
405.765	98.31
405.988	97.31
406.212	95.31
406.436	89.31
406.66	95.31
406.883	90.31
407.107	100.31
407.331	86.31
407.555	96.31
407.778	93.31
408.002	81.31
408.226	102.31
408.449	101.31
408.673	92.31
408.896	86.31
409.12	109.31
409.344	84.31
409.567	99.31
409.791	104.31
410.014	84.31
410.238	89.31
410.461	92.31
410.685	87.31
410.908	87.31
411.132	85.31
411.355	84.31
411.578	85.31
411.802	87.31
412.025	103.31
412.249	93.31
412.472	91.31
412.695	97.31
412.919	94.31
413.142	102.31
413.365	93.31
413.589	108.31
413.812	94.31
414.035	93.31
414.258	95.31
414.482	94.31
414.705	82.31
414.928	87.31
415.151	96.31
415.374	80.31
415.597	77.31
415.821	91.31
416.044	84.31
416.267	100.31
416.49	90.31
416.713	105.31
416.936	88.31
417.159	97.31
417.382	90.31
417.605	95.31
417.828	90.31
418.051	89.31
418.274	87.31
418.497	78.31
418.72	81.31
418.943	85.31
419.166	113.31
419.389	86.31
419.611	94.31
419.834	91.31
420.057	89.31
420.28	94.31
420.503	86.31
420.726	86.31
420.948	96.31
421.171	99.31
421.394	102.31
421.617	94.31
421.839	88.31
422.062	97.31
422.285	86.31
422.507	82.31
422.73	73.31
422.953	74.31
423.175	80.31
423.398	91.31
423.621	84.31
423.843	82.31
424.066	94.31
424.288	106.31
424.511	91.31
424.733	90.31
424.956	86.31
425.178	89.31
425.401	89.31
425.623	85.31
425.846	80.31
426.068	92.31
426.291	73.31
426.513	76.31
426.735	95.31
426.958	97.31
427.18	102.31
427.402	90.31
427.625	81.31
427.847	85.31
428.069	98.31
428.292	97.31
428.514	93.31
428.736	89.31
428.958	90.31
429.181	88.31
429.403	80.31
429.625	91.31
429.847	92.31
430.069	76.31
430.292	93.31
430.514	86.31
430.736	90.31
430.958	97.31
431.18	97.31
431.402	92.31
431.624	93.31
431.846	78.31
432.068	89.31
432.29	90.31
432.512	100.31
432.734	84.31
432.956	90.31
433.178	110.31
433.4	104.31
433.622	102.31
433.844	84.31
434.066	80.31
434.287	87.31
434.509	83.31
434.731	101.31
434.953	80.31
435.175	98.31
435.397	104.31
435.618	104.31
435.84	81.31
436.062	89.31
436.284	88.31
436.505	79.31
436.727	81.31
436.949	81.31
437.17	94.31
437.392	72.31
437.614	88.31
437.835	83.31
438.057	92.31
438.278	78.31
438.5	84.31
438.721	97.31
438.943	101.31
439.165	100.31
439.386	94.31
439.608	86.31
439.829	91.31
440.05	87.31
440.272	90.31
440.493	80.31
440.715	88.31
440.936	83.31
441.158	96.31
441.379	96.31
441.6	85.31
441.822	97.31
442.043	91.31
442.264	87.31
442.486	96.31
442.707	96.31
442.928	85.31
443.149	75.31
443.371	101.31
443.592	94.31
443.813	91.31
444.034	77.31
444.255	91.31
444.476	86.31
444.698	88.31
444.919	75.31
445.14	168.31
445.361	135.31
445.582	89.31
445.803	95.31
446.024	108.31
446.245	92.31
446.466	93.31
446.687	85.31
446.908	80.31
447.129	93.31
447.35	85.31
447.571	77.31
447.792	74.31
448.013	85.31
448.234	93.31
448.455	95.31
448.675	86.31
448.896	84.31
449.117	92.31
449.338	88.31
449.559	91.31
449.779	87.31
450	91.31
450.221	89.31
450.442	89.31
450.662	79.31
450.883	87.31
451.104	103.31
451.324	94.31
451.545	73.31
451.766	86.31
451.986	91.31
452.207	90.31
452.428	95.31
452.648	90.31
452.869	93.31
453.089	88.31
453.31	78.31
453.53	81.31
453.751	90.31
453.971	91.31
454.192	88.31
454.412	88.31
454.633	99.31
454.853	88.31
455.073	74.31
455.294	70.31
455.514	81.31
455.734	84.31
455.955	82.31
456.175	96.31
456.395	66.31
456.616	74.31
456.836	87.31
457.056	88.31
457.276	100.31
457.497	88.31
457.717	81.31
457.937	89.31
458.157	103.31
458.377	86.31
458.598	88.31
458.818	98.31
459.038	95.31
459.258	101.31
459.478	88.31
459.698	91.31
459.918	93.31
460.138	92.31
460.358	102.31
460.578	83.31
460.798	85.31
461.018	89.31
461.238	92.31
461.458	89.31
461.678	80.31
461.898	87.31
462.118	95.31
462.338	93.31
462.558	92.31
462.777	85.31
462.997	98.31
463.217	85.31
463.437	91.31
463.657	89.31
463.876	93.31
464.096	93.31
464.316	83.31
464.536	92.31
464.755	89.31
464.975	94.31
465.195	89.31
465.414	88.31
465.634	79.31
465.854	78.31
466.073	96.31
466.293	89.31
466.512	94.31
466.732	93.31
466.951	103.31
467.171	105.31
467.391	98.31
467.61	105.31
467.829	88.31
468.049	86.31
468.268	85.31
468.488	89.31
468.707	82.31
468.927	80.31
469.146	88.31
469.365	93.31
469.585	87.31
469.804	96.31
470.023	87.31
470.243	85.31
470.462	85.31
470.681	93.31
470.901	75.31
471.12	86.31
471.339	95.31
471.558	82.31
471.777	86.31
471.997	88.31
472.216	94.31
472.435	84.31
472.654	85.31
472.873	100.31
473.092	91.31
473.311	85.31
473.53	92.31
473.749	97.31
473.968	102.31
474.187	80.31
474.406	89.31
474.625	92.31
474.844	86.31
475.063	73.31
475.282	93.31
475.501	82.31
475.72	88.31
475.939	79.31
476.158	92.31
476.377	84.31
476.596	75.31
476.814	91.31
477.033	90.31
477.252	94.31
477.471	102.31
477.69	100.31
477.908	84.31
478.127	86.31
478.346	91.31
478.564	80.31
478.783	98.31
479.002	92.31
479.22	101.31
479.439	91.31
479.658	90.31
479.876	89.31
480.095	74.31
480.313	105.31
480.532	112.31
480.751	104.31
480.969	85.31
481.188	93.31
481.406	88.31
481.624	103.31
481.843	99.31
482.061	93.31
482.28	92.31
482.498	88.31
482.717	80.31
482.935	96.31
483.153	99.31
483.372	84.31
483.59	92.31
483.808	104.31
484.027	95.31
484.245	86.31
484.463	87.31
484.681	92.31
484.9	93.31
485.118	94.31
485.336	87.31
485.554	97.31
485.772	90.31
485.99	84.31
486.209	89.31
486.427	86.31
486.645	86.31
486.863	90.31
487.081	88.31
487.299	103.31
487.517	88.31
487.735	96.31
487.953	92.31
488.171	76.31
488.389	99.31
488.607	94.31
488.825	91.31
489.043	88.31
489.261	92.31
489.479	90.31
489.696	90.31
489.914	93.31
490.132	92.31
490.35	81.31
490.568	90.31
490.786	84.31
491.003	76.31
491.221	88.31
491.439	104.31
491.657	100.31
491.874	77.31
492.092	93.31
492.31	94.31
492.527	86.31
492.745	88.31
492.963	83.31
493.18	90.31
493.398	84.31
493.615	95.31
493.833	82.31
494.05	102.31
494.268	90.31
494.485	88.31
494.703	84.31
494.92	87.31
495.138	79.31
495.355	86.31
495.573	96.31
495.79	82.31
496.008	96.31
496.225	91.31
496.442	97.31
496.66	87.31
496.877	85.31
497.094	100.31
497.312	84.31
497.529	80.31
497.746	88.31
497.963	89.31
498.181	92.31
498.398	82.31
498.615	92.31
498.832	96.31
499.049	83.31
499.267	110.31
499.484	108.31
499.701	105.31
499.918	101.31
500.135	107.31
500.352	112.31
500.569	101.31
500.786	106.31
501.003	119.31
501.22	99.31
501.437	114.31
501.654	97.31
501.871	96.31
502.088	96.31
502.305	107.31
502.522	90.31
502.739	93.31
502.956	104.31
503.172	103.31
503.389	84.31
503.606	102.31
503.823	91.31
504.04	100.31
504.256	91.31
504.473	111.31
504.69	86.31
504.907	111.31
505.123	98.31
505.34	88.31
505.557	81.31
505.773	95.31
505.99	88.31
506.207	91.31
506.423	102.31
506.64	94.31
506.856	91.31
507.073	91.31
507.289	97.31
507.506	78.31
507.722	89.31
507.939	88.31
508.155	97.31
508.372	81.31
508.588	86.31
508.805	91.31
509.021	104.31
509.238	97.31
509.454	80.31
509.67	91.31
509.887	100.31
510.103	86.31
510.319	77.31
510.536	83.31
510.752	90.31
510.968	97.31
511.184	100.31
511.401	104.31
511.617	94.31
511.833	89.31
512.049	83.31
512.265	98.31
512.481	87.31
512.698	84.31
512.914	95.31
513.13	102.31
513.346	81.31
513.562	92.31
513.778	91.31
513.994	95.31
514.21	67.31
514.426	92.31
514.642	87.31
514.858	91.31
515.074	92.31
515.29	100.31
515.506	84.31
515.721	91.31
515.937	86.31
516.153	95.31
516.369	102.31
516.585	92.31
516.801	97.31
517.016	98.31
517.232	91.31
517.448	107.31
517.664	89.31
517.879	105.31
518.095	89.31
518.311	82.31
