Data from BG_HRD10591_088.txt Node
Date: Fri May 16 15:15:06 EDT 2025
User: Yrep
Spectrometer: HR+D1059
Trigger mode: 1
Integration Time (sec): 1.000000E-1
Scans to average: 1
Electric dark correction enabled: true
Nonlinearity correction enabled: false
Boxcar width: 0
XAxis mode: Wavelengths
Number of Pixels in Spectrum: 2048
>>>>>Begin Spectral Data<<<<<
223.165	-12.94
223.4	-12.94
223.635	-12.94
223.869	-14.94
224.104	-25.94
224.338	-15.94
224.573	-11.94
224.808	-19.94
225.042	-24.94
225.277	-14.94
225.511	-4.94
225.746	6.06
225.98	19.06
226.215	9.06
226.449	33.06
226.683	27.06
226.918	27.06
227.152	25.06
227.387	49.06
227.621	41.06
227.856	31.06
228.09	55.06
228.324	49.06
228.559	48.06
228.793	60.06
229.027	69.06
229.262	68.06
229.496	66.06
229.73	82.06
229.964	81.06
230.199	61.06
230.433	71.06
230.667	71.06
230.901	73.06
231.136	77.06
231.37	75.06
231.604	81.06
231.838	83.06
232.072	78.06
232.306	74.06
232.541	72.06
232.775	80.06
233.009	84.06
233.243	78.06
233.477	77.06
233.711	82.06
233.945	69.06
234.179	83.06
234.413	79.06
234.647	83.06
234.881	74.06
235.115	85.06
235.349	67.06
235.583	66.06
235.817	69.06
236.051	87.06
236.285	83.06
236.519	90.06
236.753	90.06
236.987	83.06
237.221	82.06
237.455	74.06
237.689	74.06
237.922	70.06
238.156	76.06
238.39	63.06
238.624	83.06
238.858	72.06
239.091	71.06
239.325	77.06
239.559	66.06
239.793	65.06
240.027	61.06
240.26	73.06
240.494	79.06
240.728	75.06
240.961	83.06
241.195	87.06
241.429	81.06
241.662	78.06
241.896	61.06
242.13	73.06
242.363	69.06
242.597	82.06
242.83	99.06
243.064	70.06
243.298	72.06
243.531	68.06
243.765	65.06
243.998	82.06
244.232	91.06
244.465	87.06
244.699	89.06
244.932	79.06
245.166	72.06
245.399	83.06
245.633	77.06
245.866	78.06
246.099	65.06
246.333	86.06
246.566	93.06
246.8	71.06
247.033	83.06
247.266	74.06
247.5	79.06
247.733	78.06
247.966	84.06
248.2	85.06
248.433	64.06
248.666	75.06
248.899	92.06
249.133	76.06
249.366	83.06
249.599	99.06
249.832	89.06
250.066	74.06
250.299	78.06
250.532	81.06
250.765	92.06
250.998	83.06
251.231	87.06
251.465	69.06
251.698	84.06
251.931	77.06
252.164	88.06
252.397	71.06
252.63	93.06
252.863	69.06
253.096	77.06
253.329	80.06
253.562	73.06
253.795	89.06
254.028	85.06
254.261	77.06
254.494	77.06
254.727	85.06
254.96	73.06
255.193	82.06
255.426	79.06
255.659	79.06
255.892	84.06
256.124	83.06
256.357	77.06
256.59	86.06
256.823	78.06
257.056	77.06
257.289	94.06
257.521	81.06
257.754	97.06
257.987	65.06
258.22	79.06
258.452	75.06
258.685	75.06
258.918	81.06
259.151	80.06
259.383	89.06
259.616	89.06
259.849	98.06
260.081	83.06
260.314	74.06
260.547	78.06
260.779	82.06
261.012	83.06
261.244	85.06
261.477	82.06
261.71	76.06
261.942	81.06
262.175	78.06
262.407	69.06
262.64	72.06
262.872	76.06
263.105	92.06
263.337	85.06
263.57	83.06
263.802	78.06
264.035	82.06
264.267	85.06
264.499	59.06
264.732	79.06
264.964	86.06
265.197	85.06
265.429	90.06
265.661	88.06
265.894	78.06
266.126	88.06
266.358	71.06
266.591	75.06
266.823	91.06
267.055	62.06
267.287	76.06
267.52	80.06
267.752	88.06
267.984	76.06
268.216	75.06
268.448	103.06
268.681	85.06
268.913	84.06
269.145	86.06
269.377	85.06
269.609	93.06
269.841	92.06
270.073	78.06
270.306	87.06
270.538	78.06
270.77	75.06
271.002	87.06
271.234	83.06
271.466	96.06
271.698	86.06
271.93	78.06
272.162	86.06
272.394	89.06
272.626	83.06
272.858	65.06
273.09	71.06
273.322	75.06
273.553	69.06
273.785	75.06
274.017	80.06
274.249	86.06
274.481	95.06
274.713	85.06
274.945	79.06
275.176	96.06
275.408	77.06
275.64	83.06
275.872	84.06
276.104	93.06
276.335	85.06
276.567	74.06
276.799	85.06
277.031	71.06
277.262	86.06
277.494	79.06
277.726	95.06
277.957	71.06
278.189	89.06
278.421	83.06
278.652	81.06
278.884	91.06
279.115	85.06
279.347	85.06
279.579	76.06
279.81	83.06
280.042	98.06
280.273	94.06
280.505	72.06
280.736	88.06
280.968	94.06
281.199	70.06
281.431	91.06
281.662	67.06
281.894	89.06
282.125	93.06
282.356	84.06
282.588	89.06
282.819	93.06
283.051	90.06
283.282	84.06
283.513	86.06
283.745	94.06
283.976	98.06
284.207	79.06
284.439	85.06
284.67	98.06
284.901	82.06
285.132	87.06
285.364	79.06
285.595	74.06
285.826	79.06
286.057	103.06
286.288	89.06
286.52	81.06
286.751	79.06
286.982	79.06
287.213	93.06
287.444	79.06
287.675	75.06
287.906	90.06
288.138	92.06
288.369	94.06
288.6	89.06
288.831	84.06
289.062	88.06
289.293	95.06
289.524	82.06
289.755	84.06
289.986	93.06
290.217	84.06
290.448	93.06
290.679	80.06
290.91	83.06
291.141	89.06
291.371	99.06
291.602	99.06
291.833	92.06
292.064	85.06
292.295	102.06
292.526	67.06
292.757	93.06
292.987	91.06
293.218	77.06
293.449	81.06
293.68	98.06
293.91	81.06
294.141	93.06
294.372	89.06
294.603	66.06
294.833	83.06
295.064	75.06
295.295	97.06
295.525	87.06
295.756	97.06
295.987	86.06
296.217	87.06
296.448	86.06
296.679	103.06
296.909	92.06
297.14	105.06
297.37	97.06
297.601	87.06
297.831	80.06
298.062	79.06
298.292	79.06
298.523	85.06
298.753	90.06
298.984	94.06
299.214	82.06
299.445	73.06
299.675	86.06
299.905	81.06
300.136	87.06
300.366	92.06
300.597	99.06
300.827	85.06
301.057	84.06
301.288	84.06
301.518	82.06
301.748	84.06
301.979	87.06
302.209	82.06
302.439	98.06
302.669	89.06
302.9	97.06
303.13	75.06
303.36	93.06
303.59	83.06
303.82	81.06
304.051	81.06
304.281	80.06
304.511	86.06
304.741	92.06
304.971	103.06
305.201	85.06
305.431	83.06
305.661	87.06
305.891	93.06
306.121	80.06
306.352	92.06
306.582	89.06
306.812	82.06
307.042	107.06
307.272	86.06
307.502	97.06
307.731	83.06
307.961	92.06
308.191	101.06
308.421	89.06
308.651	89.06
308.881	92.06
309.111	77.06
309.341	77.06
309.571	95.06
309.8	92.06
310.03	86.06
310.26	89.06
310.49	81.06
310.72	104.06
310.949	84.06
311.179	87.06
311.409	83.06
311.639	88.06
311.868	79.06
312.098	105.06
312.328	91.06
312.557	93.06
312.787	80.06
313.017	84.06
313.246	93.06
313.476	88.06
313.706	87.06
313.935	90.06
314.165	93.06
314.394	83.06
314.624	86.06
314.853	85.06
315.083	75.06
315.312	77.06
315.542	79.06
315.771	85.06
316.001	81.06
316.23	80.06
316.46	85.06
316.689	84.06
316.919	85.06
317.148	89.06
317.377	103.06
317.607	86.06
317.836	93.06
318.065	105.06
318.295	90.06
318.524	97.06
318.753	77.06
318.983	99.06
319.212	100.06
319.441	93.06
319.67	91.06
319.9	82.06
320.129	75.06
320.358	93.06
320.587	93.06
320.816	74.06
321.046	86.06
321.275	91.06
321.504	93.06
321.733	91.06
321.962	93.06
322.191	98.06
322.42	87.06
322.649	89.06
322.878	76.06
323.108	86.06
323.337	90.06
323.566	88.06
323.795	92.06
324.024	99.06
324.253	71.06
324.482	98.06
324.71	89.06
324.939	91.06
325.168	93.06
325.397	98.06
325.626	88.06
325.855	83.06
326.084	82.06
326.313	78.06
326.542	97.06
326.77	93.06
326.999	89.06
327.228	64.06
327.457	93.06
327.686	91.06
327.914	91.06
328.143	94.06
328.372	78.06
328.6	90.06
328.829	87.06
329.058	92.06
329.287	79.06
329.515	93.06
329.744	79.06
329.972	85.06
330.201	82.06
330.43	86.06
330.658	81.06
330.887	90.06
331.115	97.06
331.344	90.06
331.572	91.06
331.801	79.06
332.03	87.06
332.258	82.06
332.486	84.06
332.715	102.06
332.943	83.06
333.172	82.06
333.4	104.06
333.629	107.06
333.857	89.06
334.085	83.06
334.314	91.06
334.542	85.06
334.771	71.06
334.999	100.06
335.227	89.06
335.455	79.06
335.684	106.06
335.912	86.06
336.14	84.06
336.369	96.06
336.597	95.06
336.825	81.06
337.053	81.06
337.281	83.06
337.51	99.06
337.738	86.06
337.966	85.06
338.194	83.06
338.422	75.06
338.65	83.06
338.878	98.06
339.106	84.06
339.334	87.06
339.562	91.06
339.79	95.06
340.018	81.06
340.246	73.06
340.474	84.06
340.702	95.06
340.93	77.06
341.158	89.06
341.386	93.06
341.614	94.06
341.842	73.06
342.07	92.06
342.298	74.06
342.526	92.06
342.754	81.06
342.981	105.06
343.209	89.06
343.437	99.06
343.665	91.06
343.893	77.06
344.12	91.06
344.348	87.06
344.576	83.06
344.804	99.06
345.031	82.06
345.259	99.06
345.487	90.06
345.714	92.06
345.942	77.06
346.17	84.06
346.397	74.06
346.625	86.06
346.853	87.06
347.08	101.06
347.308	78.06
347.535	89.06
347.763	81.06
347.99	98.06
348.218	101.06
348.445	76.06
348.673	91.06
348.9	83.06
349.128	82.06
349.355	84.06
349.583	88.06
349.81	91.06
350.037	98.06
350.265	75.06
350.492	108.06
350.72	91.06
350.947	91.06
351.174	91.06
351.402	93.06
351.629	85.06
351.856	80.06
352.083	65.06
352.311	94.06
352.538	93.06
352.765	71.06
352.992	87.06
353.22	93.06
353.447	91.06
353.674	87.06
353.901	80.06
354.128	88.06
354.355	86.06
354.583	83.06
354.81	101.06
355.037	92.06
355.264	82.06
355.491	92.06
355.718	92.06
355.945	90.06
356.172	87.06
356.399	85.06
356.626	95.06
356.853	88.06
357.08	93.06
357.307	86.06
357.534	86.06
357.761	88.06
357.988	82.06
358.215	84.06
358.441	66.06
358.668	75.06
358.895	80.06
359.122	89.06
359.349	81.06
359.576	86.06
359.802	94.06
360.029	92.06
360.256	86.06
360.483	75.06
360.709	89.06
360.936	79.06
361.163	96.06
361.39	90.06
361.616	89.06
361.843	87.06
362.07	98.06
362.296	95.06
362.523	113.06
362.749	79.06
362.976	81.06
363.203	97.06
363.429	85.06
363.656	92.06
363.882	85.06
364.109	71.06
364.335	74.06
364.562	94.06
364.788	87.06
365.015	80.06
365.241	87.06
365.468	91.06
365.694	101.06
365.92	80.06
366.147	87.06
366.373	85.06
366.599	78.06
366.826	84.06
367.052	81.06
367.278	79.06
367.505	94.06
367.731	90.06
367.957	90.06
368.184	81.06
368.41	86.06
368.636	81.06
368.862	85.06
369.089	98.06
369.315	80.06
369.541	99.06
369.767	78.06
369.993	77.06
370.219	82.06
370.445	73.06
370.672	75.06
370.898	73.06
371.124	76.06
371.35	81.06
371.576	90.06
371.802	74.06
372.028	82.06
372.254	87.06
372.48	89.06
372.706	69.06
372.932	90.06
373.158	88.06
373.384	93.06
373.61	84.06
373.835	97.06
374.061	86.06
374.287	81.06
374.513	76.06
374.739	86.06
374.965	82.06
375.191	82.06
375.416	71.06
375.642	85.06
375.868	90.06
376.094	99.06
376.319	91.06
376.545	77.06
376.771	83.06
376.997	79.06
377.222	85.06
377.448	85.06
377.674	90.06
377.899	84.06
378.125	87.06
378.35	87.06
378.576	80.06
378.802	84.06
379.027	86.06
379.253	95.06
379.478	78.06
379.704	76.06
379.929	82.06
380.155	97.06
380.38	96.06
380.606	85.06
380.831	93.06
381.057	92.06
381.282	78.06
381.507	86.06
381.733	81.06
381.958	83.06
382.184	91.06
382.409	77.06
382.634	102.06
382.86	73.06
383.085	81.06
383.31	87.06
383.535	81.06
383.761	77.06
383.986	85.06
384.211	97.06
384.436	82.06
384.662	82.06
384.887	92.06
385.112	93.06
385.337	99.06
385.562	86.06
385.787	84.06
386.013	85.06
386.238	97.06
386.463	82.06
386.688	88.06
386.913	89.06
387.138	76.06
387.363	87.06
387.588	78.06
387.813	81.06
388.038	79.06
388.263	78.06
388.488	81.06
388.713	88.06
388.938	90.06
389.163	78.06
389.387	89.06
389.612	81.06
389.837	76.06
390.062	81.06
390.287	108.06
390.512	88.06
390.736	79.06
390.961	94.06
391.186	89.06
391.411	91.06
391.636	104.06
391.86	78.06
392.085	88.06
392.31	82.06
392.534	84.06
392.759	84.06
392.984	92.06
393.208	66.06
393.433	82.06
393.658	91.06
393.882	82.06
394.107	80.06
394.331	78.06
394.556	83.06
394.78	84.06
395.005	90.06
395.229	81.06
395.454	84.06
395.678	79.06
395.903	97.06
396.127	90.06
396.352	89.06
396.576	87.06
396.801	76.06
397.025	76.06
397.249	92.06
397.474	90.06
397.698	88.06
397.922	91.06
398.147	102.06
398.371	83.06
398.595	94.06
398.82	85.06
399.044	97.06
399.268	102.06
399.492	87.06
399.717	84.06
399.941	101.06
400.165	89.06
400.389	92.06
400.613	90.06
400.837	88.06
401.062	88.06
401.286	87.06
401.51	94.06
401.734	82.06
401.958	82.06
402.182	77.06
402.406	85.06
402.63	88.06
402.854	80.06
403.078	84.06
403.302	94.06
403.526	89.06
403.75	92.06
403.974	86.06
404.198	104.06
404.422	94.06
404.645	86.06
404.869	88.06
405.093	102.06
405.317	87.06
405.541	85.06
405.765	83.06
405.988	106.06
406.212	101.06
406.436	85.06
406.66	92.06
406.883	87.06
407.107	83.06
407.331	98.06
407.555	90.06
407.778	85.06
408.002	83.06
408.226	80.06
408.449	92.06
408.673	90.06
408.896	89.06
409.12	100.06
409.344	79.06
409.567	87.06
409.791	95.06
410.014	95.06
410.238	90.06
410.461	94.06
410.685	91.06
410.908	83.06
411.132	83.06
411.355	93.06
411.578	86.06
411.802	91.06
412.025	101.06
412.249	94.06
412.472	93.06
412.695	93.06
412.919	90.06
413.142	101.06
413.365	94.06
413.589	95.06
413.812	84.06
414.035	91.06
414.258	93.06
414.482	81.06
414.705	101.06
414.928	92.06
415.151	100.06
415.374	87.06
415.597	84.06
415.821	81.06
416.044	103.06
416.267	95.06
416.49	106.06
416.713	92.06
416.936	86.06
417.159	90.06
417.382	101.06
417.605	93.06
417.828	99.06
418.051	97.06
418.274	89.06
418.497	72.06
418.72	93.06
418.943	85.06
419.166	85.06
419.389	83.06
419.611	89.06
419.834	94.06
420.057	101.06
420.28	82.06
420.503	108.06
420.726	82.06
420.948	77.06
421.171	89.06
421.394	82.06
421.617	90.06
421.839	105.06
422.062	93.06
422.285	77.06
422.507	80.06
422.73	99.06
422.953	77.06
423.175	75.06
423.398	85.06
423.621	84.06
423.843	85.06
424.066	84.06
424.288	83.06
424.511	84.06
424.733	95.06
424.956	87.06
425.178	93.06
425.401	99.06
425.623	95.06
425.846	86.06
426.068	93.06
426.291	90.06
426.513	67.06
426.735	88.06
426.958	92.06
427.18	82.06
427.402	90.06
427.625	90.06
427.847	101.06
428.069	97.06
428.292	94.06
428.514	94.06
428.736	77.06
428.958	82.06
429.181	85.06
429.403	83.06
429.625	92.06
429.847	82.06
430.069	78.06
430.292	95.06
430.514	89.06
430.736	77.06
430.958	90.06
431.18	81.06
431.402	89.06
431.624	96.06
431.846	84.06
432.068	93.06
432.29	83.06
432.512	88.06
432.734	73.06
432.956	97.06
433.178	101.06
433.4	79.06
433.622	102.06
433.844	82.06
434.066	81.06
434.287	97.06
434.509	84.06
434.731	73.06
434.953	94.06
435.175	99.06
435.397	95.06
435.618	83.06
435.84	79.06
436.062	95.06
436.284	84.06
436.505	77.06
436.727	86.06
436.949	90.06
437.17	84.06
437.392	87.06
437.614	91.06
437.835	91.06
438.057	85.06
438.278	90.06
438.5	87.06
438.721	91.06
438.943	84.06
439.165	89.06
439.386	89.06
439.608	90.06
439.829	74.06
440.05	89.06
440.272	89.06
440.493	94.06
440.715	76.06
440.936	90.06
441.158	101.06
441.379	86.06
441.6	92.06
441.822	99.06
442.043	87.06
442.264	76.06
442.486	90.06
442.707	83.06
442.928	80.06
443.149	84.06
443.371	103.06
443.592	97.06
443.813	86.06
444.034	83.06
444.255	98.06
444.476	87.06
444.698	90.06
444.919	86.06
445.14	141.06
445.361	115.06
445.582	89.06
445.803	84.06
446.024	96.06
446.245	92.06
446.466	85.06
446.687	94.06
446.908	79.06
447.129	89.06
447.35	83.06
447.571	91.06
447.792	85.06
448.013	69.06
448.234	93.06
448.455	86.06
448.675	79.06
448.896	88.06
449.117	76.06
449.338	69.06
449.559	89.06
449.779	86.06
450	87.06
450.221	93.06
450.442	86.06
450.662	85.06
450.883	93.06
451.104	89.06
451.324	94.06
451.545	94.06
451.766	79.06
451.986	81.06
452.207	109.06
452.428	85.06
452.648	79.06
452.869	87.06
453.089	86.06
453.31	85.06
453.53	91.06
453.751	89.06
453.971	84.06
454.192	93.06
454.412	78.06
454.633	87.06
454.853	99.06
455.073	90.06
455.294	97.06
455.514	81.06
455.734	93.06
455.955	94.06
456.175	100.06
456.395	69.06
456.616	78.06
456.836	91.06
457.056	81.06
457.276	65.06
457.497	94.06
457.717	79.06
457.937	87.06
458.157	89.06
458.377	90.06
458.598	87.06
458.818	73.06
459.038	91.06
459.258	80.06
459.478	94.06
459.698	90.06
459.918	98.06
460.138	86.06
460.358	82.06
460.578	92.06
460.798	92.06
461.018	97.06
461.238	87.06
461.458	99.06
461.678	92.06
461.898	88.06
462.118	89.06
462.338	77.06
462.558	90.06
462.777	90.06
462.997	98.06
463.217	99.06
463.437	99.06
463.657	71.06
463.876	94.06
464.096	85.06
464.316	95.06
464.536	91.06
464.755	94.06
464.975	92.06
465.195	75.06
465.414	74.06
465.634	98.06
465.854	102.06
466.073	85.06
466.293	77.06
466.512	88.06
466.732	87.06
466.951	89.06
467.171	75.06
467.391	106.06
467.61	91.06
467.829	87.06
468.049	84.06
468.268	86.06
468.488	72.06
468.707	91.06
468.927	99.06
469.146	89.06
469.365	103.06
469.585	108.06
469.804	78.06
470.023	77.06
470.243	106.06
470.462	85.06
470.681	99.06
470.901	77.06
471.12	97.06
471.339	93.06
471.558	79.06
471.777	72.06
471.997	76.06
472.216	92.06
472.435	78.06
472.654	77.06
472.873	91.06
473.092	71.06
473.311	86.06
473.53	88.06
473.749	89.06
473.968	85.06
474.187	89.06
474.406	76.06
474.625	74.06
474.844	92.06
475.063	91.06
475.282	94.06
475.501	82.06
475.72	87.06
475.939	91.06
476.158	86.06
476.377	89.06
476.596	86.06
476.814	71.06
477.033	98.06
477.252	83.06
477.471	67.06
477.69	95.06
477.908	94.06
478.127	92.06
478.346	94.06
478.564	90.06
478.783	94.06
479.002	94.06
479.22	74.06
479.439	75.06
479.658	87.06
479.876	65.06
480.095	89.06
480.313	91.06
480.532	94.06
480.751	91.06
480.969	92.06
481.188	105.06
481.406	85.06
481.624	82.06
481.843	87.06
482.061	85.06
482.28	87.06
482.498	85.06
482.717	85.06
482.935	101.06
483.153	87.06
483.372	90.06
483.59	84.06
483.808	84.06
484.027	94.06
484.245	95.06
484.463	90.06
484.681	103.06
484.9	86.06
485.118	95.06
485.336	89.06
485.554	94.06
485.772	92.06
485.99	94.06
486.209	98.06
486.427	108.06
486.645	88.06
486.863	91.06
487.081	79.06
487.299	86.06
487.517	92.06
487.735	84.06
487.953	90.06
488.171	82.06
488.389	81.06
488.607	81.06
488.825	93.06
489.043	85.06
489.261	94.06
489.479	87.06
489.696	81.06
489.914	88.06
490.132	101.06
490.35	92.06
490.568	85.06
490.786	92.06
491.003	87.06
491.221	94.06
491.439	91.06
491.657	98.06
491.874	94.06
492.092	99.06
492.31	92.06
492.527	90.06
492.745	82.06
492.963	100.06
493.18	99.06
493.398	100.06
493.615	90.06
493.833	89.06
494.05	91.06
494.268	85.06
494.485	83.06
494.703	86.06
494.92	93.06
495.138	92.06
495.355	95.06
495.573	100.06
495.79	94.06
496.008	95.06
496.225	87.06
496.442	93.06
496.66	91.06
496.877	87.06
497.094	94.06
497.312	93.06
497.529	97.06
497.746	105.06
497.963	100.06
498.181	103.06
498.398	97.06
498.615	95.06
498.832	103.06
499.049	91.06
499.267	108.06
499.484	105.06
499.701	102.06
499.918	99.06
500.135	105.06
500.352	114.06
500.569	105.06
500.786	115.06
501.003	103.06
501.22	92.06
501.437	102.06
501.654	113.06
501.871	99.06
502.088	91.06
502.305	87.06
502.522	82.06
502.739	107.06
502.956	94.06
503.172	88.06
503.389	94.06
503.606	104.06
503.823	88.06
504.04	102.06
504.256	91.06
504.473	81.06
504.69	96.06
504.907	102.06
505.123	88.06
505.34	86.06
505.557	93.06
505.773	94.06
505.99	88.06
506.207	86.06
506.423	99.06
506.64	86.06
506.856	87.06
507.073	94.06
507.289	78.06
507.506	90.06
507.722	92.06
507.939	93.06
508.155	92.06
508.372	82.06
508.588	83.06
508.805	105.06
509.021	89.06
509.238	101.06
509.454	88.06
509.67	89.06
509.887	105.06
510.103	92.06
510.319	94.06
510.536	82.06
510.752	94.06
510.968	78.06
511.184	103.06
511.401	89.06
511.617	81.06
511.833	95.06
512.049	85.06
512.265	83.06
512.481	66.06
512.698	79.06
512.914	84.06
513.13	94.06
513.346	98.06
513.562	88.06
513.778	76.06
513.994	102.06
514.21	92.06
514.426	95.06
514.642	75.06
514.858	95.06
515.074	91.06
515.29	92.06
515.506	102.06
515.721	112.06
515.937	92.06
516.153	81.06
516.369	76.06
516.585	86.06
516.801	92.06
517.016	95.06
517.232	93.06
517.448	101.06
517.664	89.06
517.879	92.06
518.095	97.06
518.311	90.06
518.527	85.06
518.742	86.06
518.958	88.06
