Data from BG_HRD10591_002.txt Node
Date: Fri May 16 15:14:23 EDT 2025
User: Yrep
Spectrometer: HR+D1059
Trigger mode: 1
Integration Time (sec): 1.000000E-1
Scans to average: 1
Electric dark correction enabled: true
Nonlinearity correction enabled: false
Boxcar width: 0
XAxis mode: Wavelengths
Number of Pixels in Spectrum: 2048
>>>>>Begin Spectral Data<<<<<
223.165	-23.31
223.4	-23.31
223.635	-23.31
223.869	-19.31
224.104	-27.31
224.338	-16.31
224.573	-7.31
224.808	-7.31
225.042	-11.31
225.277	8.69
225.511	-13.31
225.746	8.69
225.98	-0.31
226.215	9.69
226.449	16.69
226.683	18.69
226.918	24.69
227.152	38.69
227.387	43.69
227.621	42.69
227.856	48.69
228.09	53.69
228.324	47.69
228.559	60.69
228.793	50.69
229.027	57.69
229.262	75.69
229.496	65.69
229.73	71.69
229.964	74.69
230.199	66.69
230.433	75.69
230.667	81.69
230.901	73.69
231.136	64.69
231.37	86.69
231.604	79.69
231.838	74.69
232.072	95.69
232.306	79.69
232.541	88.69
232.775	83.69
233.009	92.69
233.243	77.69
233.477	83.69
233.711	64.69
233.945	81.69
234.179	83.69
234.413	75.69
234.647	83.69
234.881	83.69
235.115	81.69
235.349	78.69
235.583	83.69
235.817	71.69
236.051	73.69
236.285	66.69
236.519	85.69
236.753	87.69
236.987	75.69
237.221	83.69
237.455	78.69
237.689	76.69
237.922	66.69
238.156	68.69
238.39	78.69
238.624	71.69
238.858	79.69
239.091	84.69
239.325	73.69
239.559	74.69
239.793	90.69
240.027	79.69
240.26	71.69
240.494	66.69
240.728	83.69
240.961	79.69
241.195	76.69
241.429	77.69
241.662	77.69
241.896	77.69
242.13	73.69
242.363	87.69
242.597	66.69
242.83	78.69
243.064	62.69
243.298	82.69
243.531	77.69
243.765	79.69
243.998	70.69
244.232	63.69
244.465	74.69
244.699	69.69
244.932	79.69
245.166	86.69
245.399	75.69
245.633	71.69
245.866	68.69
246.099	77.69
246.333	83.69
246.566	73.69
246.8	77.69
247.033	83.69
247.266	84.69
247.5	71.69
247.733	85.69
247.966	81.69
248.2	81.69
248.433	65.69
248.666	77.69
248.899	78.69
249.133	78.69
249.366	66.69
249.599	85.69
249.832	89.69
250.066	78.69
250.299	77.69
250.532	83.69
250.765	73.69
250.998	78.69
251.231	83.69
251.465	79.69
251.698	93.69
251.931	80.69
252.164	77.69
252.397	86.69
252.63	92.69
252.863	78.69
253.096	70.69
253.329	76.69
253.562	76.69
253.795	89.69
254.028	63.69
254.261	71.69
254.494	73.69
254.727	87.69
254.96	84.69
255.193	63.69
255.426	76.69
255.659	76.69
255.892	90.69
256.124	84.69
256.357	70.69
256.59	78.69
256.823	85.69
257.056	76.69
257.289	80.69
257.521	83.69
257.754	75.69
257.987	85.69
258.22	76.69
258.452	77.69
258.685	65.69
258.918	77.69
259.151	67.69
259.383	86.69
259.616	85.69
259.849	81.69
260.081	81.69
260.314	75.69
260.547	88.69
260.779	73.69
261.012	81.69
261.244	77.69
261.477	77.69
261.71	83.69
261.942	91.69
262.175	81.69
262.407	75.69
262.64	76.69
262.872	75.69
263.105	77.69
263.337	81.69
263.57	75.69
263.802	79.69
264.035	72.69
264.267	71.69
264.499	73.69
264.732	81.69
264.964	71.69
265.197	91.69
265.429	79.69
265.661	91.69
265.894	95.69
266.126	71.69
266.358	92.69
266.591	86.69
266.823	89.69
267.055	95.69
267.287	83.69
267.52	84.69
267.752	66.69
267.984	70.69
268.216	76.69
268.448	65.69
268.681	86.69
268.913	84.69
269.145	75.69
269.377	80.69
269.609	75.69
269.841	90.69
270.073	69.69
270.306	88.69
270.538	73.69
270.77	89.69
271.002	77.69
271.234	82.69
271.466	92.69
271.698	71.69
271.93	86.69
272.162	87.69
272.394	99.69
272.626	73.69
272.858	71.69
273.09	93.69
273.322	84.69
273.553	89.69
273.785	99.69
274.017	76.69
274.249	81.69
274.481	75.69
274.713	61.69
274.945	96.69
275.176	76.69
275.408	86.69
275.64	78.69
275.872	83.69
276.104	92.69
276.335	91.69
276.567	74.69
276.799	86.69
277.031	83.69
277.262	70.69
277.494	76.69
277.726	77.69
277.957	85.69
278.189	83.69
278.421	87.69
278.652	85.69
278.884	83.69
279.115	86.69
279.347	90.69
279.579	69.69
279.81	96.69
280.042	86.69
280.273	75.69
280.505	83.69
280.736	85.69
280.968	87.69
281.199	88.69
281.431	74.69
281.662	70.69
281.894	87.69
282.125	79.69
282.356	72.69
282.588	80.69
282.819	86.69
283.051	97.69
283.282	86.69
283.513	74.69
283.745	73.69
283.976	84.69
284.207	83.69
284.439	92.69
284.67	80.69
284.901	87.69
285.132	73.69
285.364	80.69
285.595	80.69
285.826	72.69
286.057	85.69
286.288	80.69
286.52	87.69
286.751	80.69
286.982	79.69
287.213	92.69
287.444	75.69
287.675	77.69
287.906	87.69
288.138	86.69
288.369	86.69
288.6	79.69
288.831	89.69
289.062	86.69
289.293	88.69
289.524	80.69
289.755	78.69
289.986	83.69
290.217	79.69
290.448	73.69
290.679	92.69
290.91	81.69
291.141	80.69
291.371	83.69
291.602	78.69
291.833	92.69
292.064	71.69
292.295	83.69
292.526	96.69
292.757	83.69
292.987	79.69
293.218	81.69
293.449	90.69
293.68	68.69
293.91	73.69
294.141	93.69
294.372	79.69
294.603	73.69
294.833	92.69
295.064	78.69
295.295	96.69
295.525	77.69
295.756	61.69
295.987	82.69
296.217	84.69
296.448	81.69
296.679	90.69
296.909	96.69
297.14	84.69
297.37	71.69
297.601	83.69
297.831	88.69
298.062	82.69
298.292	75.69
298.523	87.69
298.753	87.69
298.984	100.69
299.214	86.69
299.445	89.69
299.675	75.69
299.905	70.69
300.136	84.69
300.366	73.69
300.597	79.69
300.827	87.69
301.057	94.69
301.288	79.69
301.518	85.69
301.748	80.69
301.979	92.69
302.209	73.69
302.439	66.69
302.669	86.69
302.9	96.69
303.13	88.69
303.36	87.69
303.59	81.69
303.82	93.69
304.051	67.69
304.281	87.69
304.511	92.69
304.741	77.69
304.971	81.69
305.201	81.69
305.431	80.69
305.661	73.69
305.891	89.69
306.121	94.69
306.352	84.69
306.582	94.69
306.812	91.69
307.042	93.69
307.272	74.69
307.502	92.69
307.731	81.69
307.961	79.69
308.191	70.69
308.421	79.69
308.651	97.69
308.881	88.69
309.111	76.69
309.341	86.69
309.571	90.69
309.8	83.69
310.03	80.69
310.26	75.69
310.49	93.69
310.72	87.69
310.949	84.69
311.179	97.69
311.409	91.69
311.639	92.69
311.868	98.69
312.098	109.69
312.328	93.69
312.557	89.69
312.787	83.69
313.017	83.69
313.246	91.69
313.476	92.69
313.706	78.69
313.935	87.69
314.165	89.69
314.394	75.69
314.624	77.69
314.853	72.69
315.083	86.69
315.312	82.69
315.542	79.69
315.771	82.69
316.001	98.69
316.23	82.69
316.46	78.69
316.689	79.69
316.919	82.69
317.148	88.69
317.377	91.69
317.607	86.69
317.836	71.69
318.065	72.69
318.295	84.69
318.524	77.69
318.753	72.69
318.983	75.69
319.212	87.69
319.441	77.69
319.67	87.69
319.9	97.69
320.129	91.69
320.358	80.69
320.587	85.69
320.816	93.69
321.046	75.69
321.275	85.69
321.504	88.69
321.733	76.69
321.962	91.69
322.191	82.69
322.42	80.69
322.649	73.69
322.878	71.69
323.108	95.69
323.337	83.69
323.566	93.69
323.795	88.69
324.024	81.69
324.253	84.69
324.482	85.69
324.71	85.69
324.939	80.69
325.168	73.69
325.397	66.69
325.626	101.69
325.855	76.69
326.084	84.69
326.313	89.69
326.542	87.69
326.77	72.69
326.999	72.69
327.228	77.69
327.457	78.69
327.686	96.69
327.914	84.69
328.143	103.69
328.372	87.69
328.6	80.69
328.829	84.69
329.058	76.69
329.287	92.69
329.515	93.69
329.744	87.69
329.972	90.69
330.201	82.69
330.43	80.69
330.658	77.69
330.887	78.69
331.115	95.69
331.344	81.69
331.572	81.69
331.801	92.69
332.03	98.69
332.258	87.69
332.486	78.69
332.715	81.69
332.943	78.69
333.172	88.69
333.4	84.69
333.629	90.69
333.857	103.69
334.085	85.69
334.314	75.69
334.542	72.69
334.771	85.69
334.999	78.69
335.227	83.69
335.455	91.69
335.684	95.69
335.912	95.69
336.14	92.69
336.369	87.69
336.597	71.69
336.825	93.69
337.053	85.69
337.281	80.69
337.51	90.69
337.738	71.69
337.966	75.69
338.194	74.69
338.422	99.69
338.65	63.69
338.878	95.69
339.106	80.69
339.334	96.69
339.562	83.69
339.79	91.69
340.018	84.69
340.246	90.69
340.474	86.69
340.702	82.69
340.93	94.69
341.158	85.69
341.386	79.69
341.614	94.69
341.842	79.69
342.07	84.69
342.298	79.69
342.526	81.69
342.754	72.69
342.981	83.69
343.209	87.69
343.437	95.69
343.665	77.69
343.893	93.69
344.12	83.69
344.348	85.69
344.576	87.69
344.804	75.69
345.031	91.69
345.259	85.69
345.487	76.69
345.714	87.69
345.942	91.69
346.17	75.69
346.397	76.69
346.625	94.69
346.853	84.69
347.08	81.69
347.308	80.69
347.535	85.69
347.763	81.69
347.99	79.69
348.218	92.69
348.445	76.69
348.673	90.69
348.9	79.69
349.128	94.69
349.355	82.69
349.583	86.69
349.81	79.69
350.037	84.69
350.265	90.69
350.492	80.69
350.72	81.69
350.947	80.69
351.174	83.69
351.402	79.69
351.629	91.69
351.856	84.69
352.083	103.69
352.311	96.69
352.538	79.69
352.765	79.69
352.992	92.69
353.22	94.69
353.447	74.69
353.674	80.69
353.901	85.69
354.128	91.69
354.355	83.69
354.583	87.69
354.81	77.69
355.037	99.69
355.264	89.69
355.491	101.69
355.718	96.69
355.945	79.69
356.172	72.69
356.399	87.69
356.626	74.69
356.853	87.69
357.08	80.69
357.307	78.69
357.534	74.69
357.761	76.69
357.988	90.69
358.215	80.69
358.441	79.69
358.668	82.69
358.895	86.69
359.122	93.69
359.349	88.69
359.576	96.69
359.802	90.69
360.029	90.69
360.256	69.69
360.483	74.69
360.709	92.69
360.936	91.69
361.163	90.69
361.39	80.69
361.616	88.69
361.843	84.69
362.07	89.69
362.296	80.69
362.523	94.69
362.749	89.69
362.976	74.69
363.203	83.69
363.429	84.69
363.656	91.69
363.882	82.69
364.109	99.69
364.335	93.69
364.562	96.69
364.788	84.69
365.015	93.69
365.241	80.69
365.468	90.69
365.694	81.69
365.92	89.69
366.147	77.69
366.373	79.69
366.599	85.69
366.826	75.69
367.052	92.69
367.278	86.69
367.505	85.69
367.731	91.69
367.957	78.69
368.184	87.69
368.41	97.69
368.636	69.69
368.862	86.69
369.089	83.69
369.315	71.69
369.541	82.69
369.767	77.69
369.993	77.69
370.219	86.69
370.445	69.69
370.672	87.69
370.898	84.69
371.124	99.69
371.35	78.69
371.576	84.69
371.802	84.69
372.028	73.69
372.254	80.69
372.48	88.69
372.706	83.69
372.932	84.69
373.158	94.69
373.384	82.69
373.61	79.69
373.835	77.69
374.061	78.69
374.287	85.69
374.513	75.69
374.739	94.69
374.965	84.69
375.191	78.69
375.416	97.69
375.642	93.69
375.868	75.69
376.094	78.69
376.319	91.69
376.545	70.69
376.771	87.69
376.997	84.69
377.222	85.69
377.448	76.69
377.674	76.69
377.899	85.69
378.125	85.69
378.35	72.69
378.576	74.69
378.802	79.69
379.027	74.69
379.253	85.69
379.478	81.69
379.704	82.69
379.929	84.69
380.155	86.69
380.38	95.69
380.606	75.69
380.831	71.69
381.057	92.69
381.282	80.69
381.507	87.69
381.733	85.69
381.958	87.69
382.184	80.69
382.409	81.69
382.634	84.69
382.86	95.69
383.085	87.69
383.31	76.69
383.535	85.69
383.761	76.69
383.986	85.69
384.211	82.69
384.436	81.69
384.662	86.69
384.887	86.69
385.112	77.69
385.337	75.69
385.562	75.69
385.787	75.69
386.013	82.69
386.238	82.69
386.463	72.69
386.688	86.69
386.913	83.69
387.138	102.69
387.363	87.69
387.588	92.69
387.813	84.69
388.038	66.69
388.263	90.69
388.488	96.69
388.713	81.69
388.938	83.69
389.163	82.69
389.387	86.69
389.612	95.69
389.837	82.69
390.062	86.69
390.287	94.69
390.512	88.69
390.736	90.69
390.961	72.69
391.186	77.69
391.411	78.69
391.636	80.69
391.86	80.69
392.085	79.69
392.31	85.69
392.534	92.69
392.759	90.69
392.984	80.69
393.208	67.69
393.433	69.69
393.658	76.69
393.882	75.69
394.107	87.69
394.331	85.69
394.556	83.69
394.78	70.69
395.005	79.69
395.229	76.69
395.454	76.69
395.678	83.69
395.903	93.69
396.127	90.69
396.352	98.69
396.576	77.69
396.801	92.69
397.025	87.69
397.249	74.69
397.474	89.69
397.698	99.69
397.922	77.69
398.147	81.69
398.371	81.69
398.595	91.69
398.82	90.69
399.044	78.69
399.268	75.69
399.492	75.69
399.717	71.69
399.941	84.69
400.165	85.69
400.389	95.69
400.613	81.69
400.837	79.69
401.062	86.69
401.286	89.69
401.51	85.69
401.734	93.69
401.958	79.69
402.182	76.69
402.406	79.69
402.63	84.69
402.854	74.69
403.078	68.69
403.302	86.69
403.526	85.69
403.75	88.69
403.974	99.69
404.198	91.69
404.422	79.69
404.645	76.69
404.869	64.69
405.093	79.69
405.317	74.69
405.541	77.69
405.765	93.69
405.988	87.69
406.212	70.69
406.436	92.69
406.66	91.69
406.883	79.69
407.107	75.69
407.331	87.69
407.555	86.69
407.778	87.69
408.002	82.69
408.226	69.69
408.449	86.69
408.673	85.69
408.896	82.69
409.12	94.69
409.344	80.69
409.567	86.69
409.791	82.69
410.014	81.69
410.238	88.69
410.461	81.69
410.685	79.69
410.908	68.69
411.132	79.69
411.355	79.69
411.578	76.69
411.802	92.69
412.025	84.69
412.249	86.69
412.472	80.69
412.695	90.69
412.919	82.69
413.142	72.69
413.365	76.69
413.589	78.69
413.812	78.69
414.035	78.69
414.258	78.69
414.482	72.69
414.705	76.69
414.928	59.69
415.151	79.69
415.374	80.69
415.597	84.69
415.821	83.69
416.044	85.69
416.267	85.69
416.49	73.69
416.713	72.69
416.936	87.69
417.159	76.69
417.382	82.69
417.605	87.69
417.828	82.69
418.051	78.69
418.274	85.69
418.497	77.69
418.72	81.69
418.943	86.69
419.166	83.69
419.389	80.69
419.611	79.69
419.834	88.69
420.057	84.69
420.28	85.69
420.503	79.69
420.726	81.69
420.948	82.69
421.171	64.69
421.394	86.69
421.617	88.69
421.839	83.69
422.062	88.69
422.285	75.69
422.507	77.69
422.73	89.69
422.953	77.69
423.175	77.69
423.398	68.69
423.621	78.69
423.843	63.69
424.066	81.69
424.288	82.69
424.511	85.69
424.733	81.69
424.956	81.69
425.178	89.69
425.401	90.69
425.623	89.69
425.846	77.69
426.068	91.69
426.291	86.69
426.513	75.69
426.735	73.69
426.958	77.69
427.18	91.69
427.402	84.69
427.625	83.69
427.847	70.69
428.069	95.69
428.292	89.69
428.514	76.69
428.736	88.69
428.958	75.69
429.181	100.69
429.403	99.69
429.625	97.69
429.847	69.69
430.069	82.69
430.292	75.69
430.514	75.69
430.736	79.69
430.958	90.69
431.18	80.69
431.402	90.69
431.624	89.69
431.846	77.69
432.068	80.69
432.29	91.69
432.512	74.69
432.734	69.69
432.956	69.69
433.178	76.69
433.4	75.69
433.622	82.69
433.844	96.69
434.066	87.69
434.287	81.69
434.509	72.69
434.731	72.69
434.953	83.69
435.175	80.69
435.397	89.69
435.618	83.69
435.84	80.69
436.062	60.69
436.284	74.69
436.505	79.69
436.727	86.69
436.949	76.69
437.17	78.69
437.392	77.69
437.614	90.69
437.835	72.69
438.057	90.69
438.278	80.69
438.5	71.69
438.721	87.69
438.943	88.69
439.165	76.69
439.386	56.69
439.608	90.69
439.829	83.69
440.05	79.69
440.272	82.69
440.493	80.69
440.715	79.69
440.936	85.69
441.158	82.69
441.379	75.69
441.6	85.69
441.822	79.69
442.043	78.69
442.264	84.69
442.486	84.69
442.707	88.69
442.928	83.69
443.149	87.69
443.371	80.69
443.592	81.69
443.813	72.69
444.034	72.69
444.255	73.69
444.476	72.69
444.698	84.69
444.919	80.69
445.14	157.69
445.361	122.69
445.582	91.69
445.803	94.69
446.024	84.69
446.245	79.69
446.466	84.69
446.687	75.69
446.908	101.69
447.129	89.69
447.35	86.69
447.571	83.69
447.792	77.69
448.013	62.69
448.234	81.69
448.455	78.69
448.675	78.69
448.896	78.69
449.117	89.69
449.338	77.69
449.559	91.69
449.779	72.69
450	85.69
450.221	83.69
450.442	79.69
450.662	77.69
450.883	84.69
451.104	80.69
451.324	86.69
451.545	83.69
451.766	85.69
451.986	75.69
452.207	70.69
452.428	77.69
452.648	75.69
452.869	64.69
453.089	85.69
453.31	83.69
453.53	86.69
453.751	83.69
453.971	76.69
454.192	74.69
454.412	77.69
454.633	106.69
454.853	79.69
455.073	81.69
455.294	57.69
455.514	84.69
455.734	79.69
455.955	67.69
456.175	89.69
456.395	84.69
456.616	81.69
456.836	81.69
457.056	89.69
457.276	85.69
457.497	89.69
457.717	85.69
457.937	79.69
458.157	91.69
458.377	71.69
458.598	80.69
458.818	72.69
459.038	94.69
459.258	91.69
459.478	75.69
459.698	77.69
459.918	81.69
460.138	74.69
460.358	73.69
460.578	83.69
460.798	74.69
461.018	68.69
461.238	83.69
461.458	79.69
461.678	74.69
461.898	72.69
462.118	68.69
462.338	71.69
462.558	76.69
462.777	67.69
462.997	75.69
463.217	71.69
463.437	93.69
463.657	75.69
463.876	76.69
464.096	71.69
464.316	76.69
464.536	91.69
464.755	96.69
464.975	66.69
465.195	78.69
465.414	81.69
465.634	75.69
465.854	73.69
466.073	85.69
466.293	83.69
466.512	73.69
466.732	63.69
466.951	93.69
467.171	76.69
467.391	73.69
467.61	83.69
467.829	76.69
468.049	80.69
468.268	78.69
468.488	72.69
468.707	95.69
468.927	90.69
469.146	79.69
469.365	90.69
469.585	90.69
469.804	80.69
470.023	74.69
470.243	85.69
470.462	85.69
470.681	86.69
470.901	83.69
471.12	61.69
471.339	85.69
471.558	91.69
471.777	89.69
471.997	67.69
472.216	94.69
472.435	71.69
472.654	88.69
472.873	75.69
473.092	67.69
473.311	73.69
473.53	80.69
473.749	88.69
473.968	99.69
474.187	79.69
474.406	78.69
474.625	86.69
474.844	93.69
475.063	82.69
475.282	78.69
475.501	101.69
475.72	79.69
475.939	88.69
476.158	90.69
476.377	99.69
476.596	74.69
476.814	83.69
477.033	72.69
477.252	88.69
477.471	79.69
477.69	79.69
477.908	84.69
478.127	88.69
478.346	80.69
478.564	83.69
478.783	75.69
479.002	61.69
479.22	95.69
479.439	81.69
479.658	79.69
479.876	84.69
480.095	83.69
480.313	88.69
480.532	80.69
480.751	84.69
480.969	95.69
481.188	76.69
481.406	93.69
481.624	66.69
481.843	83.69
482.061	83.69
482.28	62.69
482.498	82.69
482.717	82.69
482.935	75.69
483.153	80.69
483.372	83.69
483.59	74.69
483.808	72.69
484.027	80.69
484.245	76.69
484.463	80.69
484.681	87.69
484.9	81.69
485.118	77.69
485.336	67.69
485.554	78.69
485.772	78.69
485.99	84.69
486.209	85.69
486.427	92.69
486.645	78.69
486.863	88.69
487.081	79.69
487.299	83.69
487.517	89.69
487.735	88.69
487.953	83.69
488.171	95.69
488.389	81.69
488.607	76.69
488.825	77.69
489.043	93.69
489.261	102.69
489.479	78.69
489.696	88.69
489.914	74.69
490.132	96.69
490.35	89.69
490.568	85.69
490.786	85.69
491.003	81.69
491.221	81.69
491.439	89.69
491.657	78.69
491.874	71.69
492.092	84.69
492.31	76.69
492.527	80.69
492.745	80.69
492.963	97.69
493.18	81.69
493.398	92.69
493.615	79.69
493.833	78.69
494.05	84.69
494.268	86.69
494.485	86.69
494.703	81.69
494.92	83.69
495.138	75.69
495.355	65.69
495.573	87.69
495.79	73.69
496.008	66.69
496.225	80.69
496.442	74.69
496.66	79.69
496.877	79.69
497.094	79.69
497.312	79.69
497.529	77.69
497.746	65.69
497.963	81.69
498.181	82.69
498.398	80.69
498.615	77.69
498.832	84.69
499.049	84.69
499.267	70.69
499.484	73.69
499.701	79.69
499.918	80.69
500.135	93.69
500.352	85.69
500.569	83.69
500.786	96.69
501.003	64.69
501.22	72.69
501.437	100.69
501.654	86.69
501.871	71.69
502.088	75.69
502.305	85.69
502.522	92.69
502.739	71.69
502.956	84.69
503.172	95.69
503.389	87.69
503.606	83.69
503.823	85.69
504.04	92.69
504.256	83.69
504.473	80.69
504.69	67.69
504.907	92.69
505.123	78.69
505.34	84.69
505.557	78.69
505.773	81.69
505.99	85.69
506.207	88.69
506.423	78.69
506.64	83.69
506.856	87.69
507.073	74.69
507.289	68.69
507.506	84.69
507.722	84.69
507.939	88.69
508.155	95.69
508.372	89.69
508.588	73.69
508.805	74.69
509.021	69.69
509.238	75.69
509.454	100.69
509.67	83.69
509.887	76.69
510.103	80.69
510.319	81.69
510.536	90.69
510.752	81.69
510.968	83.69
511.184	74.69
511.401	72.69
511.617	77.69
511.833	88.69
512.049	83.69
512.265	87.69
512.481	80.69
512.698	69.69
512.914	96.69
513.13	73.69
513.346	83.69
513.562	70.69
513.778	89.69
513.994	87.69
514.21	79.69
514.426	89.69
514.642	79.69
514.858	93.69
515.074	86.69
515.29	93.69
515.506	83.69
515.721	70.69
515.937	93.69
516.153	77.69
516.369	79.69
516.585	72.69
516.801	71.69
517.016	78.69
517.232	87.69
517.448	85.69
517.664	75.69
517.879	86.69
518.095	85.69
518.311	72.69
518.527	94.69
518.742	70.69
518.958	86.69
519.173	83.69
519.389	82.69
519.605	83.69
519.82	91.69
520.036	85.69
520.251	75.69
