Data from BG_HRD10591_090.txt Node
Date: Fri May 16 15:15:07 EDT 2025
User: Yrep
Spectrometer: HR+D1059
Trigger mode: 1
Integration Time (sec): 1.000000E-1
Scans to average: 1
Electric dark correction enabled: true
Nonlinearity correction enabled: false
Boxcar width: 0
XAxis mode: Wavelengths
Number of Pixels in Spectrum: 2048
>>>>>Begin Spectral Data<<<<<
223.165	-31
223.4	-31
223.635	-31
223.869	-21
224.104	-22
224.338	-19
224.573	-12
224.808	-5
225.042	-7
225.277	2
225.511	-10
225.746	1
225.98	16
226.215	28
226.449	24
226.683	16
226.918	11
227.152	29
227.387	29
227.621	37
227.856	53
228.09	59
228.324	47
228.559	55
228.793	65
229.027	68
229.262	62
229.496	76
229.73	82
229.964	78
230.199	69
230.433	61
230.667	80
230.901	74
231.136	72
231.37	72
231.604	67
231.838	95
232.072	73
232.306	90
232.541	85
232.775	71
233.009	86
233.243	84
233.477	87
233.711	66
233.945	76
234.179	82
234.413	83
234.647	79
234.881	74
235.115	85
235.349	71
235.583	80
235.817	79
236.051	90
236.285	81
236.519	75
236.753	89
236.987	86
237.221	80
237.455	79
237.689	84
237.922	76
238.156	75
238.39	73
238.624	77
238.858	75
239.091	73
239.325	69
239.559	65
239.793	83
240.027	77
240.26	78
240.494	80
240.728	73
240.961	88
241.195	91
241.429	75
241.662	66
241.896	81
242.13	74
242.363	78
242.597	75
242.83	82
243.064	72
243.298	67
243.531	69
243.765	86
243.998	85
244.232	65
244.465	80
244.699	80
244.932	65
245.166	97
245.399	79
245.633	75
245.866	72
246.099	65
246.333	70
246.566	68
246.8	74
247.033	85
247.266	70
247.5	77
247.733	73
247.966	78
248.2	86
248.433	79
248.666	84
248.899	102
249.133	70
249.366	88
249.599	75
249.832	89
250.066	71
250.299	84
250.532	70
250.765	89
250.998	73
251.231	71
251.465	90
251.698	85
251.931	77
252.164	95
252.397	90
252.63	84
252.863	76
253.096	84
253.329	94
253.562	76
253.795	86
254.028	86
254.261	85
254.494	82
254.727	77
254.96	76
255.193	70
255.426	87
255.659	73
255.892	89
256.124	83
256.357	79
256.59	86
256.823	87
257.056	76
257.289	92
257.521	83
257.754	85
257.987	86
258.22	77
258.452	76
258.685	77
258.918	84
259.151	79
259.383	81
259.616	80
259.849	83
260.081	84
260.314	85
260.547	91
260.779	74
261.012	96
261.244	83
261.477	89
261.71	89
261.942	82
262.175	96
262.407	83
262.64	81
262.872	87
263.105	86
263.337	86
263.57	77
263.802	80
264.035	90
264.267	84
264.499	76
264.732	90
264.964	79
265.197	90
265.429	90
265.661	99
265.894	80
266.126	78
266.358	65
266.591	80
266.823	66
267.055	91
267.287	84
267.52	89
267.752	81
267.984	72
268.216	74
268.448	75
268.681	89
268.913	80
269.145	91
269.377	87
269.609	88
269.841	86
270.073	75
270.306	88
270.538	84
270.77	93
271.002	86
271.234	81
271.466	78
271.698	69
271.93	94
272.162	74
272.394	94
272.626	65
272.858	84
273.09	97
273.322	81
273.553	87
273.785	80
274.017	77
274.249	92
274.481	90
274.713	87
274.945	84
275.176	84
275.408	80
275.64	79
275.872	67
276.104	91
276.335	81
276.567	90
276.799	84
277.031	95
277.262	85
277.494	92
277.726	86
277.957	91
278.189	85
278.421	78
278.652	78
278.884	81
279.115	90
279.347	94
279.579	88
279.81	81
280.042	82
280.273	83
280.505	83
280.736	87
280.968	96
281.199	75
281.431	64
281.662	100
281.894	92
282.125	84
282.356	86
282.588	91
282.819	71
283.051	78
283.282	83
283.513	83
283.745	95
283.976	77
284.207	82
284.439	93
284.67	86
284.901	93
285.132	89
285.364	84
285.595	89
285.826	68
286.057	110
286.288	80
286.52	81
286.751	88
286.982	87
287.213	82
287.444	86
287.675	92
287.906	98
288.138	93
288.369	104
288.6	92
288.831	91
289.062	89
289.293	80
289.524	85
289.755	76
289.986	93
290.217	80
290.448	79
290.679	94
290.91	93
291.141	89
291.371	78
291.602	75
291.833	89
292.064	88
292.295	96
292.526	84
292.757	82
292.987	89
293.218	84
293.449	90
293.68	84
293.91	76
294.141	72
294.372	87
294.603	87
294.833	85
295.064	97
295.295	78
295.525	80
295.756	86
295.987	87
296.217	90
296.448	95
296.679	84
296.909	95
297.14	79
297.37	80
297.601	92
297.831	80
298.062	89
298.292	87
298.523	85
298.753	76
298.984	76
299.214	92
299.445	89
299.675	92
299.905	79
300.136	76
300.366	85
300.597	81
300.827	85
301.057	82
301.288	85
301.518	90
301.748	76
301.979	93
302.209	89
302.439	84
302.669	76
302.9	90
303.13	85
303.36	86
303.59	94
303.82	90
304.051	83
304.281	78
304.511	88
304.741	90
304.971	70
305.201	86
305.431	90
305.661	95
305.891	70
306.121	79
306.352	98
306.582	92
306.812	81
307.042	88
307.272	90
307.502	103
307.731	101
307.961	90
308.191	85
308.421	86
308.651	95
308.881	73
309.111	82
309.341	91
309.571	73
309.8	80
310.03	73
310.26	101
310.49	93
310.72	79
310.949	85
311.179	89
311.409	91
311.639	89
311.868	88
312.098	86
312.328	85
312.557	88
312.787	100
313.017	105
313.246	96
313.476	86
313.706	78
313.935	92
314.165	87
314.394	72
314.624	87
314.853	78
315.083	95
315.312	91
315.542	77
315.771	83
316.001	89
316.23	83
316.46	87
316.689	90
316.919	93
317.148	77
317.377	77
317.607	89
317.836	109
318.065	105
318.295	86
318.524	78
318.753	96
318.983	96
319.212	78
319.441	80
319.67	92
319.9	94
320.129	95
320.358	75
320.587	90
320.816	83
321.046	93
321.275	92
321.504	82
321.733	85
321.962	97
322.191	104
322.42	77
322.649	86
322.878	94
323.108	84
323.337	77
323.566	82
323.795	91
324.024	78
324.253	84
324.482	78
324.71	96
324.939	92
325.168	80
325.397	74
325.626	89
325.855	94
326.084	76
326.313	95
326.542	93
326.77	97
326.999	80
327.228	77
327.457	87
327.686	94
327.914	88
328.143	86
328.372	71
328.6	90
328.829	71
329.058	82
329.287	74
329.515	94
329.744	91
329.972	87
330.201	91
330.43	81
330.658	79
330.887	87
331.115	98
331.344	99
331.572	82
331.801	94
332.03	74
332.258	96
332.486	100
332.715	84
332.943	82
333.172	100
333.4	90
333.629	83
333.857	89
334.085	94
334.314	83
334.542	86
334.771	87
334.999	87
335.227	73
335.455	85
335.684	86
335.912	89
336.14	97
336.369	73
336.597	81
336.825	81
337.053	109
337.281	68
337.51	78
337.738	85
337.966	86
338.194	95
338.422	83
338.65	84
338.878	73
339.106	94
339.334	90
339.562	87
339.79	84
340.018	84
340.246	93
340.474	70
340.702	106
340.93	96
341.158	86
341.386	93
341.614	87
341.842	92
342.07	93
342.298	86
342.526	91
342.754	84
342.981	89
343.209	85
343.437	105
343.665	82
343.893	83
344.12	102
344.348	87
344.576	75
344.804	84
345.031	71
345.259	96
345.487	88
345.714	101
345.942	86
346.17	98
346.397	89
346.625	92
346.853	74
347.08	92
347.308	85
347.535	88
347.763	100
347.99	92
348.218	73
348.445	78
348.673	93
348.9	93
349.128	90
349.355	99
349.583	90
349.81	81
350.037	81
350.265	90
350.492	77
350.72	79
350.947	87
351.174	90
351.402	78
351.629	93
351.856	95
352.083	81
352.311	86
352.538	88
352.765	80
352.992	76
353.22	94
353.447	90
353.674	84
353.901	97
354.128	84
354.355	76
354.583	77
354.81	80
355.037	94
355.264	89
355.491	84
355.718	86
355.945	86
356.172	92
356.399	88
356.626	83
356.853	84
357.08	84
357.307	96
357.534	92
357.761	90
357.988	90
358.215	95
358.441	79
358.668	100
358.895	89
359.122	82
359.349	98
359.576	85
359.802	85
360.029	82
360.256	96
360.483	89
360.709	74
360.936	92
361.163	92
361.39	93
361.616	81
361.843	85
362.07	85
362.296	84
362.523	69
362.749	101
362.976	96
363.203	109
363.429	81
363.656	86
363.882	80
364.109	91
364.335	90
364.562	95
364.788	93
365.015	114
365.241	100
365.468	93
365.694	81
365.92	95
366.147	92
366.373	91
366.599	74
366.826	81
367.052	84
367.278	70
367.505	110
367.731	100
367.957	83
368.184	69
368.41	90
368.636	96
368.862	69
369.089	75
369.315	88
369.541	94
369.767	89
369.993	101
370.219	101
370.445	74
370.672	86
370.898	96
371.124	85
371.35	71
371.576	80
371.802	86
372.028	86
372.254	85
372.48	82
372.706	75
372.932	80
373.158	85
373.384	104
373.61	89
373.835	86
374.061	80
374.287	77
374.513	89
374.739	84
374.965	100
375.191	92
375.416	96
375.642	88
375.868	86
376.094	84
376.319	78
376.545	80
376.771	73
376.997	84
377.222	78
377.448	77
377.674	93
377.899	82
378.125	89
378.35	83
378.576	102
378.802	68
379.027	72
379.253	80
379.478	89
379.704	79
379.929	80
380.155	87
380.38	88
380.606	85
380.831	95
381.057	93
381.282	89
381.507	80
381.733	82
381.958	73
382.184	70
382.409	81
382.634	84
382.86	86
383.085	80
383.31	94
383.535	89
383.761	86
383.986	79
384.211	75
384.436	93
384.662	89
384.887	85
385.112	72
385.337	87
385.562	80
385.787	86
386.013	90
386.238	88
386.463	93
386.688	95
386.913	87
387.138	69
387.363	75
387.588	96
387.813	93
388.038	95
388.263	88
388.488	82
388.713	88
388.938	87
389.163	95
389.387	89
389.612	88
389.837	92
390.062	93
390.287	85
390.512	86
390.736	89
390.961	89
391.186	82
391.411	86
391.636	92
391.86	94
392.085	93
392.31	85
392.534	81
392.759	96
392.984	86
393.208	83
393.433	90
393.658	91
393.882	100
394.107	87
394.331	91
394.556	85
394.78	85
395.005	96
395.229	79
395.454	84
395.678	89
395.903	85
396.127	108
396.352	88
396.576	98
396.801	97
397.025	90
397.249	89
397.474	88
397.698	101
397.922	98
398.147	97
398.371	99
398.595	78
398.82	84
399.044	104
399.268	91
399.492	104
399.717	90
399.941	96
400.165	94
400.389	85
400.613	87
400.837	69
401.062	97
401.286	92
401.51	83
401.734	86
401.958	81
402.182	87
402.406	88
402.63	95
402.854	86
403.078	88
403.302	79
403.526	88
403.75	97
403.974	90
404.198	95
404.422	84
404.645	88
404.869	83
405.093	92
405.317	77
405.541	95
405.765	83
405.988	87
406.212	88
406.436	93
406.66	104
406.883	114
407.107	88
407.331	88
407.555	98
407.778	92
408.002	102
408.226	96
408.449	84
408.673	97
408.896	88
409.12	82
409.344	92
409.567	105
409.791	89
410.014	95
410.238	91
410.461	87
410.685	89
410.908	102
411.132	81
411.355	86
411.578	95
411.802	89
412.025	91
412.249	88
412.472	77
412.695	74
412.919	88
413.142	75
413.365	78
413.589	101
413.812	94
414.035	92
414.258	101
414.482	73
414.705	89
414.928	91
415.151	88
415.374	81
415.597	82
415.821	98
416.044	98
416.267	79
416.49	87
416.713	81
416.936	80
417.159	94
417.382	94
417.605	100
417.828	97
418.051	89
418.274	84
418.497	92
418.72	89
418.943	77
419.166	96
419.389	82
419.611	109
419.834	104
420.057	77
420.28	88
420.503	81
420.726	101
420.948	82
421.171	88
421.394	91
421.617	100
421.839	85
422.062	95
422.285	94
422.507	96
422.73	97
422.953	91
423.175	93
423.398	101
423.621	95
423.843	88
424.066	89
424.288	100
424.511	79
424.733	82
424.956	91
425.178	86
425.401	83
425.623	100
425.846	96
426.068	98
426.291	81
426.513	86
426.735	93
426.958	97
427.18	91
427.402	94
427.625	97
427.847	84
428.069	90
428.292	98
428.514	85
428.736	74
428.958	89
429.181	92
429.403	86
429.625	105
429.847	84
430.069	95
430.292	72
430.514	87
430.736	83
430.958	94
431.18	84
431.402	85
431.624	80
431.846	87
432.068	95
432.29	85
432.512	101
432.734	82
432.956	88
433.178	96
433.4	92
433.622	104
433.844	93
434.066	91
434.287	98
434.509	93
434.731	88
434.953	89
435.175	84
435.397	72
435.618	79
435.84	92
436.062	97
436.284	92
436.505	84
436.727	86
436.949	80
437.17	97
437.392	87
437.614	84
437.835	87
438.057	78
438.278	81
438.5	88
438.721	66
438.943	96
439.165	84
439.386	83
439.608	80
439.829	81
440.05	90
440.272	95
440.493	112
440.715	92
440.936	97
441.158	87
441.379	87
441.6	101
441.822	106
442.043	93
442.264	83
442.486	97
442.707	82
442.928	84
443.149	84
443.371	92
443.592	87
443.813	92
444.034	106
444.255	88
444.476	97
444.698	100
444.919	88
445.14	165
445.361	134
445.582	102
445.803	81
446.024	95
446.245	89
446.466	89
446.687	81
446.908	97
447.129	88
447.35	105
447.571	83
447.792	93
448.013	88
448.234	83
448.455	87
448.675	97
448.896	92
449.117	89
449.338	80
449.559	89
449.779	86
450	96
450.221	91
450.442	93
450.662	84
450.883	92
451.104	90
451.324	106
451.545	92
451.766	89
451.986	97
452.207	95
452.428	90
452.648	84
452.869	76
453.089	88
453.31	104
453.53	94
453.751	83
453.971	82
454.192	85
454.412	85
454.633	91
454.853	78
455.073	92
455.294	67
455.514	96
455.734	80
455.955	73
456.175	92
456.395	86
456.616	78
456.836	88
457.056	76
457.276	86
457.497	82
457.717	85
457.937	89
458.157	77
458.377	78
458.598	82
458.818	94
459.038	86
459.258	92
459.478	85
459.698	96
459.918	91
460.138	85
460.358	81
460.578	100
460.798	80
461.018	85
461.238	100
461.458	103
461.678	91
461.898	98
462.118	90
462.338	93
462.558	85
462.777	93
462.997	98
463.217	102
463.437	95
463.657	105
463.876	84
464.096	95
464.316	90
464.536	100
464.755	105
464.975	88
465.195	91
465.414	90
465.634	87
465.854	91
466.073	88
466.293	96
466.512	97
466.732	89
466.951	81
467.171	100
467.391	73
467.61	88
467.829	80
468.049	98
468.268	90
468.488	90
468.707	87
468.927	102
469.146	94
469.365	102
469.585	80
469.804	88
470.023	85
470.243	67
470.462	84
470.681	88
470.901	76
471.12	97
471.339	95
471.558	87
471.777	85
471.997	103
472.216	78
472.435	77
472.654	79
472.873	96
473.092	95
473.311	85
473.53	87
473.749	92
473.968	92
474.187	89
474.406	84
474.625	81
474.844	94
475.063	89
475.282	82
475.501	83
475.72	77
475.939	84
476.158	81
476.377	90
476.596	79
476.814	84
477.033	90
477.252	100
477.471	88
477.69	96
477.908	100
478.127	100
478.346	101
478.564	96
478.783	86
479.002	76
479.22	89
479.439	98
479.658	90
479.876	90
480.095	89
480.313	92
480.532	72
480.751	80
480.969	98
481.188	79
481.406	114
481.624	84
481.843	100
482.061	97
482.28	95
482.498	94
482.717	89
482.935	84
483.153	96
483.372	82
483.59	84
483.808	91
484.027	81
484.245	91
484.463	103
484.681	105
484.9	105
485.118	88
485.336	78
485.554	89
485.772	88
485.99	96
486.209	80
486.427	103
486.645	102
486.863	89
487.081	82
487.299	81
487.517	94
487.735	98
487.953	91
488.171	101
488.389	87
488.607	93
488.825	90
489.043	99
489.261	88
489.479	88
489.696	90
489.914	90
490.132	85
490.35	90
490.568	94
490.786	104
491.003	86
491.221	85
491.439	84
491.657	89
491.874	92
492.092	94
492.31	88
492.527	85
492.745	81
492.963	90
493.18	85
493.398	94
493.615	92
493.833	89
494.05	81
494.268	96
494.485	93
494.703	70
494.92	92
495.138	85
495.355	97
495.573	88
495.79	103
496.008	97
496.225	94
496.442	96
496.66	106
496.877	100
497.094	103
497.312	93
497.529	92
497.746	93
497.963	81
498.181	107
498.398	89
498.615	89
498.832	101
499.049	89
499.267	93
499.484	88
499.701	103
499.918	101
500.135	120
500.352	102
500.569	97
500.786	121
501.003	98
501.22	100
501.437	94
501.654	94
501.871	85
502.088	112
502.305	97
502.522	104
502.739	91
502.956	93
503.172	85
503.389	104
503.606	105
503.823	94
504.04	96
504.256	96
504.473	93
504.69	89
504.907	85
505.123	105
505.34	104
505.557	107
505.773	101
505.99	96
506.207	87
506.423	94
506.64	101
506.856	100
507.073	84
507.289	88
507.506	89
507.722	85
507.939	101
508.155	90
508.372	86
508.588	92
508.805	95
509.021	107
509.238	100
509.454	90
509.67	90
509.887	94
510.103	94
510.319	79
510.536	93
510.752	79
510.968	110
511.184	78
511.401	83
511.617	92
511.833	74
512.049	91
512.265	74
512.481	102
512.698	102
512.914	93
513.13	88
513.346	90
513.562	94
513.778	87
513.994	89
514.21	79
514.426	92
514.642	78
514.858	86
515.074	86
515.29	93
515.506	83
515.721	82
515.937	93
516.153	82
516.369	80
516.585	77
516.801	81
517.016	90
517.232	106
517.448	93
517.664	95
517.879	92
518.095	94
518.311	91
518.527	102
518.742	88
518.958	97
519.173	94
519.389	99
519.605	92
519.82	95
520.036	92
520.251	97
520.467	93
520.682	101
520.898	93
521.113	99
521.329	73
521.544	102
521.76	88
521.975	91
522.19	82
522.406	97
522.621	84
522.836	86
523.052	95
523.267	94
523.482	96
523.698	80
523.913	88
524.128	84
524.343	89
524.559	90
524.774	107
524.989	108
525.204	100
525.419	83
525.634	89
525.849	81
526.064	112
526.28	79
526.495	97
526.71	91
526.925	86
527.14	100
527.355	98
527.57	92
527.785	78
527.999	91
528.214	85
528.429	91
528.644	96
528.859	110
529.074	90
529.289	102
529.503	80
529.718	100
529.933	92
530.148	98
530.363	96
530.577	107
530.792	103
531.007	90
531.221	119
531.436	72
531.651	104
531.865	101
532.08	84
532.295	91
532.509	98
532.724	82
532.938	91
533.153	93
533.367	101
533.582	80
533.796	88
534.011	81
534.225	82
534.44	80
534.654	95
534.868	94
535.083	95
535.297	94
535.511	89
535.726	90
535.94	80
536.154	93
536.369	94
536.583	82
536.797	97
537.011	101
537.225	90
537.44	96
537.654	95
537.868	85
538.082	95
538.296	96
538.51	102
538.724	94
538.938	87
539.153	90
539.367	104
539.581	89
539.795	83
540.009	82
540.222	96
540.436	99
540.65	98
540.864	84
541.078	96
541.292	75
541.506	85
541.72	92
541.934	102
542.147	85
542.361	91
542.575	92
542.789	86
543.002	87
543.216	90
543.43	94
543.644	102
543.857	101
544.071	94
544.285	96
544.498	84
544.712	82
544.925	92
545.139	86
545.352	100
545.566	100
545.779	78
545.993	84
546.206	76
546.42	97
546.633	94
546.847	105
547.06	80
547.274	87
547.487	89
547.7	98
547.914	95
548.127	93
548.34	94
548.554	77
548.767	91
548.98	74
549.193	93
549.407	101
549.62	89
549.833	80
550.046	98
550.259	83
550.473	89
550.686	90
550.899	103
551.112	93
551.325	92
551.538	88
551.751	78
551.964	102
552.177	101
552.39	87
552.603	98
552.816	95
553.029	91
553.242	92
553.455	85
553.667	104
553.88	76
554.093	84
554.306	100
554.519	95
554.732	80
554.944	68
555.157	94
555.37	97
555.583	106
555.795	86
556.008	79
556.221	93
556.433	77
556.646	95
556.859	84
557.071	93
557.284	103
557.496	86
557.709	84
557.921	94
558.134	100
558.346	80
558.559	91
558.771	88
558.984	82
559.196	103
559.409	101
559.621	77
559.833	89
560.046	96
560.258	91
560.47	81
560.683	89
560.895	86
561.107	96
561.32	89
561.532	93
561.744	97
561.956	80
562.168	95
562.381	79
562.593	96
562.805	89
563.017	89
563.229	97
563.441	82
563.653	89
563.865	90
564.077	86
564.289	86
564.501	92
564.713	89
564.925	84
565.137	86
565.349	85
565.561	90
565.773	96
565.985	104
566.197	92
566.408	100
566.62	89
566.832	84
567.044	97
567.255	102
567.467	98
567.679	105
567.891	92
568.102	97
568.314	100
568.526	112
568.737	97
568.949	97
569.161	86
569.372	88
569.584	93
569.795	100
570.007	90
570.218	80
570.43	103
570.641	84
570.853	83
571.064	76
571.276	86
571.487	92
571.698	97
571.91	89
572.121	91
572.333	80
572.544	75
572.755	83
572.966	87
573.178	95
573.389	87
573.6	86
573.811	96
574.023	100
574.234	97
574.445	92
574.656	86
574.867	93
575.078	90
575.289	100
575.501	85
575.712	105
575.923	86
576.134	89
576.345	95
576.556	82
576.767	96
576.978	95
577.188	88
577.399	91
577.61	76
577.821	85
578.032	88
578.243	88
578.454	92
578.665	80
578.875	82
579.086	92
579.297	82
579.508	80
579.718	91
579.929	87
580.14	108
580.35	86
580.561	97
580.772	90
580.982	93
581.193	95
581.403	103
581.614	88
581.825	81
582.035	94
582.246	77
582.456	93
582.667	87
582.877	90
583.087	82
583.298	93
583.508	78
583.719	88
583.929	100
584.139	87
584.35	84
584.56	90
584.77	85
584.981	86
585.191	84
585.401	88
585.611	105
585.821	81
586.032	85
586.242	88
586.452	84
586.662	85
586.872	82
587.082	86
587.292	91
587.502	93
587.713	101
587.923	82
588.133	81
