Data from BG_HRD10591_004.txt Node
Date: Fri May 16 15:14:24 EDT 2025
User: Yrep
Spectrometer: HR+D1059
Trigger mode: 1
Integration Time (sec): 1.000000E-1
Scans to average: 1
Electric dark correction enabled: true
Nonlinearity correction enabled: false
Boxcar width: 0
XAxis mode: Wavelengths
Number of Pixels in Spectrum: 2048
>>>>>Begin Spectral Data<<<<<
223.165	-22.06
223.4	-22.06
223.635	-22.06
223.869	-23.06
224.104	-16.06
224.338	-18.06
224.573	-19.06
224.808	-15.06
225.042	-6.06
225.277	-11.06
225.511	-11.06
225.746	7.94
225.98	13.94
226.215	9.94
226.449	16.94
226.683	26.94
226.918	38.94
227.152	26.94
227.387	42.94
227.621	46.94
227.856	43.94
228.09	51.94
228.324	44.94
228.559	59.94
228.793	61.94
229.027	67.94
229.262	72.94
229.496	78.94
229.73	62.94
229.964	77.94
230.199	83.94
230.433	69.94
230.667	78.94
230.901	71.94
231.136	81.94
231.37	86.94
231.604	85.94
231.838	91.94
232.072	93.94
232.306	81.94
232.541	82.94
232.775	92.94
233.009	90.94
233.243	90.94
233.477	85.94
233.711	80.94
233.945	77.94
234.179	83.94
234.413	75.94
234.647	77.94
234.881	85.94
235.115	79.94
235.349	85.94
235.583	85.94
235.817	79.94
236.051	95.94
236.285	82.94
236.519	74.94
236.753	70.94
236.987	77.94
237.221	78.94
237.455	84.94
237.689	76.94
237.922	71.94
238.156	73.94
238.39	92.94
238.624	74.94
238.858	96.94
239.091	84.94
239.325	84.94
239.559	76.94
239.793	73.94
240.027	80.94
240.26	59.94
240.494	72.94
240.728	78.94
240.961	73.94
241.195	76.94
241.429	89.94
241.662	81.94
241.896	68.94
242.13	87.94
242.363	82.94
242.597	81.94
242.83	96.94
243.064	92.94
243.298	89.94
243.531	77.94
243.765	84.94
243.998	70.94
244.232	83.94
244.465	72.94
244.699	67.94
244.932	81.94
245.166	88.94
245.399	84.94
245.633	74.94
245.866	73.94
246.099	84.94
246.333	88.94
246.566	86.94
246.8	83.94
247.033	79.94
247.266	104.94
247.5	81.94
247.733	86.94
247.966	89.94
248.2	80.94
248.433	75.94
248.666	76.94
248.899	77.94
249.133	83.94
249.366	82.94
249.599	79.94
249.832	98.94
250.066	90.94
250.299	81.94
250.532	75.94
250.765	73.94
250.998	84.94
251.231	79.94
251.465	83.94
251.698	92.94
251.931	92.94
252.164	81.94
252.397	80.94
252.63	81.94
252.863	86.94
253.096	91.94
253.329	90.94
253.562	82.94
253.795	86.94
254.028	82.94
254.261	86.94
254.494	94.94
254.727	84.94
254.96	91.94
255.193	92.94
255.426	78.94
255.659	75.94
255.892	72.94
256.124	85.94
256.357	78.94
256.59	86.94
256.823	68.94
257.056	83.94
257.289	88.94
257.521	85.94
257.754	92.94
257.987	91.94
258.22	88.94
258.452	85.94
258.685	92.94
258.918	81.94
259.151	87.94
259.383	91.94
259.616	85.94
259.849	79.94
260.081	78.94
260.314	78.94
260.547	75.94
260.779	87.94
261.012	90.94
261.244	88.94
261.477	83.94
261.71	87.94
261.942	89.94
262.175	91.94
262.407	93.94
262.64	81.94
262.872	91.94
263.105	78.94
263.337	79.94
263.57	72.94
263.802	86.94
264.035	82.94
264.267	93.94
264.499	84.94
264.732	86.94
264.964	93.94
265.197	78.94
265.429	98.94
265.661	92.94
265.894	77.94
266.126	88.94
266.358	94.94
266.591	87.94
266.823	78.94
267.055	82.94
267.287	75.94
267.52	81.94
267.752	99.94
267.984	85.94
268.216	98.94
268.448	84.94
268.681	96.94
268.913	76.94
269.145	95.94
269.377	101.94
269.609	90.94
269.841	81.94
270.073	83.94
270.306	91.94
270.538	88.94
270.77	92.94
271.002	86.94
271.234	80.94
271.466	78.94
271.698	82.94
271.93	81.94
272.162	82.94
272.394	95.94
272.626	93.94
272.858	74.94
273.09	83.94
273.322	98.94
273.553	90.94
273.785	92.94
274.017	92.94
274.249	91.94
274.481	79.94
274.713	93.94
274.945	91.94
275.176	87.94
275.408	85.94
275.64	84.94
275.872	89.94
276.104	79.94
276.335	92.94
276.567	75.94
276.799	92.94
277.031	88.94
277.262	91.94
277.494	88.94
277.726	101.94
277.957	98.94
278.189	79.94
278.421	62.94
278.652	83.94
278.884	92.94
279.115	90.94
279.347	81.94
279.579	76.94
279.81	88.94
280.042	85.94
280.273	93.94
280.505	93.94
280.736	78.94
280.968	88.94
281.199	99.94
281.431	85.94
281.662	86.94
281.894	99.94
282.125	94.94
282.356	99.94
282.588	92.94
282.819	83.94
283.051	78.94
283.282	99.94
283.513	82.94
283.745	88.94
283.976	106.94
284.207	98.94
284.439	102.94
284.67	90.94
284.901	76.94
285.132	96.94
285.364	92.94
285.595	86.94
285.826	80.94
286.057	98.94
286.288	86.94
286.52	99.94
286.751	105.94
286.982	96.94
287.213	102.94
287.444	86.94
287.675	69.94
287.906	86.94
288.138	99.94
288.369	96.94
288.6	89.94
288.831	93.94
289.062	80.94
289.293	109.94
289.524	78.94
289.755	87.94
289.986	78.94
290.217	94.94
290.448	79.94
290.679	94.94
290.91	102.94
291.141	83.94
291.371	73.94
291.602	94.94
291.833	90.94
292.064	91.94
292.295	104.94
292.526	93.94
292.757	82.94
292.987	72.94
293.218	93.94
293.449	97.94
293.68	96.94
293.91	101.94
294.141	97.94
294.372	106.94
294.603	94.94
294.833	80.94
295.064	96.94
295.295	92.94
295.525	110.94
295.756	119.94
295.987	91.94
296.217	96.94
296.448	93.94
296.679	92.94
296.909	98.94
297.14	108.94
297.37	96.94
297.601	94.94
297.831	89.94
298.062	71.94
298.292	86.94
298.523	85.94
298.753	101.94
298.984	99.94
299.214	78.94
299.445	80.94
299.675	84.94
299.905	95.94
300.136	93.94
300.366	95.94
300.597	81.94
300.827	93.94
301.057	110.94
301.288	94.94
301.518	106.94
301.748	92.94
301.979	100.94
302.209	83.94
302.439	92.94
302.669	93.94
302.9	91.94
303.13	100.94
303.36	97.94
303.59	97.94
303.82	102.94
304.051	88.94
304.281	79.94
304.511	91.94
304.741	87.94
304.971	84.94
305.201	90.94
305.431	94.94
305.661	96.94
305.891	82.94
306.121	93.94
306.352	87.94
306.582	90.94
306.812	114.94
307.042	105.94
307.272	97.94
307.502	94.94
307.731	95.94
307.961	93.94
308.191	96.94
308.421	93.94
308.651	88.94
308.881	87.94
309.111	94.94
309.341	88.94
309.571	94.94
309.8	90.94
310.03	90.94
310.26	93.94
310.49	97.94
310.72	88.94
310.949	104.94
311.179	80.94
311.409	106.94
311.639	92.94
311.868	97.94
312.098	88.94
312.328	83.94
312.557	91.94
312.787	84.94
313.017	89.94
313.246	95.94
313.476	102.94
313.706	92.94
313.935	96.94
314.165	93.94
314.394	104.94
314.624	96.94
314.853	104.94
315.083	88.94
315.312	102.94
315.542	94.94
315.771	98.94
316.001	89.94
316.23	95.94
316.46	89.94
316.689	97.94
316.919	83.94
317.148	116.94
317.377	102.94
317.607	97.94
317.836	96.94
318.065	85.94
318.295	68.94
318.524	92.94
318.753	102.94
318.983	86.94
319.212	90.94
319.441	85.94
319.67	96.94
319.9	96.94
320.129	102.94
320.358	89.94
320.587	103.94
320.816	99.94
321.046	101.94
321.275	85.94
321.504	84.94
321.733	73.94
321.962	81.94
322.191	105.94
322.42	84.94
322.649	90.94
322.878	94.94
323.108	85.94
323.337	92.94
323.566	88.94
323.795	92.94
324.024	107.94
324.253	99.94
324.482	89.94
324.71	78.94
324.939	83.94
325.168	100.94
325.397	81.94
325.626	100.94
325.855	101.94
326.084	93.94
326.313	95.94
326.542	79.94
326.77	86.94
326.999	94.94
327.228	96.94
327.457	93.94
327.686	96.94
327.914	88.94
328.143	87.94
328.372	106.94
328.6	91.94
328.829	94.94
329.058	99.94
329.287	97.94
329.515	98.94
329.744	94.94
329.972	106.94
330.201	97.94
330.43	92.94
330.658	88.94
330.887	87.94
331.115	83.94
331.344	99.94
331.572	101.94
331.801	85.94
332.03	95.94
332.258	96.94
332.486	78.94
332.715	110.94
332.943	82.94
333.172	91.94
333.4	92.94
333.629	92.94
333.857	99.94
334.085	100.94
334.314	79.94
334.542	98.94
334.771	105.94
334.999	82.94
335.227	106.94
335.455	100.94
335.684	100.94
335.912	81.94
336.14	103.94
336.369	95.94
336.597	92.94
336.825	106.94
337.053	94.94
337.281	106.94
337.51	88.94
337.738	87.94
337.966	89.94
338.194	91.94
338.422	93.94
338.65	92.94
338.878	89.94
339.106	86.94
339.334	97.94
339.562	92.94
339.79	94.94
340.018	96.94
340.246	84.94
340.474	92.94
340.702	88.94
340.93	88.94
341.158	91.94
341.386	90.94
341.614	96.94
341.842	91.94
342.07	76.94
342.298	87.94
342.526	99.94
342.754	76.94
342.981	85.94
343.209	96.94
343.437	116.94
343.665	109.94
343.893	92.94
344.12	89.94
344.348	87.94
344.576	84.94
344.804	96.94
345.031	101.94
345.259	86.94
345.487	96.94
345.714	87.94
345.942	92.94
346.17	103.94
346.397	90.94
346.625	75.94
346.853	86.94
347.08	89.94
347.308	100.94
347.535	92.94
347.763	83.94
347.99	87.94
348.218	102.94
348.445	97.94
348.673	98.94
348.9	98.94
349.128	91.94
349.355	85.94
349.583	79.94
349.81	88.94
350.037	87.94
350.265	88.94
350.492	92.94
350.72	95.94
350.947	92.94
351.174	89.94
351.402	90.94
351.629	92.94
351.856	104.94
352.083	97.94
352.311	98.94
352.538	99.94
352.765	92.94
352.992	93.94
353.22	92.94
353.447	86.94
353.674	92.94
353.901	98.94
354.128	85.94
354.355	94.94
354.583	93.94
354.81	94.94
355.037	83.94
355.264	90.94
355.491	91.94
355.718	98.94
355.945	105.94
356.172	99.94
356.399	93.94
356.626	84.94
356.853	82.94
357.08	90.94
357.307	89.94
357.534	84.94
357.761	104.94
357.988	92.94
358.215	108.94
358.441	91.94
358.668	90.94
358.895	88.94
359.122	91.94
359.349	105.94
359.576	99.94
359.802	92.94
360.029	92.94
360.256	88.94
360.483	91.94
360.709	100.94
360.936	92.94
361.163	93.94
361.39	83.94
361.616	91.94
361.843	90.94
362.07	85.94
362.296	82.94
362.523	81.94
362.749	78.94
362.976	80.94
363.203	92.94
363.429	87.94
363.656	78.94
363.882	98.94
364.109	91.94
364.335	96.94
364.562	89.94
364.788	122.94
365.015	83.94
365.241	78.94
365.468	88.94
365.694	103.94
365.92	91.94
366.147	85.94
366.373	84.94
366.599	90.94
366.826	96.94
367.052	75.94
367.278	89.94
367.505	86.94
367.731	99.94
367.957	85.94
368.184	100.94
368.41	99.94
368.636	98.94
368.862	102.94
369.089	102.94
369.315	81.94
369.541	84.94
369.767	105.94
369.993	94.94
370.219	84.94
370.445	94.94
370.672	95.94
370.898	81.94
371.124	93.94
371.35	92.94
371.576	89.94
371.802	82.94
372.028	80.94
372.254	86.94
372.48	97.94
372.706	92.94
372.932	90.94
373.158	79.94
373.384	107.94
373.61	88.94
373.835	94.94
374.061	85.94
374.287	107.94
374.513	84.94
374.739	90.94
374.965	90.94
375.191	100.94
375.416	95.94
375.642	88.94
375.868	98.94
376.094	88.94
376.319	82.94
376.545	86.94
376.771	88.94
376.997	101.94
377.222	87.94
377.448	88.94
377.674	94.94
377.899	95.94
378.125	97.94
378.35	86.94
378.576	87.94
378.802	88.94
379.027	85.94
379.253	83.94
379.478	85.94
379.704	91.94
379.929	101.94
380.155	94.94
380.38	83.94
380.606	107.94
380.831	88.94
381.057	85.94
381.282	97.94
381.507	88.94
381.733	108.94
381.958	93.94
382.184	93.94
382.409	89.94
382.634	89.94
382.86	85.94
383.085	92.94
383.31	86.94
383.535	96.94
383.761	88.94
383.986	100.94
384.211	88.94
384.436	98.94
384.662	91.94
384.887	97.94
385.112	96.94
385.337	100.94
385.562	100.94
385.787	98.94
386.013	108.94
386.238	90.94
386.463	109.94
386.688	112.94
386.913	91.94
387.138	96.94
387.363	98.94
387.588	76.94
387.813	92.94
388.038	98.94
388.263	113.94
388.488	80.94
388.713	95.94
388.938	90.94
389.163	93.94
389.387	97.94
389.612	89.94
389.837	100.94
390.062	92.94
390.287	95.94
390.512	82.94
390.736	104.94
390.961	97.94
391.186	101.94
391.411	109.94
391.636	97.94
391.86	93.94
392.085	104.94
392.31	80.94
392.534	96.94
392.759	93.94
392.984	97.94
393.208	93.94
393.433	86.94
393.658	80.94
393.882	91.94
394.107	78.94
394.331	88.94
394.556	90.94
394.78	95.94
395.005	101.94
395.229	94.94
395.454	91.94
395.678	92.94
395.903	95.94
396.127	109.94
396.352	98.94
396.576	89.94
396.801	91.94
397.025	94.94
397.249	98.94
397.474	94.94
397.698	91.94
397.922	85.94
398.147	88.94
398.371	94.94
398.595	100.94
398.82	97.94
399.044	97.94
399.268	89.94
399.492	97.94
399.717	101.94
399.941	101.94
400.165	77.94
400.389	84.94
400.613	97.94
400.837	98.94
401.062	90.94
401.286	95.94
401.51	95.94
401.734	80.94
401.958	90.94
402.182	97.94
402.406	109.94
402.63	111.94
402.854	114.94
403.078	102.94
403.302	92.94
403.526	93.94
403.75	90.94
403.974	93.94
404.198	93.94
404.422	100.94
404.645	97.94
404.869	109.94
405.093	90.94
405.317	97.94
405.541	100.94
405.765	107.94
405.988	92.94
406.212	89.94
406.436	90.94
406.66	96.94
406.883	94.94
407.107	94.94
407.331	96.94
407.555	97.94
407.778	98.94
408.002	99.94
408.226	96.94
408.449	91.94
408.673	97.94
408.896	99.94
409.12	89.94
409.344	91.94
409.567	91.94
409.791	96.94
410.014	85.94
410.238	109.94
410.461	93.94
410.685	97.94
410.908	97.94
411.132	106.94
411.355	99.94
411.578	105.94
411.802	100.94
412.025	88.94
412.249	100.94
412.472	96.94
412.695	85.94
412.919	90.94
413.142	88.94
413.365	96.94
413.589	97.94
413.812	83.94
414.035	102.94
414.258	102.94
414.482	86.94
414.705	77.94
414.928	82.94
415.151	91.94
415.374	88.94
415.597	85.94
415.821	97.94
416.044	99.94
416.267	96.94
416.49	86.94
416.713	99.94
416.936	83.94
417.159	108.94
417.382	99.94
417.605	88.94
417.828	92.94
418.051	98.94
418.274	89.94
418.497	112.94
418.72	93.94
418.943	95.94
419.166	95.94
419.389	85.94
419.611	90.94
419.834	91.94
420.057	96.94
420.28	115.94
420.503	108.94
420.726	100.94
420.948	100.94
421.171	89.94
421.394	106.94
421.617	99.94
421.839	85.94
422.062	97.94
422.285	100.94
422.507	95.94
422.73	107.94
422.953	98.94
423.175	93.94
423.398	105.94
423.621	108.94
423.843	97.94
424.066	86.94
424.288	89.94
424.511	96.94
424.733	82.94
424.956	102.94
425.178	88.94
425.401	96.94
425.623	92.94
425.846	83.94
426.068	93.94
426.291	100.94
426.513	89.94
426.735	90.94
426.958	109.94
427.18	81.94
427.402	104.94
427.625	94.94
427.847	90.94
428.069	102.94
428.292	103.94
428.514	84.94
428.736	92.94
428.958	90.94
429.181	92.94
429.403	98.94
429.625	86.94
429.847	92.94
430.069	95.94
430.292	94.94
430.514	89.94
430.736	73.94
430.958	95.94
431.18	100.94
431.402	74.94
431.624	94.94
431.846	94.94
432.068	83.94
432.29	91.94
432.512	91.94
432.734	96.94
432.956	101.94
433.178	98.94
433.4	87.94
433.622	87.94
433.844	79.94
434.066	104.94
434.287	90.94
434.509	102.94
434.731	101.94
434.953	97.94
435.175	100.94
435.397	86.94
435.618	93.94
435.84	79.94
436.062	99.94
436.284	99.94
436.505	86.94
436.727	83.94
436.949	89.94
437.17	81.94
437.392	96.94
437.614	89.94
437.835	93.94
438.057	92.94
438.278	92.94
438.5	93.94
438.721	92.94
438.943	96.94
439.165	84.94
439.386	102.94
439.608	99.94
439.829	96.94
440.05	91.94
440.272	92.94
440.493	101.94
440.715	92.94
440.936	74.94
441.158	97.94
441.379	82.94
441.6	87.94
441.822	91.94
442.043	83.94
442.264	86.94
442.486	86.94
442.707	73.94
442.928	90.94
443.149	96.94
443.371	85.94
443.592	84.94
443.813	106.94
444.034	110.94
444.255	94.94
444.476	101.94
444.698	82.94
444.919	101.94
445.14	169.94
445.361	106.94
445.582	95.94
445.803	83.94
446.024	95.94
446.245	96.94
446.466	90.94
446.687	90.94
446.908	89.94
447.129	102.94
447.35	91.94
447.571	85.94
447.792	97.94
448.013	88.94
448.234	92.94
448.455	104.94
448.675	87.94
448.896	81.94
449.117	99.94
449.338	89.94
449.559	100.94
449.779	96.94
450	88.94
450.221	86.94
450.442	91.94
450.662	93.94
450.883	85.94
451.104	95.94
451.324	84.94
451.545	89.94
451.766	86.94
451.986	91.94
452.207	100.94
452.428	81.94
452.648	69.94
452.869	106.94
453.089	97.94
453.31	97.94
453.53	88.94
453.751	79.94
453.971	91.94
454.192	94.94
454.412	96.94
454.633	95.94
454.853	90.94
455.073	98.94
455.294	77.94
455.514	97.94
455.734	85.94
455.955	78.94
456.175	93.94
456.395	84.94
456.616	94.94
456.836	87.94
457.056	84.94
457.276	99.94
457.497	86.94
457.717	91.94
457.937	107.94
458.157	93.94
458.377	104.94
458.598	102.94
458.818	82.94
459.038	83.94
459.258	86.94
459.478	93.94
459.698	105.94
459.918	99.94
460.138	91.94
460.358	89.94
460.578	108.94
460.798	88.94
461.018	104.94
461.238	95.94
461.458	114.94
461.678	98.94
461.898	94.94
462.118	96.94
462.338	99.94
462.558	89.94
462.777	89.94
462.997	94.94
463.217	97.94
463.437	97.94
463.657	90.94
463.876	92.94
464.096	104.94
464.316	94.94
464.536	86.94
464.755	108.94
464.975	98.94
465.195	94.94
465.414	99.94
465.634	95.94
465.854	102.94
466.073	89.94
466.293	98.94
466.512	82.94
466.732	85.94
466.951	90.94
467.171	85.94
467.391	92.94
467.61	110.94
467.829	88.94
468.049	83.94
468.268	104.94
468.488	99.94
468.707	97.94
468.927	92.94
469.146	91.94
469.365	81.94
469.585	99.94
469.804	96.94
470.023	100.94
470.243	106.94
470.462	93.94
470.681	102.94
470.901	86.94
471.12	90.94
471.339	108.94
471.558	85.94
471.777	104.94
471.997	92.94
472.216	100.94
472.435	84.94
472.654	91.94
472.873	99.94
473.092	101.94
473.311	102.94
473.53	93.94
473.749	95.94
473.968	80.94
474.187	88.94
474.406	91.94
474.625	93.94
474.844	93.94
475.063	90.94
475.282	80.94
475.501	77.94
475.72	114.94
475.939	84.94
476.158	100.94
476.377	75.94
476.596	81.94
476.814	79.94
477.033	107.94
477.252	95.94
477.471	78.94
477.69	90.94
477.908	88.94
478.127	91.94
478.346	100.94
478.564	97.94
478.783	88.94
479.002	95.94
479.22	81.94
479.439	84.94
479.658	91.94
479.876	91.94
480.095	80.94
480.313	93.94
480.532	99.94
480.751	90.94
480.969	100.94
481.188	100.94
481.406	93.94
481.624	98.94
481.843	104.94
482.061	84.94
482.28	85.94
482.498	92.94
482.717	97.94
482.935	96.94
483.153	81.94
483.372	82.94
483.59	101.94
483.808	96.94
484.027	104.94
484.245	104.94
484.463	102.94
484.681	85.94
484.9	94.94
485.118	89.94
485.336	98.94
485.554	89.94
485.772	89.94
485.99	101.94
486.209	99.94
486.427	80.94
486.645	91.94
486.863	98.94
487.081	89.94
487.299	99.94
487.517	96.94
487.735	101.94
487.953	95.94
488.171	88.94
488.389	106.94
488.607	92.94
488.825	82.94
489.043	97.94
489.261	98.94
489.479	100.94
489.696	93.94
489.914	93.94
490.132	82.94
490.35	96.94
490.568	116.94
490.786	100.94
491.003	90.94
491.221	89.94
491.439	96.94
491.657	78.94
491.874	94.94
492.092	113.94
492.31	108.94
492.527	98.94
492.745	102.94
492.963	87.94
493.18	85.94
493.398	80.94
493.615	100.94
493.833	97.94
494.05	98.94
494.268	90.94
494.485	88.94
494.703	92.94
494.92	89.94
495.138	93.94
495.355	96.94
495.573	101.94
495.79	86.94
496.008	99.94
496.225	87.94
496.442	93.94
496.66	108.94
496.877	87.94
497.094	88.94
497.312	90.94
497.529	95.94
497.746	106.94
497.963	89.94
498.181	94.94
498.398	101.94
498.615	100.94
498.832	100.94
499.049	99.94
499.267	101.94
499.484	102.94
499.701	118.94
499.918	110.94
500.135	125.94
500.352	111.94
500.569	125.94
500.786	110.94
501.003	108.94
501.22	115.94
501.437	107.94
501.654	90.94
501.871	93.94
502.088	108.94
502.305	94.94
502.522	93.94
502.739	104.94
502.956	114.94
503.172	104.94
503.389	101.94
503.606	110.94
503.823	96.94
504.04	80.94
504.256	91.94
504.473	108.94
504.69	104.94
504.907	96.94
505.123	94.94
505.34	96.94
505.557	96.94
505.773	89.94
505.99	104.94
506.207	108.94
506.423	84.94
506.64	89.94
506.856	87.94
507.073	89.94
507.289	90.94
507.506	87.94
507.722	95.94
507.939	98.94
508.155	95.94
508.372	100.94
508.588	88.94
508.805	84.94
509.021	85.94
509.238	90.94
509.454	93.94
509.67	83.94
509.887	89.94
510.103	106.94
510.319	95.94
510.536	94.94
510.752	82.94
510.968	106.94
511.184	89.94
511.401	96.94
511.617	90.94
511.833	94.94
512.049	91.94
512.265	96.94
512.481	98.94
512.698	93.94
512.914	113.94
513.13	95.94
513.346	85.94
513.562	111.94
513.778	105.94
513.994	89.94
514.21	79.94
514.426	97.94
514.642	80.94
514.858	101.94
515.074	106.94
515.29	99.94
515.506	109.94
515.721	114.94
515.937	109.94
516.153	102.94
516.369	97.94
516.585	90.94
516.801	90.94
517.016	93.94
517.232	91.94
