Data from BG_HRD10591_001.txt Node
Date: Fri May 16 15:14:23 EDT 2025
User: Yrep
Spectrometer: HR+D1059
Trigger mode: 1
Integration Time (sec): 1.000000E-1
Scans to average: 1
Electric dark correction enabled: true
Nonlinearity correction enabled: false
Boxcar width: 0
XAxis mode: Wavelengths
Number of Pixels in Spectrum: 2048
>>>>>Begin Spectral Data<<<<<
223.165	-13.44
223.4	-13.44
223.635	-13.44
223.869	-34.44
224.104	-12.44
224.338	-10.44
224.573	-21.44
224.808	-20.44
225.042	2.56
225.277	4.56
225.511	4.56
225.746	-2.44
225.98	6.56
226.215	8.56
226.449	12.56
226.683	21.56
226.918	23.56
227.152	30.56
227.387	36.56
227.621	47.56
227.856	37.56
228.09	40.56
228.324	53.56
228.559	41.56
228.793	53.56
229.027	49.56
229.262	51.56
229.496	45.56
229.73	59.56
229.964	67.56
230.199	78.56
230.433	72.56
230.667	63.56
230.901	71.56
231.136	62.56
231.37	81.56
231.604	81.56
231.838	65.56
232.072	57.56
232.306	76.56
232.541	78.56
232.775	71.56
233.009	74.56
233.243	86.56
233.477	67.56
233.711	80.56
233.945	73.56
234.179	78.56
234.413	79.56
234.647	67.56
234.881	68.56
235.115	77.56
235.349	64.56
235.583	69.56
235.817	65.56
236.051	74.56
236.285	91.56
236.519	63.56
236.753	80.56
236.987	60.56
237.221	75.56
237.455	75.56
237.689	69.56
237.922	75.56
238.156	73.56
238.39	63.56
238.624	58.56
238.858	69.56
239.091	76.56
239.325	78.56
239.559	78.56
239.793	66.56
240.027	73.56
240.26	73.56
240.494	60.56
240.728	73.56
240.961	73.56
241.195	74.56
241.429	70.56
241.662	82.56
241.896	92.56
242.13	78.56
242.363	89.56
242.597	71.56
242.83	81.56
243.064	69.56
243.298	75.56
243.531	69.56
243.765	82.56
243.998	80.56
244.232	74.56
244.465	71.56
244.699	75.56
244.932	72.56
245.166	85.56
245.399	75.56
245.633	65.56
245.866	76.56
246.099	83.56
246.333	64.56
246.566	73.56
246.8	73.56
247.033	64.56
247.266	77.56
247.5	78.56
247.733	79.56
247.966	77.56
248.2	85.56
248.433	82.56
248.666	84.56
248.899	82.56
249.133	70.56
249.366	90.56
249.599	61.56
249.832	75.56
250.066	87.56
250.299	79.56
250.532	74.56
250.765	79.56
250.998	64.56
251.231	74.56
251.465	74.56
251.698	83.56
251.931	76.56
252.164	82.56
252.397	80.56
252.63	77.56
252.863	78.56
253.096	83.56
253.329	78.56
253.562	75.56
253.795	77.56
254.028	68.56
254.261	83.56
254.494	74.56
254.727	81.56
254.96	80.56
255.193	69.56
255.426	84.56
255.659	80.56
255.892	74.56
256.124	86.56
256.357	73.56
256.59	87.56
256.823	74.56
257.056	89.56
257.289	85.56
257.521	81.56
257.754	74.56
257.987	81.56
258.22	76.56
258.452	79.56
258.685	66.56
258.918	99.56
259.151	71.56
259.383	77.56
259.616	64.56
259.849	69.56
260.081	66.56
260.314	76.56
260.547	84.56
260.779	76.56
261.012	63.56
261.244	72.56
261.477	69.56
261.71	67.56
261.942	79.56
262.175	89.56
262.407	71.56
262.64	73.56
262.872	73.56
263.105	78.56
263.337	82.56
263.57	89.56
263.802	68.56
264.035	77.56
264.267	83.56
264.499	74.56
264.732	102.56
264.964	88.56
265.197	83.56
265.429	77.56
265.661	75.56
265.894	86.56
266.126	70.56
266.358	85.56
266.591	77.56
266.823	68.56
267.055	81.56
267.287	69.56
267.52	88.56
267.752	83.56
267.984	77.56
268.216	99.56
268.448	83.56
268.681	69.56
268.913	84.56
269.145	74.56
269.377	74.56
269.609	72.56
269.841	69.56
270.073	81.56
270.306	78.56
270.538	77.56
270.77	83.56
271.002	76.56
271.234	82.56
271.466	99.56
271.698	61.56
271.93	83.56
272.162	70.56
272.394	77.56
272.626	74.56
272.858	80.56
273.09	85.56
273.322	70.56
273.553	81.56
273.785	85.56
274.017	71.56
274.249	75.56
274.481	85.56
274.713	82.56
274.945	81.56
275.176	81.56
275.408	91.56
275.64	82.56
275.872	76.56
276.104	101.56
276.335	80.56
276.567	83.56
276.799	62.56
277.031	75.56
277.262	81.56
277.494	87.56
277.726	70.56
277.957	70.56
278.189	83.56
278.421	72.56
278.652	83.56
278.884	79.56
279.115	89.56
279.347	79.56
279.579	87.56
279.81	89.56
280.042	91.56
280.273	93.56
280.505	75.56
280.736	83.56
280.968	79.56
281.199	79.56
281.431	83.56
281.662	70.56
281.894	84.56
282.125	92.56
282.356	90.56
282.588	83.56
282.819	77.56
283.051	85.56
283.282	81.56
283.513	85.56
283.745	101.56
283.976	100.56
284.207	78.56
284.439	83.56
284.67	78.56
284.901	69.56
285.132	82.56
285.364	79.56
285.595	86.56
285.826	76.56
286.057	78.56
286.288	63.56
286.52	99.56
286.751	78.56
286.982	87.56
287.213	78.56
287.444	79.56
287.675	68.56
287.906	86.56
288.138	78.56
288.369	80.56
288.6	77.56
288.831	85.56
289.062	80.56
289.293	90.56
289.524	92.56
289.755	97.56
289.986	89.56
290.217	77.56
290.448	86.56
290.679	85.56
290.91	78.56
291.141	75.56
291.371	85.56
291.602	80.56
291.833	73.56
292.064	71.56
292.295	86.56
292.526	67.56
292.757	78.56
292.987	86.56
293.218	73.56
293.449	83.56
293.68	84.56
293.91	74.56
294.141	75.56
294.372	75.56
294.603	75.56
294.833	89.56
295.064	101.56
295.295	89.56
295.525	86.56
295.756	95.56
295.987	86.56
296.217	77.56
296.448	89.56
296.679	83.56
296.909	80.56
297.14	71.56
297.37	89.56
297.601	80.56
297.831	81.56
298.062	84.56
298.292	72.56
298.523	79.56
298.753	60.56
298.984	74.56
299.214	82.56
299.445	78.56
299.675	84.56
299.905	70.56
300.136	92.56
300.366	87.56
300.597	75.56
300.827	85.56
301.057	68.56
301.288	87.56
301.518	93.56
301.748	75.56
301.979	97.56
302.209	72.56
302.439	73.56
302.669	73.56
302.9	74.56
303.13	68.56
303.36	71.56
303.59	78.56
303.82	98.56
304.051	82.56
304.281	86.56
304.511	92.56
304.741	85.56
304.971	82.56
305.201	94.56
305.431	87.56
305.661	89.56
305.891	88.56
306.121	69.56
306.352	92.56
306.582	87.56
306.812	78.56
307.042	64.56
307.272	84.56
307.502	91.56
307.731	100.56
307.961	75.56
308.191	86.56
308.421	86.56
308.651	79.56
308.881	82.56
309.111	77.56
309.341	87.56
309.571	78.56
309.8	69.56
310.03	83.56
310.26	81.56
310.49	91.56
310.72	90.56
310.949	74.56
311.179	80.56
311.409	83.56
311.639	72.56
311.868	81.56
312.098	106.56
312.328	79.56
312.557	82.56
312.787	85.56
313.017	67.56
313.246	73.56
313.476	75.56
313.706	90.56
313.935	67.56
314.165	83.56
314.394	84.56
314.624	74.56
314.853	89.56
315.083	90.56
315.312	81.56
315.542	91.56
315.771	89.56
316.001	83.56
316.23	82.56
316.46	82.56
316.689	69.56
316.919	81.56
317.148	80.56
317.377	87.56
317.607	92.56
317.836	79.56
318.065	82.56
318.295	79.56
318.524	85.56
318.753	77.56
318.983	84.56
319.212	89.56
319.441	78.56
319.67	77.56
319.9	87.56
320.129	87.56
320.358	83.56
320.587	67.56
320.816	80.56
321.046	75.56
321.275	87.56
321.504	76.56
321.733	85.56
321.962	89.56
322.191	82.56
322.42	71.56
322.649	86.56
322.878	93.56
323.108	95.56
323.337	89.56
323.566	85.56
323.795	95.56
324.024	73.56
324.253	81.56
324.482	81.56
324.71	74.56
324.939	74.56
325.168	91.56
325.397	83.56
325.626	89.56
325.855	81.56
326.084	82.56
326.313	92.56
326.542	75.56
326.77	77.56
326.999	79.56
327.228	87.56
327.457	73.56
327.686	78.56
327.914	87.56
328.143	98.56
328.372	93.56
328.6	86.56
328.829	79.56
329.058	90.56
329.287	70.56
329.515	85.56
329.744	83.56
329.972	73.56
330.201	81.56
330.43	86.56
330.658	73.56
330.887	71.56
331.115	75.56
331.344	73.56
331.572	92.56
331.801	82.56
332.03	90.56
332.258	71.56
332.486	83.56
332.715	79.56
332.943	71.56
333.172	88.56
333.4	81.56
333.629	88.56
333.857	76.56
334.085	79.56
334.314	82.56
334.542	76.56
334.771	69.56
334.999	92.56
335.227	78.56
335.455	85.56
335.684	87.56
335.912	81.56
336.14	73.56
336.369	63.56
336.597	81.56
336.825	79.56
337.053	70.56
337.281	62.56
337.51	81.56
337.738	85.56
337.966	78.56
338.194	79.56
338.422	79.56
338.65	84.56
338.878	85.56
339.106	69.56
339.334	81.56
339.562	75.56
339.79	79.56
340.018	77.56
340.246	86.56
340.474	76.56
340.702	83.56
340.93	68.56
341.158	85.56
341.386	86.56
341.614	90.56
341.842	77.56
342.07	81.56
342.298	75.56
342.526	78.56
342.754	87.56
342.981	89.56
343.209	94.56
343.437	101.56
343.665	78.56
343.893	83.56
344.12	68.56
344.348	82.56
344.576	78.56
344.804	71.56
345.031	90.56
345.259	73.56
345.487	89.56
345.714	74.56
345.942	82.56
346.17	85.56
346.397	91.56
346.625	86.56
346.853	76.56
347.08	65.56
347.308	78.56
347.535	69.56
347.763	85.56
347.99	85.56
348.218	88.56
348.445	81.56
348.673	88.56
348.9	85.56
349.128	93.56
349.355	75.56
349.583	94.56
349.81	91.56
350.037	78.56
350.265	88.56
350.492	71.56
350.72	78.56
350.947	81.56
351.174	71.56
351.402	89.56
351.629	92.56
351.856	96.56
352.083	85.56
352.311	77.56
352.538	84.56
352.765	104.56
352.992	93.56
353.22	79.56
353.447	78.56
353.674	85.56
353.901	84.56
354.128	96.56
354.355	77.56
354.583	89.56
354.81	75.56
355.037	74.56
355.264	74.56
355.491	76.56
355.718	82.56
355.945	87.56
356.172	83.56
356.399	82.56
356.626	81.56
356.853	88.56
357.08	81.56
357.307	85.56
357.534	79.56
357.761	73.56
357.988	74.56
358.215	84.56
358.441	77.56
358.668	62.56
358.895	76.56
359.122	85.56
359.349	89.56
359.576	79.56
359.802	91.56
360.029	76.56
360.256	81.56
360.483	83.56
360.709	78.56
360.936	85.56
361.163	80.56
361.39	93.56
361.616	87.56
361.843	92.56
362.07	84.56
362.296	92.56
362.523	92.56
362.749	82.56
362.976	87.56
363.203	91.56
363.429	52.56
363.656	75.56
363.882	73.56
364.109	84.56
364.335	94.56
364.562	85.56
364.788	89.56
365.015	78.56
365.241	81.56
365.468	78.56
365.694	87.56
365.92	73.56
366.147	70.56
366.373	85.56
366.599	78.56
366.826	75.56
367.052	78.56
367.278	79.56
367.505	84.56
367.731	73.56
367.957	74.56
368.184	82.56
368.41	71.56
368.636	86.56
368.862	68.56
369.089	85.56
369.315	86.56
369.541	83.56
369.767	83.56
369.993	81.56
370.219	84.56
370.445	67.56
370.672	76.56
370.898	78.56
371.124	86.56
371.35	83.56
371.576	86.56
371.802	73.56
372.028	81.56
372.254	77.56
372.48	65.56
372.706	78.56
372.932	88.56
373.158	87.56
373.384	97.56
373.61	89.56
373.835	87.56
374.061	74.56
374.287	70.56
374.513	79.56
374.739	87.56
374.965	77.56
375.191	87.56
375.416	83.56
375.642	81.56
375.868	81.56
376.094	85.56
376.319	75.56
376.545	76.56
376.771	73.56
376.997	73.56
377.222	66.56
377.448	80.56
377.674	90.56
377.899	84.56
378.125	59.56
378.35	75.56
378.576	73.56
378.802	79.56
379.027	87.56
379.253	75.56
379.478	85.56
379.704	78.56
379.929	78.56
380.155	72.56
380.38	71.56
380.606	90.56
380.831	73.56
381.057	95.56
381.282	77.56
381.507	90.56
381.733	69.56
381.958	73.56
382.184	72.56
382.409	78.56
382.634	81.56
382.86	66.56
383.085	62.56
383.31	87.56
383.535	62.56
383.761	82.56
383.986	83.56
384.211	84.56
384.436	77.56
384.662	70.56
384.887	82.56
385.112	90.56
385.337	78.56
385.562	93.56
385.787	74.56
386.013	66.56
386.238	83.56
386.463	80.56
386.688	82.56
386.913	88.56
387.138	87.56
387.363	97.56
387.588	82.56
387.813	76.56
388.038	73.56
388.263	76.56
388.488	73.56
388.713	82.56
388.938	77.56
389.163	86.56
389.387	76.56
389.612	75.56
389.837	71.56
390.062	72.56
390.287	73.56
390.512	77.56
390.736	77.56
390.961	77.56
391.186	71.56
391.411	82.56
391.636	72.56
391.86	68.56
392.085	75.56
392.31	75.56
392.534	66.56
392.759	86.56
392.984	70.56
393.208	87.56
393.433	88.56
393.658	90.56
393.882	80.56
394.107	82.56
394.331	69.56
394.556	69.56
394.78	66.56
395.005	71.56
395.229	70.56
395.454	83.56
395.678	79.56
395.903	92.56
396.127	79.56
396.352	88.56
396.576	87.56
396.801	76.56
397.025	79.56
397.249	78.56
397.474	85.56
397.698	79.56
397.922	95.56
398.147	80.56
398.371	79.56
398.595	78.56
398.82	79.56
399.044	84.56
399.268	78.56
399.492	80.56
399.717	91.56
399.941	83.56
400.165	77.56
400.389	75.56
400.613	71.56
400.837	83.56
401.062	77.56
401.286	83.56
401.51	74.56
401.734	71.56
401.958	61.56
402.182	75.56
402.406	76.56
402.63	74.56
402.854	67.56
403.078	77.56
403.302	82.56
403.526	84.56
403.75	70.56
403.974	81.56
404.198	79.56
404.422	82.56
404.645	76.56
404.869	86.56
405.093	84.56
405.317	76.56
405.541	83.56
405.765	76.56
405.988	67.56
406.212	90.56
406.436	73.56
406.66	78.56
406.883	78.56
407.107	75.56
407.331	87.56
407.555	74.56
407.778	75.56
408.002	90.56
408.226	81.56
408.449	78.56
408.673	87.56
408.896	82.56
409.12	89.56
409.344	79.56
409.567	87.56
409.791	81.56
410.014	61.56
410.238	67.56
410.461	94.56
410.685	83.56
410.908	92.56
411.132	71.56
411.355	70.56
411.578	83.56
411.802	91.56
412.025	69.56
412.249	68.56
412.472	59.56
412.695	92.56
412.919	75.56
413.142	91.56
413.365	88.56
413.589	75.56
413.812	55.56
414.035	92.56
414.258	70.56
414.482	89.56
414.705	83.56
414.928	88.56
415.151	82.56
415.374	74.56
415.597	85.56
415.821	81.56
416.044	75.56
416.267	87.56
416.49	86.56
416.713	84.56
416.936	71.56
417.159	77.56
417.382	75.56
417.605	78.56
417.828	76.56
418.051	72.56
418.274	84.56
418.497	83.56
418.72	70.56
418.943	64.56
419.166	83.56
419.389	81.56
419.611	68.56
419.834	63.56
420.057	67.56
420.28	85.56
420.503	75.56
420.726	70.56
420.948	84.56
421.171	91.56
421.394	68.56
421.617	84.56
421.839	73.56
422.062	69.56
422.285	74.56
422.507	69.56
422.73	69.56
422.953	59.56
423.175	69.56
423.398	81.56
423.621	78.56
423.843	85.56
424.066	76.56
424.288	89.56
424.511	85.56
424.733	78.56
424.956	78.56
425.178	89.56
425.401	89.56
425.623	78.56
425.846	83.56
426.068	73.56
426.291	79.56
426.513	74.56
426.735	79.56
426.958	82.56
427.18	74.56
427.402	69.56
427.625	74.56
427.847	77.56
428.069	90.56
428.292	79.56
428.514	75.56
428.736	77.56
428.958	71.56
429.181	86.56
429.403	83.56
429.625	71.56
429.847	84.56
430.069	76.56
430.292	84.56
430.514	67.56
430.736	73.56
430.958	76.56
431.18	71.56
431.402	67.56
431.624	69.56
431.846	77.56
432.068	75.56
432.29	74.56
432.512	73.56
432.734	67.56
432.956	77.56
433.178	77.56
433.4	78.56
433.622	85.56
433.844	70.56
434.066	79.56
434.287	77.56
434.509	75.56
434.731	77.56
434.953	66.56
435.175	87.56
435.397	82.56
435.618	79.56
435.84	84.56
436.062	82.56
436.284	79.56
436.505	76.56
436.727	78.56
436.949	58.56
437.17	73.56
437.392	77.56
437.614	82.56
437.835	74.56
438.057	74.56
438.278	82.56
438.5	78.56
438.721	75.56
438.943	75.56
439.165	67.56
439.386	78.56
439.608	81.56
439.829	88.56
440.05	94.56
440.272	68.56
440.493	69.56
440.715	78.56
440.936	74.56
441.158	81.56
441.379	65.56
441.6	80.56
441.822	76.56
442.043	70.56
442.264	84.56
442.486	72.56
442.707	84.56
442.928	73.56
443.149	72.56
443.371	70.56
443.592	78.56
443.813	61.56
444.034	85.56
444.255	78.56
444.476	78.56
444.698	72.56
444.919	83.56
445.14	164.56
445.361	128.56
445.582	80.56
445.803	83.56
446.024	84.56
446.245	77.56
446.466	75.56
446.687	73.56
446.908	75.56
447.129	75.56
447.35	50.56
447.571	76.56
447.792	78.56
448.013	74.56
448.234	75.56
448.455	76.56
448.675	74.56
448.896	80.56
449.117	83.56
449.338	77.56
449.559	88.56
449.779	86.56
450	79.56
450.221	83.56
450.442	90.56
450.662	77.56
450.883	68.56
451.104	83.56
451.324	79.56
451.545	70.56
451.766	70.56
451.986	85.56
452.207	74.56
452.428	90.56
452.648	86.56
452.869	89.56
453.089	65.56
453.31	83.56
453.53	68.56
453.751	77.56
453.971	84.56
454.192	87.56
454.412	94.56
454.633	72.56
454.853	75.56
455.073	81.56
455.294	66.56
455.514	78.56
455.734	78.56
455.955	86.56
456.175	82.56
456.395	77.56
456.616	77.56
456.836	77.56
457.056	87.56
457.276	83.56
457.497	95.56
457.717	78.56
457.937	77.56
458.157	73.56
458.377	78.56
458.598	65.56
458.818	75.56
459.038	80.56
459.258	67.56
459.478	74.56
459.698	78.56
459.918	79.56
460.138	79.56
460.358	76.56
460.578	76.56
460.798	73.56
461.018	75.56
461.238	71.56
461.458	69.56
461.678	73.56
461.898	81.56
462.118	79.56
462.338	76.56
462.558	79.56
462.777	68.56
462.997	72.56
463.217	74.56
463.437	74.56
463.657	87.56
463.876	80.56
464.096	72.56
464.316	85.56
464.536	64.56
464.755	79.56
464.975	72.56
465.195	74.56
465.414	87.56
465.634	76.56
465.854	79.56
466.073	70.56
466.293	81.56
466.512	74.56
466.732	79.56
466.951	93.56
467.171	85.56
467.391	82.56
467.61	72.56
467.829	80.56
468.049	67.56
468.268	78.56
468.488	70.56
468.707	71.56
468.927	71.56
469.146	85.56
469.365	78.56
469.585	83.56
469.804	69.56
470.023	85.56
470.243	77.56
470.462	86.56
470.681	81.56
470.901	78.56
471.12	73.56
471.339	87.56
471.558	86.56
471.777	69.56
471.997	77.56
472.216	73.56
472.435	82.56
472.654	80.56
472.873	70.56
473.092	74.56
473.311	72.56
473.53	78.56
473.749	71.56
473.968	77.56
474.187	92.56
474.406	83.56
474.625	87.56
474.844	89.56
475.063	69.56
475.282	79.56
475.501	75.56
475.72	87.56
475.939	77.56
476.158	86.56
476.377	81.56
476.596	69.56
476.814	69.56
477.033	86.56
477.252	76.56
477.471	90.56
477.69	71.56
477.908	73.56
478.127	92.56
478.346	78.56
478.564	71.56
478.783	72.56
479.002	73.56
479.22	84.56
479.439	80.56
479.658	76.56
479.876	82.56
480.095	85.56
480.313	81.56
480.532	55.56
480.751	81.56
480.969	79.56
481.188	86.56
481.406	87.56
481.624	59.56
481.843	83.56
482.061	90.56
482.28	84.56
482.498	79.56
482.717	90.56
482.935	75.56
483.153	62.56
483.372	80.56
483.59	68.56
483.808	72.56
484.027	66.56
484.245	74.56
484.463	87.56
484.681	97.56
484.9	73.56
485.118	85.56
485.336	85.56
485.554	72.56
485.772	83.56
485.99	97.56
486.209	79.56
486.427	67.56
486.645	97.56
486.863	77.56
487.081	84.56
487.299	70.56
487.517	73.56
487.735	84.56
487.953	72.56
488.171	83.56
488.389	55.56
488.607	63.56
488.825	63.56
489.043	66.56
489.261	77.56
489.479	83.56
489.696	86.56
489.914	82.56
490.132	89.56
490.35	77.56
490.568	69.56
490.786	64.56
491.003	77.56
491.221	92.56
491.439	75.56
491.657	76.56
491.874	82.56
492.092	73.56
492.31	86.56
492.527	81.56
492.745	74.56
492.963	81.56
493.18	83.56
493.398	86.56
493.615	72.56
493.833	84.56
494.05	82.56
494.268	77.56
494.485	76.56
494.703	87.56
494.92	79.56
495.138	79.56
495.355	92.56
495.573	72.56
495.79	69.56
496.008	76.56
496.225	77.56
496.442	76.56
496.66	84.56
496.877	63.56
497.094	94.56
497.312	82.56
497.529	72.56
497.746	83.56
497.963	81.56
498.181	69.56
498.398	79.56
498.615	78.56
498.832	84.56
499.049	77.56
499.267	82.56
499.484	83.56
499.701	84.56
499.918	77.56
500.135	71.56
500.352	85.56
500.569	75.56
500.786	100.56
501.003	79.56
501.22	77.56
501.437	76.56
501.654	84.56
501.871	59.56
502.088	75.56
502.305	78.56
502.522	93.56
502.739	75.56
502.956	86.56
503.172	70.56
503.389	86.56
503.606	74.56
503.823	79.56
504.04	82.56
504.256	84.56
504.473	80.56
504.69	85.56
504.907	91.56
505.123	82.56
505.34	91.56
505.557	75.56
505.773	83.56
505.99	84.56
506.207	78.56
506.423	70.56
506.64	72.56
506.856	78.56
507.073	75.56
507.289	66.56
507.506	77.56
507.722	76.56
507.939	81.56
508.155	88.56
508.372	82.56
508.588	82.56
508.805	74.56
509.021	85.56
509.238	78.56
509.454	73.56
509.67	98.56
509.887	74.56
510.103	77.56
510.319	84.56
510.536	93.56
510.752	94.56
510.968	72.56
511.184	73.56
511.401	71.56
511.617	85.56
511.833	78.56
512.049	78.56
512.265	70.56
512.481	83.56
512.698	85.56
512.914	89.56
513.13	86.56
513.346	60.56
513.562	66.56
513.778	87.56
513.994	88.56
514.21	73.56
514.426	82.56
514.642	87.56
514.858	88.56
515.074	74.56
515.29	81.56
515.506	82.56
515.721	87.56
515.937	79.56
516.153	84.56
516.369	86.56
516.585	85.56
516.801	72.56
517.016	79.56
517.232	73.56
517.448	80.56
517.664	68.56
517.879	74.56
518.095	74.56
518.311	80.56
518.527	79.56
518.742	90.56
518.958	83.56
519.173	74.56
519.389	85.56
519.605	71.56
519.82	82.56
520.036	74.56
520.251	79.56
