Data from BG_HRD10591_034.txt Node
Date: Fri May 16 15:14:39 EDT 2025
User: Yrep
Spectrometer: HR+D1059
Trigger mode: 1
Integration Time (sec): 1.000000E-1
Scans to average: 1
Electric dark correction enabled: true
Nonlinearity correction enabled: false
Boxcar width: 0
XAxis mode: Wavelengths
Number of Pixels in Spectrum: 2048
>>>>>Begin Spectral Data<<<<<
223.165	-25.94
223.4	-25.94
223.635	-25.94
223.869	-24.94
224.104	-20.94
224.338	-8.94
224.573	-17.94
224.808	-12.94
225.042	-11.94
225.277	-7.94
225.511	1.06
225.746	15.06
225.98	2.06
226.215	13.06
226.449	13.06
226.683	28.06
226.918	22.06
227.152	37.06
227.387	37.06
227.621	51.06
227.856	49.06
228.09	43.06
228.324	59.06
228.559	51.06
228.793	57.06
229.027	60.06
229.262	57.06
229.496	65.06
229.73	66.06
229.964	70.06
230.199	88.06
230.433	78.06
230.667	67.06
230.901	81.06
231.136	57.06
231.37	81.06
231.604	84.06
231.838	88.06
232.072	79.06
232.306	75.06
232.541	78.06
232.775	72.06
233.009	71.06
233.243	76.06
233.477	70.06
233.711	81.06
233.945	85.06
234.179	75.06
234.413	85.06
234.647	90.06
234.881	75.06
235.115	56.06
235.349	67.06
235.583	81.06
235.817	77.06
236.051	78.06
236.285	87.06
236.519	78.06
236.753	78.06
236.987	67.06
237.221	77.06
237.455	66.06
237.689	80.06
237.922	87.06
238.156	64.06
238.39	77.06
238.624	65.06
238.858	82.06
239.091	66.06
239.325	86.06
239.559	84.06
239.793	74.06
240.027	79.06
240.26	74.06
240.494	89.06
240.728	63.06
240.961	69.06
241.195	71.06
241.429	72.06
241.662	84.06
241.896	70.06
242.13	88.06
242.363	83.06
242.597	74.06
242.83	73.06
243.064	69.06
243.298	84.06
243.531	81.06
243.765	86.06
243.998	82.06
244.232	81.06
244.465	90.06
244.699	71.06
244.932	104.06
245.166	59.06
245.399	81.06
245.633	77.06
245.866	65.06
246.099	78.06
246.333	88.06
246.566	74.06
246.8	82.06
247.033	87.06
247.266	84.06
247.5	91.06
247.733	77.06
247.966	94.06
248.2	79.06
248.433	78.06
248.666	74.06
248.899	83.06
249.133	86.06
249.366	91.06
249.599	61.06
249.832	78.06
250.066	80.06
250.299	70.06
250.532	73.06
250.765	73.06
250.998	76.06
251.231	77.06
251.465	89.06
251.698	77.06
251.931	77.06
252.164	79.06
252.397	85.06
252.63	69.06
252.863	78.06
253.096	72.06
253.329	81.06
253.562	93.06
253.795	72.06
254.028	65.06
254.261	68.06
254.494	86.06
254.727	90.06
254.96	70.06
255.193	67.06
255.426	83.06
255.659	85.06
255.892	93.06
256.124	60.06
256.357	75.06
256.59	69.06
256.823	86.06
257.056	81.06
257.289	69.06
257.521	78.06
257.754	77.06
257.987	84.06
258.22	63.06
258.452	66.06
258.685	85.06
258.918	85.06
259.151	82.06
259.383	70.06
259.616	76.06
259.849	89.06
260.081	71.06
260.314	74.06
260.547	76.06
260.779	79.06
261.012	85.06
261.244	88.06
261.477	86.06
261.71	97.06
261.942	79.06
262.175	89.06
262.407	68.06
262.64	64.06
262.872	86.06
263.105	81.06
263.337	77.06
263.57	84.06
263.802	80.06
264.035	85.06
264.267	78.06
264.499	72.06
264.732	73.06
264.964	70.06
265.197	83.06
265.429	91.06
265.661	77.06
265.894	88.06
266.126	81.06
266.358	69.06
266.591	81.06
266.823	73.06
267.055	92.06
267.287	85.06
267.52	82.06
267.752	73.06
267.984	85.06
268.216	81.06
268.448	90.06
268.681	89.06
268.913	103.06
269.145	101.06
269.377	86.06
269.609	82.06
269.841	82.06
270.073	88.06
270.306	83.06
270.538	81.06
270.77	81.06
271.002	91.06
271.234	83.06
271.466	91.06
271.698	84.06
271.93	74.06
272.162	97.06
272.394	70.06
272.626	84.06
272.858	89.06
273.09	91.06
273.322	91.06
273.553	84.06
273.785	93.06
274.017	87.06
274.249	94.06
274.481	86.06
274.713	78.06
274.945	96.06
275.176	91.06
275.408	81.06
275.64	74.06
275.872	77.06
276.104	90.06
276.335	74.06
276.567	84.06
276.799	72.06
277.031	77.06
277.262	90.06
277.494	91.06
277.726	82.06
277.957	74.06
278.189	72.06
278.421	77.06
278.652	78.06
278.884	86.06
279.115	75.06
279.347	86.06
279.579	97.06
279.81	86.06
280.042	87.06
280.273	96.06
280.505	85.06
280.736	82.06
280.968	80.06
281.199	83.06
281.431	77.06
281.662	76.06
281.894	91.06
282.125	93.06
282.356	83.06
282.588	83.06
282.819	81.06
283.051	87.06
283.282	75.06
283.513	87.06
283.745	76.06
283.976	91.06
284.207	101.06
284.439	86.06
284.67	91.06
284.901	87.06
285.132	90.06
285.364	107.06
285.595	79.06
285.826	92.06
286.057	89.06
286.288	85.06
286.52	79.06
286.751	89.06
286.982	99.06
287.213	82.06
287.444	97.06
287.675	94.06
287.906	81.06
288.138	93.06
288.369	77.06
288.6	79.06
288.831	84.06
289.062	85.06
289.293	78.06
289.524	92.06
289.755	100.06
289.986	81.06
290.217	79.06
290.448	89.06
290.679	88.06
290.91	89.06
291.141	108.06
291.371	89.06
291.602	84.06
291.833	87.06
292.064	91.06
292.295	81.06
292.526	93.06
292.757	89.06
292.987	83.06
293.218	85.06
293.449	74.06
293.68	92.06
293.91	84.06
294.141	98.06
294.372	103.06
294.603	91.06
294.833	83.06
295.064	76.06
295.295	86.06
295.525	82.06
295.756	94.06
295.987	94.06
296.217	87.06
296.448	87.06
296.679	86.06
296.909	100.06
297.14	88.06
297.37	69.06
297.601	86.06
297.831	63.06
298.062	84.06
298.292	79.06
298.523	86.06
298.753	92.06
298.984	93.06
299.214	88.06
299.445	90.06
299.675	82.06
299.905	99.06
300.136	73.06
300.366	77.06
300.597	85.06
300.827	76.06
301.057	86.06
301.288	63.06
301.518	97.06
301.748	90.06
301.979	110.06
302.209	93.06
302.439	87.06
302.669	67.06
302.9	90.06
303.13	81.06
303.36	78.06
303.59	93.06
303.82	103.06
304.051	88.06
304.281	83.06
304.511	93.06
304.741	94.06
304.971	90.06
305.201	81.06
305.431	76.06
305.661	86.06
305.891	79.06
306.121	99.06
306.352	85.06
306.582	99.06
306.812	71.06
307.042	81.06
307.272	72.06
307.502	89.06
307.731	99.06
307.961	85.06
308.191	83.06
308.421	78.06
308.651	86.06
308.881	79.06
309.111	90.06
309.341	70.06
309.571	89.06
309.8	92.06
310.03	84.06
310.26	90.06
310.49	85.06
310.72	89.06
310.949	91.06
311.179	100.06
311.409	77.06
311.639	92.06
311.868	71.06
312.098	85.06
312.328	93.06
312.557	85.06
312.787	78.06
313.017	110.06
313.246	93.06
313.476	90.06
313.706	86.06
313.935	88.06
314.165	95.06
314.394	103.06
314.624	91.06
314.853	79.06
315.083	71.06
315.312	88.06
315.542	72.06
315.771	86.06
316.001	79.06
316.23	90.06
316.46	99.06
316.689	97.06
316.919	93.06
317.148	86.06
317.377	86.06
317.607	86.06
317.836	78.06
318.065	95.06
318.295	98.06
318.524	85.06
318.753	89.06
318.983	91.06
319.212	81.06
319.441	77.06
319.67	106.06
319.9	90.06
320.129	74.06
320.358	68.06
320.587	85.06
320.816	98.06
321.046	84.06
321.275	84.06
321.504	75.06
321.733	81.06
321.962	83.06
322.191	90.06
322.42	81.06
322.649	101.06
322.878	89.06
323.108	84.06
323.337	77.06
323.566	65.06
323.795	91.06
324.024	85.06
324.253	85.06
324.482	79.06
324.71	86.06
324.939	90.06
325.168	93.06
325.397	84.06
325.626	93.06
325.855	89.06
326.084	93.06
326.313	87.06
326.542	79.06
326.77	94.06
326.999	71.06
327.228	87.06
327.457	88.06
327.686	91.06
327.914	87.06
328.143	94.06
328.372	82.06
328.6	93.06
328.829	89.06
329.058	73.06
329.287	84.06
329.515	97.06
329.744	96.06
329.972	84.06
330.201	84.06
330.43	91.06
330.658	111.06
330.887	92.06
331.115	82.06
331.344	90.06
331.572	89.06
331.801	89.06
332.03	97.06
332.258	77.06
332.486	86.06
332.715	89.06
332.943	94.06
333.172	94.06
333.4	82.06
333.629	94.06
333.857	86.06
334.085	73.06
334.314	85.06
334.542	99.06
334.771	101.06
334.999	102.06
335.227	107.06
335.455	89.06
335.684	85.06
335.912	83.06
336.14	89.06
336.369	86.06
336.597	77.06
336.825	85.06
337.053	81.06
337.281	74.06
337.51	78.06
337.738	86.06
337.966	93.06
338.194	103.06
338.422	82.06
338.65	82.06
338.878	82.06
339.106	85.06
339.334	98.06
339.562	83.06
339.79	91.06
340.018	82.06
340.246	86.06
340.474	87.06
340.702	83.06
340.93	80.06
341.158	89.06
341.386	85.06
341.614	82.06
341.842	82.06
342.07	74.06
342.298	94.06
342.526	93.06
342.754	88.06
342.981	82.06
343.209	85.06
343.437	97.06
343.665	83.06
343.893	73.06
344.12	88.06
344.348	80.06
344.576	87.06
344.804	90.06
345.031	90.06
345.259	78.06
345.487	100.06
345.714	86.06
345.942	83.06
346.17	93.06
346.397	91.06
346.625	89.06
346.853	91.06
347.08	82.06
347.308	77.06
347.535	88.06
347.763	101.06
347.99	89.06
348.218	94.06
348.445	88.06
348.673	98.06
348.9	89.06
349.128	83.06
349.355	84.06
349.583	79.06
349.81	90.06
350.037	87.06
350.265	92.06
350.492	89.06
350.72	95.06
350.947	93.06
351.174	69.06
351.402	82.06
351.629	91.06
351.856	88.06
352.083	84.06
352.311	83.06
352.538	89.06
352.765	100.06
352.992	89.06
353.22	78.06
353.447	82.06
353.674	88.06
353.901	83.06
354.128	90.06
354.355	91.06
354.583	81.06
354.81	85.06
355.037	88.06
355.264	77.06
355.491	69.06
355.718	75.06
355.945	84.06
356.172	73.06
356.399	89.06
356.626	75.06
356.853	83.06
357.08	86.06
357.307	85.06
357.534	84.06
357.761	93.06
357.988	89.06
358.215	87.06
358.441	79.06
358.668	87.06
358.895	94.06
359.122	90.06
359.349	92.06
359.576	87.06
359.802	97.06
360.029	98.06
360.256	85.06
360.483	87.06
360.709	76.06
360.936	77.06
361.163	87.06
361.39	91.06
361.616	82.06
361.843	96.06
362.07	91.06
362.296	88.06
362.523	99.06
362.749	89.06
362.976	91.06
363.203	92.06
363.429	82.06
363.656	83.06
363.882	84.06
364.109	91.06
364.335	89.06
364.562	82.06
364.788	79.06
365.015	99.06
365.241	98.06
365.468	76.06
365.694	84.06
365.92	96.06
366.147	77.06
366.373	78.06
366.599	78.06
366.826	99.06
367.052	89.06
367.278	70.06
367.505	94.06
367.731	91.06
367.957	87.06
368.184	95.06
368.41	74.06
368.636	83.06
368.862	68.06
369.089	98.06
369.315	83.06
369.541	85.06
369.767	80.06
369.993	92.06
370.219	93.06
370.445	74.06
370.672	84.06
370.898	83.06
371.124	88.06
371.35	94.06
371.576	97.06
371.802	93.06
372.028	79.06
372.254	103.06
372.48	99.06
372.706	87.06
372.932	78.06
373.158	88.06
373.384	89.06
373.61	79.06
373.835	86.06
374.061	76.06
374.287	91.06
374.513	73.06
374.739	90.06
374.965	86.06
375.191	91.06
375.416	75.06
375.642	86.06
375.868	73.06
376.094	94.06
376.319	87.06
376.545	85.06
376.771	86.06
376.997	88.06
377.222	92.06
377.448	90.06
377.674	82.06
377.899	93.06
378.125	83.06
378.35	79.06
378.576	99.06
378.802	76.06
379.027	92.06
379.253	82.06
379.478	95.06
379.704	81.06
379.929	75.06
380.155	74.06
380.38	85.06
380.606	78.06
380.831	87.06
381.057	88.06
381.282	77.06
381.507	92.06
381.733	85.06
381.958	89.06
382.184	82.06
382.409	80.06
382.634	89.06
382.86	97.06
383.085	81.06
383.31	80.06
383.535	89.06
383.761	90.06
383.986	85.06
384.211	95.06
384.436	68.06
384.662	89.06
384.887	91.06
385.112	82.06
385.337	87.06
385.562	96.06
385.787	92.06
386.013	93.06
386.238	86.06
386.463	88.06
386.688	100.06
386.913	97.06
387.138	84.06
387.363	96.06
387.588	88.06
387.813	91.06
388.038	85.06
388.263	91.06
388.488	100.06
388.713	78.06
388.938	87.06
389.163	85.06
389.387	87.06
389.612	83.06
389.837	97.06
390.062	97.06
390.287	97.06
390.512	83.06
390.736	89.06
390.961	90.06
391.186	93.06
391.411	75.06
391.636	83.06
391.86	100.06
392.085	90.06
392.31	88.06
392.534	88.06
392.759	102.06
392.984	87.06
393.208	103.06
393.433	80.06
393.658	97.06
393.882	86.06
394.107	87.06
394.331	88.06
394.556	89.06
394.78	94.06
395.005	85.06
395.229	85.06
395.454	93.06
395.678	82.06
395.903	74.06
396.127	82.06
396.352	93.06
396.576	81.06
396.801	79.06
397.025	88.06
397.249	97.06
397.474	83.06
397.698	77.06
397.922	83.06
398.147	82.06
398.371	88.06
398.595	97.06
398.82	93.06
399.044	86.06
399.268	89.06
399.492	91.06
399.717	79.06
399.941	86.06
400.165	82.06
400.389	108.06
400.613	81.06
400.837	79.06
401.062	102.06
401.286	89.06
401.51	95.06
401.734	97.06
401.958	93.06
402.182	85.06
402.406	93.06
402.63	81.06
402.854	89.06
403.078	94.06
403.302	98.06
403.526	83.06
403.75	107.06
403.974	78.06
404.198	90.06
404.422	101.06
404.645	90.06
404.869	70.06
405.093	90.06
405.317	97.06
405.541	95.06
405.765	87.06
405.988	82.06
406.212	83.06
406.436	76.06
406.66	88.06
406.883	90.06
407.107	101.06
407.331	92.06
407.555	99.06
407.778	86.06
408.002	87.06
408.226	80.06
408.449	91.06
408.673	87.06
408.896	86.06
409.12	84.06
409.344	98.06
409.567	89.06
409.791	83.06
410.014	87.06
410.238	100.06
410.461	109.06
410.685	83.06
410.908	82.06
411.132	93.06
411.355	81.06
411.578	87.06
411.802	92.06
412.025	107.06
412.249	69.06
412.472	92.06
412.695	96.06
412.919	84.06
413.142	93.06
413.365	81.06
413.589	95.06
413.812	97.06
414.035	83.06
414.258	81.06
414.482	82.06
414.705	100.06
414.928	90.06
415.151	91.06
415.374	90.06
415.597	84.06
415.821	86.06
416.044	77.06
416.267	89.06
416.49	78.06
416.713	89.06
416.936	92.06
417.159	87.06
417.382	92.06
417.605	93.06
417.828	91.06
418.051	87.06
418.274	107.06
418.497	79.06
418.72	82.06
418.943	89.06
419.166	91.06
419.389	77.06
419.611	89.06
419.834	72.06
420.057	90.06
420.28	78.06
420.503	92.06
420.726	92.06
420.948	89.06
421.171	83.06
421.394	77.06
421.617	78.06
421.839	94.06
422.062	95.06
422.285	77.06
422.507	98.06
422.73	88.06
422.953	85.06
423.175	106.06
423.398	97.06
423.621	84.06
423.843	110.06
424.066	80.06
424.288	86.06
424.511	83.06
424.733	82.06
424.956	82.06
425.178	89.06
425.401	86.06
425.623	86.06
425.846	95.06
426.068	76.06
426.291	82.06
426.513	83.06
426.735	78.06
426.958	93.06
427.18	79.06
427.402	85.06
427.625	81.06
427.847	82.06
428.069	94.06
428.292	78.06
428.514	86.06
428.736	90.06
428.958	77.06
429.181	85.06
429.403	103.06
429.625	73.06
429.847	85.06
430.069	66.06
430.292	82.06
430.514	86.06
430.736	74.06
430.958	91.06
431.18	76.06
431.402	97.06
431.624	98.06
431.846	101.06
432.068	84.06
432.29	86.06
432.512	89.06
432.734	97.06
432.956	93.06
433.178	88.06
433.4	90.06
433.622	88.06
433.844	84.06
434.066	93.06
434.287	87.06
434.509	82.06
434.731	85.06
434.953	100.06
435.175	82.06
435.397	82.06
435.618	88.06
435.84	84.06
436.062	94.06
436.284	98.06
436.505	81.06
436.727	70.06
436.949	99.06
437.17	99.06
437.392	84.06
437.614	81.06
437.835	79.06
438.057	102.06
438.278	75.06
438.5	95.06
438.721	98.06
438.943	85.06
439.165	88.06
439.386	87.06
439.608	90.06
439.829	82.06
440.05	85.06
440.272	94.06
440.493	77.06
440.715	95.06
440.936	94.06
441.158	95.06
441.379	93.06
441.6	90.06
441.822	92.06
442.043	85.06
442.264	81.06
442.486	90.06
442.707	85.06
442.928	85.06
443.149	101.06
443.371	85.06
443.592	91.06
443.813	75.06
444.034	94.06
444.255	79.06
444.476	97.06
444.698	84.06
444.919	93.06
445.14	181.06
445.361	116.06
445.582	71.06
445.803	78.06
446.024	88.06
446.245	97.06
446.466	91.06
446.687	87.06
446.908	75.06
447.129	72.06
447.35	93.06
447.571	87.06
447.792	90.06
448.013	77.06
448.234	94.06
448.455	79.06
448.675	86.06
448.896	88.06
449.117	73.06
449.338	83.06
449.559	103.06
449.779	85.06
450	90.06
450.221	77.06
450.442	94.06
450.662	85.06
450.883	76.06
451.104	80.06
451.324	69.06
451.545	87.06
451.766	69.06
451.986	88.06
452.207	95.06
452.428	91.06
452.648	93.06
452.869	92.06
453.089	101.06
453.31	82.06
453.53	97.06
453.751	84.06
453.971	83.06
454.192	74.06
454.412	88.06
454.633	79.06
454.853	91.06
455.073	93.06
455.294	83.06
455.514	81.06
455.734	76.06
455.955	90.06
456.175	77.06
456.395	85.06
456.616	100.06
456.836	85.06
457.056	85.06
457.276	82.06
457.497	88.06
457.717	66.06
457.937	80.06
458.157	88.06
458.377	87.06
458.598	100.06
458.818	91.06
459.038	87.06
459.258	77.06
459.478	92.06
459.698	92.06
459.918	87.06
460.138	83.06
460.358	80.06
460.578	74.06
460.798	77.06
461.018	81.06
461.238	102.06
461.458	82.06
461.678	87.06
461.898	85.06
462.118	98.06
462.338	97.06
462.558	110.06
462.777	93.06
462.997	87.06
463.217	81.06
463.437	77.06
463.657	81.06
463.876	87.06
464.096	95.06
464.316	100.06
464.536	97.06
464.755	99.06
464.975	86.06
465.195	73.06
465.414	109.06
465.634	90.06
465.854	86.06
466.073	90.06
466.293	101.06
466.512	86.06
466.732	93.06
466.951	97.06
467.171	88.06
467.391	81.06
467.61	90.06
467.829	79.06
468.049	99.06
468.268	77.06
468.488	79.06
468.707	80.06
468.927	82.06
469.146	102.06
469.365	89.06
469.585	87.06
469.804	92.06
470.023	88.06
470.243	88.06
470.462	88.06
470.681	90.06
470.901	83.06
471.12	81.06
471.339	84.06
471.558	94.06
471.777	97.06
471.997	85.06
472.216	87.06
472.435	91.06
472.654	67.06
472.873	84.06
473.092	85.06
473.311	82.06
473.53	82.06
473.749	88.06
473.968	94.06
474.187	90.06
474.406	92.06
474.625	75.06
474.844	71.06
475.063	94.06
475.282	85.06
475.501	90.06
475.72	91.06
475.939	78.06
476.158	92.06
476.377	92.06
476.596	93.06
476.814	96.06
477.033	92.06
477.252	88.06
477.471	79.06
477.69	95.06
477.908	103.06
478.127	106.06
478.346	92.06
478.564	95.06
478.783	91.06
479.002	73.06
479.22	89.06
479.439	82.06
479.658	86.06
479.876	82.06
480.095	87.06
480.313	89.06
480.532	95.06
480.751	94.06
480.969	82.06
481.188	84.06
481.406	90.06
481.624	106.06
481.843	87.06
482.061	89.06
482.28	87.06
482.498	89.06
482.717	85.06
482.935	87.06
483.153	77.06
483.372	71.06
483.59	78.06
483.808	102.06
484.027	90.06
484.245	97.06
484.463	76.06
484.681	85.06
484.9	89.06
485.118	100.06
485.336	94.06
485.554	99.06
485.772	96.06
485.99	87.06
486.209	94.06
486.427	91.06
486.645	93.06
486.863	84.06
487.081	101.06
487.299	85.06
487.517	84.06
487.735	99.06
487.953	99.06
488.171	83.06
488.389	93.06
488.607	93.06
488.825	88.06
489.043	84.06
489.261	87.06
489.479	84.06
489.696	101.06
489.914	86.06
490.132	85.06
490.35	88.06
490.568	81.06
490.786	69.06
491.003	83.06
491.221	99.06
491.439	87.06
491.657	81.06
491.874	94.06
492.092	99.06
492.31	100.06
492.527	86.06
492.745	99.06
492.963	92.06
493.18	95.06
493.398	92.06
493.615	83.06
493.833	93.06
494.05	88.06
494.268	86.06
494.485	88.06
494.703	93.06
494.92	81.06
495.138	95.06
495.355	97.06
495.573	97.06
495.79	95.06
496.008	89.06
496.225	91.06
496.442	84.06
496.66	90.06
496.877	87.06
497.094	89.06
497.312	89.06
497.529	88.06
497.746	90.06
497.963	80.06
498.181	79.06
498.398	93.06
498.615	90.06
498.832	108.06
499.049	93.06
499.267	108.06
499.484	97.06
499.701	113.06
499.918	97.06
500.135	103.06
500.352	124.06
500.569	117.06
500.786	117.06
501.003	114.06
501.22	98.06
501.437	90.06
501.654	98.06
501.871	101.06
502.088	77.06
502.305	93.06
502.522	91.06
502.739	97.06
502.956	97.06
503.172	86.06
503.389	77.06
503.606	88.06
503.823	80.06
504.04	85.06
504.256	109.06
504.473	82.06
504.69	84.06
504.907	91.06
505.123	78.06
505.34	94.06
505.557	93.06
505.773	89.06
505.99	92.06
506.207	85.06
506.423	98.06
506.64	85.06
506.856	78.06
507.073	72.06
507.289	93.06
507.506	92.06
507.722	84.06
507.939	85.06
508.155	77.06
508.372	93.06
508.588	99.06
508.805	104.06
509.021	102.06
509.238	89.06
509.454	97.06
509.67	79.06
509.887	105.06
510.103	86.06
510.319	89.06
510.536	109.06
510.752	83.06
510.968	99.06
511.184	92.06
511.401	101.06
511.617	81.06
511.833	90.06
512.049	90.06
512.265	100.06
512.481	85.06
512.698	83.06
512.914	88.06
513.13	85.06
513.346	96.06
513.562	91.06
513.778	94.06
513.994	93.06
514.21	88.06
514.426	87.06
514.642	89.06
514.858	79.06
515.074	92.06
515.29	88.06
515.506	84.06
515.721	89.06
515.937	92.06
516.153	84.06
516.369	82.06
516.585	98.06
516.801	82.06
517.016	99.06
517.232	100.06
517.448	95.06
517.664	91.06
517.879	94.06
518.095	104.06
518.311	86.06
518.527	93.06
518.742	91.06
518.958	92.06
519.173	108.06
