Data from BG_HRD10591_019.txt Node
Date: Fri May 16 15:14:32 EDT 2025
User: Yrep
Spectrometer: HR+D1059
Trigger mode: 1
Integration Time (sec): 1.000000E-1
Scans to average: 1
Electric dark correction enabled: true
Nonlinearity correction enabled: false
Boxcar width: 0
XAxis mode: Wavelengths
Number of Pixels in Spectrum: 2048
>>>>>Begin Spectral Data<<<<<
223.165	-23.62
223.4	-23.62
223.635	-23.62
223.869	-11.62
224.104	-11.62
224.338	-13.62
224.573	-27.62
224.808	-15.62
225.042	-3.62
225.277	0.38
225.511	2.38
225.746	-13.62
225.98	-0.62
226.215	6.38
226.449	13.38
226.683	23.38
226.918	37.38
227.152	38.38
227.387	25.38
227.621	42.38
227.856	36.38
228.09	39.38
228.324	54.38
228.559	65.38
228.793	53.38
229.027	59.38
229.262	64.38
229.496	57.38
229.73	73.38
229.964	62.38
230.199	79.38
230.433	71.38
230.667	63.38
230.901	93.38
231.136	82.38
231.37	80.38
231.604	82.38
231.838	88.38
232.072	78.38
232.306	75.38
232.541	84.38
232.775	89.38
233.009	85.38
233.243	82.38
233.477	83.38
233.711	85.38
233.945	67.38
234.179	68.38
234.413	78.38
234.647	76.38
234.881	72.38
235.115	74.38
235.349	78.38
235.583	72.38
235.817	75.38
236.051	72.38
236.285	73.38
236.519	85.38
236.753	88.38
236.987	82.38
237.221	67.38
237.455	65.38
237.689	63.38
237.922	83.38
238.156	96.38
238.39	68.38
238.624	67.38
238.858	72.38
239.091	77.38
239.325	59.38
239.559	76.38
239.793	71.38
240.027	76.38
240.26	82.38
240.494	70.38
240.728	78.38
240.961	92.38
241.195	76.38
241.429	56.38
241.662	74.38
241.896	70.38
242.13	72.38
242.363	74.38
242.597	69.38
242.83	72.38
243.064	68.38
243.298	85.38
243.531	75.38
243.765	85.38
243.998	74.38
244.232	65.38
244.465	69.38
244.699	70.38
244.932	62.38
245.166	79.38
245.399	69.38
245.633	88.38
245.866	81.38
246.099	74.38
246.333	86.38
246.566	78.38
246.8	78.38
247.033	83.38
247.266	76.38
247.5	76.38
247.733	81.38
247.966	92.38
248.2	60.38
248.433	76.38
248.666	71.38
248.899	74.38
249.133	74.38
249.366	64.38
249.599	79.38
249.832	82.38
250.066	88.38
250.299	83.38
250.532	76.38
250.765	82.38
250.998	79.38
251.231	78.38
251.465	81.38
251.698	85.38
251.931	76.38
252.164	73.38
252.397	80.38
252.63	64.38
252.863	70.38
253.096	79.38
253.329	81.38
253.562	89.38
253.795	64.38
254.028	85.38
254.261	76.38
254.494	74.38
254.727	83.38
254.96	73.38
255.193	80.38
255.426	91.38
255.659	76.38
255.892	76.38
256.124	77.38
256.357	84.38
256.59	84.38
256.823	75.38
257.056	71.38
257.289	88.38
257.521	84.38
257.754	94.38
257.987	82.38
258.22	74.38
258.452	71.38
258.685	82.38
258.918	87.38
259.151	84.38
259.383	93.38
259.616	84.38
259.849	89.38
260.081	74.38
260.314	87.38
260.547	92.38
260.779	84.38
261.012	75.38
261.244	88.38
261.477	92.38
261.71	75.38
261.942	99.38
262.175	83.38
262.407	72.38
262.64	91.38
262.872	77.38
263.105	92.38
263.337	93.38
263.57	72.38
263.802	87.38
264.035	89.38
264.267	89.38
264.499	81.38
264.732	70.38
264.964	79.38
265.197	75.38
265.429	75.38
265.661	75.38
265.894	74.38
266.126	75.38
266.358	91.38
266.591	93.38
266.823	85.38
267.055	74.38
267.287	90.38
267.52	92.38
267.752	73.38
267.984	78.38
268.216	79.38
268.448	95.38
268.681	95.38
268.913	79.38
269.145	83.38
269.377	88.38
269.609	65.38
269.841	78.38
270.073	76.38
270.306	83.38
270.538	90.38
270.77	73.38
271.002	77.38
271.234	92.38
271.466	79.38
271.698	92.38
271.93	96.38
272.162	75.38
272.394	94.38
272.626	64.38
272.858	85.38
273.09	80.38
273.322	88.38
273.553	87.38
273.785	80.38
274.017	84.38
274.249	80.38
274.481	90.38
274.713	87.38
274.945	76.38
275.176	83.38
275.408	81.38
275.64	84.38
275.872	71.38
276.104	84.38
276.335	84.38
276.567	83.38
276.799	83.38
277.031	76.38
277.262	84.38
277.494	83.38
277.726	72.38
277.957	82.38
278.189	83.38
278.421	86.38
278.652	82.38
278.884	79.38
279.115	79.38
279.347	79.38
279.579	79.38
279.81	78.38
280.042	84.38
280.273	81.38
280.505	85.38
280.736	79.38
280.968	93.38
281.199	92.38
281.431	82.38
281.662	87.38
281.894	91.38
282.125	77.38
282.356	80.38
282.588	82.38
282.819	90.38
283.051	93.38
283.282	94.38
283.513	61.38
283.745	91.38
283.976	72.38
284.207	87.38
284.439	82.38
284.67	70.38
284.901	75.38
285.132	90.38
285.364	96.38
285.595	89.38
285.826	100.38
286.057	82.38
286.288	83.38
286.52	91.38
286.751	78.38
286.982	73.38
287.213	90.38
287.444	82.38
287.675	82.38
287.906	81.38
288.138	93.38
288.369	95.38
288.6	87.38
288.831	88.38
289.062	91.38
289.293	85.38
289.524	82.38
289.755	89.38
289.986	81.38
290.217	91.38
290.448	89.38
290.679	82.38
290.91	86.38
291.141	75.38
291.371	86.38
291.602	87.38
291.833	86.38
292.064	96.38
292.295	72.38
292.526	109.38
292.757	88.38
292.987	91.38
293.218	90.38
293.449	90.38
293.68	90.38
293.91	99.38
294.141	88.38
294.372	84.38
294.603	83.38
294.833	93.38
295.064	74.38
295.295	94.38
295.525	94.38
295.756	81.38
295.987	71.38
296.217	84.38
296.448	91.38
296.679	106.38
296.909	92.38
297.14	86.38
297.37	87.38
297.601	74.38
297.831	88.38
298.062	94.38
298.292	90.38
298.523	83.38
298.753	98.38
298.984	82.38
299.214	90.38
299.445	78.38
299.675	85.38
299.905	85.38
300.136	84.38
300.366	89.38
300.597	93.38
300.827	60.38
301.057	87.38
301.288	102.38
301.518	100.38
301.748	83.38
301.979	105.38
302.209	84.38
302.439	94.38
302.669	74.38
302.9	95.38
303.13	85.38
303.36	88.38
303.59	75.38
303.82	87.38
304.051	93.38
304.281	87.38
304.511	87.38
304.741	94.38
304.971	82.38
305.201	84.38
305.431	92.38
305.661	93.38
305.891	86.38
306.121	90.38
306.352	79.38
306.582	74.38
306.812	98.38
307.042	90.38
307.272	93.38
307.502	84.38
307.731	101.38
307.961	88.38
308.191	86.38
308.421	85.38
308.651	62.38
308.881	74.38
309.111	84.38
309.341	71.38
309.571	77.38
309.8	78.38
310.03	75.38
310.26	82.38
310.49	82.38
310.72	70.38
310.949	95.38
311.179	74.38
311.409	82.38
311.639	76.38
311.868	95.38
312.098	75.38
312.328	94.38
312.557	86.38
312.787	79.38
313.017	92.38
313.246	83.38
313.476	91.38
313.706	82.38
313.935	93.38
314.165	73.38
314.394	76.38
314.624	82.38
314.853	88.38
315.083	87.38
315.312	86.38
315.542	89.38
315.771	79.38
316.001	95.38
316.23	90.38
316.46	88.38
316.689	85.38
316.919	98.38
317.148	82.38
317.377	101.38
317.607	98.38
317.836	81.38
318.065	96.38
318.295	92.38
318.524	94.38
318.753	76.38
318.983	84.38
319.212	87.38
319.441	79.38
319.67	77.38
319.9	87.38
320.129	91.38
320.358	84.38
320.587	91.38
320.816	83.38
321.046	80.38
321.275	87.38
321.504	74.38
321.733	93.38
321.962	82.38
322.191	75.38
322.42	77.38
322.649	98.38
322.878	93.38
323.108	99.38
323.337	80.38
323.566	89.38
323.795	79.38
324.024	81.38
324.253	80.38
324.482	76.38
324.71	94.38
324.939	91.38
325.168	84.38
325.397	94.38
325.626	99.38
325.855	93.38
326.084	89.38
326.313	78.38
326.542	99.38
326.77	88.38
326.999	94.38
327.228	74.38
327.457	75.38
327.686	96.38
327.914	93.38
328.143	86.38
328.372	76.38
328.6	76.38
328.829	96.38
329.058	83.38
329.287	79.38
329.515	70.38
329.744	93.38
329.972	88.38
330.201	86.38
330.43	79.38
330.658	86.38
330.887	81.38
331.115	83.38
331.344	97.38
331.572	80.38
331.801	75.38
332.03	84.38
332.258	83.38
332.486	83.38
332.715	92.38
332.943	99.38
333.172	82.38
333.4	96.38
333.629	86.38
333.857	83.38
334.085	99.38
334.314	93.38
334.542	87.38
334.771	78.38
334.999	91.38
335.227	82.38
335.455	87.38
335.684	102.38
335.912	89.38
336.14	98.38
336.369	84.38
336.597	89.38
336.825	77.38
337.053	91.38
337.281	89.38
337.51	78.38
337.738	82.38
337.966	82.38
338.194	89.38
338.422	79.38
338.65	86.38
338.878	92.38
339.106	91.38
339.334	91.38
339.562	94.38
339.79	82.38
340.018	90.38
340.246	78.38
340.474	82.38
340.702	102.38
340.93	88.38
341.158	100.38
341.386	93.38
341.614	83.38
341.842	93.38
342.07	85.38
342.298	83.38
342.526	77.38
342.754	68.38
342.981	86.38
343.209	84.38
343.437	100.38
343.665	92.38
343.893	79.38
344.12	77.38
344.348	71.38
344.576	83.38
344.804	88.38
345.031	86.38
345.259	82.38
345.487	93.38
345.714	91.38
345.942	87.38
346.17	73.38
346.397	82.38
346.625	81.38
346.853	89.38
347.08	94.38
347.308	86.38
347.535	80.38
347.763	81.38
347.99	88.38
348.218	83.38
348.445	78.38
348.673	72.38
348.9	103.38
349.128	87.38
349.355	92.38
349.583	84.38
349.81	75.38
350.037	72.38
350.265	85.38
350.492	98.38
350.72	87.38
350.947	87.38
351.174	94.38
351.402	86.38
351.629	84.38
351.856	97.38
352.083	84.38
352.311	85.38
352.538	91.38
352.765	76.38
352.992	101.38
353.22	80.38
353.447	88.38
353.674	93.38
353.901	96.38
354.128	92.38
354.355	88.38
354.583	100.38
354.81	98.38
355.037	75.38
355.264	85.38
355.491	87.38
355.718	91.38
355.945	84.38
356.172	90.38
356.399	89.38
356.626	83.38
356.853	74.38
357.08	86.38
357.307	73.38
357.534	90.38
357.761	86.38
357.988	95.38
358.215	89.38
358.441	82.38
358.668	94.38
358.895	87.38
359.122	82.38
359.349	76.38
359.576	90.38
359.802	70.38
360.029	76.38
360.256	90.38
360.483	80.38
360.709	84.38
360.936	100.38
361.163	88.38
361.39	76.38
361.616	77.38
361.843	101.38
362.07	91.38
362.296	91.38
362.523	77.38
362.749	85.38
362.976	88.38
363.203	88.38
363.429	76.38
363.656	84.38
363.882	95.38
364.109	97.38
364.335	94.38
364.562	91.38
364.788	97.38
365.015	80.38
365.241	80.38
365.468	92.38
365.694	100.38
365.92	81.38
366.147	91.38
366.373	71.38
366.599	99.38
366.826	85.38
367.052	79.38
367.278	82.38
367.505	88.38
367.731	89.38
367.957	92.38
368.184	86.38
368.41	83.38
368.636	85.38
368.862	99.38
369.089	103.38
369.315	79.38
369.541	95.38
369.767	78.38
369.993	84.38
370.219	100.38
370.445	98.38
370.672	74.38
370.898	82.38
371.124	90.38
371.35	87.38
371.576	104.38
371.802	84.38
372.028	92.38
372.254	93.38
372.48	98.38
372.706	85.38
372.932	92.38
373.158	92.38
373.384	85.38
373.61	90.38
373.835	92.38
374.061	78.38
374.287	77.38
374.513	84.38
374.739	82.38
374.965	71.38
375.191	87.38
375.416	92.38
375.642	82.38
375.868	91.38
376.094	75.38
376.319	96.38
376.545	82.38
376.771	90.38
376.997	84.38
377.222	86.38
377.448	96.38
377.674	91.38
377.899	87.38
378.125	88.38
378.35	90.38
378.576	95.38
378.802	74.38
379.027	85.38
379.253	80.38
379.478	84.38
379.704	91.38
379.929	92.38
380.155	91.38
380.38	88.38
380.606	92.38
380.831	93.38
381.057	87.38
381.282	87.38
381.507	88.38
381.733	88.38
381.958	85.38
382.184	82.38
382.409	81.38
382.634	79.38
382.86	88.38
383.085	86.38
383.31	91.38
383.535	77.38
383.761	82.38
383.986	96.38
384.211	77.38
384.436	92.38
384.662	88.38
384.887	72.38
385.112	83.38
385.337	100.38
385.562	78.38
385.787	86.38
386.013	108.38
386.238	80.38
386.463	68.38
386.688	91.38
386.913	77.38
387.138	77.38
387.363	88.38
387.588	86.38
387.813	90.38
388.038	83.38
388.263	94.38
388.488	96.38
388.713	90.38
388.938	74.38
389.163	83.38
389.387	84.38
389.612	87.38
389.837	89.38
390.062	90.38
390.287	93.38
390.512	88.38
390.736	95.38
390.961	88.38
391.186	82.38
391.411	86.38
391.636	89.38
391.86	102.38
392.085	78.38
392.31	79.38
392.534	94.38
392.759	90.38
392.984	75.38
393.208	72.38
393.433	89.38
393.658	74.38
393.882	87.38
394.107	94.38
394.331	91.38
394.556	90.38
394.78	88.38
395.005	77.38
395.229	86.38
395.454	80.38
395.678	104.38
395.903	113.38
396.127	109.38
396.352	95.38
396.576	82.38
396.801	76.38
397.025	88.38
397.249	93.38
397.474	98.38
397.698	84.38
397.922	79.38
398.147	92.38
398.371	80.38
398.595	90.38
398.82	102.38
399.044	76.38
399.268	87.38
399.492	90.38
399.717	94.38
399.941	88.38
400.165	94.38
400.389	86.38
400.613	96.38
400.837	93.38
401.062	100.38
401.286	90.38
401.51	94.38
401.734	86.38
401.958	80.38
402.182	100.38
402.406	90.38
402.63	79.38
402.854	88.38
403.078	75.38
403.302	82.38
403.526	92.38
403.75	98.38
403.974	82.38
404.198	99.38
404.422	89.38
404.645	85.38
404.869	107.38
405.093	91.38
405.317	90.38
405.541	78.38
405.765	77.38
405.988	88.38
406.212	100.38
406.436	78.38
406.66	93.38
406.883	89.38
407.107	81.38
407.331	85.38
407.555	98.38
407.778	87.38
408.002	88.38
408.226	103.38
408.449	83.38
408.673	94.38
408.896	88.38
409.12	77.38
409.344	101.38
409.567	90.38
409.791	92.38
410.014	88.38
410.238	102.38
410.461	101.38
410.685	103.38
410.908	94.38
411.132	82.38
411.355	91.38
411.578	98.38
411.802	92.38
412.025	88.38
412.249	99.38
412.472	82.38
412.695	87.38
412.919	78.38
413.142	89.38
413.365	94.38
413.589	94.38
413.812	86.38
414.035	78.38
414.258	82.38
414.482	89.38
414.705	103.38
414.928	98.38
415.151	83.38
415.374	88.38
415.597	79.38
415.821	93.38
416.044	95.38
416.267	105.38
416.49	84.38
416.713	87.38
416.936	87.38
417.159	81.38
417.382	80.38
417.605	96.38
417.828	81.38
418.051	79.38
418.274	79.38
418.497	91.38
418.72	95.38
418.943	98.38
419.166	92.38
419.389	84.38
419.611	83.38
419.834	78.38
420.057	102.38
420.28	96.38
420.503	83.38
420.726	90.38
420.948	95.38
421.171	91.38
421.394	102.38
421.617	100.38
421.839	93.38
422.062	84.38
422.285	92.38
422.507	99.38
422.73	91.38
422.953	83.38
423.175	92.38
423.398	89.38
423.621	84.38
423.843	85.38
424.066	88.38
424.288	95.38
424.511	105.38
424.733	92.38
424.956	98.38
425.178	82.38
425.401	91.38
425.623	87.38
425.846	96.38
426.068	91.38
426.291	74.38
426.513	72.38
426.735	99.38
426.958	89.38
427.18	94.38
427.402	65.38
427.625	100.38
427.847	90.38
428.069	87.38
428.292	86.38
428.514	91.38
428.736	79.38
428.958	83.38
429.181	83.38
429.403	85.38
429.625	98.38
429.847	83.38
430.069	89.38
430.292	93.38
430.514	84.38
430.736	85.38
430.958	82.38
431.18	98.38
431.402	90.38
431.624	74.38
431.846	88.38
432.068	77.38
432.29	76.38
432.512	82.38
432.734	87.38
432.956	76.38
433.178	84.38
433.4	90.38
433.622	80.38
433.844	103.38
434.066	98.38
434.287	97.38
434.509	72.38
434.731	80.38
434.953	88.38
435.175	100.38
435.397	96.38
435.618	94.38
435.84	83.38
436.062	87.38
436.284	88.38
436.505	87.38
436.727	87.38
436.949	101.38
437.17	86.38
437.392	88.38
437.614	85.38
437.835	86.38
438.057	81.38
438.278	78.38
438.5	72.38
438.721	84.38
438.943	86.38
439.165	82.38
439.386	84.38
439.608	71.38
439.829	95.38
440.05	86.38
440.272	73.38
440.493	104.38
440.715	77.38
440.936	76.38
441.158	82.38
441.379	72.38
441.6	93.38
441.822	93.38
442.043	87.38
442.264	94.38
442.486	88.38
442.707	79.38
442.928	87.38
443.149	98.38
443.371	96.38
443.592	88.38
443.813	105.38
444.034	91.38
444.255	96.38
444.476	78.38
444.698	83.38
444.919	92.38
445.14	154.38
445.361	104.38
445.582	93.38
445.803	91.38
446.024	82.38
446.245	83.38
446.466	91.38
446.687	87.38
446.908	78.38
447.129	85.38
447.35	88.38
447.571	86.38
447.792	88.38
448.013	75.38
448.234	88.38
448.455	81.38
448.675	73.38
448.896	82.38
449.117	82.38
449.338	90.38
449.559	102.38
449.779	90.38
450	90.38
450.221	100.38
450.442	84.38
450.662	74.38
450.883	77.38
451.104	88.38
451.324	92.38
451.545	88.38
451.766	85.38
451.986	86.38
452.207	103.38
452.428	80.38
452.648	102.38
452.869	92.38
453.089	74.38
453.31	100.38
453.53	89.38
453.751	81.38
453.971	88.38
454.192	72.38
454.412	80.38
454.633	83.38
454.853	86.38
455.073	84.38
455.294	80.38
455.514	78.38
455.734	93.38
455.955	85.38
456.175	93.38
456.395	90.38
456.616	82.38
456.836	80.38
457.056	87.38
457.276	89.38
457.497	102.38
457.717	75.38
457.937	79.38
458.157	81.38
458.377	100.38
458.598	83.38
458.818	91.38
459.038	87.38
459.258	92.38
459.478	91.38
459.698	72.38
459.918	82.38
460.138	84.38
460.358	93.38
460.578	89.38
460.798	85.38
461.018	95.38
461.238	82.38
461.458	91.38
461.678	89.38
461.898	92.38
462.118	83.38
462.338	91.38
462.558	93.38
462.777	92.38
462.997	109.38
463.217	104.38
463.437	95.38
463.657	91.38
463.876	77.38
464.096	87.38
464.316	88.38
464.536	85.38
464.755	105.38
464.975	75.38
465.195	85.38
465.414	80.38
465.634	84.38
465.854	87.38
466.073	85.38
466.293	99.38
466.512	84.38
466.732	79.38
466.951	86.38
467.171	81.38
467.391	92.38
467.61	90.38
467.829	76.38
468.049	94.38
468.268	92.38
468.488	87.38
468.707	84.38
468.927	90.38
469.146	87.38
469.365	88.38
469.585	79.38
469.804	93.38
470.023	92.38
470.243	74.38
470.462	85.38
470.681	91.38
470.901	85.38
471.12	84.38
471.339	87.38
471.558	93.38
471.777	90.38
471.997	82.38
472.216	85.38
472.435	76.38
472.654	93.38
472.873	100.38
473.092	90.38
473.311	102.38
473.53	82.38
473.749	99.38
473.968	75.38
474.187	85.38
474.406	102.38
474.625	91.38
474.844	96.38
475.063	99.38
475.282	88.38
475.501	78.38
475.72	92.38
475.939	85.38
476.158	79.38
476.377	75.38
476.596	80.38
476.814	99.38
477.033	87.38
477.252	91.38
477.471	90.38
477.69	106.38
477.908	75.38
478.127	90.38
478.346	79.38
478.564	104.38
478.783	93.38
479.002	87.38
479.22	82.38
479.439	84.38
479.658	84.38
479.876	84.38
480.095	83.38
480.313	96.38
480.532	105.38
480.751	94.38
480.969	93.38
481.188	95.38
481.406	102.38
481.624	85.38
481.843	92.38
482.061	85.38
482.28	95.38
482.498	94.38
482.717	94.38
482.935	96.38
483.153	83.38
483.372	91.38
483.59	92.38
483.808	91.38
484.027	99.38
484.245	110.38
484.463	91.38
484.681	94.38
484.9	100.38
485.118	97.38
485.336	76.38
485.554	91.38
485.772	87.38
485.99	98.38
486.209	91.38
486.427	89.38
486.645	86.38
486.863	87.38
487.081	84.38
487.299	95.38
487.517	86.38
487.735	98.38
487.953	88.38
488.171	79.38
488.389	84.38
488.607	92.38
488.825	79.38
489.043	82.38
489.261	82.38
489.479	101.38
489.696	86.38
489.914	88.38
490.132	85.38
490.35	88.38
490.568	91.38
490.786	87.38
491.003	85.38
491.221	104.38
491.439	111.38
491.657	100.38
491.874	99.38
492.092	90.38
492.31	93.38
492.527	80.38
492.745	95.38
492.963	104.38
493.18	104.38
493.398	90.38
493.615	98.38
493.833	83.38
494.05	93.38
494.268	90.38
494.485	98.38
494.703	98.38
494.92	85.38
495.138	88.38
495.355	81.38
495.573	89.38
495.79	99.38
496.008	86.38
496.225	95.38
496.442	80.38
496.66	91.38
496.877	103.38
497.094	96.38
497.312	95.38
497.529	100.38
497.746	90.38
497.963	95.38
498.181	91.38
498.398	98.38
498.615	90.38
498.832	82.38
499.049	92.38
499.267	91.38
499.484	110.38
499.701	92.38
499.918	111.38
500.135	111.38
500.352	116.38
500.569	126.38
500.786	114.38
501.003	100.38
501.22	104.38
501.437	95.38
501.654	106.38
501.871	100.38
502.088	106.38
502.305	102.38
502.522	101.38
502.739	85.38
502.956	78.38
503.172	102.38
503.389	100.38
503.606	98.38
503.823	96.38
504.04	82.38
504.256	103.38
504.473	85.38
504.69	91.38
504.907	89.38
505.123	103.38
505.34	95.38
505.557	87.38
505.773	104.38
505.99	90.38
506.207	98.38
506.423	87.38
506.64	89.38
506.856	94.38
507.073	84.38
507.289	87.38
507.506	84.38
507.722	75.38
507.939	75.38
508.155	96.38
508.372	87.38
508.588	80.38
508.805	102.38
509.021	94.38
509.238	103.38
509.454	85.38
509.67	90.38
509.887	95.38
510.103	82.38
510.319	90.38
510.536	88.38
510.752	91.38
510.968	74.38
511.184	91.38
511.401	73.38
511.617	86.38
511.833	84.38
512.049	85.38
512.265	93.38
512.481	83.38
512.698	90.38
512.914	92.38
513.13	94.38
513.346	82.38
513.562	92.38
513.778	86.38
513.994	98.38
514.21	86.38
514.426	89.38
514.642	57.38
514.858	79.38
515.074	92.38
515.29	102.38
515.506	91.38
515.721	101.38
515.937	91.38
516.153	96.38
516.369	99.38
516.585	94.38
516.801	91.38
517.016	89.38
517.232	79.38
517.448	94.38
517.664	86.38
517.879	97.38
518.095	77.38
518.311	98.38
518.527	79.38
518.742	95.38
518.958	85.38
