Data from BG_HRD10591_083.txt Node
Date: Fri May 16 15:15:04 EDT 2025
User: Yrep
Spectrometer: HR+D1059
Trigger mode: 1
Integration Time (sec): 1.000000E-1
Scans to average: 1
Electric dark correction enabled: true
Nonlinearity correction enabled: false
Boxcar width: 0
XAxis mode: Wavelengths
Number of Pixels in Spectrum: 2048
>>>>>Begin Spectral Data<<<<<
223.165	-19.5
223.4	-19.5
223.635	-19.5
223.869	-25.5
224.104	-16.5
224.338	-22.5
224.573	-17.5
224.808	-16.5
225.042	-12.5
225.277	-13.5
225.511	5.5
225.746	13.5
225.98	4.5
226.215	13.5
226.449	16.5
226.683	27.5
226.918	27.5
227.152	35.5
227.387	47.5
227.621	30.5
227.856	55.5
228.09	41.5
228.324	42.5
228.559	55.5
228.793	56.5
229.027	70.5
229.262	68.5
229.496	62.5
229.73	75.5
229.964	74.5
230.199	69.5
230.433	63.5
230.667	84.5
230.901	78.5
231.136	70.5
231.37	83.5
231.604	67.5
231.838	81.5
232.072	77.5
232.306	74.5
232.541	70.5
232.775	64.5
233.009	86.5
233.243	78.5
233.477	93.5
233.711	85.5
233.945	85.5
234.179	79.5
234.413	65.5
234.647	73.5
234.881	68.5
235.115	76.5
235.349	76.5
235.583	69.5
235.817	82.5
236.051	62.5
236.285	70.5
236.519	78.5
236.753	84.5
236.987	73.5
237.221	72.5
237.455	76.5
237.689	73.5
237.922	69.5
238.156	69.5
238.39	64.5
238.624	76.5
238.858	66.5
239.091	61.5
239.325	76.5
239.559	82.5
239.793	90.5
240.027	90.5
240.26	85.5
240.494	82.5
240.728	71.5
240.961	81.5
241.195	74.5
241.429	84.5
241.662	84.5
241.896	74.5
242.13	67.5
242.363	71.5
242.597	75.5
242.83	67.5
243.064	77.5
243.298	76.5
243.531	77.5
243.765	82.5
243.998	72.5
244.232	80.5
244.465	83.5
244.699	85.5
244.932	79.5
245.166	79.5
245.399	76.5
245.633	83.5
245.866	84.5
246.099	84.5
246.333	62.5
246.566	74.5
246.8	75.5
247.033	69.5
247.266	72.5
247.5	76.5
247.733	74.5
247.966	76.5
248.2	87.5
248.433	88.5
248.666	66.5
248.899	76.5
249.133	70.5
249.366	78.5
249.599	83.5
249.832	70.5
250.066	70.5
250.299	75.5
250.532	96.5
250.765	85.5
250.998	78.5
251.231	65.5
251.465	84.5
251.698	87.5
251.931	78.5
252.164	78.5
252.397	85.5
252.63	66.5
252.863	81.5
253.096	96.5
253.329	84.5
253.562	80.5
253.795	86.5
254.028	78.5
254.261	82.5
254.494	77.5
254.727	77.5
254.96	76.5
255.193	77.5
255.426	82.5
255.659	76.5
255.892	83.5
256.124	85.5
256.357	84.5
256.59	85.5
256.823	76.5
257.056	82.5
257.289	75.5
257.521	75.5
257.754	78.5
257.987	78.5
258.22	74.5
258.452	89.5
258.685	79.5
258.918	76.5
259.151	89.5
259.383	79.5
259.616	75.5
259.849	82.5
260.081	86.5
260.314	84.5
260.547	79.5
260.779	72.5
261.012	83.5
261.244	79.5
261.477	88.5
261.71	92.5
261.942	91.5
262.175	86.5
262.407	76.5
262.64	80.5
262.872	79.5
263.105	77.5
263.337	74.5
263.57	79.5
263.802	79.5
264.035	87.5
264.267	91.5
264.499	82.5
264.732	82.5
264.964	68.5
265.197	78.5
265.429	55.5
265.661	80.5
265.894	78.5
266.126	80.5
266.358	91.5
266.591	74.5
266.823	96.5
267.055	79.5
267.287	77.5
267.52	74.5
267.752	73.5
267.984	78.5
268.216	86.5
268.448	83.5
268.681	84.5
268.913	84.5
269.145	70.5
269.377	77.5
269.609	86.5
269.841	71.5
270.073	96.5
270.306	82.5
270.538	84.5
270.77	99.5
271.002	82.5
271.234	68.5
271.466	89.5
271.698	91.5
271.93	78.5
272.162	87.5
272.394	84.5
272.626	88.5
272.858	79.5
273.09	82.5
273.322	69.5
273.553	74.5
273.785	70.5
274.017	92.5
274.249	84.5
274.481	94.5
274.713	79.5
274.945	84.5
275.176	83.5
275.408	87.5
275.64	80.5
275.872	80.5
276.104	93.5
276.335	77.5
276.567	83.5
276.799	86.5
277.031	82.5
277.262	99.5
277.494	74.5
277.726	88.5
277.957	84.5
278.189	86.5
278.421	100.5
278.652	82.5
278.884	80.5
279.115	90.5
279.347	77.5
279.579	77.5
279.81	78.5
280.042	82.5
280.273	91.5
280.505	92.5
280.736	84.5
280.968	89.5
281.199	88.5
281.431	82.5
281.662	95.5
281.894	90.5
282.125	88.5
282.356	87.5
282.588	82.5
282.819	92.5
283.051	77.5
283.282	77.5
283.513	89.5
283.745	89.5
283.976	70.5
284.207	81.5
284.439	91.5
284.67	88.5
284.901	92.5
285.132	101.5
285.364	70.5
285.595	92.5
285.826	71.5
286.057	89.5
286.288	100.5
286.52	91.5
286.751	95.5
286.982	91.5
287.213	86.5
287.444	85.5
287.675	108.5
287.906	92.5
288.138	88.5
288.369	89.5
288.6	99.5
288.831	79.5
289.062	100.5
289.293	94.5
289.524	87.5
289.755	79.5
289.986	80.5
290.217	98.5
290.448	79.5
290.679	86.5
290.91	85.5
291.141	88.5
291.371	98.5
291.602	82.5
291.833	76.5
292.064	82.5
292.295	88.5
292.526	79.5
292.757	74.5
292.987	86.5
293.218	87.5
293.449	103.5
293.68	87.5
293.91	86.5
294.141	87.5
294.372	96.5
294.603	95.5
294.833	84.5
295.064	93.5
295.295	89.5
295.525	95.5
295.756	80.5
295.987	93.5
296.217	85.5
296.448	82.5
296.679	75.5
296.909	94.5
297.14	82.5
297.37	97.5
297.601	79.5
297.831	90.5
298.062	100.5
298.292	98.5
298.523	88.5
298.753	85.5
298.984	78.5
299.214	83.5
299.445	77.5
299.675	80.5
299.905	84.5
300.136	84.5
300.366	100.5
300.597	83.5
300.827	100.5
301.057	89.5
301.288	74.5
301.518	96.5
301.748	85.5
301.979	91.5
302.209	78.5
302.439	78.5
302.669	86.5
302.9	92.5
303.13	111.5
303.36	100.5
303.59	96.5
303.82	88.5
304.051	89.5
304.281	83.5
304.511	102.5
304.741	86.5
304.971	91.5
305.201	86.5
305.431	104.5
305.661	86.5
305.891	95.5
306.121	90.5
306.352	91.5
306.582	85.5
306.812	77.5
307.042	82.5
307.272	82.5
307.502	81.5
307.731	99.5
307.961	87.5
308.191	95.5
308.421	90.5
308.651	86.5
308.881	77.5
309.111	85.5
309.341	86.5
309.571	86.5
309.8	110.5
310.03	86.5
310.26	88.5
310.49	93.5
310.72	81.5
310.949	92.5
311.179	96.5
311.409	81.5
311.639	100.5
311.868	78.5
312.098	90.5
312.328	101.5
312.557	91.5
312.787	96.5
313.017	86.5
313.246	80.5
313.476	66.5
313.706	76.5
313.935	101.5
314.165	96.5
314.394	90.5
314.624	92.5
314.853	101.5
315.083	90.5
315.312	100.5
315.542	90.5
315.771	89.5
316.001	84.5
316.23	87.5
316.46	80.5
316.689	96.5
316.919	76.5
317.148	90.5
317.377	101.5
317.607	98.5
317.836	90.5
318.065	95.5
318.295	96.5
318.524	84.5
318.753	88.5
318.983	87.5
319.212	100.5
319.441	88.5
319.67	82.5
319.9	78.5
320.129	98.5
320.358	85.5
320.587	87.5
320.816	80.5
321.046	83.5
321.275	75.5
321.504	81.5
321.733	87.5
321.962	84.5
322.191	88.5
322.42	95.5
322.649	79.5
322.878	88.5
323.108	82.5
323.337	105.5
323.566	95.5
323.795	83.5
324.024	86.5
324.253	86.5
324.482	102.5
324.71	82.5
324.939	81.5
325.168	77.5
325.397	79.5
325.626	93.5
325.855	89.5
326.084	91.5
326.313	96.5
326.542	78.5
326.77	89.5
326.999	86.5
327.228	90.5
327.457	97.5
327.686	89.5
327.914	102.5
328.143	88.5
328.372	90.5
328.6	90.5
328.829	93.5
329.058	83.5
329.287	95.5
329.515	109.5
329.744	109.5
329.972	78.5
330.201	88.5
330.43	90.5
330.658	84.5
330.887	82.5
331.115	90.5
331.344	94.5
331.572	96.5
331.801	88.5
332.03	90.5
332.258	90.5
332.486	85.5
332.715	94.5
332.943	89.5
333.172	94.5
333.4	87.5
333.629	84.5
333.857	91.5
334.085	104.5
334.314	86.5
334.542	88.5
334.771	108.5
334.999	87.5
335.227	80.5
335.455	88.5
335.684	87.5
335.912	78.5
336.14	93.5
336.369	98.5
336.597	86.5
336.825	100.5
337.053	86.5
337.281	93.5
337.51	95.5
337.738	91.5
337.966	93.5
338.194	85.5
338.422	105.5
338.65	98.5
338.878	101.5
339.106	92.5
339.334	84.5
339.562	75.5
339.79	81.5
340.018	75.5
340.246	76.5
340.474	92.5
340.702	78.5
340.93	64.5
341.158	87.5
341.386	93.5
341.614	82.5
341.842	88.5
342.07	91.5
342.298	90.5
342.526	90.5
342.754	87.5
342.981	101.5
343.209	80.5
343.437	104.5
343.665	88.5
343.893	82.5
344.12	92.5
344.348	96.5
344.576	84.5
344.804	95.5
345.031	99.5
345.259	88.5
345.487	74.5
345.714	91.5
345.942	86.5
346.17	86.5
346.397	99.5
346.625	84.5
346.853	97.5
347.08	76.5
347.308	91.5
347.535	87.5
347.763	85.5
347.99	87.5
348.218	98.5
348.445	96.5
348.673	87.5
348.9	89.5
349.128	99.5
349.355	96.5
349.583	98.5
349.81	100.5
350.037	78.5
350.265	90.5
350.492	94.5
350.72	91.5
350.947	77.5
351.174	93.5
351.402	90.5
351.629	83.5
351.856	87.5
352.083	89.5
352.311	83.5
352.538	92.5
352.765	90.5
352.992	87.5
353.22	83.5
353.447	81.5
353.674	87.5
353.901	93.5
354.128	85.5
354.355	94.5
354.583	83.5
354.81	81.5
355.037	93.5
355.264	87.5
355.491	82.5
355.718	93.5
355.945	91.5
356.172	79.5
356.399	78.5
356.626	86.5
356.853	89.5
357.08	84.5
357.307	85.5
357.534	82.5
357.761	90.5
357.988	75.5
358.215	96.5
358.441	84.5
358.668	88.5
358.895	77.5
359.122	82.5
359.349	82.5
359.576	84.5
359.802	75.5
360.029	91.5
360.256	98.5
360.483	101.5
360.709	88.5
360.936	99.5
361.163	92.5
361.39	85.5
361.616	94.5
361.843	92.5
362.07	83.5
362.296	93.5
362.523	82.5
362.749	78.5
362.976	88.5
363.203	82.5
363.429	83.5
363.656	87.5
363.882	85.5
364.109	95.5
364.335	82.5
364.562	87.5
364.788	87.5
365.015	84.5
365.241	79.5
365.468	100.5
365.694	87.5
365.92	84.5
366.147	83.5
366.373	84.5
366.599	90.5
366.826	86.5
367.052	87.5
367.278	97.5
367.505	92.5
367.731	87.5
367.957	86.5
368.184	86.5
368.41	96.5
368.636	94.5
368.862	81.5
369.089	90.5
369.315	83.5
369.541	83.5
369.767	95.5
369.993	96.5
370.219	87.5
370.445	97.5
370.672	92.5
370.898	75.5
371.124	88.5
371.35	99.5
371.576	92.5
371.802	88.5
372.028	71.5
372.254	92.5
372.48	92.5
372.706	73.5
372.932	86.5
373.158	78.5
373.384	91.5
373.61	98.5
373.835	91.5
374.061	84.5
374.287	82.5
374.513	74.5
374.739	80.5
374.965	79.5
375.191	94.5
375.416	104.5
375.642	96.5
375.868	76.5
376.094	78.5
376.319	85.5
376.545	78.5
376.771	95.5
376.997	85.5
377.222	77.5
377.448	92.5
377.674	77.5
377.899	96.5
378.125	76.5
378.35	96.5
378.576	82.5
378.802	86.5
379.027	91.5
379.253	86.5
379.478	88.5
379.704	73.5
379.929	81.5
380.155	95.5
380.38	85.5
380.606	87.5
380.831	101.5
381.057	88.5
381.282	78.5
381.507	73.5
381.733	90.5
381.958	87.5
382.184	78.5
382.409	73.5
382.634	101.5
382.86	98.5
383.085	103.5
383.31	93.5
383.535	99.5
383.761	82.5
383.986	86.5
384.211	108.5
384.436	92.5
384.662	102.5
384.887	88.5
385.112	87.5
385.337	90.5
385.562	73.5
385.787	81.5
386.013	86.5
386.238	98.5
386.463	84.5
386.688	109.5
386.913	88.5
387.138	72.5
387.363	89.5
387.588	82.5
387.813	106.5
388.038	98.5
388.263	86.5
388.488	99.5
388.713	100.5
388.938	83.5
389.163	98.5
389.387	81.5
389.612	91.5
389.837	84.5
390.062	95.5
390.287	88.5
390.512	74.5
390.736	93.5
390.961	102.5
391.186	92.5
391.411	88.5
391.636	82.5
391.86	89.5
392.085	92.5
392.31	87.5
392.534	87.5
392.759	92.5
392.984	96.5
393.208	89.5
393.433	86.5
393.658	84.5
393.882	103.5
394.107	81.5
394.331	84.5
394.556	83.5
394.78	97.5
395.005	88.5
395.229	111.5
395.454	86.5
395.678	84.5
395.903	88.5
396.127	84.5
396.352	75.5
396.576	87.5
396.801	82.5
397.025	82.5
397.249	100.5
397.474	85.5
397.698	83.5
397.922	91.5
398.147	93.5
398.371	106.5
398.595	90.5
398.82	88.5
399.044	101.5
399.268	98.5
399.492	95.5
399.717	92.5
399.941	85.5
400.165	96.5
400.389	88.5
400.613	104.5
400.837	82.5
401.062	90.5
401.286	78.5
401.51	94.5
401.734	84.5
401.958	93.5
402.182	88.5
402.406	102.5
402.63	104.5
402.854	92.5
403.078	90.5
403.302	79.5
403.526	83.5
403.75	93.5
403.974	70.5
404.198	83.5
404.422	104.5
404.645	87.5
404.869	75.5
405.093	81.5
405.317	81.5
405.541	94.5
405.765	92.5
405.988	90.5
406.212	94.5
406.436	96.5
406.66	82.5
406.883	86.5
407.107	79.5
407.331	86.5
407.555	105.5
407.778	90.5
408.002	80.5
408.226	90.5
408.449	106.5
408.673	86.5
408.896	77.5
409.12	84.5
409.344	80.5
409.567	93.5
409.791	94.5
410.014	82.5
410.238	85.5
410.461	94.5
410.685	98.5
410.908	102.5
411.132	86.5
411.355	87.5
411.578	89.5
411.802	95.5
412.025	102.5
412.249	91.5
412.472	84.5
412.695	88.5
412.919	88.5
413.142	88.5
413.365	85.5
413.589	84.5
413.812	90.5
414.035	82.5
414.258	92.5
414.482	94.5
414.705	79.5
414.928	105.5
415.151	85.5
415.374	77.5
415.597	84.5
415.821	78.5
416.044	83.5
416.267	95.5
416.49	87.5
416.713	86.5
416.936	84.5
417.159	103.5
417.382	91.5
417.605	100.5
417.828	85.5
418.051	84.5
418.274	86.5
418.497	98.5
418.72	80.5
418.943	98.5
419.166	90.5
419.389	74.5
419.611	82.5
419.834	87.5
420.057	88.5
420.28	82.5
420.503	88.5
420.726	88.5
420.948	88.5
421.171	75.5
421.394	79.5
421.617	94.5
421.839	99.5
422.062	90.5
422.285	88.5
422.507	81.5
422.73	103.5
422.953	75.5
423.175	86.5
423.398	87.5
423.621	90.5
423.843	82.5
424.066	84.5
424.288	79.5
424.511	90.5
424.733	86.5
424.956	88.5
425.178	86.5
425.401	90.5
425.623	89.5
425.846	98.5
426.068	84.5
426.291	82.5
426.513	87.5
426.735	89.5
426.958	81.5
427.18	84.5
427.402	92.5
427.625	76.5
427.847	79.5
428.069	84.5
428.292	86.5
428.514	69.5
428.736	76.5
428.958	92.5
429.181	90.5
429.403	84.5
429.625	91.5
429.847	91.5
430.069	91.5
430.292	100.5
430.514	97.5
430.736	78.5
430.958	90.5
431.18	95.5
431.402	85.5
431.624	85.5
431.846	80.5
432.068	94.5
432.29	76.5
432.512	94.5
432.734	82.5
432.956	93.5
433.178	86.5
433.4	98.5
433.622	90.5
433.844	86.5
434.066	100.5
434.287	90.5
434.509	86.5
434.731	88.5
434.953	85.5
435.175	76.5
435.397	77.5
435.618	79.5
435.84	79.5
436.062	90.5
436.284	83.5
436.505	72.5
436.727	85.5
436.949	79.5
437.17	82.5
437.392	82.5
437.614	78.5
437.835	76.5
438.057	87.5
438.278	88.5
438.5	77.5
438.721	89.5
438.943	84.5
439.165	83.5
439.386	84.5
439.608	91.5
439.829	89.5
440.05	81.5
440.272	81.5
440.493	91.5
440.715	86.5
440.936	91.5
441.158	91.5
441.379	80.5
441.6	91.5
441.822	91.5
442.043	87.5
442.264	86.5
442.486	94.5
442.707	101.5
442.928	84.5
443.149	80.5
443.371	75.5
443.592	82.5
443.813	92.5
444.034	85.5
444.255	78.5
444.476	86.5
444.698	79.5
444.919	94.5
445.14	163.5
445.361	129.5
445.582	80.5
445.803	79.5
446.024	85.5
446.245	82.5
446.466	86.5
446.687	89.5
446.908	96.5
447.129	103.5
447.35	85.5
447.571	64.5
447.792	90.5
448.013	94.5
448.234	75.5
448.455	86.5
448.675	83.5
448.896	80.5
449.117	98.5
449.338	102.5
449.559	84.5
449.779	70.5
450	76.5
450.221	99.5
450.442	98.5
450.662	82.5
450.883	71.5
451.104	88.5
451.324	88.5
451.545	87.5
451.766	84.5
451.986	83.5
452.207	94.5
452.428	86.5
452.648	95.5
452.869	74.5
453.089	99.5
453.31	87.5
453.53	93.5
453.751	84.5
453.971	82.5
454.192	90.5
454.412	71.5
454.633	68.5
454.853	99.5
455.073	92.5
455.294	80.5
455.514	86.5
455.734	80.5
455.955	90.5
456.175	75.5
456.395	57.5
456.616	77.5
456.836	87.5
457.056	101.5
457.276	71.5
457.497	85.5
457.717	79.5
457.937	86.5
458.157	78.5
458.377	84.5
458.598	107.5
458.818	73.5
459.038	102.5
459.258	103.5
459.478	99.5
459.698	83.5
459.918	87.5
460.138	84.5
460.358	90.5
460.578	91.5
460.798	102.5
461.018	86.5
461.238	103.5
461.458	100.5
461.678	86.5
461.898	90.5
462.118	91.5
462.338	87.5
462.558	92.5
462.777	95.5
462.997	104.5
463.217	103.5
463.437	77.5
463.657	90.5
463.876	91.5
464.096	110.5
464.316	79.5
464.536	93.5
464.755	82.5
464.975	94.5
465.195	77.5
465.414	86.5
465.634	86.5
465.854	98.5
466.073	83.5
466.293	95.5
466.512	85.5
466.732	86.5
466.951	82.5
467.171	78.5
467.391	90.5
467.61	86.5
467.829	86.5
468.049	79.5
468.268	77.5
468.488	83.5
468.707	78.5
468.927	91.5
469.146	86.5
469.365	84.5
469.585	84.5
469.804	82.5
470.023	84.5
470.243	89.5
470.462	80.5
470.681	92.5
470.901	68.5
471.12	91.5
471.339	87.5
471.558	83.5
471.777	86.5
471.997	86.5
472.216	83.5
472.435	83.5
472.654	83.5
472.873	87.5
473.092	99.5
473.311	84.5
473.53	88.5
473.749	92.5
473.968	93.5
474.187	75.5
474.406	81.5
474.625	93.5
474.844	87.5
475.063	90.5
475.282	84.5
475.501	84.5
475.72	90.5
475.939	88.5
476.158	76.5
476.377	87.5
476.596	79.5
476.814	80.5
477.033	85.5
477.252	98.5
477.471	78.5
477.69	87.5
477.908	93.5
478.127	86.5
478.346	94.5
478.564	81.5
478.783	79.5
479.002	101.5
479.22	96.5
479.439	84.5
479.658	88.5
479.876	82.5
480.095	90.5
480.313	104.5
480.532	91.5
480.751	92.5
480.969	98.5
481.188	86.5
481.406	78.5
481.624	86.5
481.843	74.5
482.061	76.5
482.28	70.5
482.498	87.5
482.717	86.5
482.935	86.5
483.153	78.5
483.372	86.5
483.59	96.5
483.808	89.5
484.027	88.5
484.245	98.5
484.463	100.5
484.681	100.5
484.9	106.5
485.118	94.5
485.336	73.5
485.554	87.5
485.772	78.5
485.99	87.5
486.209	91.5
486.427	96.5
486.645	96.5
486.863	96.5
487.081	79.5
487.299	106.5
487.517	94.5
487.735	100.5
487.953	85.5
488.171	93.5
488.389	96.5
488.607	84.5
488.825	85.5
489.043	106.5
489.261	80.5
489.479	96.5
489.696	84.5
489.914	89.5
490.132	95.5
490.35	94.5
490.568	92.5
490.786	98.5
491.003	85.5
491.221	83.5
491.439	65.5
491.657	93.5
491.874	96.5
492.092	106.5
492.31	91.5
492.527	92.5
492.745	103.5
492.963	94.5
493.18	81.5
493.398	79.5
493.615	92.5
493.833	83.5
494.05	76.5
494.268	95.5
494.485	87.5
494.703	83.5
494.92	85.5
495.138	90.5
495.355	83.5
495.573	89.5
495.79	81.5
496.008	86.5
496.225	118.5
496.442	86.5
496.66	84.5
496.877	91.5
497.094	104.5
497.312	81.5
497.529	88.5
497.746	88.5
497.963	98.5
498.181	80.5
498.398	100.5
498.615	101.5
498.832	94.5
499.049	96.5
499.267	102.5
499.484	108.5
499.701	110.5
499.918	114.5
500.135	125.5
500.352	119.5
500.569	120.5
500.786	122.5
501.003	117.5
501.22	99.5
501.437	105.5
501.654	106.5
501.871	104.5
502.088	86.5
502.305	114.5
502.522	99.5
502.739	91.5
502.956	103.5
503.172	96.5
503.389	94.5
503.606	84.5
503.823	95.5
504.04	117.5
504.256	92.5
504.473	88.5
504.69	88.5
504.907	104.5
505.123	78.5
505.34	89.5
505.557	91.5
505.773	94.5
505.99	78.5
506.207	78.5
506.423	93.5
506.64	84.5
506.856	93.5
507.073	87.5
507.289	99.5
507.506	103.5
507.722	80.5
507.939	76.5
508.155	91.5
508.372	88.5
508.588	88.5
508.805	96.5
509.021	72.5
509.238	98.5
509.454	102.5
509.67	92.5
509.887	84.5
510.103	88.5
510.319	77.5
510.536	88.5
510.752	92.5
510.968	90.5
511.184	82.5
511.401	90.5
511.617	91.5
511.833	93.5
512.049	94.5
512.265	82.5
512.481	109.5
512.698	98.5
512.914	85.5
513.13	100.5
513.346	89.5
513.562	95.5
513.778	91.5
513.994	95.5
514.21	91.5
514.426	93.5
514.642	81.5
514.858	93.5
515.074	89.5
515.29	89.5
515.506	90.5
515.721	84.5
515.937	87.5
516.153	83.5
516.369	95.5
516.585	95.5
516.801	89.5
517.016	80.5
517.232	86.5
517.448	95.5
517.664	89.5
517.879	105.5
518.095	106.5
518.311	94.5
518.527	76.5
518.742	82.5
518.958	87.5
519.173	84.5
519.389	82.5
519.605	102.5
519.82	94.5
520.036	104.5
520.251	83.5
520.467	94.5
520.682	89.5
520.898	98.5
521.113	67.5
521.329	92.5
521.544	86.5
521.76	90.5
521.975	93.5
522.19	89.5
522.406	85.5
522.621	94.5
522.836	93.5
523.052	92.5
523.267	91.5
523.482	85.5
523.698	91.5
523.913	110.5
524.128	102.5
524.343	102.5
524.559	89.5
524.774	84.5
524.989	100.5
525.204	107.5
525.419	101.5
525.634	96.5
525.849	100.5
526.064	92.5
526.28	99.5
526.495	68.5
526.71	107.5
526.925	98.5
527.14	98.5
527.355	95.5
527.57	95.5
527.785	84.5
527.999	95.5
528.214	93.5
528.429	100.5
528.644	102.5
528.859	75.5
529.074	82.5
529.289	98.5
529.503	95.5
529.718	78.5
529.933	77.5
530.148	94.5
530.363	91.5
530.577	90.5
530.792	94.5
531.007	76.5
531.221	83.5
531.436	84.5
531.651	104.5
531.865	84.5
532.08	85.5
532.295	92.5
532.509	96.5
532.724	102.5
532.938	79.5
533.153	101.5
533.367	92.5
533.582	78.5
533.796	91.5
534.011	92.5
534.225	87.5
534.44	90.5
534.654	88.5
534.868	83.5
535.083	106.5
535.297	86.5
535.511	99.5
535.726	100.5
535.94	102.5
536.154	91.5
536.369	80.5
536.583	95.5
536.797	98.5
537.011	78.5
537.225	79.5
537.44	83.5
537.654	94.5
537.868	90.5
538.082	98.5
538.296	81.5
538.51	91.5
538.724	95.5
