Data from BG_HRD10591_024.txt Node
Date: Fri May 16 15:14:34 EDT 2025
User: Yrep
Spectrometer: HR+D1059
Trigger mode: 1
Integration Time (sec): 1.000000E-1
Scans to average: 1
Electric dark correction enabled: true
Nonlinearity correction enabled: false
Boxcar width: 0
XAxis mode: Wavelengths
Number of Pixels in Spectrum: 2048
>>>>>Begin Spectral Data<<<<<
223.165	-24.06
223.4	-24.06
223.635	-24.06
223.869	-26.06
224.104	-11.06
224.338	-13.06
224.573	-18.06
224.808	-12.06
225.042	-7.06
225.277	-11.06
225.511	2.94
225.746	12.94
225.98	14.94
226.215	4.94
226.449	9.94
226.683	16.94
226.918	20.94
227.152	38.94
227.387	17.94
227.621	38.94
227.856	49.94
228.09	56.94
228.324	60.94
228.559	61.94
228.793	49.94
229.027	67.94
229.262	41.94
229.496	55.94
229.73	70.94
229.964	73.94
230.199	79.94
230.433	64.94
230.667	70.94
230.901	69.94
231.136	77.94
231.37	66.94
231.604	60.94
231.838	79.94
232.072	73.94
232.306	70.94
232.541	66.94
232.775	64.94
233.009	72.94
233.243	67.94
233.477	67.94
233.711	75.94
233.945	74.94
234.179	72.94
234.413	86.94
234.647	87.94
234.881	62.94
235.115	71.94
235.349	69.94
235.583	79.94
235.817	76.94
236.051	78.94
236.285	82.94
236.519	67.94
236.753	83.94
236.987	77.94
237.221	73.94
237.455	71.94
237.689	67.94
237.922	61.94
238.156	70.94
238.39	61.94
238.624	69.94
238.858	80.94
239.091	69.94
239.325	69.94
239.559	71.94
239.793	77.94
240.027	56.94
240.26	73.94
240.494	79.94
240.728	69.94
240.961	72.94
241.195	69.94
241.429	68.94
241.662	68.94
241.896	67.94
242.13	70.94
242.363	67.94
242.597	68.94
242.83	70.94
243.064	75.94
243.298	69.94
243.531	79.94
243.765	74.94
243.998	70.94
244.232	68.94
244.465	67.94
244.699	87.94
244.932	68.94
245.166	75.94
245.399	79.94
245.633	71.94
245.866	88.94
246.099	74.94
246.333	79.94
246.566	58.94
246.8	69.94
247.033	78.94
247.266	75.94
247.5	74.94
247.733	65.94
247.966	72.94
248.2	79.94
248.433	59.94
248.666	94.94
248.899	89.94
249.133	79.94
249.366	82.94
249.599	74.94
249.832	83.94
250.066	74.94
250.299	67.94
250.532	81.94
250.765	73.94
250.998	92.94
251.231	74.94
251.465	75.94
251.698	75.94
251.931	87.94
252.164	82.94
252.397	71.94
252.63	73.94
252.863	64.94
253.096	72.94
253.329	83.94
253.562	83.94
253.795	67.94
254.028	63.94
254.261	66.94
254.494	87.94
254.727	79.94
254.96	84.94
255.193	84.94
255.426	81.94
255.659	79.94
255.892	76.94
256.124	70.94
256.357	88.94
256.59	81.94
256.823	68.94
257.056	68.94
257.289	83.94
257.521	71.94
257.754	78.94
257.987	59.94
258.22	73.94
258.452	76.94
258.685	83.94
258.918	59.94
259.151	78.94
259.383	86.94
259.616	91.94
259.849	79.94
260.081	82.94
260.314	69.94
260.547	61.94
260.779	61.94
261.012	80.94
261.244	71.94
261.477	86.94
261.71	83.94
261.942	67.94
262.175	81.94
262.407	92.94
262.64	76.94
262.872	87.94
263.105	85.94
263.337	85.94
263.57	80.94
263.802	71.94
264.035	75.94
264.267	82.94
264.499	71.94
264.732	65.94
264.964	76.94
265.197	75.94
265.429	78.94
265.661	77.94
265.894	90.94
266.126	79.94
266.358	89.94
266.591	90.94
266.823	75.94
267.055	59.94
267.287	82.94
267.52	81.94
267.752	84.94
267.984	80.94
268.216	77.94
268.448	80.94
268.681	85.94
268.913	79.94
269.145	76.94
269.377	84.94
269.609	72.94
269.841	84.94
270.073	84.94
270.306	81.94
270.538	72.94
270.77	90.94
271.002	88.94
271.234	75.94
271.466	73.94
271.698	97.94
271.93	85.94
272.162	90.94
272.394	85.94
272.626	82.94
272.858	78.94
273.09	72.94
273.322	76.94
273.553	87.94
273.785	72.94
274.017	88.94
274.249	85.94
274.481	82.94
274.713	79.94
274.945	63.94
275.176	81.94
275.408	67.94
275.64	88.94
275.872	90.94
276.104	96.94
276.335	82.94
276.567	82.94
276.799	90.94
277.031	84.94
277.262	79.94
277.494	85.94
277.726	84.94
277.957	83.94
278.189	73.94
278.421	82.94
278.652	84.94
278.884	75.94
279.115	78.94
279.347	77.94
279.579	79.94
279.81	83.94
280.042	84.94
280.273	79.94
280.505	92.94
280.736	67.94
280.968	80.94
281.199	79.94
281.431	70.94
281.662	81.94
281.894	72.94
282.125	79.94
282.356	79.94
282.588	77.94
282.819	76.94
283.051	81.94
283.282	73.94
283.513	83.94
283.745	93.94
283.976	91.94
284.207	75.94
284.439	87.94
284.67	97.94
284.901	85.94
285.132	101.94
285.364	88.94
285.595	77.94
285.826	79.94
286.057	91.94
286.288	88.94
286.52	76.94
286.751	75.94
286.982	86.94
287.213	71.94
287.444	90.94
287.675	68.94
287.906	85.94
288.138	81.94
288.369	81.94
288.6	76.94
288.831	76.94
289.062	93.94
289.293	89.94
289.524	80.94
289.755	74.94
289.986	79.94
290.217	80.94
290.448	73.94
290.679	73.94
290.91	91.94
291.141	98.94
291.371	78.94
291.602	93.94
291.833	84.94
292.064	86.94
292.295	99.94
292.526	76.94
292.757	88.94
292.987	87.94
293.218	77.94
293.449	85.94
293.68	81.94
293.91	81.94
294.141	86.94
294.372	84.94
294.603	76.94
294.833	79.94
295.064	82.94
295.295	84.94
295.525	83.94
295.756	81.94
295.987	73.94
296.217	95.94
296.448	87.94
296.679	76.94
296.909	87.94
297.14	86.94
297.37	80.94
297.601	91.94
297.831	83.94
298.062	69.94
298.292	80.94
298.523	79.94
298.753	79.94
298.984	74.94
299.214	91.94
299.445	78.94
299.675	88.94
299.905	63.94
300.136	83.94
300.366	86.94
300.597	90.94
300.827	81.94
301.057	90.94
301.288	73.94
301.518	74.94
301.748	79.94
301.979	88.94
302.209	90.94
302.439	91.94
302.669	83.94
302.9	73.94
303.13	82.94
303.36	75.94
303.59	86.94
303.82	72.94
304.051	99.94
304.281	91.94
304.511	72.94
304.741	85.94
304.971	83.94
305.201	88.94
305.431	87.94
305.661	72.94
305.891	87.94
306.121	81.94
306.352	75.94
306.582	80.94
306.812	83.94
307.042	85.94
307.272	74.94
307.502	76.94
307.731	78.94
307.961	65.94
308.191	86.94
308.421	92.94
308.651	95.94
308.881	69.94
309.111	78.94
309.341	84.94
309.571	83.94
309.8	88.94
310.03	74.94
310.26	87.94
310.49	71.94
310.72	77.94
310.949	80.94
311.179	83.94
311.409	91.94
311.639	87.94
311.868	95.94
312.098	95.94
312.328	96.94
312.557	89.94
312.787	88.94
313.017	81.94
313.246	91.94
313.476	80.94
313.706	84.94
313.935	84.94
314.165	68.94
314.394	87.94
314.624	97.94
314.853	92.94
315.083	83.94
315.312	91.94
315.542	92.94
315.771	84.94
316.001	83.94
316.23	81.94
316.46	66.94
316.689	88.94
316.919	84.94
317.148	93.94
317.377	81.94
317.607	79.94
317.836	83.94
318.065	83.94
318.295	87.94
318.524	93.94
318.753	78.94
318.983	85.94
319.212	68.94
319.441	86.94
319.67	78.94
319.9	78.94
320.129	102.94
320.358	77.94
320.587	87.94
320.816	86.94
321.046	85.94
321.275	80.94
321.504	75.94
321.733	105.94
321.962	74.94
322.191	86.94
322.42	80.94
322.649	87.94
322.878	72.94
323.108	84.94
323.337	75.94
323.566	88.94
323.795	78.94
324.024	81.94
324.253	84.94
324.482	91.94
324.71	95.94
324.939	90.94
325.168	82.94
325.397	87.94
325.626	76.94
325.855	87.94
326.084	82.94
326.313	88.94
326.542	104.94
326.77	98.94
326.999	88.94
327.228	95.94
327.457	85.94
327.686	85.94
327.914	84.94
328.143	81.94
328.372	99.94
328.6	72.94
328.829	87.94
329.058	90.94
329.287	66.94
329.515	79.94
329.744	87.94
329.972	75.94
330.201	72.94
330.43	72.94
330.658	109.94
330.887	70.94
331.115	89.94
331.344	88.94
331.572	72.94
331.801	76.94
332.03	88.94
332.258	95.94
332.486	76.94
332.715	76.94
332.943	77.94
333.172	85.94
333.4	89.94
333.629	75.94
333.857	83.94
334.085	81.94
334.314	96.94
334.542	101.94
334.771	82.94
334.999	86.94
335.227	95.94
335.455	79.94
335.684	93.94
335.912	87.94
336.14	103.94
336.369	97.94
336.597	74.94
336.825	77.94
337.053	84.94
337.281	95.94
337.51	87.94
337.738	79.94
337.966	72.94
338.194	79.94
338.422	84.94
338.65	93.94
338.878	90.94
339.106	83.94
339.334	93.94
339.562	85.94
339.79	82.94
340.018	88.94
340.246	88.94
340.474	72.94
340.702	72.94
340.93	80.94
341.158	81.94
341.386	90.94
341.614	90.94
341.842	82.94
342.07	77.94
342.298	87.94
342.526	72.94
342.754	88.94
342.981	87.94
343.209	80.94
343.437	102.94
343.665	85.94
343.893	78.94
344.12	80.94
344.348	88.94
344.576	75.94
344.804	74.94
345.031	84.94
345.259	88.94
345.487	102.94
345.714	86.94
345.942	85.94
346.17	97.94
346.397	86.94
346.625	69.94
346.853	75.94
347.08	91.94
347.308	92.94
347.535	93.94
347.763	86.94
347.99	97.94
348.218	79.94
348.445	75.94
348.673	81.94
348.9	86.94
349.128	75.94
349.355	67.94
349.583	84.94
349.81	78.94
350.037	92.94
350.265	88.94
350.492	85.94
350.72	70.94
350.947	85.94
351.174	74.94
351.402	102.94
351.629	87.94
351.856	86.94
352.083	81.94
352.311	81.94
352.538	85.94
352.765	76.94
352.992	83.94
353.22	99.94
353.447	77.94
353.674	86.94
353.901	93.94
354.128	85.94
354.355	78.94
354.583	63.94
354.81	85.94
355.037	80.94
355.264	73.94
355.491	82.94
355.718	87.94
355.945	80.94
356.172	102.94
356.399	83.94
356.626	73.94
356.853	83.94
357.08	86.94
357.307	80.94
357.534	83.94
357.761	75.94
357.988	79.94
358.215	79.94
358.441	75.94
358.668	81.94
358.895	75.94
359.122	95.94
359.349	88.94
359.576	85.94
359.802	83.94
360.029	74.94
360.256	77.94
360.483	88.94
360.709	79.94
360.936	67.94
361.163	79.94
361.39	81.94
361.616	79.94
361.843	93.94
362.07	105.94
362.296	84.94
362.523	74.94
362.749	86.94
362.976	85.94
363.203	92.94
363.429	67.94
363.656	76.94
363.882	83.94
364.109	98.94
364.335	89.94
364.562	78.94
364.788	68.94
365.015	74.94
365.241	87.94
365.468	88.94
365.694	92.94
365.92	80.94
366.147	82.94
366.373	81.94
366.599	93.94
366.826	86.94
367.052	87.94
367.278	79.94
367.505	97.94
367.731	91.94
367.957	95.94
368.184	84.94
368.41	81.94
368.636	95.94
368.862	95.94
369.089	82.94
369.315	77.94
369.541	77.94
369.767	85.94
369.993	74.94
370.219	80.94
370.445	73.94
370.672	82.94
370.898	82.94
371.124	69.94
371.35	89.94
371.576	81.94
371.802	89.94
372.028	99.94
372.254	92.94
372.48	107.94
372.706	83.94
372.932	73.94
373.158	86.94
373.384	94.94
373.61	73.94
373.835	83.94
374.061	87.94
374.287	91.94
374.513	85.94
374.739	83.94
374.965	75.94
375.191	71.94
375.416	84.94
375.642	81.94
375.868	100.94
376.094	76.94
376.319	85.94
376.545	91.94
376.771	81.94
376.997	87.94
377.222	80.94
377.448	84.94
377.674	95.94
377.899	83.94
378.125	80.94
378.35	86.94
378.576	79.94
378.802	87.94
379.027	92.94
379.253	95.94
379.478	89.94
379.704	80.94
379.929	76.94
380.155	85.94
380.38	85.94
380.606	89.94
380.831	75.94
381.057	77.94
381.282	88.94
381.507	82.94
381.733	90.94
381.958	86.94
382.184	86.94
382.409	86.94
382.634	85.94
382.86	82.94
383.085	91.94
383.31	76.94
383.535	81.94
383.761	90.94
383.986	83.94
384.211	96.94
384.436	82.94
384.662	91.94
384.887	81.94
385.112	75.94
385.337	71.94
385.562	79.94
385.787	67.94
386.013	79.94
386.238	95.94
386.463	83.94
386.688	87.94
386.913	87.94
387.138	79.94
387.363	76.94
387.588	77.94
387.813	91.94
388.038	91.94
388.263	91.94
388.488	87.94
388.713	98.94
388.938	97.94
389.163	83.94
389.387	84.94
389.612	88.94
389.837	88.94
390.062	81.94
390.287	80.94
390.512	83.94
390.736	97.94
390.961	92.94
391.186	81.94
391.411	79.94
391.636	80.94
391.86	82.94
392.085	91.94
392.31	69.94
392.534	86.94
392.759	97.94
392.984	83.94
393.208	90.94
393.433	81.94
393.658	93.94
393.882	91.94
394.107	85.94
394.331	72.94
394.556	65.94
394.78	88.94
395.005	84.94
395.229	99.94
395.454	81.94
395.678	90.94
395.903	90.94
396.127	74.94
396.352	90.94
396.576	102.94
396.801	85.94
397.025	79.94
397.249	83.94
397.474	79.94
397.698	79.94
397.922	100.94
398.147	80.94
398.371	91.94
398.595	79.94
398.82	100.94
399.044	88.94
399.268	83.94
399.492	110.94
399.717	101.94
399.941	84.94
400.165	101.94
400.389	87.94
400.613	83.94
400.837	87.94
401.062	69.94
401.286	93.94
401.51	103.94
401.734	90.94
401.958	83.94
402.182	107.94
402.406	87.94
402.63	84.94
402.854	76.94
403.078	93.94
403.302	86.94
403.526	88.94
403.75	82.94
403.974	81.94
404.198	102.94
404.422	82.94
404.645	83.94
404.869	81.94
405.093	83.94
405.317	80.94
405.541	88.94
405.765	90.94
405.988	84.94
406.212	83.94
406.436	96.94
406.66	77.94
406.883	92.94
407.107	84.94
407.331	87.94
407.555	79.94
407.778	91.94
408.002	83.94
408.226	84.94
408.449	104.94
408.673	85.94
408.896	75.94
409.12	72.94
409.344	108.94
409.567	84.94
409.791	97.94
410.014	91.94
410.238	77.94
410.461	84.94
410.685	88.94
410.908	90.94
411.132	81.94
411.355	71.94
411.578	89.94
411.802	76.94
412.025	84.94
412.249	88.94
412.472	95.94
412.695	95.94
412.919	83.94
413.142	89.94
413.365	87.94
413.589	89.94
413.812	75.94
414.035	73.94
414.258	76.94
414.482	87.94
414.705	77.94
414.928	97.94
415.151	90.94
415.374	94.94
415.597	90.94
415.821	86.94
416.044	75.94
416.267	82.94
416.49	86.94
416.713	76.94
416.936	77.94
417.159	87.94
417.382	90.94
417.605	87.94
417.828	79.94
418.051	83.94
418.274	91.94
418.497	77.94
418.72	82.94
418.943	90.94
419.166	86.94
419.389	85.94
419.611	99.94
419.834	91.94
420.057	76.94
420.28	87.94
420.503	77.94
420.726	76.94
420.948	86.94
421.171	77.94
421.394	95.94
421.617	75.94
421.839	112.94
422.062	87.94
422.285	91.94
422.507	78.94
422.73	83.94
422.953	71.94
423.175	80.94
423.398	74.94
423.621	108.94
423.843	98.94
424.066	99.94
424.288	71.94
424.511	79.94
424.733	88.94
424.956	86.94
425.178	76.94
425.401	79.94
425.623	86.94
425.846	77.94
426.068	90.94
426.291	77.94
426.513	76.94
426.735	80.94
426.958	80.94
427.18	77.94
427.402	90.94
427.625	99.94
427.847	93.94
428.069	79.94
428.292	91.94
428.514	82.94
428.736	83.94
428.958	79.94
429.181	73.94
429.403	88.94
429.625	82.94
429.847	92.94
430.069	70.94
430.292	88.94
430.514	86.94
430.736	87.94
430.958	95.94
431.18	81.94
431.402	88.94
431.624	95.94
431.846	103.94
432.068	85.94
432.29	89.94
432.512	84.94
432.734	77.94
432.956	83.94
433.178	90.94
433.4	88.94
433.622	81.94
433.844	104.94
434.066	92.94
434.287	91.94
434.509	81.94
434.731	82.94
434.953	87.94
435.175	88.94
435.397	82.94
435.618	84.94
435.84	79.94
436.062	90.94
436.284	70.94
436.505	94.94
436.727	85.94
436.949	83.94
437.17	81.94
437.392	82.94
437.614	88.94
437.835	87.94
438.057	88.94
438.278	88.94
438.5	91.94
438.721	85.94
438.943	84.94
439.165	104.94
439.386	71.94
439.608	86.94
439.829	89.94
440.05	84.94
440.272	87.94
440.493	87.94
440.715	87.94
440.936	87.94
441.158	87.94
441.379	76.94
441.6	86.94
441.822	88.94
442.043	96.94
442.264	88.94
442.486	85.94
442.707	75.94
442.928	82.94
443.149	97.94
443.371	97.94
443.592	88.94
443.813	73.94
444.034	88.94
444.255	76.94
444.476	79.94
444.698	87.94
444.919	86.94
445.14	149.94
445.361	122.94
445.582	94.94
445.803	88.94
446.024	106.94
446.245	88.94
446.466	82.94
446.687	90.94
446.908	71.94
447.129	81.94
447.35	75.94
447.571	85.94
447.792	75.94
448.013	81.94
448.234	77.94
448.455	82.94
448.675	72.94
448.896	83.94
449.117	75.94
449.338	88.94
449.559	92.94
449.779	82.94
450	81.94
450.221	76.94
450.442	76.94
450.662	69.94
450.883	99.94
451.104	90.94
451.324	88.94
451.545	84.94
451.766	72.94
451.986	88.94
452.207	63.94
452.428	85.94
452.648	71.94
452.869	99.94
453.089	88.94
453.31	101.94
453.53	79.94
453.751	93.94
453.971	87.94
454.192	89.94
454.412	73.94
454.633	70.94
454.853	71.94
455.073	98.94
455.294	79.94
455.514	84.94
455.734	85.94
455.955	75.94
456.175	81.94
456.395	79.94
456.616	74.94
456.836	83.94
457.056	67.94
457.276	85.94
457.497	79.94
457.717	93.94
457.937	87.94
458.157	88.94
458.377	91.94
458.598	87.94
458.818	99.94
459.038	82.94
459.258	83.94
459.478	85.94
459.698	89.94
459.918	90.94
460.138	83.94
460.358	88.94
460.578	93.94
460.798	84.94
461.018	102.94
461.238	77.94
461.458	84.94
461.678	91.94
461.898	81.94
462.118	75.94
462.338	88.94
462.558	89.94
462.777	90.94
462.997	84.94
463.217	87.94
463.437	95.94
463.657	87.94
463.876	94.94
464.096	84.94
464.316	95.94
464.536	87.94
464.755	76.94
464.975	84.94
465.195	92.94
465.414	80.94
465.634	80.94
465.854	89.94
466.073	89.94
466.293	83.94
466.512	88.94
466.732	87.94
466.951	79.94
467.171	80.94
467.391	82.94
467.61	82.94
467.829	84.94
468.049	70.94
468.268	68.94
468.488	67.94
468.707	90.94
468.927	73.94
469.146	84.94
469.365	89.94
469.585	78.94
469.804	86.94
470.023	82.94
470.243	82.94
470.462	85.94
470.681	79.94
470.901	82.94
471.12	69.94
471.339	78.94
471.558	87.94
471.777	87.94
471.997	90.94
472.216	97.94
472.435	92.94
472.654	75.94
472.873	93.94
473.092	79.94
473.311	91.94
473.53	67.94
473.749	71.94
473.968	89.94
474.187	78.94
474.406	82.94
474.625	92.94
474.844	84.94
475.063	79.94
475.282	77.94
475.501	85.94
475.72	89.94
475.939	84.94
476.158	87.94
476.377	84.94
476.596	71.94
476.814	78.94
477.033	88.94
477.252	76.94
477.471	85.94
477.69	89.94
477.908	93.94
478.127	96.94
478.346	99.94
478.564	83.94
478.783	90.94
479.002	88.94
479.22	90.94
479.439	88.94
479.658	88.94
479.876	82.94
480.095	93.94
480.313	108.94
480.532	75.94
480.751	99.94
480.969	95.94
481.188	90.94
481.406	85.94
481.624	87.94
481.843	87.94
482.061	81.94
482.28	95.94
482.498	81.94
482.717	81.94
482.935	87.94
483.153	96.94
483.372	82.94
483.59	99.94
483.808	86.94
484.027	75.94
484.245	77.94
484.463	75.94
484.681	91.94
484.9	90.94
485.118	83.94
485.336	80.94
485.554	83.94
485.772	81.94
485.99	83.94
486.209	84.94
486.427	86.94
486.645	67.94
486.863	79.94
487.081	95.94
487.299	86.94
487.517	90.94
487.735	79.94
487.953	93.94
488.171	91.94
488.389	89.94
488.607	107.94
488.825	93.94
489.043	87.94
489.261	88.94
489.479	90.94
489.696	81.94
489.914	85.94
490.132	85.94
490.35	88.94
490.568	76.94
490.786	82.94
491.003	73.94
491.221	88.94
491.439	108.94
491.657	89.94
491.874	91.94
492.092	83.94
492.31	90.94
492.527	79.94
492.745	84.94
492.963	83.94
493.18	83.94
493.398	88.94
493.615	81.94
493.833	92.94
494.05	93.94
494.268	80.94
494.485	87.94
494.703	86.94
494.92	100.94
495.138	89.94
495.355	87.94
495.573	84.94
495.79	86.94
496.008	85.94
496.225	99.94
496.442	91.94
496.66	93.94
496.877	97.94
497.094	86.94
497.312	88.94
497.529	95.94
497.746	89.94
497.963	91.94
498.181	89.94
498.398	86.94
498.615	80.94
498.832	95.94
499.049	90.94
499.267	108.94
499.484	104.94
499.701	108.94
499.918	92.94
500.135	117.94
500.352	92.94
500.569	108.94
500.786	105.94
501.003	106.94
501.22	92.94
501.437	102.94
501.654	103.94
501.871	90.94
502.088	105.94
502.305	85.94
502.522	86.94
502.739	95.94
502.956	81.94
503.172	96.94
503.389	94.94
503.606	99.94
503.823	91.94
504.04	87.94
504.256	81.94
504.473	87.94
504.69	76.94
504.907	91.94
505.123	85.94
505.34	89.94
505.557	91.94
505.773	83.94
505.99	83.94
506.207	81.94
506.423	80.94
506.64	89.94
506.856	90.94
507.073	77.94
507.289	93.94
507.506	92.94
507.722	76.94
507.939	80.94
508.155	85.94
508.372	88.94
508.588	91.94
508.805	88.94
509.021	80.94
509.238	89.94
509.454	100.94
509.67	81.94
509.887	92.94
510.103	77.94
510.319	87.94
510.536	79.94
510.752	75.94
510.968	76.94
511.184	80.94
511.401	83.94
511.617	81.94
511.833	71.94
512.049	84.94
512.265	99.94
512.481	86.94
512.698	76.94
512.914	92.94
513.13	84.94
513.346	82.94
513.562	79.94
513.778	95.94
513.994	97.94
514.21	82.94
514.426	86.94
514.642	92.94
514.858	79.94
515.074	88.94
515.29	92.94
515.506	73.94
515.721	91.94
515.937	77.94
516.153	87.94
516.369	88.94
516.585	92.94
516.801	87.94
517.016	84.94
517.232	77.94
517.448	95.94
517.664	93.94
517.879	87.94
518.095	83.94
518.311	88.94
518.527	75.94
518.742	85.94
518.958	96.94
519.173	85.94
519.389	65.94
519.605	76.94
