Data from BG_HRD10591_062.txt Node
Date: Fri May 16 15:14:53 EDT 2025
User: Yrep
Spectrometer: HR+D1059
Trigger mode: 1
Integration Time (sec): 1.000000E-1
Scans to average: 1
Electric dark correction enabled: true
Nonlinearity correction enabled: false
Boxcar width: 0
XAxis mode: Wavelengths
Number of Pixels in Spectrum: 2048
>>>>>Begin Spectral Data<<<<<
223.165	-23.94
223.4	-23.94
223.635	-23.94
223.869	-17.94
224.104	-5.94
224.338	-10.94
224.573	-19.94
224.808	-9.94
225.042	2.06
225.277	-12.94
225.511	-4.94
225.746	2.06
225.98	15.06
226.215	10.06
226.449	23.06
226.683	6.06
226.918	21.06
227.152	27.06
227.387	36.06
227.621	40.06
227.856	56.06
228.09	65.06
228.324	53.06
228.559	58.06
228.793	59.06
229.027	64.06
229.262	68.06
229.496	82.06
229.73	75.06
229.964	86.06
230.199	74.06
230.433	76.06
230.667	78.06
230.901	75.06
231.136	88.06
231.37	86.06
231.604	63.06
231.838	72.06
232.072	77.06
232.306	77.06
232.541	85.06
232.775	77.06
233.009	87.06
233.243	87.06
233.477	93.06
233.711	72.06
233.945	72.06
234.179	85.06
234.413	83.06
234.647	97.06
234.881	81.06
235.115	87.06
235.349	69.06
235.583	81.06
235.817	74.06
236.051	73.06
236.285	81.06
236.519	67.06
236.753	76.06
236.987	75.06
237.221	78.06
237.455	89.06
237.689	70.06
237.922	67.06
238.156	89.06
238.39	80.06
238.624	72.06
238.858	82.06
239.091	81.06
239.325	66.06
239.559	74.06
239.793	78.06
240.027	68.06
240.26	79.06
240.494	76.06
240.728	75.06
240.961	88.06
241.195	78.06
241.429	80.06
241.662	78.06
241.896	82.06
242.13	90.06
242.363	64.06
242.597	66.06
242.83	71.06
243.064	80.06
243.298	80.06
243.531	82.06
243.765	80.06
243.998	82.06
244.232	90.06
244.465	73.06
244.699	81.06
244.932	85.06
245.166	84.06
245.399	73.06
245.633	76.06
245.866	88.06
246.099	84.06
246.333	92.06
246.566	72.06
246.8	84.06
247.033	91.06
247.266	86.06
247.5	78.06
247.733	72.06
247.966	87.06
248.2	78.06
248.433	84.06
248.666	86.06
248.899	88.06
249.133	83.06
249.366	72.06
249.599	84.06
249.832	74.06
250.066	84.06
250.299	80.06
250.532	76.06
250.765	84.06
250.998	80.06
251.231	81.06
251.465	76.06
251.698	76.06
251.931	65.06
252.164	87.06
252.397	72.06
252.63	84.06
252.863	86.06
253.096	87.06
253.329	74.06
253.562	93.06
253.795	70.06
254.028	69.06
254.261	86.06
254.494	80.06
254.727	84.06
254.96	82.06
255.193	72.06
255.426	82.06
255.659	75.06
255.892	95.06
256.124	72.06
256.357	77.06
256.59	82.06
256.823	81.06
257.056	85.06
257.289	93.06
257.521	81.06
257.754	78.06
257.987	82.06
258.22	82.06
258.452	86.06
258.685	74.06
258.918	78.06
259.151	100.06
259.383	72.06
259.616	79.06
259.849	97.06
260.081	83.06
260.314	83.06
260.547	73.06
260.779	84.06
261.012	78.06
261.244	76.06
261.477	81.06
261.71	82.06
261.942	85.06
262.175	70.06
262.407	73.06
262.64	78.06
262.872	88.06
263.105	96.06
263.337	78.06
263.57	89.06
263.802	78.06
264.035	98.06
264.267	81.06
264.499	81.06
264.732	83.06
264.964	89.06
265.197	87.06
265.429	67.06
265.661	81.06
265.894	75.06
266.126	90.06
266.358	85.06
266.591	79.06
266.823	100.06
267.055	79.06
267.287	75.06
267.52	96.06
267.752	102.06
267.984	80.06
268.216	87.06
268.448	100.06
268.681	96.06
268.913	86.06
269.145	80.06
269.377	97.06
269.609	89.06
269.841	90.06
270.073	86.06
270.306	82.06
270.538	85.06
270.77	93.06
271.002	85.06
271.234	78.06
271.466	89.06
271.698	79.06
271.93	84.06
272.162	77.06
272.394	87.06
272.626	89.06
272.858	78.06
273.09	98.06
273.322	91.06
273.553	77.06
273.785	70.06
274.017	79.06
274.249	90.06
274.481	85.06
274.713	74.06
274.945	78.06
275.176	88.06
275.408	86.06
275.64	92.06
275.872	109.06
276.104	70.06
276.335	97.06
276.567	87.06
276.799	79.06
277.031	76.06
277.262	89.06
277.494	85.06
277.726	84.06
277.957	91.06
278.189	88.06
278.421	78.06
278.652	88.06
278.884	88.06
279.115	100.06
279.347	88.06
279.579	85.06
279.81	95.06
280.042	90.06
280.273	82.06
280.505	101.06
280.736	89.06
280.968	95.06
281.199	100.06
281.431	82.06
281.662	88.06
281.894	83.06
282.125	87.06
282.356	90.06
282.588	89.06
282.819	75.06
283.051	72.06
283.282	77.06
283.513	83.06
283.745	84.06
283.976	86.06
284.207	66.06
284.439	69.06
284.67	106.06
284.901	80.06
285.132	100.06
285.364	86.06
285.595	84.06
285.826	100.06
286.057	91.06
286.288	88.06
286.52	80.06
286.751	96.06
286.982	88.06
287.213	73.06
287.444	81.06
287.675	87.06
287.906	72.06
288.138	86.06
288.369	87.06
288.6	89.06
288.831	89.06
289.062	84.06
289.293	76.06
289.524	84.06
289.755	96.06
289.986	80.06
290.217	88.06
290.448	85.06
290.679	104.06
290.91	101.06
291.141	76.06
291.371	96.06
291.602	93.06
291.833	87.06
292.064	76.06
292.295	95.06
292.526	87.06
292.757	91.06
292.987	79.06
293.218	88.06
293.449	84.06
293.68	93.06
293.91	97.06
294.141	90.06
294.372	67.06
294.603	84.06
294.833	95.06
295.064	99.06
295.295	96.06
295.525	84.06
295.756	109.06
295.987	94.06
296.217	91.06
296.448	81.06
296.679	96.06
296.909	95.06
297.14	92.06
297.37	95.06
297.601	93.06
297.831	93.06
298.062	85.06
298.292	83.06
298.523	91.06
298.753	107.06
298.984	91.06
299.214	89.06
299.445	83.06
299.675	72.06
299.905	76.06
300.136	101.06
300.366	93.06
300.597	85.06
300.827	96.06
301.057	81.06
301.288	89.06
301.518	96.06
301.748	89.06
301.979	97.06
302.209	93.06
302.439	88.06
302.669	92.06
302.9	75.06
303.13	81.06
303.36	86.06
303.59	98.06
303.82	89.06
304.051	82.06
304.281	102.06
304.511	105.06
304.741	81.06
304.971	95.06
305.201	83.06
305.431	79.06
305.661	102.06
305.891	86.06
306.121	93.06
306.352	85.06
306.582	80.06
306.812	96.06
307.042	94.06
307.272	86.06
307.502	85.06
307.731	85.06
307.961	96.06
308.191	98.06
308.421	93.06
308.651	84.06
308.881	90.06
309.111	89.06
309.341	77.06
309.571	81.06
309.8	95.06
310.03	97.06
310.26	101.06
310.49	91.06
310.72	90.06
310.949	84.06
311.179	86.06
311.409	75.06
311.639	88.06
311.868	86.06
312.098	84.06
312.328	89.06
312.557	89.06
312.787	95.06
313.017	93.06
313.246	93.06
313.476	96.06
313.706	82.06
313.935	87.06
314.165	84.06
314.394	86.06
314.624	84.06
314.853	86.06
315.083	88.06
315.312	95.06
315.542	74.06
315.771	102.06
316.001	82.06
316.23	97.06
316.46	92.06
316.689	80.06
316.919	88.06
317.148	107.06
317.377	95.06
317.607	95.06
317.836	71.06
318.065	87.06
318.295	95.06
318.524	97.06
318.753	85.06
318.983	94.06
319.212	84.06
319.441	72.06
319.67	93.06
319.9	81.06
320.129	93.06
320.358	68.06
320.587	102.06
320.816	88.06
321.046	101.06
321.275	103.06
321.504	96.06
321.733	81.06
321.962	96.06
322.191	92.06
322.42	73.06
322.649	97.06
322.878	102.06
323.108	100.06
323.337	79.06
323.566	86.06
323.795	94.06
324.024	86.06
324.253	88.06
324.482	84.06
324.71	88.06
324.939	96.06
325.168	92.06
325.397	76.06
325.626	95.06
325.855	88.06
326.084	95.06
326.313	79.06
326.542	89.06
326.77	99.06
326.999	102.06
327.228	86.06
327.457	86.06
327.686	81.06
327.914	78.06
328.143	92.06
328.372	91.06
328.6	95.06
328.829	92.06
329.058	88.06
329.287	84.06
329.515	96.06
329.744	100.06
329.972	100.06
330.201	99.06
330.43	85.06
330.658	82.06
330.887	94.06
331.115	90.06
331.344	96.06
331.572	89.06
331.801	78.06
332.03	95.06
332.258	94.06
332.486	82.06
332.715	83.06
332.943	74.06
333.172	89.06
333.4	90.06
333.629	87.06
333.857	90.06
334.085	86.06
334.314	88.06
334.542	88.06
334.771	77.06
334.999	100.06
335.227	82.06
335.455	93.06
335.684	102.06
335.912	87.06
336.14	82.06
336.369	93.06
336.597	93.06
336.825	89.06
337.053	93.06
337.281	104.06
337.51	81.06
337.738	95.06
337.966	90.06
338.194	97.06
338.422	86.06
338.65	101.06
338.878	77.06
339.106	93.06
339.334	92.06
339.562	93.06
339.79	79.06
340.018	80.06
340.246	88.06
340.474	101.06
340.702	84.06
340.93	94.06
341.158	80.06
341.386	83.06
341.614	86.06
341.842	82.06
342.07	78.06
342.298	100.06
342.526	80.06
342.754	93.06
342.981	85.06
343.209	98.06
343.437	101.06
343.665	84.06
343.893	81.06
344.12	79.06
344.348	92.06
344.576	91.06
344.804	100.06
345.031	93.06
345.259	84.06
345.487	92.06
345.714	89.06
345.942	84.06
346.17	83.06
346.397	94.06
346.625	104.06
346.853	84.06
347.08	107.06
347.308	108.06
347.535	91.06
347.763	88.06
347.99	85.06
348.218	100.06
348.445	77.06
348.673	105.06
348.9	86.06
349.128	93.06
349.355	75.06
349.583	97.06
349.81	67.06
350.037	76.06
350.265	95.06
350.492	82.06
350.72	93.06
350.947	79.06
351.174	92.06
351.402	88.06
351.629	95.06
351.856	106.06
352.083	93.06
352.311	84.06
352.538	85.06
352.765	92.06
352.992	104.06
353.22	78.06
353.447	85.06
353.674	104.06
353.901	85.06
354.128	93.06
354.355	81.06
354.583	93.06
354.81	81.06
355.037	94.06
355.264	89.06
355.491	79.06
355.718	80.06
355.945	87.06
356.172	102.06
356.399	87.06
356.626	83.06
356.853	84.06
357.08	80.06
357.307	97.06
357.534	97.06
357.761	84.06
357.988	75.06
358.215	86.06
358.441	95.06
358.668	89.06
358.895	102.06
359.122	82.06
359.349	100.06
359.576	74.06
359.802	87.06
360.029	90.06
360.256	89.06
360.483	89.06
360.709	93.06
360.936	100.06
361.163	96.06
361.39	94.06
361.616	80.06
361.843	92.06
362.07	97.06
362.296	87.06
362.523	84.06
362.749	87.06
362.976	95.06
363.203	90.06
363.429	81.06
363.656	87.06
363.882	80.06
364.109	92.06
364.335	93.06
364.562	95.06
364.788	97.06
365.015	98.06
365.241	96.06
365.468	97.06
365.694	79.06
365.92	101.06
366.147	86.06
366.373	72.06
366.599	95.06
366.826	84.06
367.052	90.06
367.278	97.06
367.505	80.06
367.731	103.06
367.957	91.06
368.184	77.06
368.41	81.06
368.636	93.06
368.862	72.06
369.089	89.06
369.315	86.06
369.541	94.06
369.767	81.06
369.993	97.06
370.219	83.06
370.445	84.06
370.672	92.06
370.898	103.06
371.124	82.06
371.35	97.06
371.576	112.06
371.802	86.06
372.028	90.06
372.254	81.06
372.48	76.06
372.706	67.06
372.932	100.06
373.158	92.06
373.384	93.06
373.61	81.06
373.835	86.06
374.061	90.06
374.287	84.06
374.513	87.06
374.739	82.06
374.965	93.06
375.191	101.06
375.416	88.06
375.642	95.06
375.868	87.06
376.094	112.06
376.319	95.06
376.545	93.06
376.771	91.06
376.997	97.06
377.222	82.06
377.448	78.06
377.674	88.06
377.899	90.06
378.125	91.06
378.35	99.06
378.576	72.06
378.802	91.06
379.027	82.06
379.253	78.06
379.478	81.06
379.704	94.06
379.929	98.06
380.155	100.06
380.38	104.06
380.606	95.06
380.831	78.06
381.057	85.06
381.282	94.06
381.507	85.06
381.733	88.06
381.958	86.06
382.184	80.06
382.409	79.06
382.634	88.06
382.86	87.06
383.085	81.06
383.31	97.06
383.535	87.06
383.761	100.06
383.986	88.06
384.211	100.06
384.436	86.06
384.662	88.06
384.887	88.06
385.112	92.06
385.337	76.06
385.562	90.06
385.787	82.06
386.013	87.06
386.238	85.06
386.463	92.06
386.688	96.06
386.913	96.06
387.138	87.06
387.363	81.06
387.588	92.06
387.813	96.06
388.038	87.06
388.263	88.06
388.488	86.06
388.713	84.06
388.938	90.06
389.163	80.06
389.387	88.06
389.612	95.06
389.837	84.06
390.062	84.06
390.287	88.06
390.512	87.06
390.736	81.06
390.961	96.06
391.186	88.06
391.411	89.06
391.636	94.06
391.86	76.06
392.085	81.06
392.31	78.06
392.534	90.06
392.759	92.06
392.984	90.06
393.208	90.06
393.433	90.06
393.658	82.06
393.882	87.06
394.107	91.06
394.331	95.06
394.556	94.06
394.78	98.06
395.005	96.06
395.229	86.06
395.454	87.06
395.678	85.06
395.903	90.06
396.127	94.06
396.352	88.06
396.576	99.06
396.801	88.06
397.025	104.06
397.249	92.06
397.474	101.06
397.698	90.06
397.922	93.06
398.147	93.06
398.371	88.06
398.595	84.06
398.82	87.06
399.044	89.06
399.268	106.06
399.492	89.06
399.717	94.06
399.941	100.06
400.165	98.06
400.389	109.06
400.613	96.06
400.837	84.06
401.062	92.06
401.286	81.06
401.51	91.06
401.734	76.06
401.958	100.06
402.182	99.06
402.406	104.06
402.63	91.06
402.854	100.06
403.078	90.06
403.302	79.06
403.526	96.06
403.75	94.06
403.974	88.06
404.198	82.06
404.422	98.06
404.645	96.06
404.869	94.06
405.093	96.06
405.317	105.06
405.541	101.06
405.765	76.06
405.988	96.06
406.212	95.06
406.436	83.06
406.66	90.06
406.883	92.06
407.107	88.06
407.331	92.06
407.555	107.06
407.778	84.06
408.002	101.06
408.226	74.06
408.449	84.06
408.673	104.06
408.896	91.06
409.12	87.06
409.344	98.06
409.567	96.06
409.791	95.06
410.014	88.06
410.238	98.06
410.461	93.06
410.685	80.06
410.908	83.06
411.132	94.06
411.355	96.06
411.578	91.06
411.802	100.06
412.025	108.06
412.249	98.06
412.472	79.06
412.695	90.06
412.919	96.06
413.142	110.06
413.365	88.06
413.589	92.06
413.812	87.06
414.035	106.06
414.258	88.06
414.482	78.06
414.705	94.06
414.928	90.06
415.151	80.06
415.374	87.06
415.597	92.06
415.821	83.06
416.044	80.06
416.267	79.06
416.49	88.06
416.713	89.06
416.936	86.06
417.159	100.06
417.382	94.06
417.605	102.06
417.828	104.06
418.051	92.06
418.274	91.06
418.497	90.06
418.72	97.06
418.943	95.06
419.166	108.06
419.389	95.06
419.611	98.06
419.834	92.06
420.057	93.06
420.28	91.06
420.503	84.06
420.726	95.06
420.948	77.06
421.171	91.06
421.394	93.06
421.617	92.06
421.839	100.06
422.062	98.06
422.285	78.06
422.507	86.06
422.73	88.06
422.953	82.06
423.175	95.06
423.398	91.06
423.621	95.06
423.843	87.06
424.066	95.06
424.288	92.06
424.511	95.06
424.733	87.06
424.956	89.06
425.178	93.06
425.401	85.06
425.623	100.06
425.846	84.06
426.068	94.06
426.291	88.06
426.513	82.06
426.735	95.06
426.958	87.06
427.18	98.06
427.402	82.06
427.625	90.06
427.847	86.06
428.069	88.06
428.292	101.06
428.514	81.06
428.736	76.06
428.958	74.06
429.181	91.06
429.403	89.06
429.625	100.06
429.847	92.06
430.069	85.06
430.292	89.06
430.514	76.06
430.736	87.06
430.958	82.06
431.18	84.06
431.402	90.06
431.624	87.06
431.846	90.06
432.068	98.06
432.29	107.06
432.512	89.06
432.734	97.06
432.956	102.06
433.178	97.06
433.4	91.06
433.622	93.06
433.844	82.06
434.066	92.06
434.287	84.06
434.509	93.06
434.731	98.06
434.953	94.06
435.175	95.06
435.397	87.06
435.618	99.06
435.84	85.06
436.062	93.06
436.284	92.06
436.505	97.06
436.727	88.06
436.949	93.06
437.17	92.06
437.392	76.06
437.614	100.06
437.835	102.06
438.057	75.06
438.278	88.06
438.5	91.06
438.721	93.06
438.943	97.06
439.165	96.06
439.386	88.06
439.608	94.06
439.829	88.06
440.05	77.06
440.272	96.06
440.493	91.06
440.715	90.06
440.936	82.06
441.158	96.06
441.379	102.06
441.6	88.06
441.822	87.06
442.043	81.06
442.264	90.06
442.486	80.06
442.707	94.06
442.928	80.06
443.149	90.06
443.371	107.06
443.592	71.06
443.813	97.06
444.034	84.06
444.255	82.06
444.476	96.06
444.698	84.06
444.919	91.06
445.14	181.06
445.361	128.06
445.582	98.06
445.803	100.06
446.024	78.06
446.245	81.06
446.466	93.06
446.687	93.06
446.908	100.06
447.129	90.06
447.35	81.06
447.571	85.06
447.792	91.06
448.013	80.06
448.234	98.06
448.455	90.06
448.675	95.06
448.896	91.06
449.117	88.06
449.338	69.06
449.559	87.06
449.779	77.06
450	80.06
450.221	90.06
450.442	75.06
450.662	92.06
450.883	86.06
451.104	86.06
451.324	79.06
451.545	87.06
451.766	100.06
451.986	97.06
452.207	85.06
452.428	87.06
452.648	87.06
452.869	86.06
453.089	93.06
453.31	85.06
453.53	96.06
453.751	79.06
453.971	89.06
454.192	90.06
454.412	83.06
454.633	94.06
454.853	90.06
455.073	85.06
455.294	92.06
455.514	100.06
455.734	104.06
455.955	96.06
456.175	89.06
456.395	84.06
456.616	92.06
456.836	102.06
457.056	86.06
457.276	94.06
457.497	86.06
457.717	80.06
457.937	88.06
458.157	91.06
458.377	86.06
458.598	81.06
458.818	89.06
459.038	78.06
459.258	102.06
459.478	93.06
459.698	94.06
459.918	77.06
460.138	93.06
460.358	100.06
460.578	76.06
460.798	86.06
461.018	108.06
461.238	106.06
461.458	86.06
461.678	93.06
461.898	92.06
462.118	91.06
462.338	94.06
462.558	95.06
462.777	94.06
462.997	100.06
463.217	92.06
463.437	90.06
463.657	100.06
463.876	80.06
464.096	95.06
464.316	87.06
464.536	91.06
464.755	97.06
464.975	83.06
465.195	82.06
465.414	84.06
465.634	91.06
465.854	80.06
466.073	80.06
466.293	90.06
466.512	92.06
466.732	90.06
466.951	88.06
467.171	94.06
467.391	89.06
467.61	106.06
467.829	89.06
468.049	95.06
468.268	97.06
468.488	78.06
468.707	92.06
468.927	91.06
469.146	91.06
469.365	106.06
469.585	80.06
469.804	81.06
470.023	92.06
470.243	83.06
470.462	97.06
470.681	100.06
470.901	88.06
471.12	100.06
471.339	88.06
471.558	89.06
471.777	89.06
471.997	103.06
472.216	86.06
472.435	76.06
472.654	85.06
472.873	90.06
473.092	88.06
473.311	93.06
473.53	93.06
473.749	72.06
473.968	88.06
474.187	95.06
474.406	82.06
474.625	82.06
474.844	90.06
475.063	90.06
475.282	90.06
475.501	97.06
475.72	85.06
475.939	86.06
476.158	89.06
476.377	71.06
476.596	96.06
476.814	104.06
477.033	88.06
477.252	94.06
477.471	93.06
477.69	79.06
477.908	82.06
478.127	116.06
478.346	93.06
478.564	90.06
478.783	94.06
479.002	108.06
479.22	91.06
479.439	90.06
479.658	80.06
479.876	101.06
480.095	101.06
480.313	82.06
480.532	84.06
480.751	83.06
480.969	105.06
481.188	84.06
481.406	95.06
481.624	106.06
481.843	94.06
482.061	84.06
482.28	90.06
482.498	83.06
482.717	81.06
482.935	92.06
483.153	89.06
483.372	93.06
483.59	90.06
483.808	85.06
484.027	98.06
484.245	97.06
484.463	91.06
484.681	100.06
484.9	79.06
485.118	89.06
485.336	71.06
485.554	92.06
485.772	90.06
485.99	93.06
486.209	92.06
486.427	82.06
486.645	84.06
486.863	100.06
487.081	84.06
487.299	87.06
487.517	88.06
487.735	104.06
487.953	87.06
488.171	92.06
488.389	108.06
488.607	92.06
488.825	103.06
489.043	97.06
489.261	93.06
489.479	82.06
489.696	90.06
489.914	79.06
490.132	97.06
490.35	82.06
490.568	91.06
490.786	100.06
491.003	89.06
491.221	88.06
491.439	95.06
491.657	88.06
491.874	107.06
492.092	103.06
492.31	91.06
492.527	86.06
492.745	95.06
492.963	98.06
493.18	106.06
493.398	94.06
493.615	94.06
493.833	113.06
494.05	109.06
494.268	90.06
494.485	84.06
494.703	94.06
494.92	84.06
495.138	93.06
495.355	89.06
495.573	88.06
495.79	92.06
496.008	89.06
496.225	90.06
496.442	102.06
496.66	81.06
496.877	76.06
497.094	105.06
497.312	90.06
497.529	101.06
497.746	84.06
497.963	88.06
498.181	112.06
498.398	80.06
498.615	94.06
498.832	98.06
499.049	89.06
499.267	94.06
499.484	92.06
499.701	102.06
499.918	117.06
500.135	118.06
500.352	117.06
500.569	130.06
500.786	118.06
501.003	101.06
501.22	114.06
501.437	120.06
501.654	94.06
501.871	92.06
502.088	98.06
502.305	103.06
502.522	82.06
502.739	94.06
502.956	102.06
503.172	100.06
503.389	109.06
503.606	101.06
503.823	98.06
504.04	83.06
504.256	91.06
504.473	84.06
504.69	97.06
504.907	94.06
505.123	103.06
505.34	102.06
505.557	86.06
505.773	95.06
505.99	98.06
506.207	92.06
506.423	99.06
506.64	76.06
506.856	86.06
507.073	77.06
507.289	79.06
507.506	97.06
507.722	103.06
507.939	89.06
508.155	72.06
508.372	92.06
508.588	85.06
508.805	97.06
509.021	88.06
509.238	80.06
509.454	88.06
509.67	86.06
509.887	86.06
510.103	87.06
510.319	87.06
510.536	100.06
510.752	94.06
510.968	87.06
511.184	89.06
511.401	86.06
511.617	98.06
511.833	82.06
512.049	84.06
512.265	106.06
512.481	86.06
512.698	95.06
512.914	102.06
513.13	102.06
513.346	87.06
513.562	80.06
513.778	93.06
513.994	91.06
514.21	95.06
514.426	90.06
514.642	89.06
514.858	111.06
515.074	96.06
515.29	93.06
515.506	94.06
515.721	85.06
515.937	96.06
516.153	91.06
516.369	79.06
516.585	102.06
516.801	106.06
517.016	100.06
517.232	77.06
517.448	100.06
517.664	106.06
517.879	90.06
518.095	104.06
