Data from BG_HRD10591_029.txt Node
Date: Fri May 16 15:14:37 EDT 2025
User: Yrep
Spectrometer: HR+D1059
Trigger mode: 1
Integration Time (sec): 1.000000E-1
Scans to average: 1
Electric dark correction enabled: true
Nonlinearity correction enabled: false
Boxcar width: 0
XAxis mode: Wavelengths
Number of Pixels in Spectrum: 2048
>>>>>Begin Spectral Data<<<<<
223.165	-3.75
223.4	-3.75
223.635	-3.75
223.869	-20.75
224.104	-20.75
224.338	-14.75
224.573	-13.75
224.808	-10.75
225.042	-12.75
225.277	-6.75
225.511	-12.75
225.746	7.25
225.98	3.25
226.215	15.25
226.449	16.25
226.683	15.25
226.918	32.25
227.152	27.25
227.387	42.25
227.621	46.25
227.856	59.25
228.09	46.25
228.324	53.25
228.559	53.25
228.793	48.25
229.027	57.25
229.262	61.25
229.496	65.25
229.73	65.25
229.964	72.25
230.199	85.25
230.433	77.25
230.667	86.25
230.901	77.25
231.136	85.25
231.37	65.25
231.604	74.25
231.838	66.25
232.072	86.25
232.306	94.25
232.541	83.25
232.775	86.25
233.009	84.25
233.243	96.25
233.477	94.25
233.711	68.25
233.945	81.25
234.179	83.25
234.413	76.25
234.647	77.25
234.881	86.25
235.115	66.25
235.349	73.25
235.583	75.25
235.817	79.25
236.051	85.25
236.285	85.25
236.519	86.25
236.753	71.25
236.987	69.25
237.221	79.25
237.455	82.25
237.689	84.25
237.922	78.25
238.156	65.25
238.39	77.25
238.624	76.25
238.858	67.25
239.091	77.25
239.325	68.25
239.559	73.25
239.793	77.25
240.027	62.25
240.26	73.25
240.494	67.25
240.728	74.25
240.961	74.25
241.195	88.25
241.429	73.25
241.662	68.25
241.896	79.25
242.13	85.25
242.363	69.25
242.597	75.25
242.83	86.25
243.064	82.25
243.298	82.25
243.531	83.25
243.765	78.25
243.998	87.25
244.232	84.25
244.465	80.25
244.699	73.25
244.932	93.25
245.166	90.25
245.399	78.25
245.633	85.25
245.866	101.25
246.099	82.25
246.333	75.25
246.566	80.25
246.8	85.25
247.033	82.25
247.266	94.25
247.5	81.25
247.733	90.25
247.966	81.25
248.2	89.25
248.433	83.25
248.666	81.25
248.899	82.25
249.133	78.25
249.366	65.25
249.599	66.25
249.832	77.25
250.066	88.25
250.299	77.25
250.532	79.25
250.765	87.25
250.998	83.25
251.231	77.25
251.465	82.25
251.698	84.25
251.931	59.25
252.164	73.25
252.397	76.25
252.63	71.25
252.863	80.25
253.096	85.25
253.329	78.25
253.562	69.25
253.795	84.25
254.028	90.25
254.261	81.25
254.494	79.25
254.727	87.25
254.96	90.25
255.193	80.25
255.426	71.25
255.659	75.25
255.892	83.25
256.124	84.25
256.357	87.25
256.59	99.25
256.823	77.25
257.056	75.25
257.289	72.25
257.521	81.25
257.754	79.25
257.987	69.25
258.22	67.25
258.452	68.25
258.685	84.25
258.918	77.25
259.151	95.25
259.383	97.25
259.616	85.25
259.849	92.25
260.081	79.25
260.314	93.25
260.547	83.25
260.779	69.25
261.012	76.25
261.244	84.25
261.477	82.25
261.71	68.25
261.942	91.25
262.175	85.25
262.407	74.25
262.64	83.25
262.872	96.25
263.105	87.25
263.337	101.25
263.57	83.25
263.802	72.25
264.035	83.25
264.267	89.25
264.499	92.25
264.732	87.25
264.964	74.25
265.197	75.25
265.429	85.25
265.661	93.25
265.894	79.25
266.126	93.25
266.358	87.25
266.591	96.25
266.823	81.25
267.055	75.25
267.287	87.25
267.52	79.25
267.752	70.25
267.984	87.25
268.216	96.25
268.448	97.25
268.681	92.25
268.913	77.25
269.145	80.25
269.377	86.25
269.609	98.25
269.841	89.25
270.073	86.25
270.306	81.25
270.538	97.25
270.77	88.25
271.002	85.25
271.234	81.25
271.466	89.25
271.698	86.25
271.93	75.25
272.162	81.25
272.394	77.25
272.626	94.25
272.858	86.25
273.09	91.25
273.322	85.25
273.553	92.25
273.785	74.25
274.017	95.25
274.249	83.25
274.481	74.25
274.713	93.25
274.945	81.25
275.176	85.25
275.408	90.25
275.64	95.25
275.872	79.25
276.104	79.25
276.335	87.25
276.567	92.25
276.799	74.25
277.031	82.25
277.262	78.25
277.494	88.25
277.726	85.25
277.957	87.25
278.189	66.25
278.421	76.25
278.652	89.25
278.884	90.25
279.115	88.25
279.347	90.25
279.579	101.25
279.81	106.25
280.042	92.25
280.273	75.25
280.505	78.25
280.736	96.25
280.968	95.25
281.199	88.25
281.431	89.25
281.662	98.25
281.894	87.25
282.125	82.25
282.356	81.25
282.588	81.25
282.819	82.25
283.051	79.25
283.282	91.25
283.513	98.25
283.745	94.25
283.976	85.25
284.207	68.25
284.439	95.25
284.67	80.25
284.901	96.25
285.132	81.25
285.364	90.25
285.595	89.25
285.826	84.25
286.057	101.25
286.288	78.25
286.52	90.25
286.751	99.25
286.982	92.25
287.213	82.25
287.444	97.25
287.675	89.25
287.906	97.25
288.138	87.25
288.369	96.25
288.6	71.25
288.831	89.25
289.062	91.25
289.293	98.25
289.524	78.25
289.755	91.25
289.986	99.25
290.217	80.25
290.448	94.25
290.679	93.25
290.91	88.25
291.141	77.25
291.371	95.25
291.602	81.25
291.833	96.25
292.064	94.25
292.295	92.25
292.526	72.25
292.757	79.25
292.987	77.25
293.218	81.25
293.449	83.25
293.68	80.25
293.91	91.25
294.141	107.25
294.372	76.25
294.603	72.25
294.833	79.25
295.064	94.25
295.295	102.25
295.525	86.25
295.756	80.25
295.987	86.25
296.217	101.25
296.448	94.25
296.679	95.25
296.909	80.25
297.14	90.25
297.37	90.25
297.601	88.25
297.831	86.25
298.062	98.25
298.292	85.25
298.523	97.25
298.753	90.25
298.984	85.25
299.214	81.25
299.445	109.25
299.675	91.25
299.905	82.25
300.136	93.25
300.366	92.25
300.597	90.25
300.827	81.25
301.057	101.25
301.288	91.25
301.518	97.25
301.748	85.25
301.979	90.25
302.209	89.25
302.439	82.25
302.669	70.25
302.9	87.25
303.13	88.25
303.36	86.25
303.59	88.25
303.82	88.25
304.051	99.25
304.281	87.25
304.511	86.25
304.741	97.25
304.971	92.25
305.201	91.25
305.431	89.25
305.661	95.25
305.891	85.25
306.121	90.25
306.352	66.25
306.582	89.25
306.812	93.25
307.042	90.25
307.272	70.25
307.502	71.25
307.731	86.25
307.961	95.25
308.191	96.25
308.421	88.25
308.651	101.25
308.881	85.25
309.111	81.25
309.341	75.25
309.571	82.25
309.8	81.25
310.03	93.25
310.26	86.25
310.49	97.25
310.72	91.25
310.949	87.25
311.179	88.25
311.409	89.25
311.639	67.25
311.868	87.25
312.098	92.25
312.328	93.25
312.557	99.25
312.787	97.25
313.017	103.25
313.246	97.25
313.476	97.25
313.706	87.25
313.935	96.25
314.165	90.25
314.394	88.25
314.624	95.25
314.853	104.25
315.083	90.25
315.312	88.25
315.542	88.25
315.771	80.25
316.001	91.25
316.23	90.25
316.46	85.25
316.689	104.25
316.919	98.25
317.148	87.25
317.377	71.25
317.607	92.25
317.836	95.25
318.065	83.25
318.295	101.25
318.524	89.25
318.753	102.25
318.983	92.25
319.212	94.25
319.441	98.25
319.67	87.25
319.9	93.25
320.129	97.25
320.358	96.25
320.587	92.25
320.816	96.25
321.046	85.25
321.275	99.25
321.504	96.25
321.733	87.25
321.962	94.25
322.191	93.25
322.42	109.25
322.649	102.25
322.878	99.25
323.108	89.25
323.337	90.25
323.566	77.25
323.795	87.25
324.024	86.25
324.253	91.25
324.482	84.25
324.71	83.25
324.939	91.25
325.168	95.25
325.397	78.25
325.626	87.25
325.855	80.25
326.084	103.25
326.313	105.25
326.542	97.25
326.77	96.25
326.999	95.25
327.228	84.25
327.457	79.25
327.686	107.25
327.914	95.25
328.143	91.25
328.372	92.25
328.6	93.25
328.829	80.25
329.058	81.25
329.287	93.25
329.515	73.25
329.744	105.25
329.972	83.25
330.201	88.25
330.43	77.25
330.658	97.25
330.887	91.25
331.115	87.25
331.344	86.25
331.572	86.25
331.801	82.25
332.03	95.25
332.258	103.25
332.486	93.25
332.715	101.25
332.943	87.25
333.172	97.25
333.4	76.25
333.629	83.25
333.857	84.25
334.085	84.25
334.314	84.25
334.542	73.25
334.771	94.25
334.999	97.25
335.227	79.25
335.455	95.25
335.684	86.25
335.912	89.25
336.14	107.25
336.369	105.25
336.597	88.25
336.825	94.25
337.053	102.25
337.281	91.25
337.51	89.25
337.738	82.25
337.966	94.25
338.194	91.25
338.422	96.25
338.65	97.25
338.878	99.25
339.106	82.25
339.334	94.25
339.562	99.25
339.79	79.25
340.018	84.25
340.246	92.25
340.474	89.25
340.702	105.25
340.93	104.25
341.158	88.25
341.386	80.25
341.614	92.25
341.842	90.25
342.07	92.25
342.298	89.25
342.526	94.25
342.754	89.25
342.981	92.25
343.209	86.25
343.437	107.25
343.665	90.25
343.893	90.25
344.12	96.25
344.348	104.25
344.576	92.25
344.804	89.25
345.031	108.25
345.259	95.25
345.487	76.25
345.714	89.25
345.942	101.25
346.17	82.25
346.397	83.25
346.625	93.25
346.853	86.25
347.08	82.25
347.308	66.25
347.535	86.25
347.763	95.25
347.99	101.25
348.218	87.25
348.445	88.25
348.673	89.25
348.9	97.25
349.128	90.25
349.355	62.25
349.583	86.25
349.81	85.25
350.037	83.25
350.265	86.25
350.492	79.25
350.72	87.25
350.947	98.25
351.174	101.25
351.402	89.25
351.629	87.25
351.856	90.25
352.083	81.25
352.311	99.25
352.538	96.25
352.765	90.25
352.992	94.25
353.22	103.25
353.447	94.25
353.674	87.25
353.901	97.25
354.128	90.25
354.355	78.25
354.583	94.25
354.81	88.25
355.037	92.25
355.264	91.25
355.491	79.25
355.718	88.25
355.945	87.25
356.172	80.25
356.399	88.25
356.626	74.25
356.853	80.25
357.08	96.25
357.307	90.25
357.534	90.25
357.761	76.25
357.988	94.25
358.215	87.25
358.441	89.25
358.668	83.25
358.895	94.25
359.122	85.25
359.349	84.25
359.576	85.25
359.802	87.25
360.029	97.25
360.256	88.25
360.483	90.25
360.709	94.25
360.936	91.25
361.163	96.25
361.39	90.25
361.616	87.25
361.843	82.25
362.07	86.25
362.296	89.25
362.523	98.25
362.749	89.25
362.976	80.25
363.203	100.25
363.429	85.25
363.656	90.25
363.882	94.25
364.109	101.25
364.335	101.25
364.562	96.25
364.788	77.25
365.015	97.25
365.241	79.25
365.468	80.25
365.694	87.25
365.92	92.25
366.147	85.25
366.373	94.25
366.599	106.25
366.826	94.25
367.052	99.25
367.278	102.25
367.505	88.25
367.731	106.25
367.957	83.25
368.184	90.25
368.41	85.25
368.636	75.25
368.862	90.25
369.089	85.25
369.315	81.25
369.541	93.25
369.767	91.25
369.993	94.25
370.219	80.25
370.445	81.25
370.672	103.25
370.898	89.25
371.124	87.25
371.35	86.25
371.576	78.25
371.802	94.25
372.028	75.25
372.254	86.25
372.48	90.25
372.706	98.25
372.932	90.25
373.158	85.25
373.384	95.25
373.61	84.25
373.835	95.25
374.061	80.25
374.287	92.25
374.513	102.25
374.739	103.25
374.965	82.25
375.191	94.25
375.416	76.25
375.642	101.25
375.868	104.25
376.094	95.25
376.319	91.25
376.545	90.25
376.771	110.25
376.997	101.25
377.222	93.25
377.448	87.25
377.674	92.25
377.899	87.25
378.125	83.25
378.35	85.25
378.576	83.25
378.802	91.25
379.027	97.25
379.253	90.25
379.478	95.25
379.704	94.25
379.929	91.25
380.155	85.25
380.38	78.25
380.606	91.25
380.831	88.25
381.057	102.25
381.282	93.25
381.507	81.25
381.733	82.25
381.958	92.25
382.184	82.25
382.409	88.25
382.634	85.25
382.86	105.25
383.085	96.25
383.31	83.25
383.535	85.25
383.761	87.25
383.986	97.25
384.211	86.25
384.436	93.25
384.662	94.25
384.887	91.25
385.112	78.25
385.337	79.25
385.562	87.25
385.787	99.25
386.013	101.25
386.238	91.25
386.463	105.25
386.688	105.25
386.913	89.25
387.138	87.25
387.363	92.25
387.588	93.25
387.813	97.25
388.038	77.25
388.263	83.25
388.488	88.25
388.713	98.25
388.938	89.25
389.163	74.25
389.387	91.25
389.612	98.25
389.837	94.25
390.062	95.25
390.287	87.25
390.512	85.25
390.736	96.25
390.961	101.25
391.186	90.25
391.411	97.25
391.636	81.25
391.86	85.25
392.085	86.25
392.31	95.25
392.534	89.25
392.759	93.25
392.984	82.25
393.208	97.25
393.433	96.25
393.658	92.25
393.882	96.25
394.107	101.25
394.331	90.25
394.556	97.25
394.78	93.25
395.005	85.25
395.229	82.25
395.454	85.25
395.678	85.25
395.903	72.25
396.127	102.25
396.352	88.25
396.576	90.25
396.801	89.25
397.025	93.25
397.249	92.25
397.474	80.25
397.698	99.25
397.922	75.25
398.147	87.25
398.371	83.25
398.595	82.25
398.82	92.25
399.044	95.25
399.268	98.25
399.492	106.25
399.717	96.25
399.941	72.25
400.165	95.25
400.389	90.25
400.613	93.25
400.837	82.25
401.062	88.25
401.286	85.25
401.51	90.25
401.734	81.25
401.958	91.25
402.182	83.25
402.406	87.25
402.63	97.25
402.854	102.25
403.078	105.25
403.302	87.25
403.526	93.25
403.75	91.25
403.974	93.25
404.198	92.25
404.422	94.25
404.645	70.25
404.869	85.25
405.093	95.25
405.317	119.25
405.541	90.25
405.765	91.25
405.988	85.25
406.212	91.25
406.436	97.25
406.66	88.25
406.883	95.25
407.107	92.25
407.331	92.25
407.555	95.25
407.778	98.25
408.002	90.25
408.226	92.25
408.449	74.25
408.673	98.25
408.896	96.25
409.12	91.25
409.344	93.25
409.567	88.25
409.791	95.25
410.014	88.25
410.238	86.25
410.461	92.25
410.685	97.25
410.908	80.25
411.132	95.25
411.355	93.25
411.578	90.25
411.802	97.25
412.025	90.25
412.249	91.25
412.472	100.25
412.695	86.25
412.919	88.25
413.142	85.25
413.365	78.25
413.589	79.25
413.812	89.25
414.035	98.25
414.258	75.25
414.482	107.25
414.705	96.25
414.928	89.25
415.151	90.25
415.374	75.25
415.597	91.25
415.821	79.25
416.044	89.25
416.267	90.25
416.49	92.25
416.713	85.25
416.936	90.25
417.159	97.25
417.382	109.25
417.605	101.25
417.828	95.25
418.051	80.25
418.274	103.25
418.497	85.25
418.72	95.25
418.943	92.25
419.166	88.25
419.389	97.25
419.611	82.25
419.834	93.25
420.057	86.25
420.28	95.25
420.503	99.25
420.726	105.25
420.948	89.25
421.171	104.25
421.394	93.25
421.617	82.25
421.839	89.25
422.062	81.25
422.285	94.25
422.507	91.25
422.73	104.25
422.953	90.25
423.175	85.25
423.398	97.25
423.621	95.25
423.843	82.25
424.066	83.25
424.288	110.25
424.511	92.25
424.733	88.25
424.956	93.25
425.178	85.25
425.401	79.25
425.623	78.25
425.846	93.25
426.068	112.25
426.291	99.25
426.513	87.25
426.735	94.25
426.958	98.25
427.18	90.25
427.402	93.25
427.625	88.25
427.847	90.25
428.069	81.25
428.292	106.25
428.514	90.25
428.736	98.25
428.958	92.25
429.181	99.25
429.403	84.25
429.625	77.25
429.847	81.25
430.069	84.25
430.292	89.25
430.514	95.25
430.736	96.25
430.958	89.25
431.18	78.25
431.402	88.25
431.624	96.25
431.846	92.25
432.068	96.25
432.29	86.25
432.512	94.25
432.734	85.25
432.956	85.25
433.178	100.25
433.4	93.25
433.622	94.25
433.844	89.25
434.066	86.25
434.287	89.25
434.509	89.25
434.731	85.25
434.953	90.25
435.175	87.25
435.397	94.25
435.618	89.25
435.84	89.25
436.062	91.25
436.284	93.25
436.505	91.25
436.727	86.25
436.949	92.25
437.17	91.25
437.392	98.25
437.614	88.25
437.835	90.25
438.057	90.25
438.278	103.25
438.5	96.25
438.721	90.25
438.943	89.25
439.165	97.25
439.386	99.25
439.608	93.25
439.829	100.25
440.05	92.25
440.272	83.25
440.493	92.25
440.715	113.25
440.936	91.25
441.158	96.25
441.379	92.25
441.6	93.25
441.822	91.25
442.043	98.25
442.264	98.25
442.486	78.25
442.707	110.25
442.928	85.25
443.149	86.25
443.371	90.25
443.592	82.25
443.813	91.25
444.034	93.25
444.255	91.25
444.476	87.25
444.698	103.25
444.919	89.25
445.14	174.25
445.361	133.25
445.582	83.25
445.803	86.25
446.024	90.25
446.245	98.25
446.466	91.25
446.687	85.25
446.908	94.25
447.129	85.25
447.35	88.25
447.571	85.25
447.792	89.25
448.013	87.25
448.234	81.25
448.455	86.25
448.675	92.25
448.896	78.25
449.117	90.25
449.338	97.25
449.559	99.25
449.779	85.25
450	84.25
450.221	82.25
450.442	90.25
450.662	79.25
450.883	88.25
451.104	77.25
451.324	102.25
451.545	91.25
451.766	94.25
451.986	85.25
452.207	105.25
452.428	91.25
452.648	89.25
452.869	82.25
453.089	77.25
453.31	91.25
453.53	78.25
453.751	90.25
453.971	86.25
454.192	93.25
454.412	88.25
454.633	80.25
454.853	86.25
455.073	85.25
455.294	89.25
455.514	91.25
455.734	93.25
455.955	99.25
456.175	82.25
456.395	89.25
456.616	93.25
456.836	101.25
457.056	93.25
457.276	92.25
457.497	80.25
457.717	93.25
457.937	99.25
458.157	90.25
458.377	95.25
458.598	85.25
458.818	71.25
459.038	95.25
459.258	80.25
459.478	78.25
459.698	106.25
459.918	86.25
460.138	105.25
460.358	80.25
460.578	81.25
460.798	83.25
461.018	100.25
461.238	101.25
461.458	92.25
461.678	88.25
461.898	114.25
462.118	95.25
462.338	105.25
462.558	104.25
462.777	102.25
462.997	97.25
463.217	105.25
463.437	103.25
463.657	96.25
463.876	101.25
464.096	107.25
464.316	99.25
464.536	97.25
464.755	95.25
464.975	95.25
465.195	108.25
465.414	90.25
465.634	87.25
465.854	94.25
466.073	93.25
466.293	81.25
466.512	80.25
466.732	93.25
466.951	82.25
467.171	89.25
467.391	101.25
467.61	83.25
467.829	81.25
468.049	87.25
468.268	81.25
468.488	91.25
468.707	86.25
468.927	81.25
469.146	83.25
469.365	93.25
469.585	86.25
469.804	102.25
470.023	85.25
470.243	87.25
470.462	98.25
470.681	98.25
470.901	85.25
471.12	91.25
471.339	96.25
471.558	94.25
471.777	87.25
471.997	99.25
472.216	96.25
472.435	74.25
472.654	87.25
472.873	94.25
473.092	83.25
473.311	97.25
473.53	92.25
473.749	90.25
473.968	99.25
474.187	66.25
474.406	67.25
474.625	85.25
474.844	81.25
475.063	82.25
475.282	80.25
475.501	79.25
475.72	94.25
475.939	83.25
476.158	84.25
476.377	81.25
476.596	78.25
476.814	99.25
477.033	87.25
477.252	102.25
477.471	77.25
477.69	91.25
477.908	95.25
478.127	83.25
478.346	100.25
478.564	90.25
478.783	69.25
479.002	98.25
479.22	99.25
479.439	85.25
479.658	87.25
479.876	97.25
480.095	87.25
480.313	97.25
480.532	99.25
480.751	99.25
480.969	98.25
481.188	93.25
481.406	84.25
481.624	93.25
481.843	89.25
482.061	83.25
482.28	83.25
482.498	81.25
482.717	85.25
482.935	93.25
483.153	80.25
483.372	86.25
483.59	89.25
483.808	87.25
484.027	83.25
484.245	83.25
484.463	106.25
484.681	85.25
484.9	82.25
485.118	93.25
485.336	87.25
485.554	98.25
485.772	107.25
485.99	87.25
486.209	88.25
486.427	94.25
486.645	86.25
486.863	86.25
487.081	93.25
487.299	96.25
487.517	89.25
487.735	90.25
487.953	96.25
488.171	91.25
488.389	92.25
488.607	97.25
488.825	99.25
489.043	89.25
489.261	97.25
489.479	88.25
489.696	87.25
489.914	95.25
490.132	104.25
490.35	93.25
490.568	99.25
490.786	87.25
491.003	108.25
491.221	92.25
491.439	91.25
491.657	103.25
491.874	86.25
492.092	85.25
492.31	88.25
492.527	92.25
492.745	86.25
492.963	73.25
493.18	96.25
493.398	85.25
493.615	81.25
493.833	102.25
494.05	90.25
494.268	92.25
494.485	95.25
494.703	93.25
494.92	90.25
495.138	105.25
495.355	97.25
495.573	86.25
495.79	85.25
496.008	93.25
496.225	110.25
496.442	95.25
496.66	93.25
496.877	89.25
497.094	108.25
497.312	104.25
497.529	78.25
497.746	94.25
497.963	92.25
498.181	98.25
498.398	104.25
498.615	85.25
498.832	109.25
499.049	110.25
499.267	101.25
499.484	99.25
499.701	106.25
499.918	98.25
500.135	98.25
500.352	129.25
500.569	114.25
500.786	115.25
501.003	114.25
501.22	119.25
501.437	111.25
501.654	99.25
501.871	105.25
502.088	101.25
502.305	99.25
502.522	103.25
502.739	112.25
502.956	86.25
503.172	109.25
503.389	93.25
503.606	93.25
503.823	96.25
504.04	102.25
504.256	107.25
504.473	105.25
504.69	101.25
504.907	98.25
505.123	100.25
505.34	96.25
505.557	93.25
505.773	92.25
505.99	96.25
506.207	95.25
506.423	104.25
506.64	88.25
506.856	87.25
507.073	97.25
507.289	100.25
507.506	89.25
507.722	85.25
507.939	95.25
508.155	94.25
508.372	80.25
508.588	101.25
508.805	94.25
509.021	73.25
509.238	91.25
509.454	86.25
509.67	83.25
509.887	87.25
510.103	95.25
510.319	95.25
510.536	105.25
510.752	88.25
510.968	91.25
511.184	85.25
511.401	86.25
511.617	89.25
511.833	96.25
512.049	91.25
512.265	94.25
512.481	95.25
512.698	99.25
512.914	92.25
513.13	93.25
513.346	82.25
513.562	94.25
513.778	83.25
513.994	93.25
514.21	94.25
514.426	102.25
514.642	101.25
514.858	94.25
515.074	91.25
515.29	104.25
515.506	91.25
515.721	86.25
515.937	91.25
516.153	80.25
516.369	99.25
516.585	103.25
516.801	98.25
517.016	81.25
517.232	85.25
517.448	92.25
517.664	85.25
517.879	87.25
518.095	94.25
518.311	80.25
