Data from BG_HRD10591_006.txt Node
Date: Fri May 16 15:14:25 EDT 2025
User: Yrep
Spectrometer: HR+D1059
Trigger mode: 1
Integration Time (sec): 1.000000E-1
Scans to average: 1
Electric dark correction enabled: true
Nonlinearity correction enabled: false
Boxcar width: 0
XAxis mode: Wavelengths
Number of Pixels in Spectrum: 2048
>>>>>Begin Spectral Data<<<<<
223.165	-21.19
223.4	-21.19
223.635	-21.19
223.869	-21.19
224.104	-22.19
224.338	-17.19
224.573	-7.19
224.808	-18.19
225.042	-14.19
225.277	-4.19
225.511	3.81
225.746	-3.19
225.98	7.81
226.215	9.81
226.449	26.81
226.683	38.81
226.918	19.81
227.152	21.81
227.387	31.81
227.621	30.81
227.856	33.81
228.09	37.81
228.324	51.81
228.559	65.81
228.793	63.81
229.027	62.81
229.262	65.81
229.496	61.81
229.73	57.81
229.964	55.81
230.199	68.81
230.433	63.81
230.667	89.81
230.901	92.81
231.136	87.81
231.37	68.81
231.604	79.81
231.838	83.81
232.072	72.81
232.306	84.81
232.541	85.81
232.775	82.81
233.009	89.81
233.243	86.81
233.477	91.81
233.711	78.81
233.945	77.81
234.179	78.81
234.413	81.81
234.647	76.81
234.881	73.81
235.115	80.81
235.349	90.81
235.583	81.81
235.817	71.81
236.051	69.81
236.285	67.81
236.519	85.81
236.753	71.81
236.987	74.81
237.221	82.81
237.455	81.81
237.689	67.81
237.922	78.81
238.156	77.81
238.39	60.81
238.624	76.81
238.858	70.81
239.091	75.81
239.325	95.81
239.559	76.81
239.793	64.81
240.027	83.81
240.26	80.81
240.494	78.81
240.728	68.81
240.961	82.81
241.195	77.81
241.429	69.81
241.662	73.81
241.896	65.81
242.13	72.81
242.363	77.81
242.597	63.81
242.83	70.81
243.064	71.81
243.298	80.81
243.531	61.81
243.765	74.81
243.998	82.81
244.232	84.81
244.465	68.81
244.699	78.81
244.932	78.81
245.166	85.81
245.399	71.81
245.633	81.81
245.866	83.81
246.099	79.81
246.333	64.81
246.566	73.81
246.8	73.81
247.033	69.81
247.266	76.81
247.5	65.81
247.733	81.81
247.966	84.81
248.2	66.81
248.433	74.81
248.666	76.81
248.899	81.81
249.133	70.81
249.366	85.81
249.599	71.81
249.832	88.81
250.066	89.81
250.299	68.81
250.532	79.81
250.765	75.81
250.998	77.81
251.231	64.81
251.465	83.81
251.698	74.81
251.931	80.81
252.164	80.81
252.397	66.81
252.63	71.81
252.863	89.81
253.096	62.81
253.329	85.81
253.562	76.81
253.795	91.81
254.028	77.81
254.261	79.81
254.494	64.81
254.727	85.81
254.96	77.81
255.193	79.81
255.426	77.81
255.659	81.81
255.892	80.81
256.124	64.81
256.357	79.81
256.59	72.81
256.823	77.81
257.056	94.81
257.289	89.81
257.521	71.81
257.754	77.81
257.987	82.81
258.22	89.81
258.452	77.81
258.685	91.81
258.918	75.81
259.151	88.81
259.383	88.81
259.616	79.81
259.849	79.81
260.081	80.81
260.314	81.81
260.547	79.81
260.779	79.81
261.012	75.81
261.244	69.81
261.477	86.81
261.71	69.81
261.942	87.81
262.175	75.81
262.407	80.81
262.64	83.81
262.872	79.81
263.105	81.81
263.337	81.81
263.57	83.81
263.802	68.81
264.035	80.81
264.267	84.81
264.499	89.81
264.732	85.81
264.964	71.81
265.197	69.81
265.429	75.81
265.661	85.81
265.894	78.81
266.126	79.81
266.358	75.81
266.591	85.81
266.823	72.81
267.055	87.81
267.287	82.81
267.52	92.81
267.752	99.81
267.984	85.81
268.216	81.81
268.448	71.81
268.681	83.81
268.913	86.81
269.145	79.81
269.377	88.81
269.609	82.81
269.841	73.81
270.073	77.81
270.306	71.81
270.538	78.81
270.77	95.81
271.002	85.81
271.234	79.81
271.466	81.81
271.698	69.81
271.93	84.81
272.162	74.81
272.394	88.81
272.626	69.81
272.858	81.81
273.09	83.81
273.322	84.81
273.553	86.81
273.785	77.81
274.017	93.81
274.249	75.81
274.481	84.81
274.713	81.81
274.945	64.81
275.176	79.81
275.408	77.81
275.64	91.81
275.872	77.81
276.104	82.81
276.335	68.81
276.567	88.81
276.799	70.81
277.031	70.81
277.262	67.81
277.494	75.81
277.726	82.81
277.957	75.81
278.189	103.81
278.421	82.81
278.652	74.81
278.884	93.81
279.115	58.81
279.347	77.81
279.579	79.81
279.81	92.81
280.042	72.81
280.273	87.81
280.505	81.81
280.736	83.81
280.968	75.81
281.199	81.81
281.431	67.81
281.662	83.81
281.894	90.81
282.125	82.81
282.356	91.81
282.588	76.81
282.819	87.81
283.051	83.81
283.282	60.81
283.513	77.81
283.745	81.81
283.976	76.81
284.207	79.81
284.439	80.81
284.67	91.81
284.901	78.81
285.132	97.81
285.364	82.81
285.595	75.81
285.826	76.81
286.057	77.81
286.288	82.81
286.52	77.81
286.751	71.81
286.982	85.81
287.213	91.81
287.444	83.81
287.675	88.81
287.906	83.81
288.138	79.81
288.369	79.81
288.6	77.81
288.831	82.81
289.062	79.81
289.293	77.81
289.524	73.81
289.755	85.81
289.986	86.81
290.217	91.81
290.448	79.81
290.679	82.81
290.91	78.81
291.141	74.81
291.371	92.81
291.602	75.81
291.833	89.81
292.064	94.81
292.295	86.81
292.526	101.81
292.757	83.81
292.987	78.81
293.218	77.81
293.449	73.81
293.68	69.81
293.91	76.81
294.141	85.81
294.372	86.81
294.603	74.81
294.833	85.81
295.064	79.81
295.295	84.81
295.525	87.81
295.756	67.81
295.987	79.81
296.217	87.81
296.448	95.81
296.679	80.81
296.909	88.81
297.14	77.81
297.37	92.81
297.601	84.81
297.831	78.81
298.062	86.81
298.292	84.81
298.523	98.81
298.753	79.81
298.984	84.81
299.214	75.81
299.445	77.81
299.675	69.81
299.905	84.81
300.136	81.81
300.366	75.81
300.597	81.81
300.827	78.81
301.057	94.81
301.288	81.81
301.518	79.81
301.748	94.81
301.979	90.81
302.209	86.81
302.439	81.81
302.669	92.81
302.9	89.81
303.13	70.81
303.36	99.81
303.59	68.81
303.82	85.81
304.051	77.81
304.281	90.81
304.511	84.81
304.741	64.81
304.971	82.81
305.201	77.81
305.431	92.81
305.661	72.81
305.891	81.81
306.121	75.81
306.352	91.81
306.582	80.81
306.812	80.81
307.042	74.81
307.272	85.81
307.502	87.81
307.731	77.81
307.961	89.81
308.191	85.81
308.421	86.81
308.651	88.81
308.881	83.81
309.111	82.81
309.341	69.81
309.571	71.81
309.8	78.81
310.03	77.81
310.26	68.81
310.49	77.81
310.72	77.81
310.949	93.81
311.179	80.81
311.409	80.81
311.639	73.81
311.868	94.81
312.098	89.81
312.328	85.81
312.557	82.81
312.787	77.81
313.017	88.81
313.246	83.81
313.476	87.81
313.706	83.81
313.935	75.81
314.165	80.81
314.394	95.81
314.624	70.81
314.853	82.81
315.083	90.81
315.312	87.81
315.542	85.81
315.771	70.81
316.001	81.81
316.23	95.81
316.46	87.81
316.689	91.81
316.919	83.81
317.148	85.81
317.377	92.81
317.607	93.81
317.836	69.81
318.065	57.81
318.295	91.81
318.524	75.81
318.753	83.81
318.983	86.81
319.212	92.81
319.441	77.81
319.67	75.81
319.9	84.81
320.129	77.81
320.358	79.81
320.587	77.81
320.816	81.81
321.046	81.81
321.275	90.81
321.504	78.81
321.733	89.81
321.962	76.81
322.191	73.81
322.42	77.81
322.649	85.81
322.878	93.81
323.108	78.81
323.337	86.81
323.566	91.81
323.795	72.81
324.024	83.81
324.253	85.81
324.482	73.81
324.71	78.81
324.939	87.81
325.168	87.81
325.397	84.81
325.626	76.81
325.855	89.81
326.084	77.81
326.313	82.81
326.542	85.81
326.77	88.81
326.999	84.81
327.228	88.81
327.457	85.81
327.686	83.81
327.914	75.81
328.143	79.81
328.372	79.81
328.6	88.81
328.829	78.81
329.058	85.81
329.287	83.81
329.515	64.81
329.744	82.81
329.972	74.81
330.201	87.81
330.43	65.81
330.658	75.81
330.887	79.81
331.115	85.81
331.344	70.81
331.572	89.81
331.801	75.81
332.03	73.81
332.258	74.81
332.486	90.81
332.715	83.81
332.943	93.81
333.172	83.81
333.4	89.81
333.629	79.81
333.857	72.81
334.085	82.81
334.314	93.81
334.542	90.81
334.771	82.81
334.999	85.81
335.227	97.81
335.455	71.81
335.684	85.81
335.912	88.81
336.14	81.81
336.369	77.81
336.597	78.81
336.825	85.81
337.053	72.81
337.281	94.81
337.51	69.81
337.738	87.81
337.966	84.81
338.194	85.81
338.422	77.81
338.65	91.81
338.878	80.81
339.106	85.81
339.334	85.81
339.562	77.81
339.79	86.81
340.018	64.81
340.246	74.81
340.474	86.81
340.702	71.81
340.93	81.81
341.158	69.81
341.386	78.81
341.614	80.81
341.842	86.81
342.07	63.81
342.298	84.81
342.526	77.81
342.754	74.81
342.981	80.81
343.209	84.81
343.437	98.81
343.665	64.81
343.893	85.81
344.12	86.81
344.348	83.81
344.576	85.81
344.804	86.81
345.031	76.81
345.259	90.81
345.487	79.81
345.714	69.81
345.942	85.81
346.17	85.81
346.397	84.81
346.625	91.81
346.853	86.81
347.08	70.81
347.308	73.81
347.535	79.81
347.763	93.81
347.99	83.81
348.218	97.81
348.445	83.81
348.673	86.81
348.9	80.81
349.128	74.81
349.355	74.81
349.583	93.81
349.81	73.81
350.037	85.81
350.265	73.81
350.492	94.81
350.72	90.81
350.947	75.81
351.174	75.81
351.402	92.81
351.629	97.81
351.856	85.81
352.083	92.81
352.311	72.81
352.538	77.81
352.765	75.81
352.992	91.81
353.22	95.81
353.447	77.81
353.674	79.81
353.901	71.81
354.128	77.81
354.355	82.81
354.583	86.81
354.81	88.81
355.037	85.81
355.264	90.81
355.491	76.81
355.718	88.81
355.945	70.81
356.172	65.81
356.399	74.81
356.626	71.81
356.853	73.81
357.08	69.81
357.307	81.81
357.534	75.81
357.761	86.81
357.988	75.81
358.215	81.81
358.441	84.81
358.668	95.81
358.895	68.81
359.122	84.81
359.349	71.81
359.576	79.81
359.802	78.81
360.029	75.81
360.256	77.81
360.483	70.81
360.709	87.81
360.936	88.81
361.163	83.81
361.39	82.81
361.616	75.81
361.843	79.81
362.07	91.81
362.296	84.81
362.523	85.81
362.749	73.81
362.976	76.81
363.203	75.81
363.429	76.81
363.656	68.81
363.882	75.81
364.109	91.81
364.335	87.81
364.562	77.81
364.788	80.81
365.015	83.81
365.241	71.81
365.468	83.81
365.694	96.81
365.92	91.81
366.147	77.81
366.373	76.81
366.599	75.81
366.826	69.81
367.052	79.81
367.278	87.81
367.505	83.81
367.731	76.81
367.957	85.81
368.184	91.81
368.41	77.81
368.636	85.81
368.862	87.81
369.089	101.81
369.315	83.81
369.541	68.81
369.767	69.81
369.993	82.81
370.219	95.81
370.445	84.81
370.672	74.81
370.898	74.81
371.124	71.81
371.35	78.81
371.576	77.81
371.802	73.81
372.028	66.81
372.254	82.81
372.48	78.81
372.706	77.81
372.932	82.81
373.158	84.81
373.384	86.81
373.61	75.81
373.835	91.81
374.061	86.81
374.287	82.81
374.513	77.81
374.739	73.81
374.965	88.81
375.191	78.81
375.416	79.81
375.642	63.81
375.868	82.81
376.094	87.81
376.319	74.81
376.545	68.81
376.771	84.81
376.997	82.81
377.222	81.81
377.448	69.81
377.674	86.81
377.899	88.81
378.125	85.81
378.35	79.81
378.576	70.81
378.802	75.81
379.027	67.81
379.253	79.81
379.478	80.81
379.704	83.81
379.929	86.81
380.155	74.81
380.38	73.81
380.606	75.81
380.831	67.81
381.057	67.81
381.282	74.81
381.507	84.81
381.733	85.81
381.958	90.81
382.184	78.81
382.409	75.81
382.634	77.81
382.86	74.81
383.085	84.81
383.31	74.81
383.535	88.81
383.761	88.81
383.986	82.81
384.211	79.81
384.436	75.81
384.662	81.81
384.887	77.81
385.112	73.81
385.337	79.81
385.562	83.81
385.787	78.81
386.013	79.81
386.238	72.81
386.463	83.81
386.688	86.81
386.913	74.81
387.138	85.81
387.363	81.81
387.588	88.81
387.813	74.81
388.038	85.81
388.263	78.81
388.488	92.81
388.713	80.81
388.938	74.81
389.163	80.81
389.387	77.81
389.612	76.81
389.837	74.81
390.062	82.81
390.287	87.81
390.512	75.81
390.736	92.81
390.961	84.81
391.186	62.81
391.411	73.81
391.636	76.81
391.86	79.81
392.085	82.81
392.31	71.81
392.534	77.81
392.759	72.81
392.984	80.81
393.208	79.81
393.433	65.81
393.658	80.81
393.882	68.81
394.107	75.81
394.331	70.81
394.556	74.81
394.78	80.81
395.005	80.81
395.229	75.81
395.454	75.81
395.678	77.81
395.903	79.81
396.127	86.81
396.352	62.81
396.576	91.81
396.801	91.81
397.025	70.81
397.249	96.81
397.474	89.81
397.698	80.81
397.922	89.81
398.147	88.81
398.371	76.81
398.595	79.81
398.82	74.81
399.044	78.81
399.268	71.81
399.492	82.81
399.717	80.81
399.941	82.81
400.165	73.81
400.389	80.81
400.613	78.81
400.837	69.81
401.062	90.81
401.286	80.81
401.51	90.81
401.734	83.81
401.958	87.81
402.182	88.81
402.406	79.81
402.63	71.81
402.854	75.81
403.078	75.81
403.302	65.81
403.526	73.81
403.75	81.81
403.974	79.81
404.198	58.81
404.422	83.81
404.645	70.81
404.869	71.81
405.093	83.81
405.317	89.81
405.541	73.81
405.765	85.81
405.988	79.81
406.212	70.81
406.436	82.81
406.66	79.81
406.883	84.81
407.107	75.81
407.331	71.81
407.555	93.81
407.778	62.81
408.002	82.81
408.226	70.81
408.449	58.81
408.673	75.81
408.896	76.81
409.12	67.81
409.344	87.81
409.567	79.81
409.791	73.81
410.014	83.81
410.238	89.81
410.461	75.81
410.685	73.81
410.908	83.81
411.132	89.81
411.355	59.81
411.578	82.81
411.802	80.81
412.025	86.81
412.249	85.81
412.472	78.81
412.695	70.81
412.919	86.81
413.142	66.81
413.365	73.81
413.589	81.81
413.812	70.81
414.035	71.81
414.258	79.81
414.482	83.81
414.705	69.81
414.928	73.81
415.151	72.81
415.374	69.81
415.597	63.81
415.821	75.81
416.044	79.81
416.267	75.81
416.49	66.81
416.713	73.81
416.936	76.81
417.159	81.81
417.382	90.81
417.605	76.81
417.828	76.81
418.051	70.81
418.274	71.81
418.497	75.81
418.72	68.81
418.943	77.81
419.166	72.81
419.389	88.81
419.611	69.81
419.834	87.81
420.057	81.81
420.28	91.81
420.503	78.81
420.726	78.81
420.948	88.81
421.171	70.81
421.394	71.81
421.617	73.81
421.839	79.81
422.062	71.81
422.285	75.81
422.507	67.81
422.73	80.81
422.953	83.81
423.175	65.81
423.398	94.81
423.621	85.81
423.843	87.81
424.066	86.81
424.288	69.81
424.511	55.81
424.733	73.81
424.956	91.81
425.178	77.81
425.401	81.81
425.623	84.81
425.846	90.81
426.068	87.81
426.291	68.81
426.513	84.81
426.735	82.81
426.958	84.81
427.18	75.81
427.402	74.81
427.625	90.81
427.847	78.81
428.069	87.81
428.292	80.81
428.514	68.81
428.736	63.81
428.958	83.81
429.181	83.81
429.403	71.81
429.625	79.81
429.847	75.81
430.069	73.81
430.292	71.81
430.514	76.81
430.736	75.81
430.958	87.81
431.18	75.81
431.402	84.81
431.624	97.81
431.846	79.81
432.068	80.81
432.29	77.81
432.512	76.81
432.734	81.81
432.956	83.81
433.178	68.81
433.4	72.81
433.622	85.81
433.844	77.81
434.066	81.81
434.287	84.81
434.509	71.81
434.731	68.81
434.953	67.81
435.175	71.81
435.397	71.81
435.618	81.81
435.84	77.81
436.062	79.81
436.284	79.81
436.505	72.81
436.727	64.81
436.949	78.81
437.17	76.81
437.392	75.81
437.614	75.81
437.835	64.81
438.057	66.81
438.278	75.81
438.5	86.81
438.721	99.81
438.943	74.81
439.165	71.81
439.386	80.81
439.608	86.81
439.829	82.81
440.05	76.81
440.272	84.81
440.493	69.81
440.715	75.81
440.936	74.81
441.158	87.81
441.379	80.81
441.6	75.81
441.822	79.81
442.043	66.81
442.264	64.81
442.486	85.81
442.707	73.81
442.928	81.81
443.149	70.81
443.371	71.81
443.592	84.81
443.813	71.81
444.034	68.81
444.255	92.81
444.476	79.81
444.698	76.81
444.919	66.81
445.14	146.81
445.361	107.81
445.582	83.81
445.803	79.81
446.024	67.81
446.245	78.81
446.466	79.81
446.687	81.81
446.908	73.81
447.129	72.81
447.35	72.81
447.571	84.81
447.792	84.81
448.013	74.81
448.234	80.81
448.455	82.81
448.675	80.81
448.896	81.81
449.117	81.81
449.338	74.81
449.559	66.81
449.779	73.81
450	71.81
450.221	73.81
450.442	78.81
450.662	85.81
450.883	85.81
451.104	79.81
451.324	73.81
451.545	77.81
451.766	71.81
451.986	75.81
452.207	90.81
452.428	71.81
452.648	79.81
452.869	83.81
453.089	67.81
453.31	70.81
453.53	81.81
453.751	79.81
453.971	75.81
454.192	77.81
454.412	90.81
454.633	89.81
454.853	83.81
455.073	75.81
455.294	81.81
455.514	88.81
455.734	68.81
455.955	81.81
456.175	88.81
456.395	73.81
456.616	85.81
456.836	82.81
457.056	52.81
457.276	69.81
457.497	71.81
457.717	69.81
457.937	57.81
458.157	75.81
458.377	75.81
458.598	75.81
458.818	83.81
459.038	84.81
459.258	73.81
459.478	84.81
459.698	83.81
459.918	83.81
460.138	87.81
460.358	81.81
460.578	76.81
460.798	76.81
461.018	75.81
461.238	73.81
461.458	77.81
461.678	74.81
461.898	72.81
462.118	73.81
462.338	81.81
462.558	78.81
462.777	67.81
462.997	71.81
463.217	83.81
463.437	78.81
463.657	75.81
463.876	73.81
464.096	71.81
464.316	61.81
464.536	63.81
464.755	89.81
464.975	77.81
465.195	81.81
465.414	79.81
465.634	84.81
465.854	69.81
466.073	69.81
466.293	82.81
466.512	82.81
466.732	82.81
466.951	81.81
467.171	69.81
467.391	84.81
467.61	82.81
467.829	76.81
468.049	72.81
468.268	67.81
468.488	88.81
468.707	61.81
468.927	76.81
469.146	75.81
469.365	63.81
469.585	72.81
469.804	73.81
470.023	75.81
470.243	88.81
470.462	86.81
470.681	73.81
470.901	80.81
471.12	75.81
471.339	82.81
471.558	80.81
471.777	66.81
471.997	71.81
472.216	81.81
472.435	81.81
472.654	90.81
472.873	89.81
473.092	76.81
473.311	82.81
473.53	69.81
473.749	78.81
473.968	91.81
474.187	70.81
474.406	74.81
474.625	87.81
474.844	87.81
475.063	78.81
475.282	86.81
475.501	82.81
475.72	70.81
475.939	82.81
476.158	84.81
476.377	71.81
476.596	64.81
476.814	98.81
477.033	85.81
477.252	67.81
477.471	88.81
477.69	53.81
477.908	59.81
478.127	67.81
478.346	89.81
478.564	90.81
478.783	82.81
479.002	74.81
479.22	74.81
479.439	67.81
479.658	63.81
479.876	85.81
480.095	75.81
480.313	71.81
480.532	76.81
480.751	77.81
480.969	86.81
481.188	86.81
481.406	83.81
481.624	72.81
481.843	69.81
482.061	86.81
482.28	69.81
482.498	76.81
482.717	67.81
482.935	74.81
483.153	86.81
483.372	86.81
483.59	78.81
483.808	82.81
484.027	90.81
484.245	72.81
484.463	77.81
484.681	96.81
484.9	80.81
485.118	85.81
485.336	77.81
485.554	83.81
485.772	71.81
485.99	91.81
486.209	86.81
486.427	92.81
486.645	79.81
486.863	86.81
487.081	77.81
487.299	77.81
487.517	74.81
487.735	83.81
487.953	89.81
488.171	81.81
488.389	70.81
488.607	68.81
488.825	86.81
489.043	81.81
489.261	82.81
489.479	79.81
489.696	69.81
489.914	86.81
490.132	95.81
490.35	68.81
490.568	75.81
490.786	87.81
491.003	75.81
491.221	76.81
491.439	70.81
491.657	75.81
491.874	92.81
492.092	86.81
492.31	76.81
492.527	76.81
492.745	82.81
492.963	76.81
493.18	77.81
493.398	91.81
493.615	68.81
493.833	80.81
494.05	79.81
494.268	90.81
494.485	79.81
494.703	82.81
494.92	73.81
495.138	83.81
495.355	79.81
495.573	73.81
495.79	82.81
496.008	79.81
496.225	90.81
496.442	73.81
496.66	97.81
496.877	73.81
497.094	81.81
497.312	81.81
497.529	78.81
497.746	94.81
497.963	82.81
498.181	74.81
498.398	76.81
498.615	87.81
498.832	67.81
499.049	68.81
499.267	79.81
499.484	80.81
499.701	79.81
499.918	72.81
500.135	81.81
500.352	73.81
500.569	79.81
500.786	81.81
501.003	84.81
501.22	89.81
501.437	82.81
501.654	78.81
501.871	82.81
502.088	73.81
502.305	77.81
502.522	80.81
502.739	69.81
502.956	85.81
503.172	85.81
503.389	82.81
503.606	64.81
503.823	90.81
504.04	91.81
504.256	78.81
504.473	69.81
504.69	78.81
504.907	84.81
505.123	84.81
505.34	81.81
505.557	80.81
505.773	86.81
505.99	68.81
506.207	82.81
506.423	70.81
506.64	82.81
506.856	71.81
507.073	94.81
507.289	78.81
507.506	84.81
507.722	65.81
507.939	60.81
508.155	71.81
508.372	71.81
508.588	78.81
508.805	81.81
509.021	82.81
509.238	71.81
509.454	82.81
509.67	83.81
509.887	74.81
510.103	83.81
510.319	72.81
510.536	81.81
510.752	80.81
510.968	90.81
511.184	78.81
511.401	75.81
511.617	64.81
511.833	75.81
512.049	75.81
512.265	78.81
512.481	66.81
512.698	80.81
512.914	93.81
513.13	78.81
513.346	73.81
513.562	88.81
513.778	79.81
513.994	77.81
514.21	83.81
514.426	69.81
514.642	85.81
514.858	84.81
515.074	82.81
515.29	92.81
515.506	77.81
515.721	83.81
515.937	69.81
516.153	81.81
516.369	65.81
516.585	94.81
516.801	71.81
517.016	94.81
517.232	83.81
517.448	78.81
517.664	83.81
517.879	94.81
518.095	85.81
518.311	79.81
518.527	83.81
518.742	78.81
518.958	88.81
519.173	87.81
519.389	72.81
519.605	90.81
519.82	93.81
520.036	82.81
520.251	82.81
