Data from BG_HRD10591_023.txt Node
Date: Fri May 16 15:14:34 EDT 2025
User: Yrep
Spectrometer: HR+D1059
Trigger mode: 1
Integration Time (sec): 1.000000E-1
Scans to average: 1
Electric dark correction enabled: true
Nonlinearity correction enabled: false
Boxcar width: 0
XAxis mode: Wavelengths
Number of Pixels in Spectrum: 2048
>>>>>Begin Spectral Data<<<<<
223.165	-25.44
223.4	-25.44
223.635	-25.44
223.869	-15.44
224.104	-19.44
224.338	-18.44
224.573	-5.44
224.808	-10.44
225.042	-1.44
225.277	-20.44
225.511	9.56
225.746	6.56
225.98	-4.44
226.215	10.56
226.449	24.56
226.683	19.56
226.918	18.56
227.152	31.56
227.387	41.56
227.621	46.56
227.856	40.56
228.09	47.56
228.324	55.56
228.559	56.56
228.793	74.56
229.027	67.56
229.262	70.56
229.496	60.56
229.73	67.56
229.964	80.56
230.199	69.56
230.433	72.56
230.667	82.56
230.901	81.56
231.136	72.56
231.37	70.56
231.604	79.56
231.838	96.56
232.072	89.56
232.306	80.56
232.541	78.56
232.775	92.56
233.009	81.56
233.243	78.56
233.477	81.56
233.711	92.56
233.945	82.56
234.179	96.56
234.413	73.56
234.647	81.56
234.881	92.56
235.115	75.56
235.349	78.56
235.583	76.56
235.817	81.56
236.051	76.56
236.285	80.56
236.519	75.56
236.753	92.56
236.987	74.56
237.221	85.56
237.455	86.56
237.689	68.56
237.922	79.56
238.156	80.56
238.39	84.56
238.624	87.56
238.858	91.56
239.091	77.56
239.325	76.56
239.559	84.56
239.793	79.56
240.027	84.56
240.26	78.56
240.494	74.56
240.728	81.56
240.961	71.56
241.195	92.56
241.429	81.56
241.662	95.56
241.896	73.56
242.13	77.56
242.363	86.56
242.597	87.56
242.83	84.56
243.064	76.56
243.298	89.56
243.531	81.56
243.765	88.56
243.998	84.56
244.232	80.56
244.465	84.56
244.699	67.56
244.932	76.56
245.166	80.56
245.399	73.56
245.633	72.56
245.866	81.56
246.099	64.56
246.333	83.56
246.566	84.56
246.8	87.56
247.033	70.56
247.266	88.56
247.5	69.56
247.733	77.56
247.966	88.56
248.2	69.56
248.433	73.56
248.666	73.56
248.899	72.56
249.133	86.56
249.366	74.56
249.599	81.56
249.832	73.56
250.066	92.56
250.299	88.56
250.532	74.56
250.765	75.56
250.998	89.56
251.231	75.56
251.465	81.56
251.698	84.56
251.931	81.56
252.164	95.56
252.397	86.56
252.63	82.56
252.863	73.56
253.096	90.56
253.329	74.56
253.562	88.56
253.795	78.56
254.028	89.56
254.261	88.56
254.494	92.56
254.727	101.56
254.96	86.56
255.193	83.56
255.426	86.56
255.659	90.56
255.892	100.56
256.124	84.56
256.357	86.56
256.59	93.56
256.823	81.56
257.056	88.56
257.289	72.56
257.521	86.56
257.754	83.56
257.987	91.56
258.22	84.56
258.452	81.56
258.685	92.56
258.918	79.56
259.151	91.56
259.383	78.56
259.616	88.56
259.849	89.56
260.081	97.56
260.314	80.56
260.547	84.56
260.779	87.56
261.012	75.56
261.244	89.56
261.477	88.56
261.71	81.56
261.942	88.56
262.175	89.56
262.407	82.56
262.64	78.56
262.872	92.56
263.105	99.56
263.337	81.56
263.57	84.56
263.802	86.56
264.035	71.56
264.267	106.56
264.499	86.56
264.732	81.56
264.964	90.56
265.197	94.56
265.429	79.56
265.661	92.56
265.894	82.56
266.126	85.56
266.358	73.56
266.591	88.56
266.823	93.56
267.055	92.56
267.287	87.56
267.52	92.56
267.752	85.56
267.984	87.56
268.216	95.56
268.448	89.56
268.681	82.56
268.913	87.56
269.145	88.56
269.377	80.56
269.609	93.56
269.841	77.56
270.073	84.56
270.306	76.56
270.538	82.56
270.77	80.56
271.002	90.56
271.234	84.56
271.466	78.56
271.698	87.56
271.93	93.56
272.162	92.56
272.394	78.56
272.626	82.56
272.858	76.56
273.09	90.56
273.322	93.56
273.553	87.56
273.785	88.56
274.017	92.56
274.249	83.56
274.481	91.56
274.713	85.56
274.945	79.56
275.176	81.56
275.408	84.56
275.64	90.56
275.872	100.56
276.104	86.56
276.335	101.56
276.567	82.56
276.799	80.56
277.031	89.56
277.262	84.56
277.494	92.56
277.726	97.56
277.957	85.56
278.189	86.56
278.421	90.56
278.652	83.56
278.884	90.56
279.115	114.56
279.347	84.56
279.579	87.56
279.81	78.56
280.042	85.56
280.273	97.56
280.505	83.56
280.736	87.56
280.968	84.56
281.199	82.56
281.431	86.56
281.662	90.56
281.894	93.56
282.125	91.56
282.356	85.56
282.588	104.56
282.819	96.56
283.051	86.56
283.282	97.56
283.513	93.56
283.745	96.56
283.976	80.56
284.207	81.56
284.439	85.56
284.67	85.56
284.901	97.56
285.132	105.56
285.364	106.56
285.595	92.56
285.826	97.56
286.057	93.56
286.288	72.56
286.52	80.56
286.751	91.56
286.982	88.56
287.213	81.56
287.444	96.56
287.675	82.56
287.906	67.56
288.138	90.56
288.369	81.56
288.6	92.56
288.831	91.56
289.062	94.56
289.293	106.56
289.524	83.56
289.755	86.56
289.986	86.56
290.217	94.56
290.448	90.56
290.679	99.56
290.91	100.56
291.141	93.56
291.371	90.56
291.602	92.56
291.833	89.56
292.064	100.56
292.295	94.56
292.526	93.56
292.757	80.56
292.987	72.56
293.218	90.56
293.449	88.56
293.68	113.56
293.91	87.56
294.141	86.56
294.372	81.56
294.603	85.56
294.833	91.56
295.064	82.56
295.295	91.56
295.525	87.56
295.756	93.56
295.987	104.56
296.217	98.56
296.448	84.56
296.679	89.56
296.909	103.56
297.14	82.56
297.37	95.56
297.601	82.56
297.831	84.56
298.062	94.56
298.292	94.56
298.523	90.56
298.753	81.56
298.984	95.56
299.214	92.56
299.445	78.56
299.675	91.56
299.905	87.56
300.136	78.56
300.366	78.56
300.597	95.56
300.827	86.56
301.057	80.56
301.288	104.56
301.518	91.56
301.748	98.56
301.979	86.56
302.209	100.56
302.439	97.56
302.669	74.56
302.9	91.56
303.13	93.56
303.36	88.56
303.59	80.56
303.82	87.56
304.051	95.56
304.281	105.56
304.511	96.56
304.741	82.56
304.971	78.56
305.201	101.56
305.431	86.56
305.661	86.56
305.891	95.56
306.121	107.56
306.352	85.56
306.582	90.56
306.812	100.56
307.042	87.56
307.272	103.56
307.502	100.56
307.731	102.56
307.961	86.56
308.191	89.56
308.421	80.56
308.651	112.56
308.881	98.56
309.111	91.56
309.341	105.56
309.571	96.56
309.8	91.56
310.03	100.56
310.26	96.56
310.49	105.56
310.72	94.56
310.949	87.56
311.179	90.56
311.409	93.56
311.639	88.56
311.868	96.56
312.098	89.56
312.328	92.56
312.557	101.56
312.787	88.56
313.017	91.56
313.246	86.56
313.476	96.56
313.706	108.56
313.935	83.56
314.165	88.56
314.394	100.56
314.624	90.56
314.853	88.56
315.083	91.56
315.312	107.56
315.542	88.56
315.771	81.56
316.001	95.56
316.23	100.56
316.46	89.56
316.689	88.56
316.919	97.56
317.148	81.56
317.377	96.56
317.607	89.56
317.836	93.56
318.065	93.56
318.295	85.56
318.524	96.56
318.753	93.56
318.983	76.56
319.212	84.56
319.441	81.56
319.67	94.56
319.9	93.56
320.129	98.56
320.358	88.56
320.587	101.56
320.816	92.56
321.046	86.56
321.275	94.56
321.504	91.56
321.733	95.56
321.962	92.56
322.191	88.56
322.42	105.56
322.649	106.56
322.878	79.56
323.108	79.56
323.337	84.56
323.566	92.56
323.795	100.56
324.024	96.56
324.253	98.56
324.482	86.56
324.71	96.56
324.939	89.56
325.168	87.56
325.397	92.56
325.626	101.56
325.855	89.56
326.084	102.56
326.313	101.56
326.542	95.56
326.77	88.56
326.999	89.56
327.228	70.56
327.457	73.56
327.686	94.56
327.914	86.56
328.143	87.56
328.372	87.56
328.6	91.56
328.829	94.56
329.058	107.56
329.287	80.56
329.515	80.56
329.744	84.56
329.972	80.56
330.201	90.56
330.43	82.56
330.658	95.56
330.887	85.56
331.115	94.56
331.344	94.56
331.572	98.56
331.801	97.56
332.03	100.56
332.258	94.56
332.486	100.56
332.715	93.56
332.943	98.56
333.172	95.56
333.4	104.56
333.629	90.56
333.857	92.56
334.085	95.56
334.314	93.56
334.542	101.56
334.771	80.56
334.999	100.56
335.227	84.56
335.455	98.56
335.684	85.56
335.912	90.56
336.14	92.56
336.369	104.56
336.597	106.56
336.825	89.56
337.053	94.56
337.281	88.56
337.51	103.56
337.738	92.56
337.966	91.56
338.194	93.56
338.422	84.56
338.65	103.56
338.878	99.56
339.106	95.56
339.334	88.56
339.562	85.56
339.79	90.56
340.018	96.56
340.246	97.56
340.474	92.56
340.702	93.56
340.93	83.56
341.158	89.56
341.386	104.56
341.614	93.56
341.842	105.56
342.07	93.56
342.298	96.56
342.526	92.56
342.754	95.56
342.981	90.56
343.209	105.56
343.437	103.56
343.665	109.56
343.893	93.56
344.12	92.56
344.348	82.56
344.576	97.56
344.804	93.56
345.031	76.56
345.259	86.56
345.487	81.56
345.714	89.56
345.942	84.56
346.17	99.56
346.397	91.56
346.625	83.56
346.853	92.56
347.08	91.56
347.308	105.56
347.535	96.56
347.763	88.56
347.99	80.56
348.218	90.56
348.445	96.56
348.673	94.56
348.9	83.56
349.128	102.56
349.355	83.56
349.583	87.56
349.81	97.56
350.037	98.56
350.265	81.56
350.492	76.56
350.72	99.56
350.947	91.56
351.174	90.56
351.402	81.56
351.629	90.56
351.856	89.56
352.083	87.56
352.311	97.56
352.538	84.56
352.765	86.56
352.992	91.56
353.22	90.56
353.447	89.56
353.674	85.56
353.901	95.56
354.128	96.56
354.355	82.56
354.583	80.56
354.81	93.56
355.037	102.56
355.264	100.56
355.491	78.56
355.718	102.56
355.945	92.56
356.172	83.56
356.399	92.56
356.626	84.56
356.853	89.56
357.08	93.56
357.307	112.56
357.534	74.56
357.761	97.56
357.988	81.56
358.215	91.56
358.441	83.56
358.668	100.56
358.895	82.56
359.122	79.56
359.349	104.56
359.576	83.56
359.802	86.56
360.029	90.56
360.256	90.56
360.483	109.56
360.709	86.56
360.936	92.56
361.163	92.56
361.39	85.56
361.616	76.56
361.843	97.56
362.07	96.56
362.296	86.56
362.523	87.56
362.749	95.56
362.976	85.56
363.203	87.56
363.429	94.56
363.656	91.56
363.882	92.56
364.109	87.56
364.335	88.56
364.562	92.56
364.788	85.56
365.015	80.56
365.241	100.56
365.468	91.56
365.694	79.56
365.92	74.56
366.147	98.56
366.373	97.56
366.599	94.56
366.826	100.56
367.052	88.56
367.278	92.56
367.505	85.56
367.731	93.56
367.957	84.56
368.184	100.56
368.41	79.56
368.636	83.56
368.862	97.56
369.089	94.56
369.315	85.56
369.541	79.56
369.767	95.56
369.993	90.56
370.219	85.56
370.445	86.56
370.672	77.56
370.898	86.56
371.124	86.56
371.35	87.56
371.576	75.56
371.802	82.56
372.028	92.56
372.254	96.56
372.48	97.56
372.706	78.56
372.932	97.56
373.158	85.56
373.384	88.56
373.61	75.56
373.835	102.56
374.061	93.56
374.287	86.56
374.513	100.56
374.739	101.56
374.965	82.56
375.191	95.56
375.416	92.56
375.642	80.56
375.868	83.56
376.094	83.56
376.319	87.56
376.545	93.56
376.771	89.56
376.997	88.56
377.222	91.56
377.448	84.56
377.674	100.56
377.899	85.56
378.125	92.56
378.35	94.56
378.576	87.56
378.802	104.56
379.027	93.56
379.253	94.56
379.478	92.56
379.704	93.56
379.929	89.56
380.155	79.56
380.38	86.56
380.606	89.56
380.831	84.56
381.057	92.56
381.282	106.56
381.507	100.56
381.733	92.56
381.958	85.56
382.184	85.56
382.409	90.56
382.634	97.56
382.86	90.56
383.085	90.56
383.31	92.56
383.535	89.56
383.761	97.56
383.986	94.56
384.211	88.56
384.436	87.56
384.662	84.56
384.887	82.56
385.112	92.56
385.337	97.56
385.562	90.56
385.787	86.56
386.013	95.56
386.238	88.56
386.463	82.56
386.688	104.56
386.913	88.56
387.138	82.56
387.363	78.56
387.588	86.56
387.813	92.56
388.038	106.56
388.263	100.56
388.488	105.56
388.713	83.56
388.938	110.56
389.163	80.56
389.387	82.56
389.612	86.56
389.837	94.56
390.062	87.56
390.287	89.56
390.512	98.56
390.736	85.56
390.961	79.56
391.186	103.56
391.411	100.56
391.636	80.56
391.86	86.56
392.085	91.56
392.31	94.56
392.534	102.56
392.759	101.56
392.984	80.56
393.208	81.56
393.433	103.56
393.658	94.56
393.882	97.56
394.107	96.56
394.331	92.56
394.556	105.56
394.78	91.56
395.005	85.56
395.229	93.56
395.454	91.56
395.678	77.56
395.903	91.56
396.127	93.56
396.352	88.56
396.576	103.56
396.801	80.56
397.025	89.56
397.249	96.56
397.474	91.56
397.698	102.56
397.922	104.56
398.147	89.56
398.371	99.56
398.595	96.56
398.82	92.56
399.044	96.56
399.268	105.56
399.492	92.56
399.717	93.56
399.941	91.56
400.165	87.56
400.389	91.56
400.613	85.56
400.837	86.56
401.062	96.56
401.286	83.56
401.51	101.56
401.734	106.56
401.958	96.56
402.182	76.56
402.406	81.56
402.63	75.56
402.854	100.56
403.078	78.56
403.302	95.56
403.526	88.56
403.75	77.56
403.974	92.56
404.198	79.56
404.422	85.56
404.645	81.56
404.869	98.56
405.093	86.56
405.317	100.56
405.541	98.56
405.765	80.56
405.988	76.56
406.212	93.56
406.436	100.56
406.66	88.56
406.883	88.56
407.107	94.56
407.331	85.56
407.555	89.56
407.778	97.56
408.002	98.56
408.226	83.56
408.449	96.56
408.673	78.56
408.896	90.56
409.12	85.56
409.344	94.56
409.567	92.56
409.791	93.56
410.014	96.56
410.238	103.56
410.461	93.56
410.685	74.56
410.908	91.56
411.132	89.56
411.355	93.56
411.578	95.56
411.802	99.56
412.025	81.56
412.249	84.56
412.472	104.56
412.695	85.56
412.919	92.56
413.142	79.56
413.365	93.56
413.589	89.56
413.812	90.56
414.035	95.56
414.258	98.56
414.482	82.56
414.705	101.56
414.928	98.56
415.151	94.56
415.374	87.56
415.597	91.56
415.821	96.56
416.044	87.56
416.267	104.56
416.49	90.56
416.713	90.56
416.936	92.56
417.159	77.56
417.382	88.56
417.605	94.56
417.828	90.56
418.051	98.56
418.274	95.56
418.497	82.56
418.72	87.56
418.943	92.56
419.166	99.56
419.389	84.56
419.611	97.56
419.834	94.56
420.057	97.56
420.28	94.56
420.503	89.56
420.726	97.56
420.948	104.56
421.171	92.56
421.394	86.56
421.617	99.56
421.839	86.56
422.062	88.56
422.285	91.56
422.507	103.56
422.73	101.56
422.953	83.56
423.175	98.56
423.398	71.56
423.621	94.56
423.843	96.56
424.066	97.56
424.288	87.56
424.511	91.56
424.733	88.56
424.956	82.56
425.178	101.56
425.401	87.56
425.623	93.56
425.846	78.56
426.068	98.56
426.291	82.56
426.513	93.56
426.735	82.56
426.958	86.56
427.18	70.56
427.402	93.56
427.625	91.56
427.847	95.56
428.069	100.56
428.292	84.56
428.514	86.56
428.736	93.56
428.958	107.56
429.181	89.56
429.403	87.56
429.625	108.56
429.847	85.56
430.069	89.56
430.292	77.56
430.514	97.56
430.736	94.56
430.958	94.56
431.18	83.56
431.402	97.56
431.624	88.56
431.846	105.56
432.068	86.56
432.29	103.56
432.512	82.56
432.734	86.56
432.956	97.56
433.178	100.56
433.4	92.56
433.622	93.56
433.844	87.56
434.066	97.56
434.287	98.56
434.509	92.56
434.731	79.56
434.953	105.56
435.175	79.56
435.397	95.56
435.618	103.56
435.84	81.56
436.062	94.56
436.284	89.56
436.505	101.56
436.727	107.56
436.949	86.56
437.17	100.56
437.392	91.56
437.614	86.56
437.835	93.56
438.057	87.56
438.278	93.56
438.5	94.56
438.721	103.56
438.943	95.56
439.165	92.56
439.386	84.56
439.608	96.56
439.829	85.56
440.05	96.56
440.272	90.56
440.493	85.56
440.715	83.56
440.936	98.56
441.158	105.56
441.379	88.56
441.6	77.56
441.822	102.56
442.043	100.56
442.264	96.56
442.486	89.56
442.707	86.56
442.928	85.56
443.149	100.56
443.371	95.56
443.592	96.56
443.813	102.56
444.034	82.56
444.255	104.56
444.476	97.56
444.698	83.56
444.919	93.56
445.14	176.56
445.361	117.56
445.582	78.56
445.803	100.56
446.024	77.56
446.245	85.56
446.466	92.56
446.687	83.56
446.908	93.56
447.129	96.56
447.35	101.56
447.571	93.56
447.792	77.56
448.013	96.56
448.234	86.56
448.455	96.56
448.675	94.56
448.896	96.56
449.117	90.56
449.338	94.56
449.559	78.56
449.779	87.56
450	93.56
450.221	94.56
450.442	86.56
450.662	102.56
450.883	95.56
451.104	94.56
451.324	89.56
451.545	84.56
451.766	89.56
451.986	89.56
452.207	81.56
452.428	97.56
452.648	101.56
452.869	98.56
453.089	91.56
453.31	96.56
453.53	97.56
453.751	82.56
453.971	89.56
454.192	91.56
454.412	98.56
454.633	85.56
454.853	92.56
455.073	73.56
455.294	80.56
455.514	92.56
455.734	84.56
455.955	90.56
456.175	80.56
456.395	96.56
456.616	106.56
456.836	97.56
457.056	89.56
457.276	83.56
457.497	92.56
457.717	84.56
457.937	86.56
458.157	89.56
458.377	91.56
458.598	86.56
458.818	86.56
459.038	98.56
459.258	81.56
459.478	101.56
459.698	102.56
459.918	104.56
460.138	93.56
460.358	97.56
460.578	97.56
460.798	80.56
461.018	100.56
461.238	86.56
461.458	69.56
461.678	79.56
461.898	97.56
462.118	89.56
462.338	114.56
462.558	95.56
462.777	98.56
462.997	97.56
463.217	96.56
463.437	81.56
463.657	94.56
463.876	89.56
464.096	88.56
464.316	105.56
464.536	90.56
464.755	87.56
464.975	92.56
465.195	90.56
465.414	89.56
465.634	87.56
465.854	80.56
466.073	87.56
466.293	88.56
466.512	86.56
466.732	82.56
466.951	75.56
467.171	84.56
467.391	82.56
467.61	96.56
467.829	88.56
468.049	99.56
468.268	90.56
468.488	84.56
468.707	86.56
468.927	89.56
469.146	96.56
469.365	104.56
469.585	104.56
469.804	93.56
470.023	91.56
470.243	106.56
470.462	78.56
470.681	96.56
470.901	91.56
471.12	76.56
471.339	105.56
471.558	84.56
471.777	92.56
471.997	95.56
472.216	90.56
472.435	83.56
472.654	77.56
472.873	102.56
473.092	84.56
473.311	82.56
473.53	87.56
473.749	56.56
473.968	102.56
474.187	95.56
474.406	78.56
474.625	88.56
474.844	98.56
475.063	83.56
475.282	87.56
475.501	92.56
475.72	90.56
475.939	80.56
476.158	93.56
476.377	106.56
476.596	89.56
476.814	100.56
477.033	92.56
477.252	87.56
477.471	87.56
477.69	95.56
477.908	95.56
478.127	89.56
478.346	100.56
478.564	78.56
478.783	103.56
479.002	101.56
479.22	94.56
479.439	87.56
479.658	96.56
479.876	91.56
480.095	77.56
480.313	92.56
480.532	87.56
480.751	89.56
480.969	90.56
481.188	87.56
481.406	97.56
481.624	94.56
481.843	100.56
482.061	105.56
482.28	100.56
482.498	89.56
482.717	78.56
482.935	88.56
483.153	96.56
483.372	87.56
483.59	81.56
483.808	80.56
484.027	105.56
484.245	98.56
484.463	94.56
484.681	109.56
484.9	87.56
485.118	96.56
485.336	98.56
485.554	102.56
485.772	100.56
485.99	100.56
486.209	87.56
486.427	84.56
486.645	87.56
486.863	93.56
487.081	99.56
487.299	96.56
487.517	96.56
487.735	87.56
487.953	88.56
488.171	94.56
488.389	89.56
488.607	105.56
488.825	87.56
489.043	95.56
489.261	86.56
489.479	105.56
489.696	83.56
489.914	91.56
490.132	107.56
490.35	78.56
490.568	85.56
490.786	92.56
491.003	78.56
491.221	93.56
491.439	96.56
491.657	94.56
491.874	78.56
492.092	85.56
492.31	83.56
492.527	105.56
492.745	91.56
492.963	101.56
493.18	83.56
493.398	96.56
493.615	85.56
493.833	87.56
494.05	86.56
494.268	85.56
494.485	95.56
494.703	96.56
494.92	74.56
495.138	83.56
495.355	93.56
495.573	91.56
495.79	91.56
496.008	108.56
496.225	97.56
496.442	84.56
496.66	98.56
496.877	91.56
497.094	93.56
497.312	97.56
497.529	106.56
497.746	118.56
497.963	95.56
498.181	95.56
498.398	89.56
498.615	101.56
498.832	100.56
499.049	88.56
499.267	104.56
499.484	102.56
499.701	103.56
499.918	120.56
500.135	112.56
500.352	124.56
500.569	112.56
500.786	104.56
501.003	98.56
501.22	120.56
501.437	116.56
501.654	104.56
501.871	97.56
502.088	102.56
502.305	98.56
502.522	96.56
502.739	97.56
502.956	100.56
503.172	94.56
503.389	102.56
503.606	109.56
503.823	85.56
504.04	101.56
504.256	101.56
504.473	112.56
504.69	92.56
504.907	94.56
505.123	87.56
505.34	86.56
505.557	92.56
505.773	74.56
505.99	84.56
506.207	91.56
506.423	92.56
506.64	94.56
506.856	101.56
507.073	108.56
507.289	74.56
507.506	88.56
507.722	82.56
507.939	100.56
508.155	92.56
508.372	87.56
508.588	100.56
508.805	94.56
509.021	100.56
509.238	76.56
509.454	84.56
509.67	87.56
509.887	97.56
510.103	100.56
510.319	99.56
510.536	108.56
510.752	100.56
510.968	98.56
511.184	102.56
511.401	105.56
511.617	101.56
511.833	101.56
512.049	95.56
512.265	86.56
512.481	105.56
512.698	84.56
512.914	92.56
513.13	91.56
513.346	89.56
513.562	82.56
513.778	106.56
513.994	93.56
514.21	100.56
514.426	84.56
514.642	90.56
514.858	95.56
515.074	86.56
515.29	93.56
515.506	96.56
515.721	92.56
515.937	110.56
516.153	79.56
516.369	83.56
516.585	84.56
516.801	90.56
517.016	95.56
517.232	99.56
517.448	98.56
517.664	100.56
