Data from BG_HRD10591_091.txt Node
Date: Fri May 16 15:15:08 EDT 2025
User: Yrep
Spectrometer: HR+D1059
Trigger mode: 1
Integration Time (sec): 1.000000E-1
Scans to average: 1
Electric dark correction enabled: true
Nonlinearity correction enabled: false
Boxcar width: 0
XAxis mode: Wavelengths
Number of Pixels in Spectrum: 2048
>>>>>Begin Spectral Data<<<<<
223.165	-7.94
223.4	-7.94
223.635	-7.94
223.869	-10.94
224.104	-33.94
224.338	-21.94
224.573	-17.94
224.808	-5.94
225.042	-0.94
225.277	1.06
225.511	-17.94
225.746	0.06
225.98	1.06
226.215	7.06
226.449	18.06
226.683	21.06
226.918	37.06
227.152	32.06
227.387	45.06
227.621	28.06
227.856	40.06
228.09	48.06
228.324	57.06
228.559	49.06
228.793	54.06
229.027	52.06
229.262	61.06
229.496	59.06
229.73	81.06
229.964	76.06
230.199	86.06
230.433	62.06
230.667	81.06
230.901	72.06
231.136	62.06
231.37	90.06
231.604	77.06
231.838	75.06
232.072	84.06
232.306	93.06
232.541	90.06
232.775	84.06
233.009	84.06
233.243	80.06
233.477	79.06
233.711	67.06
233.945	75.06
234.179	86.06
234.413	85.06
234.647	84.06
234.881	78.06
235.115	94.06
235.349	85.06
235.583	74.06
235.817	65.06
236.051	66.06
236.285	80.06
236.519	96.06
236.753	81.06
236.987	80.06
237.221	68.06
237.455	81.06
237.689	81.06
237.922	75.06
238.156	73.06
238.39	81.06
238.624	82.06
238.858	90.06
239.091	83.06
239.325	76.06
239.559	81.06
239.793	65.06
240.027	90.06
240.26	85.06
240.494	84.06
240.728	68.06
240.961	67.06
241.195	88.06
241.429	75.06
241.662	74.06
241.896	73.06
242.13	85.06
242.363	82.06
242.597	86.06
242.83	81.06
243.064	80.06
243.298	88.06
243.531	87.06
243.765	67.06
243.998	85.06
244.232	77.06
244.465	76.06
244.699	83.06
244.932	85.06
245.166	80.06
245.399	81.06
245.633	85.06
245.866	74.06
246.099	68.06
246.333	71.06
246.566	81.06
246.8	81.06
247.033	64.06
247.266	81.06
247.5	84.06
247.733	88.06
247.966	77.06
248.2	71.06
248.433	76.06
248.666	82.06
248.899	79.06
249.133	84.06
249.366	78.06
249.599	78.06
249.832	74.06
250.066	96.06
250.299	78.06
250.532	83.06
250.765	82.06
250.998	69.06
251.231	76.06
251.465	87.06
251.698	81.06
251.931	70.06
252.164	89.06
252.397	93.06
252.63	77.06
252.863	87.06
253.096	65.06
253.329	84.06
253.562	76.06
253.795	92.06
254.028	94.06
254.261	78.06
254.494	80.06
254.727	80.06
254.96	85.06
255.193	73.06
255.426	69.06
255.659	73.06
255.892	75.06
256.124	67.06
256.357	80.06
256.59	75.06
256.823	76.06
257.056	82.06
257.289	89.06
257.521	86.06
257.754	80.06
257.987	73.06
258.22	75.06
258.452	72.06
258.685	84.06
258.918	92.06
259.151	67.06
259.383	72.06
259.616	76.06
259.849	89.06
260.081	78.06
260.314	72.06
260.547	67.06
260.779	76.06
261.012	83.06
261.244	80.06
261.477	90.06
261.71	73.06
261.942	83.06
262.175	86.06
262.407	80.06
262.64	82.06
262.872	88.06
263.105	86.06
263.337	85.06
263.57	82.06
263.802	85.06
264.035	80.06
264.267	80.06
264.499	81.06
264.732	86.06
264.964	93.06
265.197	82.06
265.429	72.06
265.661	92.06
265.894	85.06
266.126	100.06
266.358	90.06
266.591	110.06
266.823	94.06
267.055	97.06
267.287	87.06
267.52	82.06
267.752	74.06
267.984	85.06
268.216	89.06
268.448	90.06
268.681	75.06
268.913	77.06
269.145	79.06
269.377	77.06
269.609	86.06
269.841	90.06
270.073	80.06
270.306	67.06
270.538	84.06
270.77	81.06
271.002	88.06
271.234	89.06
271.466	78.06
271.698	72.06
271.93	80.06
272.162	81.06
272.394	92.06
272.626	96.06
272.858	87.06
273.09	76.06
273.322	90.06
273.553	72.06
273.785	77.06
274.017	95.06
274.249	80.06
274.481	81.06
274.713	88.06
274.945	91.06
275.176	86.06
275.408	102.06
275.64	89.06
275.872	89.06
276.104	78.06
276.335	78.06
276.567	78.06
276.799	66.06
277.031	84.06
277.262	82.06
277.494	102.06
277.726	87.06
277.957	106.06
278.189	102.06
278.421	91.06
278.652	96.06
278.884	80.06
279.115	80.06
279.347	83.06
279.579	79.06
279.81	72.06
280.042	86.06
280.273	76.06
280.505	90.06
280.736	81.06
280.968	70.06
281.199	90.06
281.431	85.06
281.662	104.06
281.894	94.06
282.125	97.06
282.356	77.06
282.588	72.06
282.819	58.06
283.051	78.06
283.282	88.06
283.513	80.06
283.745	86.06
283.976	98.06
284.207	92.06
284.439	100.06
284.67	97.06
284.901	80.06
285.132	79.06
285.364	106.06
285.595	90.06
285.826	87.06
286.057	82.06
286.288	80.06
286.52	95.06
286.751	90.06
286.982	90.06
287.213	89.06
287.444	82.06
287.675	78.06
287.906	96.06
288.138	85.06
288.369	86.06
288.6	89.06
288.831	82.06
289.062	89.06
289.293	98.06
289.524	83.06
289.755	96.06
289.986	87.06
290.217	94.06
290.448	82.06
290.679	78.06
290.91	108.06
291.141	91.06
291.371	90.06
291.602	90.06
291.833	97.06
292.064	97.06
292.295	93.06
292.526	93.06
292.757	82.06
292.987	96.06
293.218	92.06
293.449	86.06
293.68	99.06
293.91	88.06
294.141	90.06
294.372	90.06
294.603	80.06
294.833	93.06
295.064	83.06
295.295	89.06
295.525	91.06
295.756	90.06
295.987	84.06
296.217	82.06
296.448	79.06
296.679	96.06
296.909	103.06
297.14	86.06
297.37	94.06
297.601	80.06
297.831	88.06
298.062	91.06
298.292	110.06
298.523	88.06
298.753	97.06
298.984	85.06
299.214	97.06
299.445	84.06
299.675	97.06
299.905	91.06
300.136	94.06
300.366	97.06
300.597	89.06
300.827	88.06
301.057	90.06
301.288	81.06
301.518	95.06
301.748	105.06
301.979	98.06
302.209	86.06
302.439	97.06
302.669	98.06
302.9	106.06
303.13	71.06
303.36	77.06
303.59	97.06
303.82	90.06
304.051	75.06
304.281	91.06
304.511	88.06
304.741	86.06
304.971	70.06
305.201	79.06
305.431	101.06
305.661	91.06
305.891	85.06
306.121	87.06
306.352	86.06
306.582	93.06
306.812	77.06
307.042	86.06
307.272	75.06
307.502	93.06
307.731	95.06
307.961	70.06
308.191	84.06
308.421	77.06
308.651	87.06
308.881	78.06
309.111	94.06
309.341	74.06
309.571	84.06
309.8	83.06
310.03	93.06
310.26	95.06
310.49	74.06
310.72	83.06
310.949	80.06
311.179	80.06
311.409	80.06
311.639	85.06
311.868	90.06
312.098	93.06
312.328	87.06
312.557	88.06
312.787	79.06
313.017	84.06
313.246	90.06
313.476	85.06
313.706	80.06
313.935	89.06
314.165	93.06
314.394	79.06
314.624	82.06
314.853	87.06
315.083	96.06
315.312	91.06
315.542	104.06
315.771	98.06
316.001	90.06
316.23	101.06
316.46	94.06
316.689	75.06
316.919	76.06
317.148	88.06
317.377	87.06
317.607	98.06
317.836	85.06
318.065	81.06
318.295	80.06
318.524	84.06
318.753	84.06
318.983	70.06
319.212	79.06
319.441	88.06
319.67	107.06
319.9	100.06
320.129	88.06
320.358	90.06
320.587	92.06
320.816	77.06
321.046	79.06
321.275	75.06
321.504	81.06
321.733	89.06
321.962	76.06
322.191	92.06
322.42	87.06
322.649	89.06
322.878	83.06
323.108	108.06
323.337	78.06
323.566	83.06
323.795	95.06
324.024	96.06
324.253	79.06
324.482	93.06
324.71	84.06
324.939	88.06
325.168	93.06
325.397	84.06
325.626	72.06
325.855	88.06
326.084	98.06
326.313	87.06
326.542	83.06
326.77	96.06
326.999	78.06
327.228	85.06
327.457	89.06
327.686	82.06
327.914	94.06
328.143	92.06
328.372	96.06
328.6	90.06
328.829	89.06
329.058	89.06
329.287	89.06
329.515	95.06
329.744	85.06
329.972	87.06
330.201	81.06
330.43	89.06
330.658	90.06
330.887	85.06
331.115	93.06
331.344	87.06
331.572	80.06
331.801	93.06
332.03	84.06
332.258	94.06
332.486	90.06
332.715	106.06
332.943	94.06
333.172	81.06
333.4	106.06
333.629	98.06
333.857	92.06
334.085	92.06
334.314	81.06
334.542	88.06
334.771	95.06
334.999	93.06
335.227	76.06
335.455	87.06
335.684	92.06
335.912	84.06
336.14	108.06
336.369	89.06
336.597	100.06
336.825	95.06
337.053	96.06
337.281	92.06
337.51	96.06
337.738	100.06
337.966	101.06
338.194	103.06
338.422	95.06
338.65	96.06
338.878	93.06
339.106	92.06
339.334	101.06
339.562	84.06
339.79	87.06
340.018	78.06
340.246	97.06
340.474	97.06
340.702	92.06
340.93	104.06
341.158	88.06
341.386	93.06
341.614	93.06
341.842	92.06
342.07	84.06
342.298	102.06
342.526	104.06
342.754	88.06
342.981	91.06
343.209	86.06
343.437	87.06
343.665	93.06
343.893	86.06
344.12	86.06
344.348	89.06
344.576	106.06
344.804	93.06
345.031	103.06
345.259	98.06
345.487	96.06
345.714	91.06
345.942	97.06
346.17	93.06
346.397	87.06
346.625	105.06
346.853	99.06
347.08	92.06
347.308	87.06
347.535	92.06
347.763	91.06
347.99	92.06
348.218	84.06
348.445	87.06
348.673	80.06
348.9	100.06
349.128	94.06
349.355	93.06
349.583	94.06
349.81	92.06
350.037	85.06
350.265	66.06
350.492	94.06
350.72	98.06
350.947	87.06
351.174	94.06
351.402	75.06
351.629	86.06
351.856	100.06
352.083	87.06
352.311	82.06
352.538	103.06
352.765	96.06
352.992	95.06
353.22	92.06
353.447	99.06
353.674	72.06
353.901	83.06
354.128	87.06
354.355	81.06
354.583	77.06
354.81	84.06
355.037	100.06
355.264	91.06
355.491	80.06
355.718	79.06
355.945	89.06
356.172	84.06
356.399	90.06
356.626	84.06
356.853	89.06
357.08	110.06
357.307	84.06
357.534	92.06
357.761	79.06
357.988	93.06
358.215	90.06
358.441	102.06
358.668	93.06
358.895	93.06
359.122	80.06
359.349	100.06
359.576	86.06
359.802	82.06
360.029	84.06
360.256	90.06
360.483	93.06
360.709	101.06
360.936	80.06
361.163	86.06
361.39	90.06
361.616	81.06
361.843	76.06
362.07	82.06
362.296	90.06
362.523	90.06
362.749	89.06
362.976	74.06
363.203	90.06
363.429	101.06
363.656	81.06
363.882	92.06
364.109	87.06
364.335	109.06
364.562	90.06
364.788	84.06
365.015	78.06
365.241	90.06
365.468	91.06
365.694	88.06
365.92	83.06
366.147	93.06
366.373	90.06
366.599	82.06
366.826	87.06
367.052	88.06
367.278	84.06
367.505	69.06
367.731	93.06
367.957	84.06
368.184	74.06
368.41	76.06
368.636	80.06
368.862	87.06
369.089	98.06
369.315	94.06
369.541	91.06
369.767	93.06
369.993	102.06
370.219	94.06
370.445	95.06
370.672	81.06
370.898	90.06
371.124	85.06
371.35	86.06
371.576	87.06
371.802	78.06
372.028	84.06
372.254	84.06
372.48	91.06
372.706	100.06
372.932	103.06
373.158	96.06
373.384	90.06
373.61	88.06
373.835	95.06
374.061	80.06
374.287	79.06
374.513	93.06
374.739	90.06
374.965	93.06
375.191	97.06
375.416	92.06
375.642	89.06
375.868	94.06
376.094	97.06
376.319	103.06
376.545	90.06
376.771	92.06
376.997	91.06
377.222	89.06
377.448	85.06
377.674	93.06
377.899	101.06
378.125	91.06
378.35	82.06
378.576	90.06
378.802	89.06
379.027	97.06
379.253	95.06
379.478	94.06
379.704	81.06
379.929	86.06
380.155	85.06
380.38	80.06
380.606	84.06
380.831	85.06
381.057	89.06
381.282	90.06
381.507	85.06
381.733	82.06
381.958	78.06
382.184	88.06
382.409	94.06
382.634	95.06
382.86	81.06
383.085	81.06
383.31	97.06
383.535	82.06
383.761	87.06
383.986	86.06
384.211	96.06
384.436	88.06
384.662	97.06
384.887	93.06
385.112	89.06
385.337	105.06
385.562	96.06
385.787	92.06
386.013	87.06
386.238	82.06
386.463	87.06
386.688	102.06
386.913	99.06
387.138	92.06
387.363	84.06
387.588	82.06
387.813	100.06
388.038	88.06
388.263	79.06
388.488	85.06
388.713	102.06
388.938	86.06
389.163	88.06
389.387	101.06
389.612	98.06
389.837	76.06
390.062	96.06
390.287	100.06
390.512	86.06
390.736	92.06
390.961	72.06
391.186	85.06
391.411	89.06
391.636	81.06
391.86	87.06
392.085	98.06
392.31	81.06
392.534	82.06
392.759	100.06
392.984	85.06
393.208	91.06
393.433	81.06
393.658	74.06
393.882	84.06
394.107	83.06
394.331	83.06
394.556	82.06
394.78	99.06
395.005	98.06
395.229	79.06
395.454	94.06
395.678	90.06
395.903	92.06
396.127	94.06
396.352	91.06
396.576	78.06
396.801	82.06
397.025	79.06
397.249	85.06
397.474	104.06
397.698	86.06
397.922	84.06
398.147	101.06
398.371	88.06
398.595	94.06
398.82	81.06
399.044	99.06
399.268	86.06
399.492	92.06
399.717	104.06
399.941	95.06
400.165	77.06
400.389	90.06
400.613	96.06
400.837	77.06
401.062	89.06
401.286	80.06
401.51	84.06
401.734	91.06
401.958	75.06
402.182	95.06
402.406	82.06
402.63	91.06
402.854	96.06
403.078	89.06
403.302	82.06
403.526	87.06
403.75	104.06
403.974	68.06
404.198	112.06
404.422	91.06
404.645	78.06
404.869	88.06
405.093	86.06
405.317	93.06
405.541	96.06
405.765	81.06
405.988	96.06
406.212	98.06
406.436	96.06
406.66	88.06
406.883	104.06
407.107	93.06
407.331	94.06
407.555	94.06
407.778	77.06
408.002	92.06
408.226	98.06
408.449	92.06
408.673	93.06
408.896	89.06
409.12	93.06
409.344	95.06
409.567	96.06
409.791	89.06
410.014	91.06
410.238	90.06
410.461	96.06
410.685	94.06
410.908	72.06
411.132	95.06
411.355	92.06
411.578	85.06
411.802	87.06
412.025	91.06
412.249	101.06
412.472	89.06
412.695	90.06
412.919	79.06
413.142	79.06
413.365	77.06
413.589	91.06
413.812	95.06
414.035	104.06
414.258	97.06
414.482	98.06
414.705	100.06
414.928	77.06
415.151	100.06
415.374	91.06
415.597	93.06
415.821	90.06
416.044	75.06
416.267	73.06
416.49	86.06
416.713	86.06
416.936	98.06
417.159	80.06
417.382	94.06
417.605	82.06
417.828	91.06
418.051	92.06
418.274	90.06
418.497	93.06
418.72	84.06
418.943	106.06
419.166	92.06
419.389	98.06
419.611	86.06
419.834	84.06
420.057	79.06
420.28	91.06
420.503	89.06
420.726	78.06
420.948	91.06
421.171	94.06
421.394	77.06
421.617	89.06
421.839	82.06
422.062	84.06
422.285	76.06
422.507	101.06
422.73	110.06
422.953	88.06
423.175	96.06
423.398	93.06
423.621	92.06
423.843	90.06
424.066	79.06
424.288	102.06
424.511	104.06
424.733	75.06
424.956	84.06
425.178	94.06
425.401	90.06
425.623	91.06
425.846	86.06
426.068	82.06
426.291	85.06
426.513	101.06
426.735	86.06
426.958	98.06
427.18	86.06
427.402	84.06
427.625	92.06
427.847	86.06
428.069	93.06
428.292	100.06
428.514	98.06
428.736	78.06
428.958	90.06
429.181	88.06
429.403	103.06
429.625	81.06
429.847	94.06
430.069	95.06
430.292	92.06
430.514	108.06
430.736	80.06
430.958	93.06
431.18	94.06
431.402	90.06
431.624	73.06
431.846	77.06
432.068	89.06
432.29	68.06
432.512	78.06
432.734	69.06
432.956	87.06
433.178	87.06
433.4	81.06
433.622	88.06
433.844	84.06
434.066	91.06
434.287	79.06
434.509	76.06
434.731	88.06
434.953	73.06
435.175	89.06
435.397	85.06
435.618	92.06
435.84	91.06
436.062	101.06
436.284	85.06
436.505	88.06
436.727	75.06
436.949	79.06
437.17	95.06
437.392	87.06
437.614	73.06
437.835	91.06
438.057	81.06
438.278	89.06
438.5	93.06
438.721	92.06
438.943	82.06
439.165	92.06
439.386	95.06
439.608	87.06
439.829	100.06
440.05	88.06
440.272	92.06
440.493	78.06
440.715	84.06
440.936	99.06
441.158	92.06
441.379	85.06
441.6	88.06
441.822	89.06
442.043	91.06
442.264	75.06
442.486	86.06
442.707	93.06
442.928	82.06
443.149	89.06
443.371	88.06
443.592	92.06
443.813	89.06
444.034	84.06
444.255	101.06
444.476	94.06
444.698	94.06
444.919	73.06
445.14	176.06
445.361	109.06
445.582	81.06
445.803	86.06
446.024	74.06
446.245	74.06
446.466	110.06
446.687	100.06
446.908	90.06
447.129	85.06
447.35	80.06
447.571	96.06
447.792	96.06
448.013	80.06
448.234	86.06
448.455	87.06
448.675	90.06
448.896	91.06
449.117	78.06
449.338	80.06
449.559	84.06
449.779	70.06
450	96.06
450.221	86.06
450.442	83.06
450.662	81.06
450.883	88.06
451.104	87.06
451.324	86.06
451.545	80.06
451.766	97.06
451.986	82.06
452.207	92.06
452.428	84.06
452.648	82.06
452.869	97.06
453.089	87.06
453.31	73.06
453.53	88.06
453.751	88.06
453.971	87.06
454.192	80.06
454.412	82.06
454.633	94.06
454.853	80.06
455.073	78.06
455.294	77.06
455.514	90.06
455.734	92.06
455.955	78.06
456.175	88.06
456.395	84.06
456.616	75.06
456.836	88.06
457.056	77.06
457.276	90.06
457.497	92.06
457.717	88.06
457.937	96.06
458.157	80.06
458.377	103.06
458.598	104.06
458.818	85.06
459.038	77.06
459.258	108.06
459.478	88.06
459.698	87.06
459.918	82.06
460.138	78.06
460.358	91.06
460.578	93.06
460.798	104.06
461.018	104.06
461.238	80.06
461.458	73.06
461.678	85.06
461.898	92.06
462.118	93.06
462.338	90.06
462.558	86.06
462.777	93.06
462.997	90.06
463.217	97.06
463.437	98.06
463.657	98.06
463.876	95.06
464.096	97.06
464.316	74.06
464.536	82.06
464.755	92.06
464.975	89.06
465.195	92.06
465.414	85.06
465.634	91.06
465.854	89.06
466.073	98.06
466.293	93.06
466.512	87.06
466.732	90.06
466.951	82.06
467.171	78.06
467.391	83.06
467.61	84.06
467.829	89.06
468.049	91.06
468.268	82.06
468.488	77.06
468.707	100.06
468.927	79.06
469.146	96.06
469.365	91.06
469.585	84.06
469.804	81.06
470.023	81.06
470.243	92.06
470.462	84.06
470.681	76.06
470.901	93.06
471.12	94.06
471.339	92.06
471.558	91.06
471.777	100.06
471.997	81.06
472.216	91.06
472.435	97.06
472.654	85.06
472.873	85.06
473.092	89.06
473.311	93.06
473.53	88.06
473.749	95.06
473.968	81.06
474.187	90.06
474.406	86.06
474.625	88.06
474.844	84.06
475.063	75.06
475.282	100.06
475.501	88.06
475.72	81.06
475.939	91.06
476.158	86.06
476.377	98.06
476.596	73.06
476.814	80.06
477.033	96.06
477.252	88.06
477.471	102.06
477.69	88.06
477.908	107.06
478.127	86.06
478.346	80.06
478.564	106.06
478.783	100.06
479.002	85.06
479.22	86.06
479.439	84.06
479.658	87.06
479.876	93.06
480.095	90.06
480.313	94.06
480.532	92.06
480.751	70.06
480.969	87.06
481.188	90.06
481.406	88.06
481.624	80.06
481.843	93.06
482.061	93.06
482.28	96.06
482.498	94.06
482.717	94.06
482.935	88.06
483.153	80.06
483.372	81.06
483.59	98.06
483.808	96.06
484.027	88.06
484.245	88.06
484.463	87.06
484.681	97.06
484.9	93.06
485.118	84.06
485.336	89.06
485.554	100.06
485.772	93.06
485.99	97.06
486.209	93.06
486.427	85.06
486.645	82.06
486.863	93.06
487.081	80.06
487.299	78.06
487.517	97.06
487.735	104.06
487.953	84.06
488.171	88.06
488.389	86.06
488.607	81.06
488.825	81.06
489.043	102.06
489.261	100.06
489.479	93.06
489.696	89.06
489.914	76.06
490.132	93.06
490.35	92.06
490.568	95.06
490.786	81.06
491.003	109.06
491.221	85.06
491.439	84.06
491.657	100.06
491.874	86.06
492.092	85.06
492.31	100.06
492.527	88.06
492.745	94.06
492.963	114.06
493.18	115.06
493.398	95.06
493.615	92.06
493.833	90.06
494.05	85.06
494.268	90.06
494.485	102.06
494.703	82.06
494.92	87.06
495.138	89.06
495.355	89.06
495.573	96.06
495.79	100.06
496.008	73.06
496.225	93.06
496.442	101.06
496.66	100.06
496.877	104.06
497.094	89.06
497.312	84.06
497.529	91.06
497.746	91.06
497.963	106.06
498.181	82.06
498.398	92.06
498.615	96.06
498.832	90.06
499.049	87.06
499.267	103.06
499.484	106.06
499.701	97.06
499.918	105.06
500.135	95.06
500.352	117.06
500.569	106.06
500.786	126.06
501.003	100.06
501.22	117.06
501.437	94.06
501.654	92.06
501.871	88.06
502.088	97.06
502.305	93.06
502.522	95.06
502.739	108.06
502.956	112.06
503.172	91.06
503.389	93.06
503.606	91.06
503.823	75.06
504.04	82.06
504.256	108.06
504.473	104.06
504.69	93.06
504.907	78.06
505.123	100.06
505.34	89.06
505.557	80.06
505.773	104.06
505.99	90.06
506.207	100.06
506.423	89.06
506.64	90.06
506.856	88.06
507.073	93.06
507.289	81.06
507.506	97.06
507.722	79.06
507.939	87.06
508.155	87.06
508.372	101.06
508.588	91.06
508.805	95.06
509.021	80.06
509.238	85.06
509.454	73.06
509.67	97.06
509.887	79.06
510.103	97.06
510.319	95.06
510.536	96.06
510.752	80.06
510.968	101.06
511.184	86.06
511.401	84.06
511.617	90.06
511.833	92.06
512.049	79.06
512.265	94.06
512.481	82.06
512.698	78.06
512.914	95.06
513.13	94.06
513.346	83.06
513.562	97.06
513.778	94.06
513.994	95.06
514.21	83.06
514.426	103.06
514.642	87.06
514.858	96.06
515.074	90.06
515.29	92.06
515.506	80.06
515.721	94.06
515.937	81.06
516.153	91.06
516.369	88.06
516.585	89.06
516.801	80.06
517.016	93.06
517.232	97.06
517.448	95.06
517.664	96.06
517.879	85.06
518.095	92.06
518.311	86.06
518.527	92.06
518.742	93.06
