Data from BG_HRD10591_049.txt Node
Date: Fri May 16 15:14:47 EDT 2025
User: Yrep
Spectrometer: HR+D1059
Trigger mode: 1
Integration Time (sec): 1.000000E-1
Scans to average: 1
Electric dark correction enabled: true
Nonlinearity correction enabled: false
Boxcar width: 0
XAxis mode: Wavelengths
Number of Pixels in Spectrum: 2048
>>>>>Begin Spectral Data<<<<<
223.165	-18.25
223.4	-18.25
223.635	-18.25
223.869	-35.25
224.104	-18.25
224.338	-27.25
224.573	-15.25
224.808	-8.25
225.042	-4.25
225.277	-2.25
225.511	-0.25
225.746	17.75
225.98	10.75
226.215	12.75
226.449	9.75
226.683	19.75
226.918	22.75
227.152	35.75
227.387	46.75
227.621	41.75
227.856	54.75
228.09	45.75
228.324	55.75
228.559	62.75
228.793	50.75
229.027	53.75
229.262	58.75
229.496	52.75
229.73	72.75
229.964	63.75
230.199	66.75
230.433	68.75
230.667	55.75
230.901	72.75
231.136	68.75
231.37	76.75
231.604	85.75
231.838	76.75
232.072	86.75
232.306	82.75
232.541	89.75
232.775	84.75
233.009	75.75
233.243	75.75
233.477	80.75
233.711	71.75
233.945	77.75
234.179	79.75
234.413	84.75
234.647	76.75
234.881	82.75
235.115	58.75
235.349	87.75
235.583	83.75
235.817	65.75
236.051	89.75
236.285	77.75
236.519	91.75
236.753	72.75
236.987	73.75
237.221	80.75
237.455	64.75
237.689	72.75
237.922	64.75
238.156	68.75
238.39	74.75
238.624	68.75
238.858	62.75
239.091	63.75
239.325	68.75
239.559	74.75
239.793	79.75
240.027	69.75
240.26	74.75
240.494	84.75
240.728	73.75
240.961	78.75
241.195	72.75
241.429	77.75
241.662	74.75
241.896	60.75
242.13	80.75
242.363	79.75
242.597	79.75
242.83	77.75
243.064	91.75
243.298	73.75
243.531	69.75
243.765	76.75
243.998	71.75
244.232	74.75
244.465	61.75
244.699	83.75
244.932	90.75
245.166	86.75
245.399	72.75
245.633	73.75
245.866	68.75
246.099	87.75
246.333	82.75
246.566	79.75
246.8	86.75
247.033	76.75
247.266	78.75
247.5	87.75
247.733	84.75
247.966	60.75
248.2	68.75
248.433	74.75
248.666	71.75
248.899	92.75
249.133	69.75
249.366	82.75
249.599	60.75
249.832	74.75
250.066	85.75
250.299	75.75
250.532	81.75
250.765	80.75
250.998	76.75
251.231	78.75
251.465	63.75
251.698	82.75
251.931	82.75
252.164	84.75
252.397	90.75
252.63	78.75
252.863	68.75
253.096	68.75
253.329	75.75
253.562	87.75
253.795	77.75
254.028	82.75
254.261	83.75
254.494	74.75
254.727	71.75
254.96	85.75
255.193	86.75
255.426	90.75
255.659	64.75
255.892	81.75
256.124	86.75
256.357	77.75
256.59	87.75
256.823	87.75
257.056	84.75
257.289	74.75
257.521	78.75
257.754	69.75
257.987	64.75
258.22	80.75
258.452	88.75
258.685	75.75
258.918	79.75
259.151	73.75
259.383	96.75
259.616	82.75
259.849	78.75
260.081	85.75
260.314	79.75
260.547	86.75
260.779	78.75
261.012	73.75
261.244	95.75
261.477	89.75
261.71	74.75
261.942	73.75
262.175	98.75
262.407	83.75
262.64	90.75
262.872	100.75
263.105	85.75
263.337	72.75
263.57	79.75
263.802	69.75
264.035	83.75
264.267	80.75
264.499	87.75
264.732	79.75
264.964	78.75
265.197	86.75
265.429	86.75
265.661	82.75
265.894	82.75
266.126	87.75
266.358	88.75
266.591	82.75
266.823	88.75
267.055	85.75
267.287	84.75
267.52	85.75
267.752	86.75
267.984	84.75
268.216	84.75
268.448	83.75
268.681	84.75
268.913	62.75
269.145	89.75
269.377	80.75
269.609	79.75
269.841	85.75
270.073	80.75
270.306	86.75
270.538	79.75
270.77	80.75
271.002	80.75
271.234	85.75
271.466	88.75
271.698	80.75
271.93	79.75
272.162	82.75
272.394	92.75
272.626	85.75
272.858	79.75
273.09	87.75
273.322	92.75
273.553	76.75
273.785	78.75
274.017	82.75
274.249	75.75
274.481	82.75
274.713	85.75
274.945	72.75
275.176	79.75
275.408	95.75
275.64	74.75
275.872	66.75
276.104	76.75
276.335	72.75
276.567	70.75
276.799	97.75
277.031	93.75
277.262	90.75
277.494	83.75
277.726	92.75
277.957	93.75
278.189	81.75
278.421	73.75
278.652	94.75
278.884	84.75
279.115	80.75
279.347	82.75
279.579	76.75
279.81	87.75
280.042	90.75
280.273	85.75
280.505	81.75
280.736	82.75
280.968	84.75
281.199	88.75
281.431	83.75
281.662	80.75
281.894	95.75
282.125	82.75
282.356	81.75
282.588	84.75
282.819	80.75
283.051	77.75
283.282	68.75
283.513	91.75
283.745	75.75
283.976	82.75
284.207	95.75
284.439	80.75
284.67	84.75
284.901	74.75
285.132	81.75
285.364	76.75
285.595	90.75
285.826	94.75
286.057	114.75
286.288	81.75
286.52	82.75
286.751	77.75
286.982	72.75
287.213	78.75
287.444	93.75
287.675	89.75
287.906	82.75
288.138	102.75
288.369	77.75
288.6	76.75
288.831	80.75
289.062	87.75
289.293	94.75
289.524	84.75
289.755	77.75
289.986	68.75
290.217	82.75
290.448	90.75
290.679	93.75
290.91	71.75
291.141	88.75
291.371	96.75
291.602	80.75
291.833	93.75
292.064	85.75
292.295	82.75
292.526	87.75
292.757	92.75
292.987	99.75
293.218	91.75
293.449	78.75
293.68	82.75
293.91	84.75
294.141	89.75
294.372	87.75
294.603	84.75
294.833	74.75
295.064	86.75
295.295	98.75
295.525	84.75
295.756	98.75
295.987	83.75
296.217	87.75
296.448	80.75
296.679	77.75
296.909	90.75
297.14	80.75
297.37	86.75
297.601	90.75
297.831	95.75
298.062	90.75
298.292	87.75
298.523	92.75
298.753	84.75
298.984	74.75
299.214	85.75
299.445	77.75
299.675	91.75
299.905	83.75
300.136	79.75
300.366	90.75
300.597	91.75
300.827	88.75
301.057	87.75
301.288	82.75
301.518	80.75
301.748	86.75
301.979	107.75
302.209	80.75
302.439	88.75
302.669	79.75
302.9	91.75
303.13	101.75
303.36	84.75
303.59	86.75
303.82	79.75
304.051	91.75
304.281	86.75
304.511	96.75
304.741	94.75
304.971	91.75
305.201	95.75
305.431	76.75
305.661	107.75
305.891	79.75
306.121	74.75
306.352	83.75
306.582	78.75
306.812	82.75
307.042	80.75
307.272	75.75
307.502	92.75
307.731	88.75
307.961	83.75
308.191	76.75
308.421	76.75
308.651	78.75
308.881	100.75
309.111	85.75
309.341	85.75
309.571	95.75
309.8	83.75
310.03	82.75
310.26	75.75
310.49	88.75
310.72	94.75
310.949	91.75
311.179	90.75
311.409	76.75
311.639	85.75
311.868	74.75
312.098	89.75
312.328	104.75
312.557	100.75
312.787	85.75
313.017	106.75
313.246	87.75
313.476	108.75
313.706	87.75
313.935	82.75
314.165	85.75
314.394	89.75
314.624	78.75
314.853	76.75
315.083	71.75
315.312	98.75
315.542	72.75
315.771	80.75
316.001	79.75
316.23	83.75
316.46	81.75
316.689	88.75
316.919	86.75
317.148	79.75
317.377	98.75
317.607	82.75
317.836	76.75
318.065	96.75
318.295	93.75
318.524	80.75
318.753	91.75
318.983	95.75
319.212	90.75
319.441	79.75
319.67	75.75
319.9	95.75
320.129	83.75
320.358	88.75
320.587	86.75
320.816	93.75
321.046	87.75
321.275	92.75
321.504	78.75
321.733	88.75
321.962	88.75
322.191	78.75
322.42	89.75
322.649	80.75
322.878	72.75
323.108	86.75
323.337	76.75
323.566	75.75
323.795	75.75
324.024	74.75
324.253	87.75
324.482	91.75
324.71	58.75
324.939	85.75
325.168	98.75
325.397	101.75
325.626	81.75
325.855	89.75
326.084	89.75
326.313	88.75
326.542	77.75
326.77	83.75
326.999	90.75
327.228	85.75
327.457	94.75
327.686	88.75
327.914	85.75
328.143	89.75
328.372	77.75
328.6	82.75
328.829	90.75
329.058	92.75
329.287	86.75
329.515	82.75
329.744	83.75
329.972	83.75
330.201	87.75
330.43	98.75
330.658	90.75
330.887	79.75
331.115	88.75
331.344	84.75
331.572	82.75
331.801	101.75
332.03	79.75
332.258	73.75
332.486	95.75
332.715	86.75
332.943	101.75
333.172	92.75
333.4	82.75
333.629	83.75
333.857	85.75
334.085	96.75
334.314	89.75
334.542	92.75
334.771	106.75
334.999	88.75
335.227	80.75
335.455	95.75
335.684	89.75
335.912	86.75
336.14	71.75
336.369	80.75
336.597	80.75
336.825	88.75
337.053	76.75
337.281	83.75
337.51	81.75
337.738	84.75
337.966	96.75
338.194	74.75
338.422	96.75
338.65	92.75
338.878	99.75
339.106	91.75
339.334	92.75
339.562	104.75
339.79	90.75
340.018	89.75
340.246	89.75
340.474	89.75
340.702	92.75
340.93	89.75
341.158	75.75
341.386	87.75
341.614	86.75
341.842	87.75
342.07	86.75
342.298	89.75
342.526	93.75
342.754	82.75
342.981	77.75
343.209	95.75
343.437	103.75
343.665	87.75
343.893	92.75
344.12	85.75
344.348	87.75
344.576	80.75
344.804	85.75
345.031	106.75
345.259	96.75
345.487	94.75
345.714	88.75
345.942	88.75
346.17	75.75
346.397	78.75
346.625	80.75
346.853	82.75
347.08	91.75
347.308	82.75
347.535	94.75
347.763	96.75
347.99	91.75
348.218	76.75
348.445	98.75
348.673	91.75
348.9	88.75
349.128	93.75
349.355	90.75
349.583	96.75
349.81	82.75
350.037	83.75
350.265	83.75
350.492	88.75
350.72	76.75
350.947	100.75
351.174	95.75
351.402	83.75
351.629	89.75
351.856	89.75
352.083	93.75
352.311	88.75
352.538	94.75
352.765	75.75
352.992	102.75
353.22	84.75
353.447	90.75
353.674	102.75
353.901	85.75
354.128	75.75
354.355	86.75
354.583	76.75
354.81	88.75
355.037	90.75
355.264	100.75
355.491	74.75
355.718	83.75
355.945	79.75
356.172	95.75
356.399	80.75
356.626	87.75
356.853	91.75
357.08	78.75
357.307	83.75
357.534	91.75
357.761	88.75
357.988	79.75
358.215	71.75
358.441	76.75
358.668	90.75
358.895	78.75
359.122	77.75
359.349	80.75
359.576	85.75
359.802	79.75
360.029	82.75
360.256	78.75
360.483	78.75
360.709	94.75
360.936	89.75
361.163	89.75
361.39	89.75
361.616	90.75
361.843	76.75
362.07	90.75
362.296	87.75
362.523	81.75
362.749	74.75
362.976	82.75
363.203	90.75
363.429	85.75
363.656	79.75
363.882	91.75
364.109	83.75
364.335	86.75
364.562	94.75
364.788	93.75
365.015	80.75
365.241	92.75
365.468	91.75
365.694	80.75
365.92	86.75
366.147	91.75
366.373	75.75
366.599	68.75
366.826	74.75
367.052	78.75
367.278	90.75
367.505	85.75
367.731	98.75
367.957	87.75
368.184	99.75
368.41	98.75
368.636	94.75
368.862	89.75
369.089	66.75
369.315	82.75
369.541	93.75
369.767	90.75
369.993	99.75
370.219	91.75
370.445	86.75
370.672	75.75
370.898	83.75
371.124	83.75
371.35	65.75
371.576	87.75
371.802	86.75
372.028	95.75
372.254	75.75
372.48	107.75
372.706	103.75
372.932	99.75
373.158	81.75
373.384	97.75
373.61	102.75
373.835	100.75
374.061	81.75
374.287	74.75
374.513	89.75
374.739	72.75
374.965	88.75
375.191	95.75
375.416	88.75
375.642	89.75
375.868	96.75
376.094	101.75
376.319	76.75
376.545	76.75
376.771	87.75
376.997	85.75
377.222	93.75
377.448	85.75
377.674	94.75
377.899	82.75
378.125	78.75
378.35	86.75
378.576	79.75
378.802	79.75
379.027	78.75
379.253	90.75
379.478	83.75
379.704	85.75
379.929	82.75
380.155	80.75
380.38	89.75
380.606	79.75
380.831	79.75
381.057	87.75
381.282	91.75
381.507	87.75
381.733	95.75
381.958	76.75
382.184	86.75
382.409	80.75
382.634	82.75
382.86	84.75
383.085	106.75
383.31	86.75
383.535	89.75
383.761	74.75
383.986	94.75
384.211	75.75
384.436	90.75
384.662	84.75
384.887	91.75
385.112	96.75
385.337	93.75
385.562	85.75
385.787	89.75
386.013	93.75
386.238	86.75
386.463	103.75
386.688	90.75
386.913	83.75
387.138	74.75
387.363	99.75
387.588	98.75
387.813	86.75
388.038	86.75
388.263	91.75
388.488	81.75
388.713	96.75
388.938	88.75
389.163	88.75
389.387	86.75
389.612	81.75
389.837	79.75
390.062	90.75
390.287	77.75
390.512	74.75
390.736	92.75
390.961	88.75
391.186	86.75
391.411	98.75
391.636	90.75
391.86	88.75
392.085	93.75
392.31	86.75
392.534	90.75
392.759	91.75
392.984	81.75
393.208	96.75
393.433	87.75
393.658	74.75
393.882	80.75
394.107	104.75
394.331	86.75
394.556	87.75
394.78	79.75
395.005	87.75
395.229	76.75
395.454	89.75
395.678	110.75
395.903	93.75
396.127	86.75
396.352	81.75
396.576	86.75
396.801	92.75
397.025	93.75
397.249	92.75
397.474	89.75
397.698	76.75
397.922	82.75
398.147	100.75
398.371	87.75
398.595	86.75
398.82	95.75
399.044	79.75
399.268	79.75
399.492	85.75
399.717	80.75
399.941	85.75
400.165	95.75
400.389	95.75
400.613	85.75
400.837	91.75
401.062	83.75
401.286	94.75
401.51	79.75
401.734	89.75
401.958	88.75
402.182	91.75
402.406	88.75
402.63	80.75
402.854	87.75
403.078	87.75
403.302	95.75
403.526	93.75
403.75	80.75
403.974	80.75
404.198	101.75
404.422	87.75
404.645	91.75
404.869	79.75
405.093	92.75
405.317	94.75
405.541	101.75
405.765	83.75
405.988	74.75
406.212	98.75
406.436	97.75
406.66	107.75
406.883	104.75
407.107	84.75
407.331	82.75
407.555	83.75
407.778	91.75
408.002	83.75
408.226	98.75
408.449	101.75
408.673	90.75
408.896	102.75
409.12	96.75
409.344	95.75
409.567	93.75
409.791	93.75
410.014	91.75
410.238	91.75
410.461	85.75
410.685	103.75
410.908	86.75
411.132	92.75
411.355	83.75
411.578	92.75
411.802	91.75
412.025	85.75
412.249	97.75
412.472	81.75
412.695	84.75
412.919	86.75
413.142	93.75
413.365	83.75
413.589	99.75
413.812	93.75
414.035	87.75
414.258	76.75
414.482	74.75
414.705	86.75
414.928	99.75
415.151	82.75
415.374	90.75
415.597	86.75
415.821	104.75
416.044	86.75
416.267	100.75
416.49	72.75
416.713	82.75
416.936	110.75
417.159	98.75
417.382	74.75
417.605	80.75
417.828	95.75
418.051	86.75
418.274	90.75
418.497	92.75
418.72	86.75
418.943	99.75
419.166	82.75
419.389	86.75
419.611	102.75
419.834	90.75
420.057	85.75
420.28	82.75
420.503	93.75
420.726	77.75
420.948	103.75
421.171	99.75
421.394	83.75
421.617	87.75
421.839	85.75
422.062	91.75
422.285	88.75
422.507	75.75
422.73	74.75
422.953	82.75
423.175	83.75
423.398	78.75
423.621	87.75
423.843	73.75
424.066	94.75
424.288	108.75
424.511	82.75
424.733	89.75
424.956	93.75
425.178	88.75
425.401	68.75
425.623	79.75
425.846	83.75
426.068	79.75
426.291	89.75
426.513	89.75
426.735	78.75
426.958	80.75
427.18	80.75
427.402	83.75
427.625	69.75
427.847	98.75
428.069	90.75
428.292	86.75
428.514	95.75
428.736	79.75
428.958	88.75
429.181	87.75
429.403	93.75
429.625	85.75
429.847	85.75
430.069	76.75
430.292	86.75
430.514	76.75
430.736	80.75
430.958	91.75
431.18	89.75
431.402	81.75
431.624	98.75
431.846	93.75
432.068	82.75
432.29	73.75
432.512	87.75
432.734	86.75
432.956	94.75
433.178	96.75
433.4	106.75
433.622	91.75
433.844	100.75
434.066	82.75
434.287	71.75
434.509	92.75
434.731	78.75
434.953	80.75
435.175	94.75
435.397	81.75
435.618	89.75
435.84	93.75
436.062	104.75
436.284	86.75
436.505	78.75
436.727	87.75
436.949	87.75
437.17	91.75
437.392	71.75
437.614	92.75
437.835	87.75
438.057	98.75
438.278	74.75
438.5	89.75
438.721	96.75
438.943	77.75
439.165	88.75
439.386	85.75
439.608	87.75
439.829	87.75
440.05	95.75
440.272	100.75
440.493	86.75
440.715	79.75
440.936	91.75
441.158	91.75
441.379	93.75
441.6	83.75
441.822	95.75
442.043	85.75
442.264	79.75
442.486	84.75
442.707	91.75
442.928	90.75
443.149	90.75
443.371	87.75
443.592	88.75
443.813	82.75
444.034	83.75
444.255	100.75
444.476	80.75
444.698	82.75
444.919	89.75
445.14	173.75
445.361	132.75
445.582	74.75
445.803	77.75
446.024	82.75
446.245	90.75
446.466	75.75
446.687	91.75
446.908	94.75
447.129	91.75
447.35	80.75
447.571	84.75
447.792	88.75
448.013	75.75
448.234	88.75
448.455	91.75
448.675	86.75
448.896	89.75
449.117	91.75
449.338	86.75
449.559	87.75
449.779	75.75
450	98.75
450.221	76.75
450.442	85.75
450.662	86.75
450.883	95.75
451.104	76.75
451.324	82.75
451.545	93.75
451.766	95.75
451.986	85.75
452.207	83.75
452.428	93.75
452.648	75.75
452.869	82.75
453.089	89.75
453.31	98.75
453.53	92.75
453.751	88.75
453.971	75.75
454.192	90.75
454.412	98.75
454.633	87.75
454.853	88.75
455.073	90.75
455.294	84.75
455.514	81.75
455.734	86.75
455.955	87.75
456.175	96.75
456.395	100.75
456.616	80.75
456.836	79.75
457.056	89.75
457.276	83.75
457.497	72.75
457.717	98.75
457.937	92.75
458.157	93.75
458.377	87.75
458.598	80.75
458.818	86.75
459.038	86.75
459.258	92.75
459.478	88.75
459.698	95.75
459.918	103.75
460.138	92.75
460.358	86.75
460.578	94.75
460.798	98.75
461.018	100.75
461.238	78.75
461.458	86.75
461.678	89.75
461.898	93.75
462.118	95.75
462.338	95.75
462.558	87.75
462.777	76.75
462.997	98.75
463.217	92.75
463.437	75.75
463.657	80.75
463.876	80.75
464.096	77.75
464.316	85.75
464.536	95.75
464.755	93.75
464.975	89.75
465.195	91.75
465.414	87.75
465.634	89.75
465.854	82.75
466.073	72.75
466.293	91.75
466.512	84.75
466.732	91.75
466.951	95.75
467.171	84.75
467.391	86.75
467.61	65.75
467.829	88.75
468.049	73.75
468.268	90.75
468.488	94.75
468.707	88.75
468.927	92.75
469.146	91.75
469.365	89.75
469.585	85.75
469.804	83.75
470.023	84.75
470.243	82.75
470.462	84.75
470.681	77.75
470.901	73.75
471.12	86.75
471.339	83.75
471.558	96.75
471.777	92.75
471.997	83.75
472.216	98.75
472.435	95.75
472.654	93.75
472.873	95.75
473.092	103.75
473.311	81.75
473.53	84.75
473.749	78.75
473.968	84.75
474.187	93.75
474.406	94.75
474.625	84.75
474.844	69.75
475.063	95.75
475.282	78.75
475.501	78.75
475.72	106.75
475.939	71.75
476.158	87.75
476.377	84.75
476.596	90.75
476.814	87.75
477.033	100.75
477.252	80.75
477.471	98.75
477.69	100.75
477.908	88.75
478.127	103.75
478.346	94.75
478.564	83.75
478.783	92.75
479.002	88.75
479.22	84.75
479.439	87.75
479.658	86.75
479.876	95.75
480.095	87.75
480.313	88.75
480.532	92.75
480.751	103.75
480.969	98.75
481.188	83.75
481.406	100.75
481.624	93.75
481.843	94.75
482.061	91.75
482.28	91.75
482.498	87.75
482.717	84.75
482.935	102.75
483.153	86.75
483.372	83.75
483.59	91.75
483.808	98.75
484.027	82.75
484.245	74.75
484.463	80.75
484.681	94.75
484.9	88.75
485.118	92.75
485.336	92.75
485.554	98.75
485.772	94.75
485.99	77.75
486.209	90.75
486.427	91.75
486.645	92.75
486.863	88.75
487.081	86.75
487.299	99.75
487.517	74.75
487.735	104.75
487.953	90.75
488.171	89.75
488.389	84.75
488.607	87.75
488.825	74.75
489.043	97.75
489.261	100.75
489.479	89.75
489.696	104.75
489.914	79.75
490.132	102.75
490.35	102.75
490.568	88.75
490.786	92.75
491.003	74.75
491.221	94.75
491.439	97.75
491.657	80.75
491.874	90.75
492.092	81.75
492.31	100.75
492.527	70.75
492.745	107.75
492.963	95.75
493.18	104.75
493.398	95.75
493.615	98.75
493.833	86.75
494.05	106.75
494.268	80.75
494.485	93.75
494.703	74.75
494.92	85.75
495.138	86.75
495.355	94.75
495.573	85.75
495.79	97.75
496.008	91.75
496.225	90.75
496.442	64.75
496.66	94.75
496.877	95.75
497.094	106.75
497.312	92.75
497.529	94.75
497.746	76.75
497.963	82.75
498.181	104.75
498.398	82.75
498.615	86.75
498.832	96.75
499.049	83.75
499.267	123.75
499.484	111.75
499.701	95.75
499.918	104.75
500.135	108.75
500.352	104.75
500.569	115.75
500.786	108.75
501.003	96.75
501.22	114.75
501.437	103.75
501.654	92.75
501.871	101.75
502.088	94.75
502.305	108.75
502.522	107.75
502.739	96.75
502.956	92.75
503.172	88.75
503.389	81.75
503.606	94.75
503.823	89.75
504.04	114.75
504.256	95.75
504.473	106.75
504.69	93.75
504.907	92.75
505.123	105.75
505.34	86.75
505.557	91.75
505.773	87.75
505.99	91.75
506.207	92.75
506.423	92.75
506.64	98.75
506.856	93.75
507.073	85.75
507.289	87.75
507.506	86.75
507.722	89.75
507.939	90.75
508.155	84.75
508.372	87.75
508.588	88.75
508.805	93.75
509.021	87.75
509.238	98.75
509.454	89.75
509.67	85.75
509.887	103.75
510.103	74.75
510.319	82.75
510.536	86.75
510.752	95.75
510.968	85.75
511.184	78.75
511.401	92.75
511.617	82.75
511.833	104.75
512.049	94.75
512.265	90.75
512.481	76.75
512.698	78.75
512.914	96.75
513.13	86.75
513.346	86.75
513.562	95.75
513.778	95.75
513.994	91.75
514.21	86.75
514.426	80.75
514.642	91.75
514.858	87.75
515.074	92.75
515.29	82.75
515.506	80.75
515.721	84.75
515.937	101.75
516.153	92.75
516.369	89.75
516.585	87.75
516.801	81.75
517.016	92.75
517.232	90.75
517.448	84.75
517.664	96.75
517.879	92.75
518.095	99.75
518.311	95.75
518.527	95.75
518.742	99.75
518.958	86.75
519.173	91.75
