Data from BG_HRD10591_079.txt Node
Date: Fri May 16 15:15:02 EDT 2025
User: Yrep
Spectrometer: HR+D1059
Trigger mode: 1
Integration Time (sec): 1.000000E-1
Scans to average: 1
Electric dark correction enabled: true
Nonlinearity correction enabled: false
Boxcar width: 0
XAxis mode: Wavelengths
Number of Pixels in Spectrum: 2048
>>>>>Begin Spectral Data<<<<<
223.165	-32.19
223.4	-32.19
223.635	-32.19
223.869	-21.19
224.104	-14.19
224.338	-17.19
224.573	-3.19
224.808	-10.19
225.042	-6.19
225.277	-9.19
225.511	-3.19
225.746	0.81
225.98	19.81
226.215	-1.19
226.449	12.81
226.683	21.81
226.918	33.81
227.152	28.81
227.387	40.81
227.621	46.81
227.856	37.81
228.09	39.81
228.324	44.81
228.559	60.81
228.793	56.81
229.027	57.81
229.262	65.81
229.496	59.81
229.73	65.81
229.964	75.81
230.199	77.81
230.433	61.81
230.667	89.81
230.901	84.81
231.136	87.81
231.37	73.81
231.604	84.81
231.838	101.81
232.072	83.81
232.306	73.81
232.541	71.81
232.775	76.81
233.009	90.81
233.243	79.81
233.477	84.81
233.711	67.81
233.945	88.81
234.179	92.81
234.413	74.81
234.647	74.81
234.881	91.81
235.115	77.81
235.349	74.81
235.583	81.81
235.817	69.81
236.051	87.81
236.285	70.81
236.519	69.81
236.753	67.81
236.987	78.81
237.221	72.81
237.455	75.81
237.689	88.81
237.922	80.81
238.156	80.81
238.39	90.81
238.624	73.81
238.858	78.81
239.091	83.81
239.325	80.81
239.559	86.81
239.793	73.81
240.027	75.81
240.26	68.81
240.494	85.81
240.728	65.81
240.961	74.81
241.195	81.81
241.429	68.81
241.662	81.81
241.896	63.81
242.13	81.81
242.363	73.81
242.597	74.81
242.83	73.81
243.064	77.81
243.298	82.81
243.531	86.81
243.765	71.81
243.998	63.81
244.232	83.81
244.465	68.81
244.699	71.81
244.932	76.81
245.166	85.81
245.399	72.81
245.633	87.81
245.866	70.81
246.099	76.81
246.333	74.81
246.566	82.81
246.8	86.81
247.033	86.81
247.266	82.81
247.5	76.81
247.733	85.81
247.966	63.81
248.2	73.81
248.433	78.81
248.666	69.81
248.899	75.81
249.133	73.81
249.366	72.81
249.599	68.81
249.832	77.81
250.066	91.81
250.299	94.81
250.532	80.81
250.765	75.81
250.998	81.81
251.231	79.81
251.465	55.81
251.698	45.81
251.931	99.81
252.164	80.81
252.397	72.81
252.63	80.81
252.863	75.81
253.096	81.81
253.329	80.81
253.562	76.81
253.795	74.81
254.028	85.81
254.261	81.81
254.494	79.81
254.727	72.81
254.96	92.81
255.193	81.81
255.426	85.81
255.659	80.81
255.892	77.81
256.124	91.81
256.357	65.81
256.59	82.81
256.823	69.81
257.056	69.81
257.289	81.81
257.521	86.81
257.754	85.81
257.987	69.81
258.22	100.81
258.452	94.81
258.685	65.81
258.918	80.81
259.151	78.81
259.383	79.81
259.616	84.81
259.849	85.81
260.081	83.81
260.314	74.81
260.547	91.81
260.779	80.81
261.012	85.81
261.244	87.81
261.477	85.81
261.71	81.81
261.942	90.81
262.175	77.81
262.407	62.81
262.64	99.81
262.872	73.81
263.105	62.81
263.337	79.81
263.57	70.81
263.802	85.81
264.035	90.81
264.267	79.81
264.499	77.81
264.732	90.81
264.964	75.81
265.197	71.81
265.429	88.81
265.661	68.81
265.894	74.81
266.126	79.81
266.358	74.81
266.591	79.81
266.823	78.81
267.055	91.81
267.287	63.81
267.52	86.81
267.752	76.81
267.984	81.81
268.216	72.81
268.448	91.81
268.681	80.81
268.913	71.81
269.145	86.81
269.377	83.81
269.609	77.81
269.841	87.81
270.073	87.81
270.306	77.81
270.538	74.81
270.77	71.81
271.002	67.81
271.234	66.81
271.466	77.81
271.698	92.81
271.93	75.81
272.162	87.81
272.394	84.81
272.626	85.81
272.858	84.81
273.09	87.81
273.322	90.81
273.553	84.81
273.785	88.81
274.017	84.81
274.249	83.81
274.481	77.81
274.713	71.81
274.945	83.81
275.176	81.81
275.408	101.81
275.64	98.81
275.872	91.81
276.104	91.81
276.335	86.81
276.567	78.81
276.799	64.81
277.031	83.81
277.262	82.81
277.494	91.81
277.726	85.81
277.957	84.81
278.189	86.81
278.421	73.81
278.652	88.81
278.884	82.81
279.115	77.81
279.347	91.81
279.579	84.81
279.81	96.81
280.042	76.81
280.273	87.81
280.505	71.81
280.736	75.81
280.968	95.81
281.199	75.81
281.431	81.81
281.662	78.81
281.894	80.81
282.125	87.81
282.356	80.81
282.588	82.81
282.819	87.81
283.051	82.81
283.282	81.81
283.513	76.81
283.745	76.81
283.976	84.81
284.207	88.81
284.439	73.81
284.67	90.81
284.901	77.81
285.132	86.81
285.364	71.81
285.595	91.81
285.826	83.81
286.057	78.81
286.288	86.81
286.52	81.81
286.751	71.81
286.982	79.81
287.213	79.81
287.444	89.81
287.675	84.81
287.906	77.81
288.138	85.81
288.369	84.81
288.6	78.81
288.831	78.81
289.062	77.81
289.293	79.81
289.524	69.81
289.755	77.81
289.986	80.81
290.217	79.81
290.448	83.81
290.679	83.81
290.91	75.81
291.141	73.81
291.371	85.81
291.602	78.81
291.833	84.81
292.064	87.81
292.295	87.81
292.526	73.81
292.757	69.81
292.987	81.81
293.218	83.81
293.449	80.81
293.68	85.81
293.91	94.81
294.141	80.81
294.372	80.81
294.603	83.81
294.833	88.81
295.064	73.81
295.295	77.81
295.525	78.81
295.756	99.81
295.987	97.81
296.217	79.81
296.448	75.81
296.679	94.81
296.909	86.81
297.14	91.81
297.37	100.81
297.601	87.81
297.831	89.81
298.062	84.81
298.292	80.81
298.523	79.81
298.753	83.81
298.984	80.81
299.214	88.81
299.445	89.81
299.675	84.81
299.905	71.81
300.136	79.81
300.366	86.81
300.597	71.81
300.827	90.81
301.057	85.81
301.288	73.81
301.518	76.81
301.748	78.81
301.979	87.81
302.209	79.81
302.439	90.81
302.669	84.81
302.9	77.81
303.13	84.81
303.36	83.81
303.59	78.81
303.82	77.81
304.051	86.81
304.281	82.81
304.511	90.81
304.741	91.81
304.971	63.81
305.201	97.81
305.431	80.81
305.661	68.81
305.891	82.81
306.121	94.81
306.352	95.81
306.582	92.81
306.812	80.81
307.042	76.81
307.272	86.81
307.502	66.81
307.731	94.81
307.961	94.81
308.191	86.81
308.421	85.81
308.651	92.81
308.881	86.81
309.111	81.81
309.341	87.81
309.571	84.81
309.8	88.81
310.03	81.81
310.26	83.81
310.49	80.81
310.72	90.81
310.949	85.81
311.179	68.81
311.409	91.81
311.639	83.81
311.868	74.81
312.098	81.81
312.328	79.81
312.557	72.81
312.787	71.81
313.017	87.81
313.246	95.81
313.476	85.81
313.706	80.81
313.935	90.81
314.165	73.81
314.394	73.81
314.624	78.81
314.853	101.81
315.083	79.81
315.312	83.81
315.542	79.81
315.771	83.81
316.001	79.81
316.23	90.81
316.46	74.81
316.689	83.81
316.919	79.81
317.148	86.81
317.377	80.81
317.607	84.81
317.836	91.81
318.065	83.81
318.295	79.81
318.524	94.81
318.753	87.81
318.983	91.81
319.212	79.81
319.441	92.81
319.67	75.81
319.9	84.81
320.129	77.81
320.358	84.81
320.587	73.81
320.816	85.81
321.046	88.81
321.275	93.81
321.504	81.81
321.733	71.81
321.962	80.81
322.191	76.81
322.42	86.81
322.649	84.81
322.878	88.81
323.108	101.81
323.337	79.81
323.566	80.81
323.795	90.81
324.024	79.81
324.253	73.81
324.482	72.81
324.71	86.81
324.939	84.81
325.168	87.81
325.397	84.81
325.626	86.81
325.855	79.81
326.084	77.81
326.313	89.81
326.542	87.81
326.77	80.81
326.999	81.81
327.228	85.81
327.457	85.81
327.686	87.81
327.914	87.81
328.143	89.81
328.372	78.81
328.6	81.81
328.829	80.81
329.058	68.81
329.287	89.81
329.515	80.81
329.744	63.81
329.972	65.81
330.201	93.81
330.43	80.81
330.658	81.81
330.887	76.81
331.115	64.81
331.344	92.81
331.572	80.81
331.801	81.81
332.03	75.81
332.258	80.81
332.486	71.81
332.715	85.81
332.943	73.81
333.172	87.81
333.4	88.81
333.629	73.81
333.857	84.81
334.085	69.81
334.314	84.81
334.542	80.81
334.771	90.81
334.999	104.81
335.227	85.81
335.455	96.81
335.684	79.81
335.912	80.81
336.14	83.81
336.369	73.81
336.597	71.81
336.825	83.81
337.053	84.81
337.281	80.81
337.51	90.81
337.738	90.81
337.966	85.81
338.194	84.81
338.422	76.81
338.65	91.81
338.878	91.81
339.106	76.81
339.334	72.81
339.562	81.81
339.79	79.81
340.018	83.81
340.246	77.81
340.474	83.81
340.702	84.81
340.93	72.81
341.158	91.81
341.386	89.81
341.614	76.81
341.842	81.81
342.07	87.81
342.298	75.81
342.526	83.81
342.754	62.81
342.981	74.81
343.209	78.81
343.437	96.81
343.665	82.81
343.893	93.81
344.12	79.81
344.348	77.81
344.576	85.81
344.804	87.81
345.031	93.81
345.259	91.81
345.487	94.81
345.714	92.81
345.942	85.81
346.17	81.81
346.397	79.81
346.625	81.81
346.853	78.81
347.08	80.81
347.308	86.81
347.535	66.81
347.763	69.81
347.99	86.81
348.218	81.81
348.445	85.81
348.673	79.81
348.9	80.81
349.128	87.81
349.355	84.81
349.583	80.81
349.81	73.81
350.037	70.81
350.265	81.81
350.492	71.81
350.72	88.81
350.947	85.81
351.174	89.81
351.402	79.81
351.629	85.81
351.856	89.81
352.083	79.81
352.311	84.81
352.538	82.81
352.765	79.81
352.992	87.81
353.22	83.81
353.447	77.81
353.674	91.81
353.901	70.81
354.128	71.81
354.355	79.81
354.583	88.81
354.81	97.81
355.037	86.81
355.264	73.81
355.491	83.81
355.718	87.81
355.945	76.81
356.172	81.81
356.399	73.81
356.626	75.81
356.853	89.81
357.08	86.81
357.307	75.81
357.534	82.81
357.761	78.81
357.988	87.81
358.215	86.81
358.441	90.81
358.668	79.81
358.895	76.81
359.122	83.81
359.349	73.81
359.576	93.81
359.802	88.81
360.029	78.81
360.256	86.81
360.483	95.81
360.709	72.81
360.936	79.81
361.163	83.81
361.39	76.81
361.616	75.81
361.843	87.81
362.07	83.81
362.296	81.81
362.523	85.81
362.749	73.81
362.976	84.81
363.203	88.81
363.429	79.81
363.656	84.81
363.882	80.81
364.109	77.81
364.335	72.81
364.562	89.81
364.788	84.81
365.015	85.81
365.241	86.81
365.468	77.81
365.694	83.81
365.92	76.81
366.147	83.81
366.373	67.81
366.599	81.81
366.826	75.81
367.052	79.81
367.278	65.81
367.505	96.81
367.731	90.81
367.957	84.81
368.184	87.81
368.41	75.81
368.636	75.81
368.862	93.81
369.089	88.81
369.315	78.81
369.541	76.81
369.767	85.81
369.993	87.81
370.219	90.81
370.445	89.81
370.672	78.81
370.898	70.81
371.124	69.81
371.35	88.81
371.576	82.81
371.802	81.81
372.028	85.81
372.254	84.81
372.48	83.81
372.706	88.81
372.932	78.81
373.158	73.81
373.384	80.81
373.61	90.81
373.835	82.81
374.061	86.81
374.287	78.81
374.513	79.81
374.739	81.81
374.965	63.81
375.191	69.81
375.416	87.81
375.642	90.81
375.868	80.81
376.094	78.81
376.319	85.81
376.545	77.81
376.771	64.81
376.997	75.81
377.222	71.81
377.448	83.81
377.674	83.81
377.899	84.81
378.125	83.81
378.35	73.81
378.576	81.81
378.802	78.81
379.027	99.81
379.253	89.81
379.478	90.81
379.704	81.81
379.929	76.81
380.155	80.81
380.38	57.81
380.606	89.81
380.831	88.81
381.057	91.81
381.282	93.81
381.507	76.81
381.733	76.81
381.958	78.81
382.184	88.81
382.409	77.81
382.634	81.81
382.86	76.81
383.085	82.81
383.31	73.81
383.535	79.81
383.761	78.81
383.986	79.81
384.211	76.81
384.436	89.81
384.662	86.81
384.887	84.81
385.112	76.81
385.337	86.81
385.562	97.81
385.787	89.81
386.013	74.81
386.238	84.81
386.463	72.81
386.688	88.81
386.913	92.81
387.138	86.81
387.363	71.81
387.588	75.81
387.813	65.81
388.038	65.81
388.263	86.81
388.488	83.81
388.713	77.81
388.938	62.81
389.163	80.81
389.387	83.81
389.612	83.81
389.837	78.81
390.062	75.81
390.287	81.81
390.512	76.81
390.736	69.81
390.961	81.81
391.186	74.81
391.411	71.81
391.636	88.81
391.86	80.81
392.085	91.81
392.31	65.81
392.534	88.81
392.759	89.81
392.984	77.81
393.208	79.81
393.433	82.81
393.658	79.81
393.882	87.81
394.107	63.81
394.331	79.81
394.556	82.81
394.78	76.81
395.005	70.81
395.229	87.81
395.454	100.81
395.678	85.81
395.903	72.81
396.127	75.81
396.352	88.81
396.576	72.81
396.801	87.81
397.025	94.81
397.249	85.81
397.474	88.81
397.698	82.81
397.922	81.81
398.147	77.81
398.371	86.81
398.595	84.81
398.82	73.81
399.044	82.81
399.268	94.81
399.492	78.81
399.717	89.81
399.941	66.81
400.165	77.81
400.389	83.81
400.613	67.81
400.837	71.81
401.062	75.81
401.286	73.81
401.51	87.81
401.734	79.81
401.958	79.81
402.182	79.81
402.406	78.81
402.63	91.81
402.854	80.81
403.078	81.81
403.302	83.81
403.526	80.81
403.75	77.81
403.974	66.81
404.198	72.81
404.422	82.81
404.645	77.81
404.869	73.81
405.093	79.81
405.317	70.81
405.541	92.81
405.765	81.81
405.988	76.81
406.212	83.81
406.436	64.81
406.66	80.81
406.883	86.81
407.107	89.81
407.331	83.81
407.555	77.81
407.778	81.81
408.002	82.81
408.226	69.81
408.449	89.81
408.673	91.81
408.896	72.81
409.12	75.81
409.344	79.81
409.567	85.81
409.791	71.81
410.014	87.81
410.238	84.81
410.461	81.81
410.685	79.81
410.908	80.81
411.132	86.81
411.355	87.81
411.578	75.81
411.802	83.81
412.025	68.81
412.249	82.81
412.472	73.81
412.695	77.81
412.919	65.81
413.142	90.81
413.365	87.81
413.589	87.81
413.812	77.81
414.035	70.81
414.258	77.81
414.482	73.81
414.705	81.81
414.928	80.81
415.151	76.81
415.374	85.81
415.597	74.81
415.821	71.81
416.044	75.81
416.267	73.81
416.49	85.81
416.713	83.81
416.936	78.81
417.159	79.81
417.382	91.81
417.605	74.81
417.828	84.81
418.051	88.81
418.274	84.81
418.497	57.81
418.72	77.81
418.943	89.81
419.166	81.81
419.389	75.81
419.611	77.81
419.834	71.81
420.057	89.81
420.28	77.81
420.503	79.81
420.726	92.81
420.948	80.81
421.171	75.81
421.394	79.81
421.617	85.81
421.839	65.81
422.062	78.81
422.285	71.81
422.507	85.81
422.73	86.81
422.953	91.81
423.175	81.81
423.398	72.81
423.621	81.81
423.843	76.81
424.066	81.81
424.288	77.81
424.511	85.81
424.733	81.81
424.956	62.81
425.178	85.81
425.401	84.81
425.623	83.81
425.846	83.81
426.068	73.81
426.291	70.81
426.513	75.81
426.735	66.81
426.958	78.81
427.18	84.81
427.402	91.81
427.625	85.81
427.847	68.81
428.069	71.81
428.292	97.81
428.514	77.81
428.736	74.81
428.958	85.81
429.181	69.81
429.403	81.81
429.625	81.81
429.847	78.81
430.069	87.81
430.292	72.81
430.514	86.81
430.736	73.81
430.958	84.81
431.18	84.81
431.402	93.81
431.624	76.81
431.846	74.81
432.068	80.81
432.29	82.81
432.512	91.81
432.734	73.81
432.956	79.81
433.178	78.81
433.4	73.81
433.622	85.81
433.844	64.81
434.066	80.81
434.287	75.81
434.509	89.81
434.731	84.81
434.953	93.81
435.175	83.81
435.397	66.81
435.618	71.81
435.84	99.81
436.062	80.81
436.284	77.81
436.505	80.81
436.727	85.81
436.949	83.81
437.17	77.81
437.392	72.81
437.614	69.81
437.835	65.81
438.057	79.81
438.278	91.81
438.5	89.81
438.721	84.81
438.943	79.81
439.165	59.81
439.386	71.81
439.608	71.81
439.829	80.81
440.05	81.81
440.272	72.81
440.493	79.81
440.715	79.81
440.936	80.81
441.158	99.81
441.379	79.81
441.6	80.81
441.822	89.81
442.043	79.81
442.264	80.81
442.486	90.81
442.707	82.81
442.928	100.81
443.149	81.81
443.371	88.81
443.592	71.81
443.813	72.81
444.034	72.81
444.255	79.81
444.476	77.81
444.698	80.81
444.919	83.81
445.14	161.81
445.361	101.81
445.582	85.81
445.803	73.81
446.024	77.81
446.245	84.81
446.466	65.81
446.687	93.81
446.908	83.81
447.129	80.81
447.35	81.81
447.571	85.81
447.792	82.81
448.013	77.81
448.234	75.81
448.455	81.81
448.675	71.81
448.896	71.81
449.117	77.81
449.338	77.81
449.559	88.81
449.779	70.81
450	86.81
450.221	91.81
450.442	73.81
450.662	80.81
450.883	76.81
451.104	89.81
451.324	91.81
451.545	82.81
451.766	80.81
451.986	83.81
452.207	107.81
452.428	81.81
452.648	76.81
452.869	86.81
453.089	80.81
453.31	78.81
453.53	80.81
453.751	79.81
453.971	86.81
454.192	83.81
454.412	68.81
454.633	81.81
454.853	81.81
455.073	78.81
455.294	57.81
455.514	75.81
455.734	90.81
455.955	82.81
456.175	83.81
456.395	78.81
456.616	82.81
456.836	83.81
457.056	62.81
457.276	72.81
457.497	79.81
457.717	76.81
457.937	66.81
458.157	84.81
458.377	84.81
458.598	85.81
458.818	80.81
459.038	87.81
459.258	79.81
459.478	76.81
459.698	85.81
459.918	76.81
460.138	69.81
460.358	76.81
460.578	72.81
460.798	72.81
461.018	75.81
461.238	80.81
461.458	77.81
461.678	74.81
461.898	69.81
462.118	78.81
462.338	89.81
462.558	72.81
462.777	89.81
462.997	84.81
463.217	65.81
463.437	92.81
463.657	89.81
463.876	87.81
464.096	60.81
464.316	77.81
464.536	89.81
464.755	79.81
464.975	83.81
465.195	87.81
465.414	81.81
465.634	77.81
465.854	86.81
466.073	98.81
466.293	77.81
466.512	87.81
466.732	77.81
466.951	77.81
467.171	72.81
467.391	78.81
467.61	70.81
467.829	86.81
468.049	98.81
468.268	80.81
468.488	85.81
468.707	82.81
468.927	82.81
469.146	77.81
469.365	68.81
469.585	76.81
469.804	70.81
470.023	80.81
470.243	89.81
470.462	66.81
470.681	81.81
470.901	69.81
471.12	87.81
471.339	84.81
471.558	81.81
471.777	85.81
471.997	78.81
472.216	89.81
472.435	63.81
472.654	90.81
472.873	83.81
473.092	89.81
473.311	68.81
473.53	68.81
473.749	77.81
473.968	78.81
474.187	77.81
474.406	90.81
474.625	78.81
474.844	87.81
475.063	65.81
475.282	82.81
475.501	57.81
475.72	94.81
475.939	83.81
476.158	70.81
476.377	75.81
476.596	76.81
476.814	86.81
477.033	83.81
477.252	85.81
477.471	71.81
477.69	77.81
477.908	73.81
478.127	91.81
478.346	72.81
478.564	74.81
478.783	84.81
479.002	83.81
479.22	81.81
479.439	101.81
479.658	83.81
479.876	77.81
480.095	79.81
480.313	86.81
480.532	69.81
480.751	89.81
480.969	80.81
481.188	83.81
481.406	83.81
481.624	72.81
481.843	71.81
482.061	80.81
482.28	77.81
482.498	62.81
482.717	85.81
482.935	78.81
483.153	85.81
483.372	88.81
483.59	75.81
483.808	85.81
484.027	94.81
484.245	93.81
484.463	83.81
484.681	85.81
484.9	72.81
485.118	74.81
485.336	75.81
485.554	85.81
485.772	75.81
485.99	85.81
486.209	90.81
486.427	75.81
486.645	80.81
486.863	75.81
487.081	74.81
487.299	78.81
487.517	89.81
487.735	71.81
487.953	87.81
488.171	86.81
488.389	95.81
488.607	87.81
488.825	74.81
489.043	77.81
489.261	75.81
489.479	77.81
489.696	83.81
489.914	101.81
490.132	79.81
490.35	66.81
490.568	87.81
490.786	79.81
491.003	76.81
491.221	82.81
491.439	77.81
491.657	93.81
491.874	89.81
492.092	89.81
492.31	79.81
492.527	98.81
492.745	88.81
492.963	82.81
493.18	78.81
493.398	78.81
493.615	88.81
493.833	100.81
494.05	87.81
494.268	96.81
494.485	80.81
494.703	78.81
494.92	87.81
495.138	93.81
495.355	78.81
495.573	83.81
495.79	77.81
496.008	87.81
496.225	87.81
496.442	82.81
496.66	95.81
496.877	86.81
497.094	95.81
497.312	83.81
497.529	87.81
497.746	80.81
497.963	86.81
498.181	65.81
498.398	92.81
498.615	81.81
498.832	84.81
499.049	97.81
499.267	83.81
499.484	64.81
499.701	76.81
499.918	88.81
500.135	72.81
500.352	81.81
500.569	69.81
500.786	81.81
501.003	89.81
501.22	85.81
501.437	78.81
501.654	78.81
501.871	63.81
502.088	72.81
502.305	76.81
502.522	85.81
502.739	85.81
502.956	96.81
503.172	88.81
503.389	80.81
503.606	88.81
503.823	89.81
504.04	78.81
504.256	86.81
504.473	66.81
504.69	81.81
504.907	79.81
505.123	65.81
505.34	83.81
505.557	94.81
505.773	92.81
505.99	82.81
506.207	76.81
506.423	91.81
506.64	77.81
506.856	85.81
507.073	74.81
507.289	87.81
507.506	83.81
507.722	80.81
507.939	71.81
508.155	77.81
508.372	83.81
508.588	79.81
508.805	71.81
509.021	77.81
509.238	70.81
509.454	96.81
509.67	88.81
509.887	79.81
510.103	92.81
510.319	77.81
510.536	79.81
510.752	82.81
510.968	85.81
511.184	74.81
511.401	86.81
511.617	84.81
511.833	78.81
512.049	87.81
512.265	93.81
512.481	87.81
512.698	87.81
512.914	73.81
513.13	79.81
513.346	74.81
513.562	81.81
513.778	86.81
513.994	78.81
514.21	92.81
514.426	89.81
514.642	89.81
514.858	81.81
515.074	81.81
515.29	63.81
515.506	75.81
515.721	92.81
515.937	87.81
516.153	89.81
516.369	84.81
516.585	90.81
516.801	90.81
517.016	107.81
517.232	78.81
517.448	87.81
517.664	77.81
517.879	83.81
518.095	77.81
518.311	81.81
518.527	68.81
518.742	90.81
518.958	85.81
519.173	86.81
519.389	86.81
519.605	79.81
519.82	72.81
520.036	80.81
520.251	87.81
