Data from BG_HRD10591_067.txt Node
Date: Fri May 16 15:14:56 EDT 2025
User: Yrep
Spectrometer: HR+D1059
Trigger mode: 1
Integration Time (sec): 1.000000E-1
Scans to average: 1
Electric dark correction enabled: true
Nonlinearity correction enabled: false
Boxcar width: 0
XAxis mode: Wavelengths
Number of Pixels in Spectrum: 2048
>>>>>Begin Spectral Data<<<<<
223.165	2.81
223.4	2.81
223.635	2.81
223.869	-6.19
224.104	-19.19
224.338	-19.19
224.573	-20.19
224.808	-18.19
225.042	-11.19
225.277	-18.19
225.511	-14.19
225.746	-5.19
225.98	22.81
226.215	19.81
226.449	11.81
226.683	18.81
226.918	27.81
227.152	27.81
227.387	28.81
227.621	35.81
227.856	39.81
228.09	46.81
228.324	47.81
228.559	56.81
228.793	55.81
229.027	71.81
229.262	51.81
229.496	48.81
229.73	67.81
229.964	69.81
230.199	63.81
230.433	70.81
230.667	91.81
230.901	78.81
231.136	65.81
231.37	54.81
231.604	80.81
231.838	82.81
232.072	91.81
232.306	78.81
232.541	88.81
232.775	67.81
233.009	69.81
233.243	74.81
233.477	79.81
233.711	79.81
233.945	79.81
234.179	77.81
234.413	59.81
234.647	65.81
234.881	67.81
235.115	60.81
235.349	75.81
235.583	56.81
235.817	79.81
236.051	70.81
236.285	73.81
236.519	76.81
236.753	68.81
236.987	63.81
237.221	78.81
237.455	68.81
237.689	74.81
237.922	89.81
238.156	73.81
238.39	76.81
238.624	75.81
238.858	87.81
239.091	63.81
239.325	81.81
239.559	89.81
239.793	64.81
240.027	58.81
240.26	67.81
240.494	65.81
240.728	67.81
240.961	81.81
241.195	70.81
241.429	73.81
241.662	73.81
241.896	67.81
242.13	72.81
242.363	71.81
242.597	62.81
242.83	72.81
243.064	78.81
243.298	67.81
243.531	73.81
243.765	67.81
243.998	57.81
244.232	65.81
244.465	74.81
244.699	69.81
244.932	73.81
245.166	85.81
245.399	62.81
245.633	76.81
245.866	71.81
246.099	60.81
246.333	83.81
246.566	75.81
246.8	70.81
247.033	80.81
247.266	73.81
247.5	80.81
247.733	79.81
247.966	79.81
248.2	76.81
248.433	77.81
248.666	66.81
248.899	97.81
249.133	59.81
249.366	79.81
249.599	63.81
249.832	77.81
250.066	82.81
250.299	82.81
250.532	73.81
250.765	79.81
250.998	80.81
251.231	73.81
251.465	88.81
251.698	72.81
251.931	61.81
252.164	80.81
252.397	72.81
252.63	66.81
252.863	69.81
253.096	72.81
253.329	60.81
253.562	69.81
253.795	77.81
254.028	69.81
254.261	77.81
254.494	55.81
254.727	70.81
254.96	73.81
255.193	82.81
255.426	86.81
255.659	74.81
255.892	87.81
256.124	74.81
256.357	72.81
256.59	79.81
256.823	79.81
257.056	75.81
257.289	79.81
257.521	90.81
257.754	74.81
257.987	73.81
258.22	74.81
258.452	73.81
258.685	79.81
258.918	85.81
259.151	88.81
259.383	77.81
259.616	71.81
259.849	68.81
260.081	75.81
260.314	74.81
260.547	87.81
260.779	73.81
261.012	83.81
261.244	87.81
261.477	80.81
261.71	76.81
261.942	87.81
262.175	69.81
262.407	65.81
262.64	69.81
262.872	57.81
263.105	75.81
263.337	72.81
263.57	81.81
263.802	76.81
264.035	77.81
264.267	85.81
264.499	81.81
264.732	86.81
264.964	78.81
265.197	100.81
265.429	76.81
265.661	83.81
265.894	81.81
266.126	81.81
266.358	76.81
266.591	71.81
266.823	82.81
267.055	73.81
267.287	76.81
267.52	77.81
267.752	85.81
267.984	91.81
268.216	68.81
268.448	78.81
268.681	76.81
268.913	72.81
269.145	73.81
269.377	70.81
269.609	75.81
269.841	89.81
270.073	67.81
270.306	81.81
270.538	79.81
270.77	74.81
271.002	63.81
271.234	90.81
271.466	67.81
271.698	82.81
271.93	91.81
272.162	89.81
272.394	97.81
272.626	79.81
272.858	80.81
273.09	85.81
273.322	95.81
273.553	71.81
273.785	92.81
274.017	83.81
274.249	82.81
274.481	72.81
274.713	74.81
274.945	78.81
275.176	90.81
275.408	73.81
275.64	91.81
275.872	69.81
276.104	81.81
276.335	70.81
276.567	78.81
276.799	91.81
277.031	91.81
277.262	76.81
277.494	87.81
277.726	79.81
277.957	83.81
278.189	81.81
278.421	83.81
278.652	82.81
278.884	78.81
279.115	63.81
279.347	78.81
279.579	75.81
279.81	72.81
280.042	82.81
280.273	92.81
280.505	91.81
280.736	75.81
280.968	77.81
281.199	83.81
281.431	87.81
281.662	97.81
281.894	87.81
282.125	81.81
282.356	74.81
282.588	90.81
282.819	89.81
283.051	95.81
283.282	71.81
283.513	80.81
283.745	83.81
283.976	80.81
284.207	85.81
284.439	89.81
284.67	84.81
284.901	85.81
285.132	68.81
285.364	85.81
285.595	98.81
285.826	79.81
286.057	82.81
286.288	78.81
286.52	84.81
286.751	76.81
286.982	80.81
287.213	75.81
287.444	75.81
287.675	71.81
287.906	89.81
288.138	80.81
288.369	83.81
288.6	83.81
288.831	90.81
289.062	93.81
289.293	87.81
289.524	95.81
289.755	95.81
289.986	90.81
290.217	86.81
290.448	79.81
290.679	84.81
290.91	90.81
291.141	79.81
291.371	80.81
291.602	85.81
291.833	81.81
292.064	80.81
292.295	89.81
292.526	92.81
292.757	90.81
292.987	79.81
293.218	69.81
293.449	87.81
293.68	76.81
293.91	79.81
294.141	77.81
294.372	85.81
294.603	79.81
294.833	99.81
295.064	82.81
295.295	79.81
295.525	87.81
295.756	88.81
295.987	84.81
296.217	77.81
296.448	84.81
296.679	89.81
296.909	79.81
297.14	77.81
297.37	79.81
297.601	92.81
297.831	77.81
298.062	85.81
298.292	86.81
298.523	89.81
298.753	79.81
298.984	77.81
299.214	83.81
299.445	89.81
299.675	80.81
299.905	63.81
300.136	85.81
300.366	76.81
300.597	76.81
300.827	79.81
301.057	69.81
301.288	80.81
301.518	76.81
301.748	75.81
301.979	89.81
302.209	68.81
302.439	81.81
302.669	82.81
302.9	91.81
303.13	86.81
303.36	81.81
303.59	84.81
303.82	84.81
304.051	70.81
304.281	79.81
304.511	99.81
304.741	97.81
304.971	90.81
305.201	97.81
305.431	92.81
305.661	93.81
305.891	77.81
306.121	90.81
306.352	88.81
306.582	92.81
306.812	87.81
307.042	68.81
307.272	92.81
307.502	89.81
307.731	100.81
307.961	95.81
308.191	84.81
308.421	81.81
308.651	93.81
308.881	93.81
309.111	82.81
309.341	92.81
309.571	88.81
309.8	83.81
310.03	79.81
310.26	84.81
310.49	89.81
310.72	81.81
310.949	88.81
311.179	100.81
311.409	101.81
311.639	89.81
311.868	81.81
312.098	85.81
312.328	94.81
312.557	84.81
312.787	85.81
313.017	91.81
313.246	73.81
313.476	84.81
313.706	87.81
313.935	89.81
314.165	80.81
314.394	75.81
314.624	98.81
314.853	83.81
315.083	88.81
315.312	83.81
315.542	84.81
315.771	89.81
316.001	76.81
316.23	82.81
316.46	73.81
316.689	90.81
316.919	76.81
317.148	89.81
317.377	97.81
317.607	102.81
317.836	95.81
318.065	69.81
318.295	80.81
318.524	79.81
318.753	92.81
318.983	80.81
319.212	88.81
319.441	79.81
319.67	91.81
319.9	89.81
320.129	89.81
320.358	83.81
320.587	85.81
320.816	75.81
321.046	57.81
321.275	83.81
321.504	81.81
321.733	79.81
321.962	88.81
322.191	72.81
322.42	76.81
322.649	83.81
322.878	93.81
323.108	87.81
323.337	85.81
323.566	76.81
323.795	87.81
324.024	94.81
324.253	83.81
324.482	80.81
324.71	77.81
324.939	83.81
325.168	81.81
325.397	101.81
325.626	85.81
325.855	94.81
326.084	88.81
326.313	81.81
326.542	88.81
326.77	86.81
326.999	93.81
327.228	97.81
327.457	87.81
327.686	88.81
327.914	87.81
328.143	105.81
328.372	86.81
328.6	85.81
328.829	76.81
329.058	75.81
329.287	88.81
329.515	88.81
329.744	95.81
329.972	91.81
330.201	87.81
330.43	71.81
330.658	78.81
330.887	69.81
331.115	85.81
331.344	81.81
331.572	90.81
331.801	84.81
332.03	93.81
332.258	82.81
332.486	80.81
332.715	86.81
332.943	79.81
333.172	91.81
333.4	81.81
333.629	85.81
333.857	81.81
334.085	81.81
334.314	92.81
334.542	87.81
334.771	76.81
334.999	105.81
335.227	82.81
335.455	107.81
335.684	96.81
335.912	89.81
336.14	97.81
336.369	85.81
336.597	80.81
336.825	92.81
337.053	95.81
337.281	85.81
337.51	83.81
337.738	82.81
337.966	84.81
338.194	86.81
338.422	80.81
338.65	88.81
338.878	89.81
339.106	84.81
339.334	99.81
339.562	89.81
339.79	100.81
340.018	97.81
340.246	78.81
340.474	91.81
340.702	79.81
340.93	87.81
341.158	83.81
341.386	93.81
341.614	76.81
341.842	77.81
342.07	80.81
342.298	73.81
342.526	90.81
342.754	91.81
342.981	89.81
343.209	85.81
343.437	104.81
343.665	88.81
343.893	84.81
344.12	85.81
344.348	84.81
344.576	81.81
344.804	87.81
345.031	83.81
345.259	90.81
345.487	80.81
345.714	74.81
345.942	83.81
346.17	90.81
346.397	88.81
346.625	79.81
346.853	86.81
347.08	76.81
347.308	79.81
347.535	85.81
347.763	78.81
347.99	64.81
348.218	85.81
348.445	77.81
348.673	79.81
348.9	82.81
349.128	81.81
349.355	95.81
349.583	86.81
349.81	93.81
350.037	86.81
350.265	80.81
350.492	86.81
350.72	94.81
350.947	86.81
351.174	83.81
351.402	98.81
351.629	71.81
351.856	83.81
352.083	85.81
352.311	81.81
352.538	77.81
352.765	89.81
352.992	83.81
353.22	89.81
353.447	81.81
353.674	92.81
353.901	95.81
354.128	88.81
354.355	83.81
354.583	77.81
354.81	87.81
355.037	90.81
355.264	85.81
355.491	95.81
355.718	85.81
355.945	80.81
356.172	96.81
356.399	96.81
356.626	70.81
356.853	70.81
357.08	83.81
357.307	79.81
357.534	104.81
357.761	85.81
357.988	80.81
358.215	89.81
358.441	82.81
358.668	86.81
358.895	90.81
359.122	86.81
359.349	96.81
359.576	88.81
359.802	87.81
360.029	79.81
360.256	77.81
360.483	85.81
360.709	86.81
360.936	99.81
361.163	76.81
361.39	76.81
361.616	81.81
361.843	82.81
362.07	82.81
362.296	80.81
362.523	83.81
362.749	72.81
362.976	80.81
363.203	85.81
363.429	74.81
363.656	79.81
363.882	84.81
364.109	89.81
364.335	73.81
364.562	88.81
364.788	82.81
365.015	88.81
365.241	84.81
365.468	85.81
365.694	86.81
365.92	87.81
366.147	88.81
366.373	84.81
366.599	85.81
366.826	63.81
367.052	78.81
367.278	84.81
367.505	76.81
367.731	94.81
367.957	73.81
368.184	82.81
368.41	77.81
368.636	76.81
368.862	88.81
369.089	82.81
369.315	76.81
369.541	87.81
369.767	95.81
369.993	70.81
370.219	96.81
370.445	89.81
370.672	82.81
370.898	77.81
371.124	83.81
371.35	91.81
371.576	72.81
371.802	77.81
372.028	89.81
372.254	93.81
372.48	76.81
372.706	83.81
372.932	91.81
373.158	70.81
373.384	82.81
373.61	74.81
373.835	88.81
374.061	76.81
374.287	93.81
374.513	76.81
374.739	80.81
374.965	85.81
375.191	90.81
375.416	82.81
375.642	80.81
375.868	103.81
376.094	73.81
376.319	75.81
376.545	72.81
376.771	73.81
376.997	89.81
377.222	89.81
377.448	85.81
377.674	86.81
377.899	87.81
378.125	86.81
378.35	82.81
378.576	85.81
378.802	80.81
379.027	86.81
379.253	73.81
379.478	75.81
379.704	88.81
379.929	76.81
380.155	86.81
380.38	89.81
380.606	83.81
380.831	76.81
381.057	86.81
381.282	79.81
381.507	83.81
381.733	87.81
381.958	82.81
382.184	76.81
382.409	85.81
382.634	87.81
382.86	83.81
383.085	79.81
383.31	87.81
383.535	77.81
383.761	85.81
383.986	87.81
384.211	95.81
384.436	86.81
384.662	89.81
384.887	106.81
385.112	90.81
385.337	77.81
385.562	101.81
385.787	82.81
386.013	82.81
386.238	87.81
386.463	86.81
386.688	83.81
386.913	92.81
387.138	70.81
387.363	90.81
387.588	72.81
387.813	81.81
388.038	97.81
388.263	71.81
388.488	75.81
388.713	84.81
388.938	82.81
389.163	81.81
389.387	91.81
389.612	90.81
389.837	91.81
390.062	100.81
390.287	96.81
390.512	93.81
390.736	79.81
390.961	90.81
391.186	75.81
391.411	76.81
391.636	92.81
391.86	99.81
392.085	83.81
392.31	88.81
392.534	88.81
392.759	71.81
392.984	79.81
393.208	81.81
393.433	73.81
393.658	83.81
393.882	83.81
394.107	75.81
394.331	80.81
394.556	80.81
394.78	81.81
395.005	82.81
395.229	71.81
395.454	73.81
395.678	88.81
395.903	87.81
396.127	76.81
396.352	97.81
396.576	92.81
396.801	84.81
397.025	78.81
397.249	90.81
397.474	82.81
397.698	94.81
397.922	86.81
398.147	87.81
398.371	84.81
398.595	81.81
398.82	79.81
399.044	84.81
399.268	80.81
399.492	96.81
399.717	79.81
399.941	88.81
400.165	96.81
400.389	76.81
400.613	73.81
400.837	83.81
401.062	92.81
401.286	89.81
401.51	79.81
401.734	88.81
401.958	81.81
402.182	74.81
402.406	86.81
402.63	88.81
402.854	84.81
403.078	85.81
403.302	82.81
403.526	77.81
403.75	87.81
403.974	80.81
404.198	77.81
404.422	91.81
404.645	96.81
404.869	89.81
405.093	78.81
405.317	79.81
405.541	88.81
405.765	76.81
405.988	76.81
406.212	100.81
406.436	80.81
406.66	75.81
406.883	74.81
407.107	103.81
407.331	74.81
407.555	83.81
407.778	89.81
408.002	79.81
408.226	95.81
408.449	87.81
408.673	85.81
408.896	65.81
409.12	92.81
409.344	82.81
409.567	91.81
409.791	90.81
410.014	96.81
410.238	98.81
410.461	82.81
410.685	94.81
410.908	77.81
411.132	104.81
411.355	83.81
411.578	86.81
411.802	85.81
412.025	86.81
412.249	100.81
412.472	84.81
412.695	86.81
412.919	82.81
413.142	79.81
413.365	87.81
413.589	90.81
413.812	79.81
414.035	86.81
414.258	71.81
414.482	92.81
414.705	86.81
414.928	89.81
415.151	84.81
415.374	105.81
415.597	68.81
415.821	91.81
416.044	89.81
416.267	91.81
416.49	87.81
416.713	72.81
416.936	89.81
417.159	84.81
417.382	81.81
417.605	90.81
417.828	89.81
418.051	79.81
418.274	77.81
418.497	77.81
418.72	91.81
418.943	90.81
419.166	84.81
419.389	88.81
419.611	88.81
419.834	76.81
420.057	95.81
420.28	84.81
420.503	83.81
420.726	80.81
420.948	86.81
421.171	73.81
421.394	86.81
421.617	75.81
421.839	84.81
422.062	93.81
422.285	82.81
422.507	76.81
422.73	83.81
422.953	102.81
423.175	75.81
423.398	76.81
423.621	106.81
423.843	79.81
424.066	92.81
424.288	77.81
424.511	85.81
424.733	82.81
424.956	83.81
425.178	98.81
425.401	77.81
425.623	80.81
425.846	90.81
426.068	88.81
426.291	80.81
426.513	84.81
426.735	85.81
426.958	71.81
427.18	70.81
427.402	78.81
427.625	85.81
427.847	96.81
428.069	83.81
428.292	87.81
428.514	60.81
428.736	83.81
428.958	79.81
429.181	86.81
429.403	84.81
429.625	81.81
429.847	91.81
430.069	88.81
430.292	91.81
430.514	73.81
430.736	74.81
430.958	83.81
431.18	89.81
431.402	76.81
431.624	97.81
431.846	78.81
432.068	74.81
432.29	62.81
432.512	90.81
432.734	77.81
432.956	95.81
433.178	101.81
433.4	88.81
433.622	81.81
433.844	83.81
434.066	81.81
434.287	93.81
434.509	74.81
434.731	75.81
434.953	84.81
435.175	83.81
435.397	85.81
435.618	73.81
435.84	80.81
436.062	91.81
436.284	75.81
436.505	74.81
436.727	96.81
436.949	68.81
437.17	90.81
437.392	84.81
437.614	72.81
437.835	79.81
438.057	84.81
438.278	62.81
438.5	89.81
438.721	96.81
438.943	89.81
439.165	79.81
439.386	83.81
439.608	90.81
439.829	83.81
440.05	78.81
440.272	95.81
440.493	82.81
440.715	84.81
440.936	94.81
441.158	88.81
441.379	74.81
441.6	89.81
441.822	81.81
442.043	75.81
442.264	87.81
442.486	86.81
442.707	91.81
442.928	86.81
443.149	88.81
443.371	81.81
443.592	92.81
443.813	97.81
444.034	89.81
444.255	85.81
444.476	87.81
444.698	91.81
444.919	77.81
445.14	174.81
445.361	133.81
445.582	80.81
445.803	100.81
446.024	74.81
446.245	93.81
446.466	69.81
446.687	85.81
446.908	101.81
447.129	83.81
447.35	78.81
447.571	86.81
447.792	77.81
448.013	84.81
448.234	81.81
448.455	80.81
448.675	84.81
448.896	84.81
449.117	81.81
449.338	92.81
449.559	90.81
449.779	90.81
450	77.81
450.221	83.81
450.442	81.81
450.662	89.81
450.883	77.81
451.104	73.81
451.324	80.81
451.545	71.81
451.766	79.81
451.986	89.81
452.207	83.81
452.428	83.81
452.648	76.81
452.869	90.81
453.089	101.81
453.31	90.81
453.53	82.81
453.751	72.81
453.971	61.81
454.192	78.81
454.412	79.81
454.633	72.81
454.853	83.81
455.073	87.81
455.294	84.81
455.514	95.81
455.734	74.81
455.955	80.81
456.175	88.81
456.395	81.81
456.616	73.81
456.836	97.81
457.056	77.81
457.276	86.81
457.497	82.81
457.717	73.81
457.937	79.81
458.157	71.81
458.377	77.81
458.598	73.81
458.818	78.81
459.038	74.81
459.258	83.81
459.478	67.81
459.698	75.81
459.918	79.81
460.138	89.81
460.358	80.81
460.578	90.81
460.798	90.81
461.018	89.81
461.238	81.81
461.458	79.81
461.678	82.81
461.898	65.81
462.118	97.81
462.338	89.81
462.558	92.81
462.777	96.81
462.997	95.81
463.217	76.81
463.437	85.81
463.657	96.81
463.876	90.81
464.096	89.81
464.316	83.81
464.536	84.81
464.755	77.81
464.975	90.81
465.195	91.81
465.414	85.81
465.634	95.81
465.854	67.81
466.073	79.81
466.293	92.81
466.512	75.81
466.732	82.81
466.951	80.81
467.171	85.81
467.391	91.81
467.61	90.81
467.829	82.81
468.049	85.81
468.268	80.81
468.488	96.81
468.707	87.81
468.927	87.81
469.146	83.81
469.365	74.81
469.585	81.81
469.804	79.81
470.023	73.81
470.243	81.81
470.462	72.81
470.681	97.81
470.901	92.81
471.12	72.81
471.339	87.81
471.558	88.81
471.777	77.81
471.997	87.81
472.216	80.81
472.435	77.81
472.654	87.81
472.873	86.81
473.092	85.81
473.311	67.81
473.53	76.81
473.749	74.81
473.968	77.81
474.187	79.81
474.406	75.81
474.625	100.81
474.844	80.81
475.063	88.81
475.282	84.81
475.501	75.81
475.72	84.81
475.939	86.81
476.158	83.81
476.377	72.81
476.596	79.81
476.814	83.81
477.033	89.81
477.252	79.81
477.471	89.81
477.69	90.81
477.908	76.81
478.127	89.81
478.346	75.81
478.564	77.81
478.783	83.81
479.002	84.81
479.22	81.81
479.439	100.81
479.658	84.81
479.876	82.81
480.095	76.81
480.313	72.81
480.532	76.81
480.751	87.81
480.969	87.81
481.188	80.81
481.406	90.81
481.624	80.81
481.843	84.81
482.061	102.81
482.28	67.81
482.498	81.81
482.717	81.81
482.935	69.81
483.153	73.81
483.372	104.81
483.59	72.81
483.808	91.81
484.027	90.81
484.245	85.81
484.463	80.81
484.681	89.81
484.9	83.81
485.118	71.81
485.336	94.81
485.554	87.81
485.772	77.81
485.99	86.81
486.209	82.81
486.427	91.81
486.645	79.81
486.863	97.81
487.081	76.81
487.299	83.81
487.517	75.81
487.735	88.81
487.953	77.81
488.171	91.81
488.389	76.81
488.607	82.81
488.825	92.81
489.043	78.81
489.261	93.81
489.479	88.81
489.696	83.81
489.914	95.81
490.132	90.81
490.35	83.81
490.568	86.81
490.786	83.81
491.003	75.81
491.221	85.81
491.439	76.81
491.657	79.81
491.874	90.81
492.092	76.81
492.31	99.81
492.527	92.81
492.745	71.81
492.963	88.81
493.18	88.81
493.398	88.81
493.615	85.81
493.833	73.81
494.05	83.81
494.268	94.81
494.485	89.81
494.703	74.81
494.92	93.81
495.138	78.81
495.355	81.81
495.573	97.81
495.79	85.81
496.008	95.81
496.225	83.81
496.442	92.81
496.66	97.81
496.877	79.81
497.094	90.81
497.312	81.81
497.529	83.81
497.746	96.81
497.963	92.81
498.181	83.81
498.398	85.81
498.615	83.81
498.832	81.81
499.049	90.81
499.267	101.81
499.484	103.81
499.701	111.81
499.918	88.81
500.135	105.81
500.352	113.81
500.569	117.81
500.786	100.81
501.003	100.81
501.22	107.81
501.437	106.81
501.654	89.81
501.871	101.81
502.088	95.81
502.305	89.81
502.522	92.81
502.739	86.81
502.956	93.81
503.172	92.81
503.389	91.81
503.606	93.81
503.823	86.81
504.04	86.81
504.256	93.81
504.473	92.81
504.69	71.81
504.907	67.81
505.123	83.81
505.34	81.81
505.557	87.81
505.773	86.81
505.99	96.81
506.207	87.81
506.423	83.81
506.64	75.81
506.856	99.81
507.073	83.81
507.289	82.81
507.506	88.81
507.722	90.81
507.939	80.81
508.155	81.81
508.372	84.81
508.588	98.81
508.805	82.81
509.021	79.81
509.238	80.81
509.454	73.81
509.67	82.81
509.887	86.81
510.103	75.81
510.319	86.81
510.536	82.81
510.752	77.81
510.968	90.81
511.184	98.81
511.401	84.81
511.617	88.81
511.833	82.81
512.049	86.81
512.265	82.81
512.481	87.81
512.698	88.81
512.914	90.81
513.13	83.81
513.346	79.81
513.562	89.81
513.778	98.81
513.994	76.81
514.21	89.81
514.426	77.81
514.642	81.81
514.858	97.81
515.074	90.81
515.29	102.81
515.506	80.81
515.721	91.81
515.937	87.81
516.153	92.81
516.369	83.81
516.585	84.81
516.801	84.81
517.016	94.81
517.232	90.81
517.448	109.81
517.664	95.81
517.879	85.81
518.095	85.81
518.311	83.81
518.527	91.81
518.742	85.81
518.958	85.81
519.173	95.81
519.389	88.81
519.605	77.81
519.82	79.81
