Data from BG_HRD10591_077.txt Node
Date: Fri May 16 15:15:01 EDT 2025
User: Yrep
Spectrometer: HR+D1059
Trigger mode: 1
Integration Time (sec): 1.000000E-1
Scans to average: 1
Electric dark correction enabled: true
Nonlinearity correction enabled: false
Boxcar width: 0
XAxis mode: Wavelengths
Number of Pixels in Spectrum: 2048
>>>>>Begin Spectral Data<<<<<
223.165	-19
223.4	-19
223.635	-19
223.869	-21
224.104	-17
224.338	-10
224.573	-11
224.808	-3
225.042	-3
225.277	-11
225.511	-12
225.746	4
225.98	14
226.215	9
226.449	26
226.683	17
226.918	14
227.152	23
227.387	32
227.621	40
227.856	52
228.09	42
228.324	39
228.559	51
228.793	58
229.027	44
229.262	68
229.496	60
229.73	73
229.964	77
230.199	86
230.433	68
230.667	69
230.901	72
231.136	78
231.37	59
231.604	71
231.838	76
232.072	101
232.306	88
232.541	79
232.775	81
233.009	71
233.243	79
233.477	88
233.711	86
233.945	88
234.179	87
234.413	71
234.647	74
234.881	81
235.115	86
235.349	79
235.583	71
235.817	78
236.051	83
236.285	81
236.519	79
236.753	83
236.987	78
237.221	68
237.455	73
237.689	72
237.922	81
238.156	76
238.39	71
238.624	72
238.858	76
239.091	82
239.325	64
239.559	80
239.793	81
240.027	72
240.26	70
240.494	73
240.728	77
240.961	83
241.195	70
241.429	70
241.662	77
241.896	69
242.13	71
242.363	69
242.597	64
242.83	60
243.064	72
243.298	81
243.531	78
243.765	71
243.998	75
244.232	76
244.465	86
244.699	76
244.932	79
245.166	80
245.399	89
245.633	65
245.866	94
246.099	76
246.333	83
246.566	77
246.8	79
247.033	68
247.266	82
247.5	74
247.733	81
247.966	75
248.2	87
248.433	78
248.666	71
248.899	79
249.133	75
249.366	92
249.599	70
249.832	83
250.066	69
250.299	57
250.532	80
250.765	83
250.998	72
251.231	89
251.465	86
251.698	82
251.931	74
252.164	75
252.397	69
252.63	62
252.863	79
253.096	90
253.329	72
253.562	65
253.795	82
254.028	80
254.261	70
254.494	72
254.727	80
254.96	75
255.193	81
255.426	77
255.659	83
255.892	111
256.124	82
256.357	79
256.59	83
256.823	75
257.056	84
257.289	64
257.521	83
257.754	79
257.987	82
258.22	75
258.452	79
258.685	87
258.918	80
259.151	76
259.383	76
259.616	76
259.849	95
260.081	95
260.314	84
260.547	84
260.779	77
261.012	76
261.244	79
261.477	91
261.71	83
261.942	74
262.175	89
262.407	73
262.64	80
262.872	79
263.105	76
263.337	77
263.57	85
263.802	85
264.035	84
264.267	80
264.499	86
264.732	82
264.964	75
265.197	73
265.429	100
265.661	83
265.894	77
266.126	97
266.358	95
266.591	96
266.823	85
267.055	88
267.287	82
267.52	80
267.752	109
267.984	78
268.216	85
268.448	89
268.681	76
268.913	91
269.145	86
269.377	71
269.609	75
269.841	78
270.073	86
270.306	87
270.538	91
270.77	72
271.002	91
271.234	90
271.466	88
271.698	87
271.93	81
272.162	91
272.394	95
272.626	89
272.858	73
273.09	100
273.322	87
273.553	79
273.785	87
274.017	76
274.249	85
274.481	74
274.713	82
274.945	85
275.176	70
275.408	77
275.64	80
275.872	85
276.104	77
276.335	93
276.567	97
276.799	77
277.031	81
277.262	73
277.494	95
277.726	83
277.957	85
278.189	91
278.421	93
278.652	79
278.884	80
279.115	79
279.347	99
279.579	80
279.81	81
280.042	76
280.273	91
280.505	79
280.736	85
280.968	76
281.199	77
281.431	81
281.662	94
281.894	76
282.125	93
282.356	80
282.588	78
282.819	100
283.051	82
283.282	80
283.513	90
283.745	78
283.976	88
284.207	92
284.439	90
284.67	80
284.901	76
285.132	88
285.364	89
285.595	90
285.826	101
286.057	103
286.288	88
286.52	83
286.751	98
286.982	89
287.213	94
287.444	86
287.675	79
287.906	84
288.138	81
288.369	97
288.6	77
288.831	76
289.062	92
289.293	92
289.524	81
289.755	79
289.986	90
290.217	93
290.448	68
290.679	90
290.91	85
291.141	89
291.371	98
291.602	89
291.833	84
292.064	82
292.295	86
292.526	87
292.757	81
292.987	91
293.218	70
293.449	88
293.68	91
293.91	85
294.141	77
294.372	99
294.603	79
294.833	91
295.064	77
295.295	84
295.525	91
295.756	78
295.987	89
296.217	80
296.448	80
296.679	97
296.909	99
297.14	96
297.37	96
297.601	87
297.831	82
298.062	96
298.292	101
298.523	90
298.753	91
298.984	83
299.214	80
299.445	77
299.675	75
299.905	84
300.136	77
300.366	90
300.597	98
300.827	81
301.057	95
301.288	101
301.518	85
301.748	103
301.979	92
302.209	97
302.439	89
302.669	81
302.9	86
303.13	89
303.36	87
303.59	91
303.82	88
304.051	83
304.281	91
304.511	79
304.741	79
304.971	96
305.201	82
305.431	85
305.661	87
305.891	89
306.121	102
306.352	84
306.582	90
306.812	97
307.042	86
307.272	84
307.502	82
307.731	80
307.961	95
308.191	94
308.421	80
308.651	79
308.881	85
309.111	94
309.341	95
309.571	76
309.8	87
310.03	95
310.26	88
310.49	92
310.72	91
310.949	90
311.179	96
311.409	90
311.639	90
311.868	82
312.098	85
312.328	77
312.557	81
312.787	87
313.017	94
313.246	71
313.476	86
313.706	81
313.935	87
314.165	85
314.394	79
314.624	92
314.853	75
315.083	86
315.312	91
315.542	76
315.771	90
316.001	97
316.23	93
316.46	86
316.689	96
316.919	79
317.148	92
317.377	83
317.607	79
317.836	93
318.065	78
318.295	79
318.524	86
318.753	72
318.983	88
319.212	89
319.441	77
319.67	89
319.9	87
320.129	92
320.358	93
320.587	76
320.816	83
321.046	97
321.275	85
321.504	79
321.733	97
321.962	85
322.191	93
322.42	76
322.649	93
322.878	73
323.108	90
323.337	84
323.566	90
323.795	80
324.024	88
324.253	83
324.482	76
324.71	92
324.939	75
325.168	79
325.397	83
325.626	93
325.855	100
326.084	80
326.313	77
326.542	80
326.77	88
326.999	72
327.228	89
327.457	92
327.686	84
327.914	75
328.143	89
328.372	88
328.6	100
328.829	81
329.058	81
329.287	87
329.515	82
329.744	89
329.972	82
330.201	93
330.43	75
330.658	82
330.887	79
331.115	79
331.344	83
331.572	89
331.801	90
332.03	80
332.258	97
332.486	68
332.715	85
332.943	76
333.172	79
333.4	80
333.629	91
333.857	94
334.085	78
334.314	83
334.542	91
334.771	77
334.999	94
335.227	81
335.455	92
335.684	89
335.912	76
336.14	75
336.369	84
336.597	77
336.825	75
337.053	78
337.281	74
337.51	72
337.738	88
337.966	77
338.194	87
338.422	85
338.65	71
338.878	84
339.106	72
339.334	93
339.562	80
339.79	85
340.018	88
340.246	92
340.474	75
340.702	92
340.93	95
341.158	83
341.386	84
341.614	91
341.842	93
342.07	92
342.298	81
342.526	95
342.754	69
342.981	77
343.209	100
343.437	103
343.665	84
343.893	89
344.12	83
344.348	90
344.576	81
344.804	79
345.031	83
345.259	76
345.487	71
345.714	72
345.942	85
346.17	81
346.397	89
346.625	88
346.853	79
347.08	80
347.308	76
347.535	84
347.763	74
347.99	75
348.218	89
348.445	87
348.673	90
348.9	79
349.128	80
349.355	88
349.583	85
349.81	93
350.037	96
350.265	88
350.492	77
350.72	90
350.947	89
351.174	93
351.402	87
351.629	94
351.856	102
352.083	94
352.311	85
352.538	81
352.765	88
352.992	101
353.22	88
353.447	90
353.674	81
353.901	96
354.128	87
354.355	77
354.583	88
354.81	81
355.037	86
355.264	79
355.491	85
355.718	85
355.945	85
356.172	88
356.399	95
356.626	89
356.853	104
357.08	69
357.307	73
357.534	96
357.761	77
357.988	77
358.215	84
358.441	87
358.668	90
358.895	88
359.122	77
359.349	87
359.576	89
359.802	76
360.029	79
360.256	86
360.483	91
360.709	90
360.936	82
361.163	73
361.39	84
361.616	87
361.843	90
362.07	80
362.296	84
362.523	80
362.749	81
362.976	78
363.203	90
363.429	90
363.656	93
363.882	95
364.109	79
364.335	86
364.562	87
364.788	92
365.015	80
365.241	74
365.468	83
365.694	79
365.92	81
366.147	88
366.373	94
366.599	81
366.826	84
367.052	95
367.278	94
367.505	74
367.731	78
367.957	83
368.184	84
368.41	80
368.636	89
368.862	77
369.089	80
369.315	77
369.541	74
369.767	79
369.993	91
370.219	78
370.445	86
370.672	87
370.898	79
371.124	92
371.35	76
371.576	95
371.802	67
372.028	86
372.254	90
372.48	85
372.706	75
372.932	88
373.158	79
373.384	87
373.61	78
373.835	78
374.061	86
374.287	79
374.513	79
374.739	92
374.965	95
375.191	88
375.416	77
375.642	101
375.868	95
376.094	78
376.319	81
376.545	76
376.771	95
376.997	76
377.222	79
377.448	77
377.674	84
377.899	86
378.125	90
378.35	97
378.576	82
378.802	94
379.027	82
379.253	77
379.478	81
379.704	84
379.929	76
380.155	79
380.38	82
380.606	77
380.831	81
381.057	91
381.282	79
381.507	88
381.733	74
381.958	78
382.184	83
382.409	88
382.634	86
382.86	79
383.085	91
383.31	80
383.535	87
383.761	87
383.986	85
384.211	79
384.436	92
384.662	75
384.887	83
385.112	81
385.337	79
385.562	75
385.787	98
386.013	91
386.238	97
386.463	86
386.688	96
386.913	93
387.138	90
387.363	78
387.588	92
387.813	78
388.038	86
388.263	88
388.488	96
388.713	103
388.938	95
389.163	88
389.387	85
389.612	85
389.837	80
390.062	86
390.287	83
390.512	81
390.736	83
390.961	89
391.186	78
391.411	85
391.636	85
391.86	78
392.085	78
392.31	90
392.534	105
392.759	94
392.984	73
393.208	79
393.433	79
393.658	85
393.882	82
394.107	77
394.331	103
394.556	87
394.78	81
395.005	83
395.229	96
395.454	103
395.678	89
395.903	76
396.127	87
396.352	89
396.576	88
396.801	90
397.025	79
397.249	91
397.474	89
397.698	92
397.922	78
398.147	83
398.371	93
398.595	105
398.82	83
399.044	69
399.268	88
399.492	91
399.717	113
399.941	81
400.165	86
400.389	93
400.613	78
400.837	73
401.062	75
401.286	71
401.51	86
401.734	89
401.958	90
402.182	93
402.406	85
402.63	78
402.854	79
403.078	68
403.302	87
403.526	83
403.75	107
403.974	96
404.198	80
404.422	93
404.645	85
404.869	108
405.093	83
405.317	96
405.541	82
405.765	87
405.988	84
406.212	98
406.436	78
406.66	91
406.883	92
407.107	89
407.331	82
407.555	98
407.778	88
408.002	102
408.226	100
408.449	73
408.673	95
408.896	96
409.12	94
409.344	95
409.567	87
409.791	97
410.014	75
410.238	95
410.461	78
410.685	87
410.908	84
411.132	91
411.355	78
411.578	79
411.802	85
412.025	93
412.249	89
412.472	93
412.695	87
412.919	92
413.142	85
413.365	99
413.589	100
413.812	81
414.035	89
414.258	83
414.482	84
414.705	80
414.928	80
415.151	80
415.374	78
415.597	80
415.821	84
416.044	81
416.267	90
416.49	87
416.713	85
416.936	85
417.159	80
417.382	94
417.605	78
417.828	95
418.051	87
418.274	90
418.497	88
418.72	76
418.943	96
419.166	76
419.389	96
419.611	91
419.834	92
420.057	90
420.28	91
420.503	84
420.726	83
420.948	93
421.171	89
421.394	95
421.617	88
421.839	89
422.062	86
422.285	89
422.507	91
422.73	96
422.953	99
423.175	75
423.398	80
423.621	85
423.843	88
424.066	82
424.288	84
424.511	89
424.733	88
424.956	100
425.178	70
425.401	93
425.623	92
425.846	71
426.068	90
426.291	77
426.513	87
426.735	78
426.958	91
427.18	80
427.402	95
427.625	91
427.847	80
428.069	99
428.292	89
428.514	89
428.736	83
428.958	79
429.181	83
429.403	86
429.625	78
429.847	89
430.069	90
430.292	87
430.514	89
430.736	82
430.958	103
431.18	83
431.402	93
431.624	86
431.846	78
432.068	83
432.29	77
432.512	80
432.734	87
432.956	100
433.178	76
433.4	86
433.622	82
433.844	97
434.066	75
434.287	85
434.509	83
434.731	101
434.953	90
435.175	83
435.397	89
435.618	97
435.84	103
436.062	87
436.284	80
436.505	80
436.727	94
436.949	83
437.17	71
437.392	74
437.614	85
437.835	87
438.057	73
438.278	76
438.5	85
438.721	89
438.943	100
439.165	91
439.386	101
439.608	88
439.829	86
440.05	90
440.272	82
440.493	84
440.715	70
440.936	84
441.158	92
441.379	87
441.6	80
441.822	89
442.043	100
442.264	73
442.486	97
442.707	81
442.928	79
443.149	91
443.371	87
443.592	78
443.813	92
444.034	88
444.255	108
444.476	94
444.698	85
444.919	75
445.14	172
445.361	106
445.582	94
445.803	102
446.024	96
446.245	81
446.466	80
446.687	77
446.908	75
447.129	103
447.35	96
447.571	85
447.792	92
448.013	80
448.234	92
448.455	92
448.675	100
448.896	88
449.117	87
449.338	105
449.559	97
449.779	90
450	77
450.221	84
450.442	95
450.662	89
450.883	79
451.104	89
451.324	82
451.545	84
451.766	76
451.986	101
452.207	91
452.428	76
452.648	73
452.869	69
453.089	92
453.31	73
453.53	82
453.751	87
453.971	85
454.192	92
454.412	108
454.633	88
454.853	100
455.073	85
455.294	88
455.514	91
455.734	113
455.955	94
456.175	86
456.395	97
456.616	77
456.836	75
457.056	83
457.276	83
457.497	100
457.717	87
457.937	84
458.157	85
458.377	84
458.598	87
458.818	89
459.038	90
459.258	81
459.478	80
459.698	92
459.918	79
460.138	90
460.358	91
460.578	93
460.798	84
461.018	90
461.238	80
461.458	92
461.678	102
461.898	89
462.118	99
462.338	96
462.558	87
462.777	111
462.997	110
463.217	91
463.437	91
463.657	102
463.876	88
464.096	94
464.316	100
464.536	89
464.755	85
464.975	83
465.195	90
465.414	92
465.634	94
465.854	88
466.073	88
466.293	93
466.512	79
466.732	79
466.951	89
467.171	97
467.391	88
467.61	86
467.829	80
468.049	93
468.268	82
468.488	95
468.707	79
468.927	97
469.146	82
469.365	83
469.585	89
469.804	95
470.023	90
470.243	80
470.462	90
470.681	97
470.901	86
471.12	77
471.339	69
471.558	99
471.777	101
471.997	76
472.216	90
472.435	92
472.654	90
472.873	94
473.092	82
473.311	89
473.53	76
473.749	91
473.968	79
474.187	88
474.406	78
474.625	99
474.844	93
475.063	80
475.282	95
475.501	79
475.72	80
475.939	77
476.158	93
476.377	88
476.596	78
476.814	83
477.033	79
477.252	90
477.471	96
477.69	99
477.908	89
478.127	88
478.346	97
478.564	86
478.783	88
479.002	97
479.22	102
479.439	79
479.658	97
479.876	72
480.095	88
480.313	81
480.532	102
480.751	88
480.969	95
481.188	92
481.406	96
481.624	76
481.843	91
482.061	87
482.28	90
482.498	88
482.717	83
482.935	88
483.153	96
483.372	106
483.59	96
483.808	90
484.027	102
484.245	93
484.463	92
484.681	102
484.9	90
485.118	79
485.336	86
485.554	96
485.772	97
485.99	94
486.209	90
486.427	92
486.645	95
486.863	97
487.081	94
487.299	92
487.517	90
487.735	90
487.953	101
488.171	102
488.389	87
488.607	91
488.825	87
489.043	97
489.261	90
489.479	83
489.696	84
489.914	92
490.132	84
490.35	87
490.568	92
490.786	91
491.003	99
491.221	79
491.439	79
491.657	84
491.874	90
492.092	87
492.31	93
492.527	78
492.745	92
492.963	92
493.18	92
493.398	99
493.615	89
493.833	85
494.05	92
494.268	105
494.485	100
494.703	94
494.92	84
495.138	105
495.355	95
495.573	91
495.79	82
496.008	100
496.225	108
496.442	86
496.66	108
496.877	100
497.094	101
497.312	93
497.529	87
497.746	99
497.963	93
498.181	95
498.398	95
498.615	100
498.832	99
499.049	95
499.267	101
499.484	102
499.701	113
499.918	114
500.135	113
500.352	103
500.569	110
500.786	125
501.003	94
501.22	98
501.437	107
501.654	102
501.871	110
502.088	93
502.305	91
502.522	95
502.739	95
502.956	86
503.172	81
503.389	77
503.606	74
503.823	81
504.04	85
504.256	91
504.473	113
504.69	109
504.907	105
505.123	83
505.34	87
505.557	83
505.773	79
505.99	83
506.207	95
506.423	105
506.64	91
506.856	81
507.073	86
507.289	88
507.506	80
507.722	88
507.939	86
508.155	83
508.372	97
508.588	76
508.805	77
509.021	77
509.238	84
509.454	86
509.67	84
509.887	91
510.103	100
510.319	104
510.536	73
510.752	80
510.968	92
511.184	99
511.401	96
511.617	107
511.833	79
512.049	79
512.265	83
512.481	75
512.698	87
512.914	87
513.13	102
513.346	107
513.562	84
513.778	75
513.994	95
514.21	101
514.426	84
514.642	73
514.858	78
515.074	89
515.29	106
515.506	85
515.721	93
515.937	83
516.153	88
516.369	91
516.585	85
516.801	86
517.016	91
517.232	86
517.448	89
517.664	103
517.879	84
518.095	97
518.311	95
518.527	83
518.742	85
518.958	82
519.173	83
519.389	102
519.605	94
519.82	93
520.036	92
520.251	86
520.467	95
520.682	90
520.898	93
521.113	94
521.329	83
521.544	103
521.76	92
521.975	89
522.19	91
522.406	85
522.621	85
522.836	90
523.052	96
523.267	66
523.482	81
523.698	82
523.913	87
524.128	94
524.343	81
524.559	97
524.774	92
524.989	90
525.204	99
525.419	94
525.634	93
525.849	84
526.064	83
526.28	101
526.495	86
526.71	106
526.925	89
527.14	88
527.355	94
527.57	86
527.785	85
527.999	78
528.214	84
528.429	93
528.644	89
528.859	92
529.074	93
529.289	87
529.503	94
529.718	88
529.933	94
530.148	85
530.363	79
530.577	90
530.792	95
531.007	92
531.221	110
531.436	92
531.651	71
531.865	95
532.08	99
532.295	89
532.509	75
532.724	87
532.938	91
533.153	83
533.367	82
533.582	89
533.796	91
534.011	90
534.225	91
534.44	91
534.654	73
534.868	93
535.083	94
535.297	88
535.511	85
535.726	96
535.94	84
536.154	77
536.369	95
536.583	96
536.797	95
537.011	88
537.225	88
537.44	81
537.654	91
537.868	87
538.082	92
538.296	93
538.51	100
538.724	90
538.938	88
539.153	80
539.367	83
539.581	89
539.795	88
540.009	81
540.222	101
540.436	86
540.65	84
540.864	85
541.078	93
541.292	84
541.506	91
541.72	80
541.934	90
542.147	79
542.361	81
542.575	86
542.789	89
543.002	93
543.216	78
543.43	99
543.644	96
543.857	79
544.071	92
544.285	92
544.498	85
544.712	85
544.925	89
545.139	85
545.352	90
545.566	88
545.779	79
545.993	82
546.206	95
546.42	74
546.633	83
546.847	89
547.06	73
547.274	93
547.487	86
547.7	89
547.914	96
548.127	91
548.34	91
548.554	88
548.767	77
548.98	83
549.193	87
549.407	105
549.62	91
549.833	87
550.046	84
550.259	86
550.473	87
550.686	94
550.899	73
551.112	86
551.325	77
551.538	94
551.751	84
551.964	79
552.177	79
552.39	92
552.603	87
552.816	91
553.029	89
553.242	91
553.455	83
553.667	103
553.88	90
554.093	90
554.306	88
554.519	80
554.732	89
554.944	101
555.157	95
555.37	91
555.583	91
555.795	100
556.008	83
556.221	81
556.433	89
556.646	98
556.859	87
557.071	85
557.284	92
557.496	85
557.709	94
557.921	92
558.134	76
558.346	82
558.559	87
558.771	78
558.984	69
559.196	101
559.409	89
559.621	88
559.833	77
560.046	91
560.258	84
560.47	86
560.683	87
560.895	79
561.107	94
561.32	85
561.532	91
561.744	103
561.956	81
562.168	91
562.381	83
562.593	92
562.805	90
563.017	92
563.229	90
563.441	90
563.653	91
563.865	80
564.077	60
564.289	79
564.501	104
564.713	92
564.925	83
565.137	85
565.349	82
565.561	89
565.773	90
565.985	87
566.197	82
566.408	83
566.62	87
566.832	94
567.044	79
567.255	94
567.467	100
567.679	94
567.891	86
568.102	81
568.314	83
568.526	101
568.737	87
568.949	93
569.161	97
569.372	89
569.584	93
569.795	88
570.007	97
570.218	105
570.43	97
570.641	91
570.853	103
571.064	87
571.276	96
571.487	80
571.698	81
571.91	89
572.121	99
572.333	78
572.544	93
572.755	88
572.966	69
573.178	88
573.389	89
573.6	104
573.811	85
574.023	84
574.234	91
574.445	84
574.656	94
574.867	79
575.078	83
575.289	93
575.501	90
575.712	93
575.923	80
576.134	81
576.345	86
576.556	88
576.767	100
576.978	75
577.188	76
577.399	85
577.61	75
577.821	91
578.032	70
578.243	94
578.454	88
578.665	90
578.875	88
579.086	81
579.297	77
579.508	77
579.718	87
579.929	89
580.14	79
580.35	73
580.561	94
580.772	102
580.982	83
581.193	91
581.403	95
581.614	86
581.825	93
582.035	85
582.246	84
582.456	102
582.667	83
582.877	83
583.087	85
583.298	81
583.508	89
583.719	91
583.929	98
584.139	81
584.35	91
584.56	86
584.77	94
584.981	82
585.191	99
585.401	95
585.611	87
585.821	87
586.032	99
586.242	109
586.452	89
586.662	79
586.872	83
587.082	84
587.292	91
587.502	79
587.713	91
587.923	101
588.133	83
588.343	80
588.553	91
588.762	94
588.972	89
589.182	96
