Data from BG_HRD10591_082.txt Node
Date: Fri May 16 15:15:03 EDT 2025
User: Yrep
Spectrometer: HR+D1059
Trigger mode: 1
Integration Time (sec): 1.000000E-1
Scans to average: 1
Electric dark correction enabled: true
Nonlinearity correction enabled: false
Boxcar width: 0
XAxis mode: Wavelengths
Number of Pixels in Spectrum: 2048
>>>>>Begin Spectral Data<<<<<
223.165	-12.38
223.4	-12.38
223.635	-12.38
223.869	-10.38
224.104	-13.38
224.338	-16.38
224.573	-21.38
224.808	-13.38
225.042	-2.38
225.277	-8.38
225.511	-12.38
225.746	0.62
225.98	7.62
226.215	10.62
226.449	18.62
226.683	22.62
226.918	23.62
227.152	26.62
227.387	46.62
227.621	45.62
227.856	41.62
228.09	43.62
228.324	46.62
228.559	62.62
228.793	63.62
229.027	62.62
229.262	63.62
229.496	60.62
229.73	63.62
229.964	84.62
230.199	68.62
230.433	62.62
230.667	70.62
230.901	83.62
231.136	88.62
231.37	68.62
231.604	74.62
231.838	68.62
232.072	76.62
232.306	75.62
232.541	91.62
232.775	69.62
233.009	82.62
233.243	66.62
233.477	81.62
233.711	74.62
233.945	80.62
234.179	74.62
234.413	82.62
234.647	72.62
234.881	99.62
235.115	76.62
235.349	71.62
235.583	78.62
235.817	66.62
236.051	76.62
236.285	72.62
236.519	82.62
236.753	82.62
236.987	76.62
237.221	69.62
237.455	84.62
237.689	68.62
237.922	58.62
238.156	70.62
238.39	78.62
238.624	64.62
238.858	68.62
239.091	72.62
239.325	84.62
239.559	74.62
239.793	76.62
240.027	73.62
240.26	67.62
240.494	71.62
240.728	79.62
240.961	75.62
241.195	75.62
241.429	70.62
241.662	66.62
241.896	88.62
242.13	90.62
242.363	65.62
242.597	74.62
242.83	83.62
243.064	71.62
243.298	73.62
243.531	80.62
243.765	76.62
243.998	81.62
244.232	62.62
244.465	70.62
244.699	61.62
244.932	75.62
245.166	76.62
245.399	81.62
245.633	86.62
245.866	76.62
246.099	76.62
246.333	71.62
246.566	78.62
246.8	61.62
247.033	80.62
247.266	82.62
247.5	74.62
247.733	71.62
247.966	80.62
248.2	71.62
248.433	64.62
248.666	74.62
248.899	80.62
249.133	79.62
249.366	94.62
249.599	71.62
249.832	72.62
250.066	80.62
250.299	75.62
250.532	68.62
250.765	79.62
250.998	75.62
251.231	73.62
251.465	76.62
251.698	86.62
251.931	99.62
252.164	98.62
252.397	83.62
252.63	75.62
252.863	79.62
253.096	70.62
253.329	83.62
253.562	76.62
253.795	74.62
254.028	78.62
254.261	87.62
254.494	74.62
254.727	64.62
254.96	72.62
255.193	71.62
255.426	83.62
255.659	58.62
255.892	82.62
256.124	82.62
256.357	65.62
256.59	85.62
256.823	79.62
257.056	66.62
257.289	82.62
257.521	80.62
257.754	65.62
257.987	100.62
258.22	88.62
258.452	84.62
258.685	84.62
258.918	87.62
259.151	86.62
259.383	79.62
259.616	81.62
259.849	82.62
260.081	73.62
260.314	67.62
260.547	79.62
260.779	73.62
261.012	83.62
261.244	83.62
261.477	88.62
261.71	76.62
261.942	77.62
262.175	86.62
262.407	83.62
262.64	81.62
262.872	70.62
263.105	80.62
263.337	85.62
263.57	88.62
263.802	102.62
264.035	90.62
264.267	80.62
264.499	90.62
264.732	82.62
264.964	77.62
265.197	88.62
265.429	84.62
265.661	84.62
265.894	75.62
266.126	80.62
266.358	103.62
266.591	78.62
266.823	85.62
267.055	85.62
267.287	87.62
267.52	77.62
267.752	82.62
267.984	83.62
268.216	93.62
268.448	89.62
268.681	89.62
268.913	77.62
269.145	84.62
269.377	76.62
269.609	82.62
269.841	70.62
270.073	80.62
270.306	83.62
270.538	88.62
270.77	91.62
271.002	80.62
271.234	91.62
271.466	89.62
271.698	75.62
271.93	91.62
272.162	86.62
272.394	92.62
272.626	86.62
272.858	91.62
273.09	93.62
273.322	74.62
273.553	83.62
273.785	84.62
274.017	80.62
274.249	90.62
274.481	85.62
274.713	78.62
274.945	100.62
275.176	89.62
275.408	84.62
275.64	94.62
275.872	91.62
276.104	77.62
276.335	81.62
276.567	79.62
276.799	93.62
277.031	80.62
277.262	85.62
277.494	93.62
277.726	81.62
277.957	84.62
278.189	88.62
278.421	79.62
278.652	83.62
278.884	83.62
279.115	77.62
279.347	70.62
279.579	87.62
279.81	94.62
280.042	78.62
280.273	74.62
280.505	85.62
280.736	78.62
280.968	95.62
281.199	91.62
281.431	82.62
281.662	95.62
281.894	77.62
282.125	88.62
282.356	95.62
282.588	87.62
282.819	84.62
283.051	89.62
283.282	83.62
283.513	76.62
283.745	77.62
283.976	78.62
284.207	87.62
284.439	70.62
284.67	84.62
284.901	80.62
285.132	85.62
285.364	82.62
285.595	96.62
285.826	84.62
286.057	92.62
286.288	90.62
286.52	82.62
286.751	91.62
286.982	95.62
287.213	91.62
287.444	90.62
287.675	88.62
287.906	95.62
288.138	75.62
288.369	85.62
288.6	98.62
288.831	84.62
289.062	87.62
289.293	89.62
289.524	103.62
289.755	84.62
289.986	76.62
290.217	77.62
290.448	87.62
290.679	82.62
290.91	99.62
291.141	76.62
291.371	87.62
291.602	84.62
291.833	82.62
292.064	78.62
292.295	96.62
292.526	83.62
292.757	92.62
292.987	81.62
293.218	68.62
293.449	108.62
293.68	95.62
293.91	90.62
294.141	95.62
294.372	84.62
294.603	78.62
294.833	70.62
295.064	88.62
295.295	75.62
295.525	79.62
295.756	89.62
295.987	83.62
296.217	70.62
296.448	91.62
296.679	78.62
296.909	104.62
297.14	93.62
297.37	90.62
297.601	75.62
297.831	85.62
298.062	88.62
298.292	85.62
298.523	96.62
298.753	70.62
298.984	86.62
299.214	87.62
299.445	90.62
299.675	85.62
299.905	82.62
300.136	87.62
300.366	87.62
300.597	85.62
300.827	91.62
301.057	85.62
301.288	93.62
301.518	85.62
301.748	87.62
301.979	100.62
302.209	88.62
302.439	78.62
302.669	80.62
302.9	86.62
303.13	92.62
303.36	75.62
303.59	91.62
303.82	95.62
304.051	94.62
304.281	102.62
304.511	95.62
304.741	86.62
304.971	69.62
305.201	79.62
305.431	88.62
305.661	82.62
305.891	93.62
306.121	92.62
306.352	79.62
306.582	86.62
306.812	90.62
307.042	98.62
307.272	80.62
307.502	85.62
307.731	89.62
307.961	81.62
308.191	93.62
308.421	87.62
308.651	94.62
308.881	74.62
309.111	69.62
309.341	95.62
309.571	78.62
309.8	101.62
310.03	95.62
310.26	86.62
310.49	93.62
310.72	85.62
310.949	85.62
311.179	91.62
311.409	99.62
311.639	92.62
311.868	86.62
312.098	90.62
312.328	80.62
312.557	86.62
312.787	83.62
313.017	79.62
313.246	82.62
313.476	85.62
313.706	98.62
313.935	95.62
314.165	86.62
314.394	95.62
314.624	88.62
314.853	94.62
315.083	99.62
315.312	96.62
315.542	82.62
315.771	94.62
316.001	91.62
316.23	75.62
316.46	80.62
316.689	83.62
316.919	80.62
317.148	80.62
317.377	78.62
317.607	95.62
317.836	98.62
318.065	93.62
318.295	83.62
318.524	70.62
318.753	82.62
318.983	98.62
319.212	84.62
319.441	74.62
319.67	87.62
319.9	88.62
320.129	86.62
320.358	89.62
320.587	82.62
320.816	94.62
321.046	92.62
321.275	91.62
321.504	96.62
321.733	106.62
321.962	91.62
322.191	91.62
322.42	86.62
322.649	87.62
322.878	93.62
323.108	84.62
323.337	87.62
323.566	89.62
323.795	90.62
324.024	82.62
324.253	85.62
324.482	94.62
324.71	86.62
324.939	100.62
325.168	83.62
325.397	92.62
325.626	102.62
325.855	100.62
326.084	85.62
326.313	91.62
326.542	92.62
326.77	84.62
326.999	88.62
327.228	94.62
327.457	91.62
327.686	82.62
327.914	91.62
328.143	90.62
328.372	89.62
328.6	90.62
328.829	80.62
329.058	97.62
329.287	98.62
329.515	79.62
329.744	84.62
329.972	95.62
330.201	93.62
330.43	82.62
330.658	86.62
330.887	80.62
331.115	82.62
331.344	84.62
331.572	103.62
331.801	86.62
332.03	88.62
332.258	86.62
332.486	103.62
332.715	87.62
332.943	79.62
333.172	97.62
333.4	95.62
333.629	105.62
333.857	73.62
334.085	94.62
334.314	70.62
334.542	83.62
334.771	88.62
334.999	74.62
335.227	83.62
335.455	80.62
335.684	98.62
335.912	84.62
336.14	91.62
336.369	87.62
336.597	87.62
336.825	89.62
337.053	93.62
337.281	91.62
337.51	88.62
337.738	103.62
337.966	79.62
338.194	87.62
338.422	85.62
338.65	93.62
338.878	88.62
339.106	89.62
339.334	88.62
339.562	85.62
339.79	77.62
340.018	78.62
340.246	91.62
340.474	77.62
340.702	89.62
340.93	95.62
341.158	96.62
341.386	89.62
341.614	84.62
341.842	86.62
342.07	85.62
342.298	91.62
342.526	90.62
342.754	87.62
342.981	100.62
343.209	84.62
343.437	110.62
343.665	104.62
343.893	80.62
344.12	87.62
344.348	87.62
344.576	74.62
344.804	82.62
345.031	77.62
345.259	84.62
345.487	88.62
345.714	78.62
345.942	90.62
346.17	82.62
346.397	98.62
346.625	92.62
346.853	80.62
347.08	86.62
347.308	91.62
347.535	86.62
347.763	88.62
347.99	94.62
348.218	89.62
348.445	94.62
348.673	88.62
348.9	103.62
349.128	79.62
349.355	93.62
349.583	87.62
349.81	90.62
350.037	91.62
350.265	86.62
350.492	102.62
350.72	93.62
350.947	80.62
351.174	88.62
351.402	89.62
351.629	86.62
351.856	94.62
352.083	100.62
352.311	95.62
352.538	90.62
352.765	83.62
352.992	100.62
353.22	92.62
353.447	88.62
353.674	104.62
353.901	94.62
354.128	98.62
354.355	84.62
354.583	93.62
354.81	86.62
355.037	90.62
355.264	89.62
355.491	89.62
355.718	90.62
355.945	93.62
356.172	92.62
356.399	96.62
356.626	95.62
356.853	82.62
357.08	82.62
357.307	86.62
357.534	88.62
357.761	92.62
357.988	85.62
358.215	84.62
358.441	96.62
358.668	95.62
358.895	93.62
359.122	84.62
359.349	85.62
359.576	89.62
359.802	95.62
360.029	88.62
360.256	80.62
360.483	86.62
360.709	90.62
360.936	83.62
361.163	75.62
361.39	63.62
361.616	85.62
361.843	102.62
362.07	90.62
362.296	80.62
362.523	76.62
362.749	86.62
362.976	85.62
363.203	86.62
363.429	80.62
363.656	87.62
363.882	92.62
364.109	84.62
364.335	81.62
364.562	91.62
364.788	91.62
365.015	86.62
365.241	76.62
365.468	84.62
365.694	88.62
365.92	91.62
366.147	83.62
366.373	92.62
366.599	72.62
366.826	102.62
367.052	96.62
367.278	98.62
367.505	86.62
367.731	94.62
367.957	74.62
368.184	74.62
368.41	87.62
368.636	95.62
368.862	77.62
369.089	87.62
369.315	84.62
369.541	92.62
369.767	86.62
369.993	87.62
370.219	76.62
370.445	108.62
370.672	87.62
370.898	87.62
371.124	82.62
371.35	98.62
371.576	100.62
371.802	92.62
372.028	86.62
372.254	75.62
372.48	97.62
372.706	86.62
372.932	90.62
373.158	99.62
373.384	86.62
373.61	91.62
373.835	76.62
374.061	81.62
374.287	88.62
374.513	102.62
374.739	73.62
374.965	91.62
375.191	93.62
375.416	90.62
375.642	86.62
375.868	86.62
376.094	79.62
376.319	84.62
376.545	100.62
376.771	92.62
376.997	91.62
377.222	83.62
377.448	79.62
377.674	87.62
377.899	90.62
378.125	91.62
378.35	95.62
378.576	84.62
378.802	75.62
379.027	88.62
379.253	112.62
379.478	89.62
379.704	94.62
379.929	89.62
380.155	88.62
380.38	71.62
380.606	78.62
380.831	95.62
381.057	92.62
381.282	94.62
381.507	80.62
381.733	99.62
381.958	90.62
382.184	76.62
382.409	86.62
382.634	92.62
382.86	81.62
383.085	84.62
383.31	88.62
383.535	89.62
383.761	88.62
383.986	93.62
384.211	78.62
384.436	75.62
384.662	94.62
384.887	86.62
385.112	90.62
385.337	84.62
385.562	69.62
385.787	88.62
386.013	92.62
386.238	91.62
386.463	90.62
386.688	92.62
386.913	88.62
387.138	85.62
387.363	95.62
387.588	92.62
387.813	90.62
388.038	76.62
388.263	80.62
388.488	91.62
388.713	78.62
388.938	84.62
389.163	80.62
389.387	78.62
389.612	77.62
389.837	86.62
390.062	82.62
390.287	94.62
390.512	93.62
390.736	74.62
390.961	102.62
391.186	87.62
391.411	88.62
391.636	87.62
391.86	102.62
392.085	88.62
392.31	85.62
392.534	78.62
392.759	93.62
392.984	87.62
393.208	92.62
393.433	87.62
393.658	92.62
393.882	88.62
394.107	99.62
394.331	89.62
394.556	76.62
394.78	96.62
395.005	79.62
395.229	97.62
395.454	95.62
395.678	99.62
395.903	82.62
396.127	87.62
396.352	94.62
396.576	78.62
396.801	87.62
397.025	80.62
397.249	92.62
397.474	91.62
397.698	99.62
397.922	87.62
398.147	87.62
398.371	87.62
398.595	79.62
398.82	90.62
399.044	90.62
399.268	93.62
399.492	93.62
399.717	107.62
399.941	88.62
400.165	94.62
400.389	111.62
400.613	92.62
400.837	93.62
401.062	111.62
401.286	89.62
401.51	98.62
401.734	74.62
401.958	83.62
402.182	90.62
402.406	100.62
402.63	101.62
402.854	79.62
403.078	86.62
403.302	91.62
403.526	93.62
403.75	95.62
403.974	91.62
404.198	95.62
404.422	101.62
404.645	91.62
404.869	85.62
405.093	88.62
405.317	84.62
405.541	88.62
405.765	76.62
405.988	84.62
406.212	92.62
406.436	93.62
406.66	104.62
406.883	98.62
407.107	99.62
407.331	98.62
407.555	95.62
407.778	78.62
408.002	87.62
408.226	88.62
408.449	96.62
408.673	79.62
408.896	90.62
409.12	90.62
409.344	81.62
409.567	76.62
409.791	94.62
410.014	90.62
410.238	90.62
410.461	85.62
410.685	92.62
410.908	89.62
411.132	95.62
411.355	108.62
411.578	94.62
411.802	93.62
412.025	93.62
412.249	83.62
412.472	88.62
412.695	91.62
412.919	90.62
413.142	93.62
413.365	94.62
413.589	86.62
413.812	74.62
414.035	103.62
414.258	100.62
414.482	86.62
414.705	81.62
414.928	99.62
415.151	103.62
415.374	80.62
415.597	78.62
415.821	85.62
416.044	92.62
416.267	89.62
416.49	92.62
416.713	92.62
416.936	87.62
417.159	87.62
417.382	93.62
417.605	67.62
417.828	94.62
418.051	91.62
418.274	87.62
418.497	100.62
418.72	90.62
418.943	80.62
419.166	91.62
419.389	84.62
419.611	89.62
419.834	80.62
420.057	98.62
420.28	90.62
420.503	89.62
420.726	95.62
420.948	89.62
421.171	93.62
421.394	92.62
421.617	100.62
421.839	88.62
422.062	96.62
422.285	92.62
422.507	94.62
422.73	85.62
422.953	95.62
423.175	86.62
423.398	80.62
423.621	88.62
423.843	114.62
424.066	88.62
424.288	88.62
424.511	103.62
424.733	78.62
424.956	98.62
425.178	91.62
425.401	88.62
425.623	100.62
425.846	86.62
426.068	86.62
426.291	90.62
426.513	92.62
426.735	89.62
426.958	88.62
427.18	89.62
427.402	86.62
427.625	77.62
427.847	107.62
428.069	87.62
428.292	84.62
428.514	84.62
428.736	96.62
428.958	90.62
429.181	95.62
429.403	98.62
429.625	94.62
429.847	77.62
430.069	92.62
430.292	95.62
430.514	90.62
430.736	77.62
430.958	100.62
431.18	104.62
431.402	90.62
431.624	89.62
431.846	88.62
432.068	76.62
432.29	70.62
432.512	88.62
432.734	94.62
432.956	86.62
433.178	91.62
433.4	80.62
433.622	83.62
433.844	96.62
434.066	95.62
434.287	95.62
434.509	80.62
434.731	96.62
434.953	80.62
435.175	82.62
435.397	70.62
435.618	84.62
435.84	88.62
436.062	82.62
436.284	93.62
436.505	74.62
436.727	74.62
436.949	75.62
437.17	105.62
437.392	78.62
437.614	92.62
437.835	92.62
438.057	82.62
438.278	82.62
438.5	102.62
438.721	95.62
438.943	85.62
439.165	85.62
439.386	91.62
439.608	79.62
439.829	86.62
440.05	93.62
440.272	89.62
440.493	92.62
440.715	94.62
440.936	90.62
441.158	88.62
441.379	70.62
441.6	86.62
441.822	78.62
442.043	89.62
442.264	105.62
442.486	101.62
442.707	84.62
442.928	96.62
443.149	88.62
443.371	75.62
443.592	78.62
443.813	83.62
444.034	90.62
444.255	78.62
444.476	76.62
444.698	103.62
444.919	84.62
445.14	162.62
445.361	125.62
445.582	71.62
445.803	84.62
446.024	98.62
446.245	86.62
446.466	91.62
446.687	86.62
446.908	92.62
447.129	97.62
447.35	86.62
447.571	78.62
447.792	83.62
448.013	89.62
448.234	82.62
448.455	72.62
448.675	91.62
448.896	93.62
449.117	88.62
449.338	93.62
449.559	89.62
449.779	86.62
450	104.62
450.221	85.62
450.442	76.62
450.662	94.62
450.883	91.62
451.104	80.62
451.324	84.62
451.545	74.62
451.766	72.62
451.986	86.62
452.207	83.62
452.428	84.62
452.648	83.62
452.869	91.62
453.089	85.62
453.31	78.62
453.53	80.62
453.751	95.62
453.971	77.62
454.192	90.62
454.412	80.62
454.633	76.62
454.853	93.62
455.073	83.62
455.294	74.62
455.514	85.62
455.734	78.62
455.955	72.62
456.175	98.62
456.395	95.62
456.616	88.62
456.836	87.62
457.056	87.62
457.276	93.62
457.497	78.62
457.717	93.62
457.937	89.62
458.157	91.62
458.377	83.62
458.598	69.62
458.818	72.62
459.038	82.62
459.258	91.62
459.478	98.62
459.698	92.62
459.918	95.62
460.138	85.62
460.358	95.62
460.578	94.62
460.798	76.62
461.018	74.62
461.238	93.62
461.458	102.62
461.678	78.62
461.898	89.62
462.118	96.62
462.338	74.62
462.558	84.62
462.777	91.62
462.997	89.62
463.217	94.62
463.437	86.62
463.657	93.62
463.876	89.62
464.096	85.62
464.316	88.62
464.536	91.62
464.755	87.62
464.975	83.62
465.195	92.62
465.414	93.62
465.634	89.62
465.854	75.62
466.073	81.62
466.293	76.62
466.512	73.62
466.732	92.62
466.951	85.62
467.171	80.62
467.391	90.62
467.61	82.62
467.829	84.62
468.049	98.62
468.268	84.62
468.488	74.62
468.707	95.62
468.927	71.62
469.146	88.62
469.365	86.62
469.585	85.62
469.804	95.62
470.023	87.62
470.243	83.62
470.462	88.62
470.681	88.62
470.901	88.62
471.12	78.62
471.339	88.62
471.558	87.62
471.777	87.62
471.997	90.62
472.216	104.62
472.435	86.62
472.654	94.62
472.873	102.62
473.092	85.62
473.311	100.62
473.53	87.62
473.749	80.62
473.968	86.62
474.187	77.62
474.406	80.62
474.625	96.62
474.844	86.62
475.063	86.62
475.282	89.62
475.501	88.62
475.72	80.62
475.939	79.62
476.158	78.62
476.377	85.62
476.596	86.62
476.814	96.62
477.033	91.62
477.252	90.62
477.471	91.62
477.69	90.62
477.908	102.62
478.127	87.62
478.346	92.62
478.564	84.62
478.783	81.62
479.002	84.62
479.22	79.62
479.439	95.62
479.658	77.62
479.876	95.62
480.095	74.62
480.313	84.62
480.532	79.62
480.751	77.62
480.969	95.62
481.188	86.62
481.406	88.62
481.624	84.62
481.843	88.62
482.061	86.62
482.28	82.62
482.498	88.62
482.717	100.62
482.935	95.62
483.153	80.62
483.372	86.62
483.59	72.62
483.808	89.62
484.027	102.62
484.245	88.62
484.463	76.62
484.681	95.62
484.9	78.62
485.118	89.62
485.336	84.62
485.554	93.62
485.772	93.62
485.99	78.62
486.209	83.62
486.427	93.62
486.645	86.62
486.863	83.62
487.081	94.62
487.299	90.62
487.517	83.62
487.735	95.62
487.953	98.62
488.171	70.62
488.389	89.62
488.607	93.62
488.825	80.62
489.043	98.62
489.261	110.62
489.479	82.62
489.696	88.62
489.914	88.62
490.132	84.62
490.35	83.62
490.568	81.62
490.786	79.62
491.003	85.62
491.221	95.62
491.439	74.62
491.657	67.62
491.874	87.62
492.092	82.62
492.31	83.62
492.527	81.62
492.745	96.62
492.963	96.62
493.18	89.62
493.398	99.62
493.615	98.62
493.833	84.62
494.05	82.62
494.268	101.62
494.485	97.62
494.703	102.62
494.92	86.62
495.138	89.62
495.355	82.62
495.573	85.62
495.79	88.62
496.008	93.62
496.225	87.62
496.442	103.62
496.66	87.62
496.877	99.62
497.094	99.62
497.312	98.62
497.529	94.62
497.746	94.62
497.963	82.62
498.181	87.62
498.398	89.62
498.615	93.62
498.832	88.62
499.049	89.62
499.267	89.62
499.484	99.62
499.701	110.62
499.918	96.62
500.135	126.62
500.352	109.62
500.569	104.62
500.786	103.62
501.003	111.62
501.22	109.62
501.437	114.62
501.654	96.62
501.871	88.62
502.088	105.62
502.305	88.62
502.522	106.62
502.739	105.62
502.956	106.62
503.172	84.62
503.389	100.62
503.606	73.62
503.823	96.62
504.04	103.62
504.256	102.62
504.473	94.62
504.69	89.62
504.907	88.62
505.123	104.62
505.34	94.62
505.557	82.62
505.773	85.62
505.99	68.62
506.207	93.62
506.423	79.62
506.64	83.62
506.856	89.62
507.073	85.62
507.289	98.62
507.506	80.62
507.722	96.62
507.939	86.62
508.155	94.62
508.372	92.62
508.588	102.62
508.805	92.62
509.021	91.62
509.238	86.62
509.454	108.62
509.67	100.62
509.887	77.62
510.103	90.62
510.319	88.62
510.536	87.62
510.752	93.62
510.968	89.62
511.184	88.62
511.401	79.62
511.617	90.62
511.833	95.62
512.049	82.62
512.265	85.62
512.481	81.62
512.698	90.62
512.914	80.62
513.13	92.62
513.346	84.62
513.562	92.62
513.778	79.62
513.994	82.62
514.21	87.62
514.426	89.62
514.642	99.62
514.858	91.62
515.074	78.62
515.29	86.62
515.506	104.62
515.721	92.62
515.937	93.62
516.153	83.62
516.369	92.62
516.585	84.62
516.801	99.62
517.016	86.62
517.232	92.62
517.448	92.62
517.664	80.62
517.879	91.62
518.095	88.62
518.311	87.62
518.527	98.62
518.742	74.62
518.958	101.62
