Data from BG_HRD10591_084.txt Node
Date: Fri May 16 15:15:04 EDT 2025
User: Yrep
Spectrometer: HR+D1059
Trigger mode: 1
Integration Time (sec): 1.000000E-1
Scans to average: 1
Electric dark correction enabled: true
Nonlinearity correction enabled: false
Boxcar width: 0
XAxis mode: Wavelengths
Number of Pixels in Spectrum: 2048
>>>>>Begin Spectral Data<<<<<
223.165	-4.31
223.4	-4.31
223.635	-4.31
223.869	-32.31
224.104	-30.31
224.338	-7.31
224.573	-24.31
224.808	-16.31
225.042	-15.31
225.277	-5.31
225.511	-3.31
225.746	8.69
225.98	14.69
226.215	12.69
226.449	12.69
226.683	29.69
226.918	22.69
227.152	37.69
227.387	26.69
227.621	39.69
227.856	50.69
228.09	48.69
228.324	48.69
228.559	46.69
228.793	60.69
229.027	64.69
229.262	51.69
229.496	60.69
229.73	74.69
229.964	79.69
230.199	65.69
230.433	77.69
230.667	70.69
230.901	84.69
231.136	73.69
231.37	86.69
231.604	89.69
231.838	73.69
232.072	92.69
232.306	73.69
232.541	74.69
232.775	89.69
233.009	99.69
233.243	79.69
233.477	89.69
233.711	75.69
233.945	73.69
234.179	77.69
234.413	91.69
234.647	84.69
234.881	91.69
235.115	96.69
235.349	71.69
235.583	83.69
235.817	79.69
236.051	76.69
236.285	85.69
236.519	86.69
236.753	73.69
236.987	74.69
237.221	71.69
237.455	81.69
237.689	79.69
237.922	67.69
238.156	85.69
238.39	70.69
238.624	78.69
238.858	86.69
239.091	87.69
239.325	83.69
239.559	63.69
239.793	95.69
240.027	80.69
240.26	66.69
240.494	89.69
240.728	78.69
240.961	63.69
241.195	70.69
241.429	73.69
241.662	74.69
241.896	76.69
242.13	75.69
242.363	81.69
242.597	65.69
242.83	94.69
243.064	76.69
243.298	81.69
243.531	88.69
243.765	83.69
243.998	65.69
244.232	66.69
244.465	79.69
244.699	90.69
244.932	70.69
245.166	77.69
245.399	73.69
245.633	85.69
245.866	70.69
246.099	87.69
246.333	88.69
246.566	84.69
246.8	76.69
247.033	94.69
247.266	93.69
247.5	89.69
247.733	81.69
247.966	87.69
248.2	77.69
248.433	79.69
248.666	79.69
248.899	80.69
249.133	75.69
249.366	73.69
249.599	86.69
249.832	75.69
250.066	89.69
250.299	88.69
250.532	73.69
250.765	84.69
250.998	89.69
251.231	84.69
251.465	67.69
251.698	91.69
251.931	89.69
252.164	78.69
252.397	77.69
252.63	81.69
252.863	73.69
253.096	84.69
253.329	99.69
253.562	78.69
253.795	77.69
254.028	86.69
254.261	72.69
254.494	86.69
254.727	93.69
254.96	96.69
255.193	79.69
255.426	63.69
255.659	87.69
255.892	74.69
256.124	86.69
256.357	81.69
256.59	75.69
256.823	91.69
257.056	74.69
257.289	81.69
257.521	86.69
257.754	78.69
257.987	81.69
258.22	83.69
258.452	87.69
258.685	85.69
258.918	77.69
259.151	81.69
259.383	83.69
259.616	97.69
259.849	74.69
260.081	81.69
260.314	77.69
260.547	82.69
260.779	93.69
261.012	85.69
261.244	98.69
261.477	110.69
261.71	94.69
261.942	97.69
262.175	81.69
262.407	87.69
262.64	73.69
262.872	87.69
263.105	81.69
263.337	91.69
263.57	83.69
263.802	71.69
264.035	85.69
264.267	77.69
264.499	86.69
264.732	85.69
264.964	86.69
265.197	78.69
265.429	95.69
265.661	70.69
265.894	80.69
266.126	90.69
266.358	77.69
266.591	81.69
266.823	89.69
267.055	87.69
267.287	77.69
267.52	79.69
267.752	85.69
267.984	91.69
268.216	90.69
268.448	84.69
268.681	89.69
268.913	96.69
269.145	79.69
269.377	81.69
269.609	102.69
269.841	90.69
270.073	88.69
270.306	91.69
270.538	76.69
270.77	79.69
271.002	86.69
271.234	90.69
271.466	90.69
271.698	80.69
271.93	95.69
272.162	75.69
272.394	92.69
272.626	87.69
272.858	96.69
273.09	90.69
273.322	87.69
273.553	84.69
273.785	71.69
274.017	88.69
274.249	76.69
274.481	77.69
274.713	81.69
274.945	79.69
275.176	69.69
275.408	86.69
275.64	79.69
275.872	97.69
276.104	75.69
276.335	95.69
276.567	95.69
276.799	79.69
277.031	83.69
277.262	73.69
277.494	102.69
277.726	86.69
277.957	92.69
278.189	90.69
278.421	79.69
278.652	83.69
278.884	83.69
279.115	84.69
279.347	69.69
279.579	93.69
279.81	85.69
280.042	82.69
280.273	89.69
280.505	75.69
280.736	82.69
280.968	88.69
281.199	87.69
281.431	89.69
281.662	86.69
281.894	81.69
282.125	94.69
282.356	93.69
282.588	83.69
282.819	74.69
283.051	85.69
283.282	77.69
283.513	79.69
283.745	92.69
283.976	86.69
284.207	89.69
284.439	103.69
284.67	89.69
284.901	87.69
285.132	85.69
285.364	97.69
285.595	83.69
285.826	94.69
286.057	94.69
286.288	86.69
286.52	85.69
286.751	88.69
286.982	85.69
287.213	83.69
287.444	89.69
287.675	93.69
287.906	89.69
288.138	94.69
288.369	93.69
288.6	84.69
288.831	79.69
289.062	85.69
289.293	97.69
289.524	82.69
289.755	95.69
289.986	72.69
290.217	89.69
290.448	78.69
290.679	89.69
290.91	85.69
291.141	82.69
291.371	91.69
291.602	77.69
291.833	85.69
292.064	88.69
292.295	94.69
292.526	99.69
292.757	106.69
292.987	83.69
293.218	89.69
293.449	71.69
293.68	80.69
293.91	93.69
294.141	84.69
294.372	82.69
294.603	92.69
294.833	77.69
295.064	87.69
295.295	103.69
295.525	94.69
295.756	93.69
295.987	98.69
296.217	99.69
296.448	102.69
296.679	97.69
296.909	83.69
297.14	90.69
297.37	79.69
297.601	78.69
297.831	85.69
298.062	88.69
298.292	84.69
298.523	84.69
298.753	79.69
298.984	90.69
299.214	87.69
299.445	91.69
299.675	90.69
299.905	94.69
300.136	82.69
300.366	88.69
300.597	87.69
300.827	97.69
301.057	82.69
301.288	84.69
301.518	90.69
301.748	93.69
301.979	109.69
302.209	91.69
302.439	103.69
302.669	93.69
302.9	81.69
303.13	80.69
303.36	73.69
303.59	88.69
303.82	77.69
304.051	88.69
304.281	87.69
304.511	91.69
304.741	82.69
304.971	98.69
305.201	94.69
305.431	73.69
305.661	77.69
305.891	89.69
306.121	96.69
306.352	74.69
306.582	81.69
306.812	84.69
307.042	87.69
307.272	101.69
307.502	85.69
307.731	102.69
307.961	92.69
308.191	81.69
308.421	89.69
308.651	88.69
308.881	96.69
309.111	91.69
309.341	89.69
309.571	93.69
309.8	86.69
310.03	84.69
310.26	95.69
310.49	90.69
310.72	94.69
310.949	94.69
311.179	85.69
311.409	90.69
311.639	78.69
311.868	94.69
312.098	97.69
312.328	92.69
312.557	86.69
312.787	97.69
313.017	109.69
313.246	92.69
313.476	79.69
313.706	79.69
313.935	87.69
314.165	88.69
314.394	87.69
314.624	95.69
314.853	92.69
315.083	88.69
315.312	84.69
315.542	99.69
315.771	91.69
316.001	82.69
316.23	102.69
316.46	73.69
316.689	90.69
316.919	82.69
317.148	81.69
317.377	88.69
317.607	89.69
317.836	82.69
318.065	101.69
318.295	98.69
318.524	121.69
318.753	113.69
318.983	111.69
319.212	91.69
319.441	79.69
319.67	85.69
319.9	89.69
320.129	90.69
320.358	99.69
320.587	81.69
320.816	88.69
321.046	87.69
321.275	72.69
321.504	94.69
321.733	93.69
321.962	79.69
322.191	89.69
322.42	95.69
322.649	86.69
322.878	86.69
323.108	97.69
323.337	89.69
323.566	85.69
323.795	101.69
324.024	84.69
324.253	82.69
324.482	90.69
324.71	75.69
324.939	78.69
325.168	87.69
325.397	90.69
325.626	99.69
325.855	99.69
326.084	95.69
326.313	78.69
326.542	80.69
326.77	101.69
326.999	78.69
327.228	81.69
327.457	92.69
327.686	90.69
327.914	87.69
328.143	77.69
328.372	82.69
328.6	77.69
328.829	93.69
329.058	83.69
329.287	95.69
329.515	74.69
329.744	84.69
329.972	93.69
330.201	84.69
330.43	85.69
330.658	90.69
330.887	82.69
331.115	97.69
331.344	88.69
331.572	82.69
331.801	93.69
332.03	85.69
332.258	92.69
332.486	83.69
332.715	89.69
332.943	75.69
333.172	90.69
333.4	99.69
333.629	93.69
333.857	93.69
334.085	102.69
334.314	94.69
334.542	81.69
334.771	82.69
334.999	91.69
335.227	91.69
335.455	90.69
335.684	87.69
335.912	85.69
336.14	90.69
336.369	83.69
336.597	93.69
336.825	110.69
337.053	70.69
337.281	87.69
337.51	99.69
337.738	87.69
337.966	93.69
338.194	94.69
338.422	94.69
338.65	81.69
338.878	106.69
339.106	98.69
339.334	97.69
339.562	81.69
339.79	105.69
340.018	75.69
340.246	94.69
340.474	90.69
340.702	83.69
340.93	94.69
341.158	107.69
341.386	85.69
341.614	75.69
341.842	104.69
342.07	96.69
342.298	101.69
342.526	101.69
342.754	93.69
342.981	95.69
343.209	98.69
343.437	95.69
343.665	73.69
343.893	88.69
344.12	87.69
344.348	113.69
344.576	98.69
344.804	97.69
345.031	91.69
345.259	109.69
345.487	95.69
345.714	88.69
345.942	83.69
346.17	90.69
346.397	90.69
346.625	95.69
346.853	82.69
347.08	92.69
347.308	90.69
347.535	91.69
347.763	75.69
347.99	81.69
348.218	90.69
348.445	93.69
348.673	100.69
348.9	93.69
349.128	98.69
349.355	73.69
349.583	75.69
349.81	73.69
350.037	80.69
350.265	77.69
350.492	74.69
350.72	86.69
350.947	99.69
351.174	89.69
351.402	82.69
351.629	89.69
351.856	81.69
352.083	81.69
352.311	89.69
352.538	86.69
352.765	83.69
352.992	79.69
353.22	89.69
353.447	93.69
353.674	83.69
353.901	91.69
354.128	98.69
354.355	72.69
354.583	83.69
354.81	96.69
355.037	94.69
355.264	92.69
355.491	98.69
355.718	82.69
355.945	92.69
356.172	88.69
356.399	83.69
356.626	94.69
356.853	83.69
357.08	97.69
357.307	92.69
357.534	93.69
357.761	80.69
357.988	98.69
358.215	80.69
358.441	82.69
358.668	80.69
358.895	89.69
359.122	84.69
359.349	78.69
359.576	98.69
359.802	94.69
360.029	93.69
360.256	80.69
360.483	88.69
360.709	87.69
360.936	103.69
361.163	97.69
361.39	94.69
361.616	104.69
361.843	99.69
362.07	78.69
362.296	87.69
362.523	88.69
362.749	71.69
362.976	79.69
363.203	81.69
363.429	92.69
363.656	98.69
363.882	82.69
364.109	81.69
364.335	73.69
364.562	101.69
364.788	92.69
365.015	96.69
365.241	85.69
365.468	75.69
365.694	85.69
365.92	79.69
366.147	85.69
366.373	84.69
366.599	76.69
366.826	95.69
367.052	80.69
367.278	88.69
367.505	88.69
367.731	86.69
367.957	101.69
368.184	79.69
368.41	99.69
368.636	82.69
368.862	87.69
369.089	83.69
369.315	94.69
369.541	82.69
369.767	107.69
369.993	89.69
370.219	88.69
370.445	86.69
370.672	96.69
370.898	92.69
371.124	82.69
371.35	85.69
371.576	87.69
371.802	89.69
372.028	93.69
372.254	88.69
372.48	90.69
372.706	81.69
372.932	89.69
373.158	86.69
373.384	102.69
373.61	95.69
373.835	106.69
374.061	96.69
374.287	86.69
374.513	92.69
374.739	100.69
374.965	91.69
375.191	91.69
375.416	90.69
375.642	90.69
375.868	91.69
376.094	80.69
376.319	96.69
376.545	88.69
376.771	92.69
376.997	93.69
377.222	83.69
377.448	85.69
377.674	89.69
377.899	89.69
378.125	88.69
378.35	67.69
378.576	90.69
378.802	77.69
379.027	89.69
379.253	84.69
379.478	93.69
379.704	77.69
379.929	83.69
380.155	96.69
380.38	101.69
380.606	90.69
380.831	99.69
381.057	85.69
381.282	92.69
381.507	90.69
381.733	85.69
381.958	97.69
382.184	83.69
382.409	85.69
382.634	97.69
382.86	90.69
383.085	87.69
383.31	103.69
383.535	96.69
383.761	73.69
383.986	97.69
384.211	82.69
384.436	89.69
384.662	78.69
384.887	89.69
385.112	90.69
385.337	95.69
385.562	88.69
385.787	85.69
386.013	90.69
386.238	93.69
386.463	92.69
386.688	102.69
386.913	91.69
387.138	95.69
387.363	82.69
387.588	91.69
387.813	103.69
388.038	79.69
388.263	94.69
388.488	91.69
388.713	86.69
388.938	85.69
389.163	74.69
389.387	82.69
389.612	82.69
389.837	83.69
390.062	87.69
390.287	87.69
390.512	83.69
390.736	81.69
390.961	93.69
391.186	88.69
391.411	75.69
391.636	93.69
391.86	87.69
392.085	77.69
392.31	77.69
392.534	93.69
392.759	93.69
392.984	86.69
393.208	85.69
393.433	86.69
393.658	89.69
393.882	108.69
394.107	89.69
394.331	91.69
394.556	81.69
394.78	86.69
395.005	98.69
395.229	84.69
395.454	98.69
395.678	85.69
395.903	98.69
396.127	97.69
396.352	86.69
396.576	74.69
396.801	85.69
397.025	90.69
397.249	90.69
397.474	99.69
397.698	93.69
397.922	80.69
398.147	88.69
398.371	98.69
398.595	94.69
398.82	85.69
399.044	104.69
399.268	80.69
399.492	105.69
399.717	92.69
399.941	95.69
400.165	97.69
400.389	80.69
400.613	98.69
400.837	95.69
401.062	91.69
401.286	83.69
401.51	99.69
401.734	82.69
401.958	95.69
402.182	101.69
402.406	92.69
402.63	86.69
402.854	104.69
403.078	101.69
403.302	93.69
403.526	96.69
403.75	123.69
403.974	93.69
404.198	90.69
404.422	96.69
404.645	92.69
404.869	100.69
405.093	89.69
405.317	94.69
405.541	109.69
405.765	88.69
405.988	95.69
406.212	89.69
406.436	81.69
406.66	91.69
406.883	90.69
407.107	102.69
407.331	88.69
407.555	94.69
407.778	99.69
408.002	107.69
408.226	79.69
408.449	89.69
408.673	85.69
408.896	88.69
409.12	99.69
409.344	90.69
409.567	105.69
409.791	78.69
410.014	89.69
410.238	87.69
410.461	85.69
410.685	104.69
410.908	92.69
411.132	97.69
411.355	78.69
411.578	78.69
411.802	87.69
412.025	74.69
412.249	86.69
412.472	85.69
412.695	95.69
412.919	91.69
413.142	82.69
413.365	77.69
413.589	84.69
413.812	89.69
414.035	97.69
414.258	93.69
414.482	101.69
414.705	81.69
414.928	81.69
415.151	99.69
415.374	85.69
415.597	88.69
415.821	95.69
416.044	85.69
416.267	78.69
416.49	82.69
416.713	84.69
416.936	88.69
417.159	87.69
417.382	97.69
417.605	98.69
417.828	76.69
418.051	78.69
418.274	83.69
418.497	90.69
418.72	79.69
418.943	77.69
419.166	88.69
419.389	91.69
419.611	81.69
419.834	82.69
420.057	76.69
420.28	86.69
420.503	96.69
420.726	92.69
420.948	91.69
421.171	89.69
421.394	97.69
421.617	96.69
421.839	94.69
422.062	88.69
422.285	73.69
422.507	89.69
422.73	70.69
422.953	97.69
423.175	84.69
423.398	83.69
423.621	81.69
423.843	92.69
424.066	105.69
424.288	82.69
424.511	96.69
424.733	94.69
424.956	93.69
425.178	96.69
425.401	85.69
425.623	89.69
425.846	93.69
426.068	88.69
426.291	93.69
426.513	87.69
426.735	81.69
426.958	99.69
427.18	88.69
427.402	79.69
427.625	80.69
427.847	89.69
428.069	81.69
428.292	90.69
428.514	103.69
428.736	94.69
428.958	90.69
429.181	92.69
429.403	95.69
429.625	70.69
429.847	94.69
430.069	90.69
430.292	94.69
430.514	95.69
430.736	92.69
430.958	92.69
431.18	86.69
431.402	102.69
431.624	90.69
431.846	83.69
432.068	79.69
432.29	88.69
432.512	98.69
432.734	93.69
432.956	87.69
433.178	91.69
433.4	88.69
433.622	82.69
433.844	80.69
434.066	91.69
434.287	86.69
434.509	105.69
434.731	83.69
434.953	98.69
435.175	84.69
435.397	85.69
435.618	86.69
435.84	85.69
436.062	88.69
436.284	81.69
436.505	87.69
436.727	85.69
436.949	93.69
437.17	105.69
437.392	92.69
437.614	85.69
437.835	88.69
438.057	85.69
438.278	85.69
438.5	89.69
438.721	81.69
438.943	93.69
439.165	74.69
439.386	87.69
439.608	84.69
439.829	81.69
440.05	86.69
440.272	94.69
440.493	85.69
440.715	103.69
440.936	110.69
441.158	87.69
441.379	89.69
441.6	82.69
441.822	91.69
442.043	83.69
442.264	93.69
442.486	83.69
442.707	97.69
442.928	87.69
443.149	86.69
443.371	90.69
443.592	87.69
443.813	86.69
444.034	91.69
444.255	95.69
444.476	83.69
444.698	83.69
444.919	96.69
445.14	162.69
445.361	123.69
445.582	83.69
445.803	70.69
446.024	82.69
446.245	93.69
446.466	85.69
446.687	78.69
446.908	90.69
447.129	82.69
447.35	94.69
447.571	95.69
447.792	95.69
448.013	90.69
448.234	94.69
448.455	87.69
448.675	97.69
448.896	100.69
449.117	76.69
449.338	90.69
449.559	87.69
449.779	65.69
450	85.69
450.221	85.69
450.442	79.69
450.662	105.69
450.883	96.69
451.104	95.69
451.324	96.69
451.545	79.69
451.766	86.69
451.986	91.69
452.207	88.69
452.428	94.69
452.648	76.69
452.869	79.69
453.089	105.69
453.31	80.69
453.53	98.69
453.751	98.69
453.971	93.69
454.192	93.69
454.412	87.69
454.633	87.69
454.853	89.69
455.073	76.69
455.294	97.69
455.514	93.69
455.734	92.69
455.955	92.69
456.175	82.69
456.395	91.69
456.616	85.69
456.836	96.69
457.056	98.69
457.276	87.69
457.497	94.69
457.717	82.69
457.937	94.69
458.157	77.69
458.377	76.69
458.598	86.69
458.818	86.69
459.038	71.69
459.258	92.69
459.478	79.69
459.698	81.69
459.918	100.69
460.138	93.69
460.358	87.69
460.578	99.69
460.798	95.69
461.018	86.69
461.238	86.69
461.458	91.69
461.678	86.69
461.898	99.69
462.118	87.69
462.338	102.69
462.558	94.69
462.777	84.69
462.997	86.69
463.217	101.69
463.437	91.69
463.657	80.69
463.876	79.69
464.096	96.69
464.316	91.69
464.536	77.69
464.755	91.69
464.975	101.69
465.195	80.69
465.414	95.69
465.634	83.69
465.854	81.69
466.073	87.69
466.293	79.69
466.512	95.69
466.732	87.69
466.951	82.69
467.171	99.69
467.391	85.69
467.61	81.69
467.829	84.69
468.049	96.69
468.268	93.69
468.488	93.69
468.707	95.69
468.927	73.69
469.146	82.69
469.365	95.69
469.585	72.69
469.804	77.69
470.023	99.69
470.243	99.69
470.462	90.69
470.681	89.69
470.901	93.69
471.12	89.69
471.339	90.69
471.558	90.69
471.777	97.69
471.997	83.69
472.216	92.69
472.435	81.69
472.654	89.69
472.873	85.69
473.092	86.69
473.311	89.69
473.53	88.69
473.749	87.69
473.968	95.69
474.187	99.69
474.406	72.69
474.625	91.69
474.844	97.69
475.063	91.69
475.282	96.69
475.501	78.69
475.72	107.69
475.939	95.69
476.158	85.69
476.377	87.69
476.596	96.69
476.814	96.69
477.033	77.69
477.252	81.69
477.471	91.69
477.69	85.69
477.908	91.69
478.127	77.69
478.346	91.69
478.564	90.69
478.783	87.69
479.002	72.69
479.22	81.69
479.439	107.69
479.658	87.69
479.876	89.69
480.095	89.69
480.313	91.69
480.532	99.69
480.751	89.69
480.969	93.69
481.188	92.69
481.406	95.69
481.624	87.69
481.843	105.69
482.061	92.69
482.28	91.69
482.498	91.69
482.717	92.69
482.935	96.69
483.153	85.69
483.372	89.69
483.59	88.69
483.808	106.69
484.027	99.69
484.245	74.69
484.463	95.69
484.681	90.69
484.9	75.69
485.118	94.69
485.336	101.69
485.554	82.69
485.772	86.69
485.99	96.69
486.209	101.69
486.427	111.69
486.645	90.69
486.863	85.69
487.081	75.69
487.299	104.69
487.517	97.69
487.735	88.69
487.953	105.69
488.171	94.69
488.389	101.69
488.607	98.69
488.825	85.69
489.043	89.69
489.261	108.69
489.479	111.69
489.696	93.69
489.914	93.69
490.132	95.69
490.35	81.69
490.568	90.69
490.786	86.69
491.003	82.69
491.221	107.69
491.439	82.69
491.657	83.69
491.874	97.69
492.092	97.69
492.31	106.69
492.527	79.69
492.745	93.69
492.963	88.69
493.18	98.69
493.398	97.69
493.615	82.69
493.833	90.69
494.05	103.69
494.268	81.69
494.485	94.69
494.703	83.69
494.92	91.69
495.138	86.69
495.355	88.69
495.573	82.69
495.79	99.69
496.008	98.69
496.225	89.69
496.442	95.69
496.66	92.69
496.877	90.69
497.094	90.69
497.312	94.69
497.529	95.69
497.746	95.69
497.963	94.69
498.181	99.69
498.398	80.69
498.615	102.69
498.832	82.69
499.049	94.69
499.267	107.69
499.484	92.69
499.701	99.69
499.918	109.69
500.135	121.69
500.352	110.69
500.569	103.69
500.786	121.69
501.003	107.69
501.22	103.69
501.437	99.69
501.654	111.69
501.871	95.69
502.088	107.69
502.305	92.69
502.522	89.69
502.739	82.69
502.956	90.69
503.172	80.69
503.389	81.69
503.606	90.69
503.823	107.69
504.04	96.69
504.256	91.69
504.473	111.69
504.69	98.69
504.907	103.69
505.123	101.69
505.34	101.69
505.557	98.69
505.773	99.69
505.99	96.69
506.207	91.69
506.423	116.69
506.64	103.69
506.856	94.69
507.073	89.69
507.289	89.69
507.506	91.69
507.722	103.69
507.939	93.69
508.155	103.69
508.372	90.69
508.588	103.69
508.805	92.69
509.021	96.69
509.238	88.69
509.454	104.69
509.67	102.69
509.887	89.69
510.103	90.69
510.319	107.69
510.536	103.69
510.752	94.69
510.968	98.69
511.184	88.69
511.401	82.69
511.617	105.69
511.833	86.69
512.049	85.69
512.265	67.69
512.481	83.69
512.698	97.69
512.914	93.69
513.13	103.69
513.346	114.69
513.562	91.69
513.778	89.69
513.994	93.69
514.21	93.69
514.426	89.69
514.642	96.69
514.858	93.69
515.074	87.69
515.29	102.69
515.506	85.69
515.721	86.69
515.937	95.69
516.153	92.69
516.369	74.69
516.585	95.69
516.801	93.69
517.016	83.69
517.232	82.69
517.448	92.69
517.664	104.69
517.879	89.69
518.095	102.69
518.311	92.69
518.527	91.69
518.742	92.69
