Data from BG_HRD10591_054.txt Node
Date: Fri May 16 15:14:49 EDT 2025
User: Yrep
Spectrometer: HR+D1059
Trigger mode: 1
Integration Time (sec): 1.000000E-1
Scans to average: 1
Electric dark correction enabled: true
Nonlinearity correction enabled: false
Boxcar width: 0
XAxis mode: Wavelengths
Number of Pixels in Spectrum: 2048
>>>>>Begin Spectral Data<<<<<
223.165	-10
223.4	-10
223.635	-10
223.869	-18
224.104	-14
224.338	-10
224.573	-26
224.808	-11
225.042	-3
225.277	-13
225.511	6
225.746	4
225.98	5
226.215	13
226.449	12
226.683	17
226.918	27
227.152	21
227.387	34
227.621	48
227.856	43
228.09	43
228.324	40
228.559	59
228.793	48
229.027	56
229.262	64
229.496	65
229.73	68
229.964	70
230.199	75
230.433	78
230.667	68
230.901	89
231.136	86
231.37	91
231.604	78
231.838	63
232.072	65
232.306	76
232.541	78
232.775	85
233.009	68
233.243	72
233.477	78
233.711	80
233.945	89
234.179	78
234.413	78
234.647	86
234.881	85
235.115	52
235.349	63
235.583	75
235.817	55
236.051	79
236.285	86
236.519	70
236.753	68
236.987	61
237.221	81
237.455	78
237.689	70
237.922	63
238.156	65
238.39	81
238.624	75
238.858	81
239.091	75
239.325	79
239.559	77
239.793	71
240.027	78
240.26	92
240.494	71
240.728	71
240.961	80
241.195	87
241.429	86
241.662	91
241.896	73
242.13	83
242.363	76
242.597	74
242.83	80
243.064	79
243.298	76
243.531	64
243.765	74
243.998	63
244.232	90
244.465	68
244.699	81
244.932	69
245.166	80
245.399	73
245.633	73
245.866	80
246.099	90
246.333	80
246.566	75
246.8	69
247.033	72
247.266	72
247.5	77
247.733	72
247.966	74
248.2	58
248.433	87
248.666	78
248.899	74
249.133	85
249.366	80
249.599	58
249.832	82
250.066	78
250.299	68
250.532	83
250.765	72
250.998	77
251.231	93
251.465	75
251.698	79
251.931	78
252.164	78
252.397	64
252.63	83
252.863	77
253.096	68
253.329	80
253.562	84
253.795	87
254.028	94
254.261	85
254.494	90
254.727	87
254.96	82
255.193	83
255.426	81
255.659	74
255.892	92
256.124	76
256.357	77
256.59	83
256.823	82
257.056	86
257.289	74
257.521	80
257.754	68
257.987	74
258.22	98
258.452	75
258.685	74
258.918	81
259.151	85
259.383	85
259.616	88
259.849	67
260.081	69
260.314	79
260.547	69
260.779	87
261.012	79
261.244	68
261.477	87
261.71	66
261.942	83
262.175	69
262.407	81
262.64	70
262.872	85
263.105	82
263.337	80
263.57	84
263.802	93
264.035	84
264.267	80
264.499	86
264.732	87
264.964	86
265.197	64
265.429	76
265.661	91
265.894	70
266.126	83
266.358	80
266.591	84
266.823	91
267.055	84
267.287	84
267.52	85
267.752	82
267.984	75
268.216	76
268.448	75
268.681	70
268.913	88
269.145	87
269.377	88
269.609	79
269.841	76
270.073	72
270.306	74
270.538	84
270.77	90
271.002	84
271.234	82
271.466	80
271.698	72
271.93	79
272.162	78
272.394	84
272.626	93
272.858	76
273.09	85
273.322	95
273.553	76
273.785	80
274.017	72
274.249	74
274.481	87
274.713	84
274.945	80
275.176	70
275.408	89
275.64	79
275.872	80
276.104	91
276.335	78
276.567	78
276.799	78
277.031	69
277.262	73
277.494	82
277.726	80
277.957	84
278.189	79
278.421	86
278.652	70
278.884	78
279.115	84
279.347	84
279.579	90
279.81	83
280.042	79
280.273	83
280.505	75
280.736	79
280.968	78
281.199	71
281.431	69
281.662	82
281.894	88
282.125	69
282.356	80
282.588	82
282.819	81
283.051	95
283.282	80
283.513	76
283.745	82
283.976	89
284.207	71
284.439	90
284.67	85
284.901	79
285.132	93
285.364	104
285.595	100
285.826	90
286.057	92
286.288	82
286.52	98
286.751	80
286.982	91
287.213	78
287.444	93
287.675	84
287.906	94
288.138	82
288.369	76
288.6	85
288.831	84
289.062	95
289.293	77
289.524	89
289.755	75
289.986	86
290.217	83
290.448	85
290.679	83
290.91	95
291.141	90
291.371	86
291.602	82
291.833	72
292.064	84
292.295	80
292.526	69
292.757	88
292.987	80
293.218	75
293.449	76
293.68	93
293.91	94
294.141	92
294.372	76
294.603	79
294.833	89
295.064	94
295.295	82
295.525	75
295.756	70
295.987	76
296.217	78
296.448	93
296.679	80
296.909	78
297.14	79
297.37	87
297.601	87
297.831	75
298.062	82
298.292	70
298.523	85
298.753	86
298.984	94
299.214	87
299.445	78
299.675	82
299.905	88
300.136	91
300.366	76
300.597	75
300.827	94
301.057	88
301.288	87
301.518	82
301.748	73
301.979	107
302.209	90
302.439	70
302.669	84
302.9	73
303.13	76
303.36	68
303.59	77
303.82	88
304.051	80
304.281	91
304.511	81
304.741	92
304.971	82
305.201	94
305.431	78
305.661	82
305.891	78
306.121	82
306.352	72
306.582	81
306.812	82
307.042	77
307.272	90
307.502	85
307.731	78
307.961	70
308.191	96
308.421	74
308.651	76
308.881	84
309.111	80
309.341	86
309.571	76
309.8	88
310.03	86
310.26	79
310.49	99
310.72	88
310.949	86
311.179	77
311.409	79
311.639	92
311.868	83
312.098	95
312.328	98
312.557	78
312.787	79
313.017	83
313.246	82
313.476	89
313.706	85
313.935	72
314.165	87
314.394	88
314.624	91
314.853	91
315.083	80
315.312	84
315.542	89
315.771	74
316.001	79
316.23	73
316.46	92
316.689	90
316.919	83
317.148	82
317.377	82
317.607	67
317.836	88
318.065	93
318.295	84
318.524	90
318.753	89
318.983	79
319.212	91
319.441	84
319.67	85
319.9	87
320.129	77
320.358	94
320.587	88
320.816	89
321.046	76
321.275	82
321.504	90
321.733	80
321.962	87
322.191	74
322.42	64
322.649	79
322.878	78
323.108	80
323.337	90
323.566	82
323.795	81
324.024	77
324.253	92
324.482	92
324.71	90
324.939	87
325.168	82
325.397	96
325.626	77
325.855	85
326.084	91
326.313	98
326.542	82
326.77	86
326.999	89
327.228	74
327.457	79
327.686	90
327.914	80
328.143	92
328.372	73
328.6	90
328.829	72
329.058	82
329.287	84
329.515	90
329.744	90
329.972	72
330.201	81
330.43	88
330.658	86
330.887	85
331.115	88
331.344	78
331.572	82
331.801	87
332.03	86
332.258	85
332.486	80
332.715	84
332.943	82
333.172	94
333.4	80
333.629	80
333.857	80
334.085	96
334.314	87
334.542	80
334.771	71
334.999	80
335.227	87
335.455	74
335.684	79
335.912	85
336.14	86
336.369	86
336.597	75
336.825	91
337.053	74
337.281	90
337.51	72
337.738	91
337.966	98
338.194	83
338.422	93
338.65	98
338.878	74
339.106	74
339.334	95
339.562	71
339.79	78
340.018	79
340.246	82
340.474	86
340.702	66
340.93	88
341.158	87
341.386	90
341.614	98
341.842	65
342.07	89
342.298	83
342.526	87
342.754	88
342.981	96
343.209	88
343.437	107
343.665	86
343.893	83
344.12	100
344.348	87
344.576	65
344.804	101
345.031	82
345.259	69
345.487	74
345.714	79
345.942	89
346.17	97
346.397	92
346.625	65
346.853	81
347.08	88
347.308	100
347.535	82
347.763	86
347.99	89
348.218	83
348.445	82
348.673	82
348.9	82
349.128	85
349.355	82
349.583	91
349.81	84
350.037	80
350.265	87
350.492	90
350.72	80
350.947	82
351.174	86
351.402	86
351.629	81
351.856	87
352.083	80
352.311	94
352.538	78
352.765	85
352.992	84
353.22	93
353.447	86
353.674	83
353.901	72
354.128	85
354.355	89
354.583	72
354.81	90
355.037	99
355.264	91
355.491	92
355.718	74
355.945	73
356.172	80
356.399	87
356.626	75
356.853	78
357.08	94
357.307	87
357.534	65
357.761	74
357.988	74
358.215	88
358.441	70
358.668	99
358.895	89
359.122	84
359.349	80
359.576	89
359.802	62
360.029	93
360.256	79
360.483	75
360.709	74
360.936	84
361.163	85
361.39	80
361.616	76
361.843	87
362.07	80
362.296	75
362.523	71
362.749	79
362.976	98
363.203	82
363.429	76
363.656	96
363.882	92
364.109	88
364.335	92
364.562	69
364.788	80
365.015	82
365.241	102
365.468	77
365.694	73
365.92	76
366.147	90
366.373	69
366.599	80
366.826	82
367.052	87
367.278	84
367.505	98
367.731	83
367.957	86
368.184	90
368.41	85
368.636	85
368.862	91
369.089	85
369.315	85
369.541	86
369.767	87
369.993	82
370.219	74
370.445	69
370.672	79
370.898	70
371.124	86
371.35	81
371.576	74
371.802	93
372.028	82
372.254	87
372.48	79
372.706	68
372.932	93
373.158	82
373.384	92
373.61	77
373.835	97
374.061	86
374.287	82
374.513	79
374.739	82
374.965	84
375.191	75
375.416	85
375.642	99
375.868	81
376.094	77
376.319	74
376.545	83
376.771	70
376.997	86
377.222	88
377.448	88
377.674	101
377.899	82
378.125	93
378.35	91
378.576	70
378.802	76
379.027	89
379.253	80
379.478	88
379.704	76
379.929	82
380.155	70
380.38	88
380.606	67
380.831	82
381.057	102
381.282	82
381.507	60
381.733	86
381.958	67
382.184	72
382.409	80
382.634	81
382.86	89
383.085	60
383.31	82
383.535	71
383.761	78
383.986	80
384.211	79
384.436	83
384.662	100
384.887	92
385.112	98
385.337	86
385.562	98
385.787	77
386.013	79
386.238	79
386.463	79
386.688	77
386.913	72
387.138	87
387.363	83
387.588	83
387.813	89
388.038	83
388.263	84
388.488	90
388.713	92
388.938	76
389.163	76
389.387	77
389.612	84
389.837	78
390.062	95
390.287	72
390.512	85
390.736	90
390.961	79
391.186	89
391.411	78
391.636	78
391.86	71
392.085	80
392.31	74
392.534	70
392.759	84
392.984	79
393.208	70
393.433	73
393.658	90
393.882	76
394.107	79
394.331	77
394.556	83
394.78	77
395.005	86
395.229	82
395.454	72
395.678	88
395.903	60
396.127	82
396.352	79
396.576	79
396.801	78
397.025	82
397.249	82
397.474	91
397.698	86
397.922	79
398.147	74
398.371	77
398.595	78
398.82	88
399.044	72
399.268	82
399.492	82
399.717	82
399.941	69
400.165	95
400.389	79
400.613	78
400.837	73
401.062	83
401.286	79
401.51	82
401.734	92
401.958	70
402.182	77
402.406	91
402.63	70
402.854	86
403.078	85
403.302	85
403.526	76
403.75	82
403.974	90
404.198	83
404.422	68
404.645	92
404.869	90
405.093	74
405.317	72
405.541	95
405.765	82
405.988	76
406.212	79
406.436	73
406.66	67
406.883	68
407.107	83
407.331	88
407.555	82
407.778	93
408.002	83
408.226	78
408.449	68
408.673	66
408.896	81
409.12	71
409.344	77
409.567	72
409.791	80
410.014	83
410.238	74
410.461	81
410.685	74
410.908	80
411.132	81
411.355	92
411.578	76
411.802	79
412.025	54
412.249	76
412.472	79
412.695	73
412.919	72
413.142	76
413.365	55
413.589	87
413.812	85
414.035	86
414.258	86
414.482	75
414.705	75
414.928	89
415.151	92
415.374	110
415.597	84
415.821	78
416.044	65
416.267	87
416.49	90
416.713	84
416.936	76
417.159	72
417.382	71
417.605	67
417.828	86
418.051	81
418.274	82
418.497	81
418.72	71
418.943	87
419.166	99
419.389	80
419.611	70
419.834	76
420.057	87
420.28	86
420.503	74
420.726	82
420.948	78
421.171	88
421.394	89
421.617	79
421.839	76
422.062	91
422.285	84
422.507	95
422.73	85
422.953	69
423.175	71
423.398	77
423.621	67
423.843	69
424.066	67
424.288	80
424.511	84
424.733	85
424.956	82
425.178	86
425.401	70
425.623	90
425.846	68
426.068	82
426.291	77
426.513	79
426.735	74
426.958	74
427.18	98
427.402	99
427.625	71
427.847	71
428.069	66
428.292	100
428.514	87
428.736	89
428.958	74
429.181	88
429.403	73
429.625	86
429.847	82
430.069	76
430.292	75
430.514	88
430.736	82
430.958	76
431.18	84
431.402	92
431.624	84
431.846	78
432.068	63
432.29	70
432.512	78
432.734	90
432.956	77
433.178	80
433.4	74
433.622	81
433.844	76
434.066	82
434.287	82
434.509	83
434.731	79
434.953	84
435.175	85
435.397	90
435.618	83
435.84	79
436.062	86
436.284	80
436.505	86
436.727	85
436.949	88
437.17	86
437.392	63
437.614	73
437.835	83
438.057	86
438.278	71
438.5	85
438.721	73
438.943	87
439.165	91
439.386	76
439.608	76
439.829	71
440.05	84
440.272	80
440.493	80
440.715	75
440.936	86
441.158	78
441.379	69
441.6	92
441.822	70
442.043	75
442.264	77
442.486	65
442.707	80
442.928	85
443.149	70
443.371	84
443.592	76
443.813	88
444.034	82
444.255	70
444.476	70
444.698	83
444.919	91
445.14	171
445.361	115
445.582	83
445.803	75
446.024	82
446.245	80
446.466	90
446.687	80
446.908	90
447.129	82
447.35	82
447.571	80
447.792	82
448.013	83
448.234	68
448.455	78
448.675	101
448.896	79
449.117	80
449.338	73
449.559	86
449.779	90
450	72
450.221	76
450.442	84
450.662	84
450.883	84
451.104	70
451.324	80
451.545	82
451.766	83
451.986	92
452.207	76
452.428	84
452.648	73
452.869	63
453.089	79
453.31	82
453.53	85
453.751	85
453.971	76
454.192	75
454.412	78
454.633	72
454.853	81
455.073	83
455.294	77
455.514	77
455.734	83
455.955	94
456.175	63
456.395	79
456.616	80
456.836	76
457.056	87
457.276	86
457.497	58
457.717	83
457.937	87
458.157	76
458.377	93
458.598	70
458.818	80
459.038	77
459.258	76
459.478	79
459.698	79
459.918	81
460.138	85
460.358	80
460.578	101
460.798	86
461.018	75
461.238	85
461.458	76
461.678	80
461.898	81
462.118	83
462.338	84
462.558	92
462.777	84
462.997	87
463.217	79
463.437	91
463.657	80
463.876	72
464.096	85
464.316	74
464.536	89
464.755	96
464.975	80
465.195	61
465.414	74
465.634	68
465.854	95
466.073	70
466.293	98
466.512	78
466.732	77
466.951	77
467.171	88
467.391	86
467.61	73
467.829	84
468.049	72
468.268	83
468.488	100
468.707	84
468.927	80
469.146	84
469.365	72
469.585	67
469.804	70
470.023	84
470.243	81
470.462	87
470.681	85
470.901	90
471.12	74
471.339	76
471.558	61
471.777	98
471.997	81
472.216	102
472.435	74
472.654	70
472.873	89
473.092	76
473.311	81
473.53	70
473.749	74
473.968	76
474.187	84
474.406	76
474.625	80
474.844	74
475.063	96
475.282	86
475.501	80
475.72	79
475.939	79
476.158	77
476.377	80
476.596	82
476.814	85
477.033	79
477.252	93
477.471	78
477.69	95
477.908	76
478.127	81
478.346	83
478.564	86
478.783	68
479.002	75
479.22	77
479.439	76
479.658	86
479.876	81
480.095	68
480.313	79
480.532	73
480.751	86
480.969	75
481.188	82
481.406	74
481.624	80
481.843	85
482.061	85
482.28	86
482.498	84
482.717	88
482.935	82
483.153	82
483.372	86
483.59	82
483.808	84
484.027	73
484.245	82
484.463	74
484.681	90
484.9	80
485.118	82
485.336	82
485.554	77
485.772	79
485.99	89
486.209	70
486.427	90
486.645	65
486.863	72
487.081	88
487.299	79
487.517	76
487.735	78
487.953	74
488.171	88
488.389	70
488.607	85
488.825	93
489.043	88
489.261	91
489.479	78
489.696	109
489.914	76
490.132	92
490.35	87
490.568	83
490.786	88
491.003	79
491.221	78
491.439	94
491.657	76
491.874	70
492.092	83
492.31	72
492.527	83
492.745	75
492.963	91
493.18	79
493.398	67
493.615	71
493.833	91
494.05	77
494.268	91
494.485	77
494.703	85
494.92	96
495.138	81
495.355	83
495.573	78
495.79	71
496.008	76
496.225	74
496.442	85
496.66	99
496.877	77
497.094	92
497.312	92
497.529	89
497.746	86
497.963	75
498.181	76
498.398	82
498.615	78
498.832	75
499.049	72
499.267	69
499.484	82
499.701	92
499.918	90
500.135	82
500.352	85
500.569	88
500.786	92
501.003	65
501.22	79
501.437	88
501.654	90
501.871	68
502.088	76
502.305	90
502.522	91
502.739	67
502.956	78
503.172	83
503.389	77
503.606	57
503.823	76
504.04	86
504.256	94
504.473	83
504.69	67
504.907	79
505.123	72
505.34	69
505.557	62
505.773	66
505.99	74
506.207	86
506.423	75
506.64	77
506.856	83
507.073	70
507.289	91
507.506	77
507.722	78
507.939	85
508.155	90
508.372	91
508.588	76
508.805	82
509.021	69
509.238	93
509.454	78
509.67	104
509.887	90
510.103	79
510.319	92
510.536	85
510.752	77
510.968	81
511.184	79
511.401	91
511.617	88
511.833	66
512.049	70
512.265	84
512.481	80
512.698	84
512.914	79
513.13	91
513.346	81
513.562	91
513.778	71
513.994	80
514.21	82
514.426	94
514.642	95
514.858	98
515.074	90
515.29	93
515.506	78
515.721	73
515.937	79
516.153	81
516.369	94
516.585	83
516.801	79
517.016	93
517.232	90
517.448	87
517.664	89
517.879	81
518.095	80
518.311	90
518.527	72
518.742	87
518.958	70
519.173	94
519.389	62
519.605	83
519.82	82
520.036	95
520.251	74
520.467	80
520.682	75
520.898	80
521.113	96
521.329	82
521.544	91
521.76	85
521.975	88
522.19	90
522.406	84
522.621	78
522.836	78
523.052	77
523.267	77
523.482	73
523.698	80
523.913	72
524.128	85
524.343	76
524.559	90
524.774	90
524.989	86
525.204	86
525.419	75
525.634	78
525.849	95
526.064	74
526.28	77
526.495	87
526.71	102
526.925	82
527.14	74
527.355	91
527.57	78
527.785	80
527.999	97
528.214	101
528.429	87
528.644	83
528.859	63
529.074	87
529.289	85
529.503	90
529.718	80
529.933	70
530.148	79
530.363	78
530.577	92
530.792	84
531.007	76
531.221	79
531.436	83
531.651	85
531.865	78
532.08	92
532.295	88
532.509	86
532.724	89
532.938	78
533.153	70
533.367	81
533.582	95
533.796	87
534.011	75
534.225	85
534.44	75
534.654	78
534.868	77
535.083	82
535.297	79
535.511	88
535.726	78
535.94	84
536.154	87
536.369	71
536.583	86
536.797	79
537.011	85
537.225	81
537.44	93
537.654	81
537.868	100
538.082	90
538.296	82
538.51	93
538.724	81
538.938	97
539.153	75
539.367	75
539.581	88
539.795	79
540.009	78
540.222	83
540.436	76
540.65	80
540.864	80
541.078	84
541.292	89
541.506	78
541.72	86
541.934	77
542.147	72
542.361	89
542.575	78
542.789	83
543.002	91
543.216	90
543.43	95
543.644	73
543.857	82
544.071	83
544.285	78
544.498	83
544.712	80
544.925	98
545.139	80
545.352	84
545.566	77
545.779	85
545.993	90
546.206	71
546.42	67
546.633	78
546.847	90
547.06	76
547.274	82
547.487	98
547.7	85
547.914	72
548.127	78
548.34	89
548.554	72
548.767	85
548.98	78
549.193	79
549.407	78
549.62	78
549.833	75
550.046	76
550.259	65
550.473	71
550.686	93
550.899	85
551.112	86
551.325	88
551.538	76
551.751	81
551.964	92
552.177	90
552.39	93
552.603	87
552.816	75
553.029	90
553.242	80
553.455	72
553.667	93
553.88	93
554.093	91
554.306	70
554.519	88
554.732	75
554.944	88
555.157	89
555.37	79
555.583	90
555.795	74
556.008	75
556.221	83
556.433	82
556.646	79
556.859	68
557.071	63
557.284	95
557.496	89
557.709	67
557.921	84
558.134	89
558.346	83
558.559	75
558.771	83
558.984	91
559.196	86
559.409	80
559.621	84
559.833	85
560.046	72
560.258	86
560.47	96
560.683	92
560.895	79
561.107	80
561.32	86
561.532	81
561.744	78
561.956	93
562.168	85
562.381	96
562.593	82
562.805	91
563.017	82
563.229	93
563.441	84
563.653	82
563.865	77
564.077	86
564.289	86
564.501	99
564.713	86
564.925	91
565.137	89
565.349	100
565.561	89
565.773	77
565.985	86
566.197	76
566.408	73
566.62	79
566.832	86
567.044	69
567.255	86
567.467	86
567.679	83
567.891	84
568.102	91
568.314	84
568.526	91
568.737	93
568.949	77
569.161	79
569.372	80
569.584	75
569.795	93
570.007	88
570.218	86
570.43	89
570.641	73
570.853	81
571.064	94
571.276	86
571.487	71
571.698	77
571.91	93
572.121	91
572.333	66
572.544	72
572.755	90
572.966	88
573.178	88
573.389	101
573.6	79
573.811	79
574.023	89
574.234	75
574.445	74
574.656	77
574.867	98
575.078	97
575.289	56
575.501	84
575.712	88
575.923	84
576.134	76
576.345	87
576.556	69
576.767	78
576.978	84
577.188	86
577.399	104
577.61	89
577.821	81
578.032	80
578.243	92
578.454	89
578.665	102
578.875	89
579.086	87
579.297	90
579.508	95
579.718	98
579.929	80
580.14	81
580.35	76
580.561	84
580.772	95
580.982	70
581.193	91
581.403	82
581.614	80
581.825	79
582.035	90
582.246	91
582.456	85
582.667	87
582.877	83
583.087	71
583.298	106
583.508	86
583.719	82
583.929	79
584.139	86
584.35	88
584.56	91
584.77	74
584.981	99
585.191	85
585.401	96
585.611	80
585.821	91
586.032	91
586.242	78
586.452	109
586.662	84
586.872	82
587.082	85
587.292	81
587.502	67
587.713	72
587.923	100
588.133	84
588.343	85
588.553	74
588.762	65
588.972	82
589.182	89
589.392	71
589.602	82
589.812	76
590.022	95
590.232	102
590.441	91
590.651	79
