Data from BG_HRD10591_080.txt Node
Date: Fri May 16 15:15:02 EDT 2025
User: Yrep
Spectrometer: HR+D1059
Trigger mode: 1
Integration Time (sec): 1.000000E-1
Scans to average: 1
Electric dark correction enabled: true
Nonlinearity correction enabled: false
Boxcar width: 0
XAxis mode: Wavelengths
Number of Pixels in Spectrum: 2048
>>>>>Begin Spectral Data<<<<<
223.165	-16.88
223.4	-16.88
223.635	-16.88
223.869	-30.88
224.104	-26.88
224.338	-11.88
224.573	-9.88
224.808	-10.88
225.042	-19.88
225.277	-6.88
225.511	-2.88
225.746	15.12
225.98	13.12
226.215	10.12
226.449	14.12
226.683	23.12
226.918	27.12
227.152	34.12
227.387	37.12
227.621	44.12
227.856	38.12
228.09	50.12
228.324	49.12
228.559	53.12
228.793	70.12
229.027	68.12
229.262	62.12
229.496	67.12
229.73	69.12
229.964	74.12
230.199	77.12
230.433	56.12
230.667	72.12
230.901	69.12
231.136	85.12
231.37	80.12
231.604	86.12
231.838	81.12
232.072	71.12
232.306	89.12
232.541	87.12
232.775	74.12
233.009	85.12
233.243	93.12
233.477	78.12
233.711	73.12
233.945	70.12
234.179	76.12
234.413	61.12
234.647	79.12
234.881	78.12
235.115	73.12
235.349	83.12
235.583	77.12
235.817	68.12
236.051	79.12
236.285	70.12
236.519	87.12
236.753	84.12
236.987	78.12
237.221	89.12
237.455	79.12
237.689	75.12
237.922	74.12
238.156	73.12
238.39	81.12
238.624	66.12
238.858	65.12
239.091	77.12
239.325	86.12
239.559	72.12
239.793	68.12
240.027	78.12
240.26	85.12
240.494	93.12
240.728	89.12
240.961	86.12
241.195	79.12
241.429	65.12
241.662	72.12
241.896	69.12
242.13	73.12
242.363	72.12
242.597	61.12
242.83	79.12
243.064	73.12
243.298	70.12
243.531	73.12
243.765	69.12
243.998	97.12
244.232	72.12
244.465	81.12
244.699	80.12
244.932	76.12
245.166	83.12
245.399	83.12
245.633	93.12
245.866	84.12
246.099	69.12
246.333	71.12
246.566	69.12
246.8	85.12
247.033	75.12
247.266	73.12
247.5	87.12
247.733	72.12
247.966	75.12
248.2	75.12
248.433	67.12
248.666	82.12
248.899	76.12
249.133	95.12
249.366	93.12
249.599	84.12
249.832	76.12
250.066	86.12
250.299	77.12
250.532	72.12
250.765	76.12
250.998	75.12
251.231	89.12
251.465	70.12
251.698	78.12
251.931	81.12
252.164	69.12
252.397	81.12
252.63	83.12
252.863	82.12
253.096	82.12
253.329	88.12
253.562	86.12
253.795	79.12
254.028	86.12
254.261	85.12
254.494	88.12
254.727	76.12
254.96	74.12
255.193	73.12
255.426	89.12
255.659	70.12
255.892	90.12
256.124	80.12
256.357	78.12
256.59	85.12
256.823	86.12
257.056	83.12
257.289	97.12
257.521	89.12
257.754	92.12
257.987	84.12
258.22	88.12
258.452	75.12
258.685	85.12
258.918	92.12
259.151	83.12
259.383	92.12
259.616	77.12
259.849	68.12
260.081	74.12
260.314	75.12
260.547	70.12
260.779	63.12
261.012	88.12
261.244	89.12
261.477	86.12
261.71	84.12
261.942	71.12
262.175	79.12
262.407	71.12
262.64	77.12
262.872	69.12
263.105	73.12
263.337	102.12
263.57	76.12
263.802	85.12
264.035	89.12
264.267	78.12
264.499	91.12
264.732	85.12
264.964	88.12
265.197	74.12
265.429	86.12
265.661	84.12
265.894	79.12
266.126	81.12
266.358	90.12
266.591	79.12
266.823	98.12
267.055	90.12
267.287	85.12
267.52	97.12
267.752	85.12
267.984	87.12
268.216	92.12
268.448	77.12
268.681	81.12
268.913	89.12
269.145	69.12
269.377	81.12
269.609	75.12
269.841	78.12
270.073	90.12
270.306	73.12
270.538	78.12
270.77	90.12
271.002	88.12
271.234	83.12
271.466	86.12
271.698	73.12
271.93	75.12
272.162	91.12
272.394	94.12
272.626	88.12
272.858	79.12
273.09	76.12
273.322	87.12
273.553	82.12
273.785	70.12
274.017	84.12
274.249	80.12
274.481	104.12
274.713	100.12
274.945	88.12
275.176	79.12
275.408	81.12
275.64	71.12
275.872	70.12
276.104	79.12
276.335	79.12
276.567	89.12
276.799	93.12
277.031	86.12
277.262	97.12
277.494	73.12
277.726	75.12
277.957	78.12
278.189	85.12
278.421	65.12
278.652	78.12
278.884	71.12
279.115	72.12
279.347	81.12
279.579	90.12
279.81	85.12
280.042	89.12
280.273	89.12
280.505	79.12
280.736	80.12
280.968	81.12
281.199	87.12
281.431	63.12
281.662	69.12
281.894	92.12
282.125	77.12
282.356	75.12
282.588	81.12
282.819	80.12
283.051	79.12
283.282	83.12
283.513	80.12
283.745	78.12
283.976	93.12
284.207	95.12
284.439	70.12
284.67	83.12
284.901	88.12
285.132	81.12
285.364	81.12
285.595	75.12
285.826	84.12
286.057	77.12
286.288	89.12
286.52	81.12
286.751	88.12
286.982	94.12
287.213	101.12
287.444	86.12
287.675	85.12
287.906	86.12
288.138	79.12
288.369	87.12
288.6	82.12
288.831	92.12
289.062	93.12
289.293	94.12
289.524	84.12
289.755	85.12
289.986	80.12
290.217	85.12
290.448	84.12
290.679	93.12
290.91	103.12
291.141	99.12
291.371	95.12
291.602	87.12
291.833	85.12
292.064	95.12
292.295	82.12
292.526	85.12
292.757	85.12
292.987	83.12
293.218	73.12
293.449	83.12
293.68	93.12
293.91	75.12
294.141	88.12
294.372	89.12
294.603	84.12
294.833	89.12
295.064	84.12
295.295	81.12
295.525	92.12
295.756	92.12
295.987	87.12
296.217	89.12
296.448	88.12
296.679	97.12
296.909	89.12
297.14	88.12
297.37	100.12
297.601	103.12
297.831	91.12
298.062	76.12
298.292	87.12
298.523	90.12
298.753	87.12
298.984	89.12
299.214	93.12
299.445	97.12
299.675	89.12
299.905	86.12
300.136	92.12
300.366	93.12
300.597	101.12
300.827	80.12
301.057	71.12
301.288	68.12
301.518	82.12
301.748	81.12
301.979	94.12
302.209	77.12
302.439	71.12
302.669	78.12
302.9	81.12
303.13	98.12
303.36	101.12
303.59	85.12
303.82	79.12
304.051	91.12
304.281	92.12
304.511	81.12
304.741	85.12
304.971	81.12
305.201	82.12
305.431	91.12
305.661	86.12
305.891	73.12
306.121	79.12
306.352	79.12
306.582	91.12
306.812	79.12
307.042	86.12
307.272	98.12
307.502	95.12
307.731	69.12
307.961	79.12
308.191	73.12
308.421	87.12
308.651	90.12
308.881	89.12
309.111	71.12
309.341	70.12
309.571	70.12
309.8	77.12
310.03	83.12
310.26	82.12
310.49	79.12
310.72	73.12
310.949	83.12
311.179	99.12
311.409	77.12
311.639	91.12
311.868	76.12
312.098	69.12
312.328	92.12
312.557	85.12
312.787	70.12
313.017	85.12
313.246	79.12
313.476	85.12
313.706	81.12
313.935	70.12
314.165	89.12
314.394	87.12
314.624	81.12
314.853	87.12
315.083	89.12
315.312	90.12
315.542	82.12
315.771	79.12
316.001	72.12
316.23	70.12
316.46	86.12
316.689	75.12
316.919	74.12
317.148	86.12
317.377	93.12
317.607	94.12
317.836	91.12
318.065	102.12
318.295	85.12
318.524	75.12
318.753	96.12
318.983	77.12
319.212	93.12
319.441	106.12
319.67	82.12
319.9	77.12
320.129	86.12
320.358	83.12
320.587	84.12
320.816	94.12
321.046	95.12
321.275	94.12
321.504	81.12
321.733	82.12
321.962	99.12
322.191	78.12
322.42	91.12
322.649	86.12
322.878	85.12
323.108	77.12
323.337	87.12
323.566	101.12
323.795	90.12
324.024	85.12
324.253	85.12
324.482	88.12
324.71	89.12
324.939	85.12
325.168	86.12
325.397	84.12
325.626	97.12
325.855	87.12
326.084	78.12
326.313	102.12
326.542	93.12
326.77	103.12
326.999	95.12
327.228	94.12
327.457	92.12
327.686	84.12
327.914	89.12
328.143	86.12
328.372	73.12
328.6	93.12
328.829	72.12
329.058	89.12
329.287	89.12
329.515	84.12
329.744	104.12
329.972	85.12
330.201	81.12
330.43	92.12
330.658	92.12
330.887	88.12
331.115	80.12
331.344	73.12
331.572	93.12
331.801	92.12
332.03	87.12
332.258	93.12
332.486	77.12
332.715	80.12
332.943	87.12
333.172	94.12
333.4	88.12
333.629	89.12
333.857	86.12
334.085	78.12
334.314	81.12
334.542	92.12
334.771	105.12
334.999	76.12
335.227	86.12
335.455	93.12
335.684	89.12
335.912	89.12
336.14	91.12
336.369	97.12
336.597	83.12
336.825	77.12
337.053	82.12
337.281	86.12
337.51	76.12
337.738	89.12
337.966	69.12
338.194	75.12
338.422	83.12
338.65	90.12
338.878	81.12
339.106	78.12
339.334	77.12
339.562	82.12
339.79	76.12
340.018	82.12
340.246	91.12
340.474	83.12
340.702	83.12
340.93	91.12
341.158	76.12
341.386	92.12
341.614	88.12
341.842	89.12
342.07	90.12
342.298	87.12
342.526	91.12
342.754	89.12
342.981	94.12
343.209	94.12
343.437	90.12
343.665	89.12
343.893	77.12
344.12	91.12
344.348	84.12
344.576	102.12
344.804	81.12
345.031	72.12
345.259	92.12
345.487	91.12
345.714	94.12
345.942	99.12
346.17	98.12
346.397	81.12
346.625	79.12
346.853	81.12
347.08	83.12
347.308	90.12
347.535	83.12
347.763	85.12
347.99	72.12
348.218	85.12
348.445	91.12
348.673	90.12
348.9	92.12
349.128	91.12
349.355	91.12
349.583	79.12
349.81	88.12
350.037	90.12
350.265	81.12
350.492	73.12
350.72	79.12
350.947	99.12
351.174	82.12
351.402	81.12
351.629	86.12
351.856	75.12
352.083	86.12
352.311	91.12
352.538	87.12
352.765	88.12
352.992	101.12
353.22	79.12
353.447	77.12
353.674	88.12
353.901	86.12
354.128	95.12
354.355	88.12
354.583	73.12
354.81	74.12
355.037	86.12
355.264	101.12
355.491	97.12
355.718	85.12
355.945	79.12
356.172	69.12
356.399	86.12
356.626	91.12
356.853	87.12
357.08	89.12
357.307	99.12
357.534	82.12
357.761	99.12
357.988	77.12
358.215	88.12
358.441	84.12
358.668	92.12
358.895	96.12
359.122	90.12
359.349	78.12
359.576	101.12
359.802	79.12
360.029	83.12
360.256	79.12
360.483	80.12
360.709	99.12
360.936	102.12
361.163	94.12
361.39	91.12
361.616	82.12
361.843	83.12
362.07	89.12
362.296	85.12
362.523	87.12
362.749	82.12
362.976	87.12
363.203	80.12
363.429	78.12
363.656	74.12
363.882	78.12
364.109	83.12
364.335	71.12
364.562	86.12
364.788	93.12
365.015	97.12
365.241	75.12
365.468	86.12
365.694	78.12
365.92	95.12
366.147	90.12
366.373	82.12
366.599	87.12
366.826	73.12
367.052	71.12
367.278	84.12
367.505	92.12
367.731	90.12
367.957	86.12
368.184	68.12
368.41	83.12
368.636	93.12
368.862	81.12
369.089	77.12
369.315	86.12
369.541	76.12
369.767	87.12
369.993	74.12
370.219	74.12
370.445	77.12
370.672	94.12
370.898	79.12
371.124	79.12
371.35	88.12
371.576	65.12
371.802	75.12
372.028	87.12
372.254	77.12
372.48	90.12
372.706	81.12
372.932	86.12
373.158	92.12
373.384	85.12
373.61	74.12
373.835	92.12
374.061	95.12
374.287	93.12
374.513	89.12
374.739	93.12
374.965	65.12
375.191	76.12
375.416	87.12
375.642	88.12
375.868	86.12
376.094	84.12
376.319	73.12
376.545	81.12
376.771	85.12
376.997	90.12
377.222	79.12
377.448	89.12
377.674	86.12
377.899	92.12
378.125	88.12
378.35	97.12
378.576	78.12
378.802	76.12
379.027	94.12
379.253	86.12
379.478	82.12
379.704	72.12
379.929	74.12
380.155	86.12
380.38	89.12
380.606	73.12
380.831	102.12
381.057	85.12
381.282	84.12
381.507	94.12
381.733	81.12
381.958	83.12
382.184	74.12
382.409	83.12
382.634	93.12
382.86	78.12
383.085	74.12
383.31	87.12
383.535	86.12
383.761	89.12
383.986	91.12
384.211	90.12
384.436	94.12
384.662	77.12
384.887	95.12
385.112	85.12
385.337	94.12
385.562	85.12
385.787	80.12
386.013	86.12
386.238	98.12
386.463	76.12
386.688	97.12
386.913	80.12
387.138	89.12
387.363	89.12
387.588	91.12
387.813	83.12
388.038	78.12
388.263	77.12
388.488	93.12
388.713	89.12
388.938	70.12
389.163	77.12
389.387	79.12
389.612	83.12
389.837	91.12
390.062	93.12
390.287	85.12
390.512	97.12
390.736	103.12
390.961	88.12
391.186	87.12
391.411	95.12
391.636	90.12
391.86	85.12
392.085	92.12
392.31	82.12
392.534	81.12
392.759	86.12
392.984	79.12
393.208	81.12
393.433	81.12
393.658	85.12
393.882	83.12
394.107	74.12
394.331	80.12
394.556	91.12
394.78	91.12
395.005	92.12
395.229	88.12
395.454	91.12
395.678	89.12
395.903	89.12
396.127	101.12
396.352	90.12
396.576	84.12
396.801	85.12
397.025	73.12
397.249	95.12
397.474	100.12
397.698	91.12
397.922	99.12
398.147	86.12
398.371	79.12
398.595	82.12
398.82	81.12
399.044	80.12
399.268	92.12
399.492	97.12
399.717	99.12
399.941	90.12
400.165	81.12
400.389	97.12
400.613	87.12
400.837	94.12
401.062	93.12
401.286	81.12
401.51	93.12
401.734	77.12
401.958	67.12
402.182	81.12
402.406	88.12
402.63	89.12
402.854	90.12
403.078	88.12
403.302	94.12
403.526	83.12
403.75	88.12
403.974	92.12
404.198	87.12
404.422	84.12
404.645	91.12
404.869	86.12
405.093	89.12
405.317	88.12
405.541	87.12
405.765	85.12
405.988	100.12
406.212	97.12
406.436	95.12
406.66	99.12
406.883	90.12
407.107	81.12
407.331	97.12
407.555	97.12
407.778	99.12
408.002	87.12
408.226	91.12
408.449	115.12
408.673	99.12
408.896	90.12
409.12	77.12
409.344	101.12
409.567	94.12
409.791	101.12
410.014	81.12
410.238	89.12
410.461	87.12
410.685	75.12
410.908	91.12
411.132	97.12
411.355	93.12
411.578	88.12
411.802	87.12
412.025	88.12
412.249	79.12
412.472	78.12
412.695	90.12
412.919	77.12
413.142	98.12
413.365	74.12
413.589	81.12
413.812	83.12
414.035	87.12
414.258	91.12
414.482	86.12
414.705	86.12
414.928	85.12
415.151	87.12
415.374	89.12
415.597	101.12
415.821	81.12
416.044	78.12
416.267	99.12
416.49	88.12
416.713	89.12
416.936	73.12
417.159	89.12
417.382	86.12
417.605	95.12
417.828	79.12
418.051	86.12
418.274	85.12
418.497	78.12
418.72	81.12
418.943	103.12
419.166	73.12
419.389	93.12
419.611	73.12
419.834	90.12
420.057	92.12
420.28	89.12
420.503	78.12
420.726	93.12
420.948	109.12
421.171	92.12
421.394	87.12
421.617	80.12
421.839	88.12
422.062	83.12
422.285	83.12
422.507	92.12
422.73	93.12
422.953	90.12
423.175	83.12
423.398	89.12
423.621	85.12
423.843	82.12
424.066	77.12
424.288	77.12
424.511	86.12
424.733	99.12
424.956	86.12
425.178	91.12
425.401	101.12
425.623	85.12
425.846	82.12
426.068	89.12
426.291	99.12
426.513	85.12
426.735	69.12
426.958	79.12
427.18	75.12
427.402	97.12
427.625	106.12
427.847	87.12
428.069	93.12
428.292	88.12
428.514	86.12
428.736	84.12
428.958	86.12
429.181	97.12
429.403	85.12
429.625	105.12
429.847	81.12
430.069	79.12
430.292	95.12
430.514	103.12
430.736	86.12
430.958	85.12
431.18	82.12
431.402	91.12
431.624	107.12
431.846	93.12
432.068	89.12
432.29	91.12
432.512	77.12
432.734	82.12
432.956	91.12
433.178	107.12
433.4	85.12
433.622	103.12
433.844	73.12
434.066	76.12
434.287	98.12
434.509	97.12
434.731	91.12
434.953	104.12
435.175	94.12
435.397	85.12
435.618	97.12
435.84	86.12
436.062	88.12
436.284	92.12
436.505	93.12
436.727	76.12
436.949	75.12
437.17	67.12
437.392	94.12
437.614	86.12
437.835	77.12
438.057	86.12
438.278	84.12
438.5	71.12
438.721	67.12
438.943	77.12
439.165	84.12
439.386	79.12
439.608	90.12
439.829	105.12
440.05	87.12
440.272	92.12
440.493	86.12
440.715	86.12
440.936	84.12
441.158	100.12
441.379	92.12
441.6	97.12
441.822	107.12
442.043	83.12
442.264	81.12
442.486	82.12
442.707	77.12
442.928	81.12
443.149	97.12
443.371	93.12
443.592	84.12
443.813	98.12
444.034	83.12
444.255	88.12
444.476	91.12
444.698	93.12
444.919	97.12
445.14	169.12
445.361	137.12
445.582	88.12
445.803	101.12
446.024	92.12
446.245	75.12
446.466	92.12
446.687	75.12
446.908	79.12
447.129	86.12
447.35	81.12
447.571	92.12
447.792	77.12
448.013	81.12
448.234	94.12
448.455	87.12
448.675	95.12
448.896	92.12
449.117	79.12
449.338	86.12
449.559	90.12
449.779	86.12
450	92.12
450.221	87.12
450.442	86.12
450.662	86.12
450.883	88.12
451.104	95.12
451.324	93.12
451.545	86.12
451.766	85.12
451.986	97.12
452.207	91.12
452.428	86.12
452.648	75.12
452.869	94.12
453.089	97.12
453.31	79.12
453.53	85.12
453.751	87.12
453.971	81.12
454.192	84.12
454.412	103.12
454.633	81.12
454.853	85.12
455.073	91.12
455.294	74.12
455.514	97.12
455.734	96.12
455.955	86.12
456.175	85.12
456.395	82.12
456.616	85.12
456.836	88.12
457.056	87.12
457.276	89.12
457.497	85.12
457.717	85.12
457.937	82.12
458.157	97.12
458.377	97.12
458.598	75.12
458.818	77.12
459.038	84.12
459.258	93.12
459.478	90.12
459.698	82.12
459.918	94.12
460.138	76.12
460.358	85.12
460.578	77.12
460.798	89.12
461.018	94.12
461.238	101.12
461.458	94.12
461.678	91.12
461.898	81.12
462.118	91.12
462.338	88.12
462.558	94.12
462.777	104.12
462.997	103.12
463.217	98.12
463.437	86.12
463.657	85.12
463.876	95.12
464.096	98.12
464.316	84.12
464.536	86.12
464.755	103.12
464.975	101.12
465.195	80.12
465.414	84.12
465.634	84.12
465.854	92.12
466.073	103.12
466.293	92.12
466.512	85.12
466.732	85.12
466.951	112.12
467.171	99.12
467.391	89.12
467.61	93.12
467.829	79.12
468.049	92.12
468.268	92.12
468.488	76.12
468.707	91.12
468.927	94.12
469.146	95.12
469.365	88.12
469.585	93.12
469.804	88.12
470.023	91.12
470.243	80.12
470.462	81.12
470.681	74.12
470.901	91.12
471.12	78.12
471.339	86.12
471.558	94.12
471.777	89.12
471.997	73.12
472.216	98.12
472.435	92.12
472.654	99.12
472.873	91.12
473.092	97.12
473.311	94.12
473.53	88.12
473.749	89.12
473.968	88.12
474.187	78.12
474.406	78.12
474.625	90.12
474.844	89.12
475.063	105.12
475.282	94.12
475.501	80.12
475.72	87.12
475.939	76.12
476.158	89.12
476.377	99.12
476.596	97.12
476.814	93.12
477.033	89.12
477.252	89.12
477.471	85.12
477.69	83.12
477.908	77.12
478.127	99.12
478.346	86.12
478.564	81.12
478.783	93.12
479.002	92.12
479.22	83.12
479.439	111.12
479.658	92.12
479.876	77.12
480.095	71.12
480.313	77.12
480.532	103.12
480.751	99.12
480.969	87.12
481.188	95.12
481.406	82.12
481.624	93.12
481.843	80.12
482.061	101.12
482.28	97.12
482.498	92.12
482.717	90.12
482.935	84.12
483.153	89.12
483.372	87.12
483.59	88.12
483.808	87.12
484.027	85.12
484.245	84.12
484.463	91.12
484.681	94.12
484.9	81.12
485.118	88.12
485.336	91.12
485.554	106.12
485.772	90.12
485.99	84.12
486.209	92.12
486.427	90.12
486.645	92.12
486.863	82.12
487.081	91.12
487.299	97.12
487.517	103.12
487.735	92.12
487.953	85.12
488.171	106.12
488.389	90.12
488.607	87.12
488.825	93.12
489.043	86.12
489.261	99.12
489.479	81.12
489.696	95.12
489.914	101.12
490.132	79.12
490.35	86.12
490.568	97.12
490.786	91.12
491.003	95.12
491.221	103.12
491.439	89.12
491.657	69.12
491.874	106.12
492.092	79.12
492.31	88.12
492.527	88.12
492.745	90.12
492.963	79.12
493.18	85.12
493.398	90.12
493.615	109.12
493.833	97.12
494.05	106.12
494.268	91.12
494.485	91.12
494.703	82.12
494.92	94.12
495.138	94.12
495.355	79.12
495.573	89.12
495.79	97.12
496.008	100.12
496.225	90.12
496.442	86.12
496.66	99.12
496.877	90.12
497.094	73.12
497.312	91.12
497.529	86.12
497.746	82.12
497.963	87.12
498.181	89.12
498.398	93.12
498.615	85.12
498.832	90.12
499.049	102.12
499.267	105.12
499.484	93.12
499.701	103.12
499.918	106.12
500.135	113.12
500.352	131.12
500.569	107.12
500.786	126.12
501.003	105.12
501.22	109.12
501.437	89.12
501.654	93.12
501.871	98.12
502.088	90.12
502.305	90.12
502.522	91.12
502.739	90.12
502.956	92.12
503.172	90.12
503.389	85.12
503.606	84.12
503.823	101.12
504.04	98.12
504.256	97.12
504.473	97.12
504.69	98.12
504.907	91.12
505.123	92.12
505.34	106.12
505.557	95.12
505.773	93.12
505.99	95.12
506.207	92.12
506.423	97.12
506.64	75.12
506.856	81.12
507.073	90.12
507.289	101.12
507.506	82.12
507.722	84.12
507.939	92.12
508.155	86.12
508.372	90.12
508.588	89.12
508.805	94.12
509.021	98.12
509.238	78.12
509.454	81.12
509.67	86.12
509.887	89.12
510.103	73.12
510.319	87.12
510.536	89.12
510.752	91.12
510.968	91.12
511.184	75.12
511.401	85.12
511.617	74.12
511.833	95.12
512.049	111.12
512.265	85.12
512.481	68.12
512.698	86.12
512.914	92.12
513.13	87.12
513.346	84.12
513.562	93.12
513.778	83.12
513.994	86.12
514.21	92.12
514.426	95.12
514.642	82.12
514.858	83.12
515.074	81.12
515.29	83.12
515.506	87.12
515.721	82.12
515.937	85.12
516.153	97.12
516.369	98.12
516.585	91.12
516.801	95.12
517.016	103.12
517.232	85.12
517.448	90.12
517.664	80.12
517.879	101.12
518.095	87.12
518.311	105.12
518.527	103.12
518.742	89.12
518.958	86.12
519.173	90.12
