Data from BG_HRD10591_051.txt Node
Date: Fri May 16 15:14:48 EDT 2025
User: Yrep
Spectrometer: HR+D1059
Trigger mode: 1
Integration Time (sec): 1.000000E-1
Scans to average: 1
Electric dark correction enabled: true
Nonlinearity correction enabled: false
Boxcar width: 0
XAxis mode: Wavelengths
Number of Pixels in Spectrum: 2048
>>>>>Begin Spectral Data<<<<<
223.165	-7.75
223.4	-7.75
223.635	-7.75
223.869	-14.75
224.104	-23.75
224.338	-21.75
224.573	-15.75
224.808	-11.75
225.042	-7.75
225.277	-7.75
225.511	-3.75
225.746	14.25
225.98	-0.75
226.215	4.25
226.449	24.25
226.683	17.25
226.918	18.25
227.152	37.25
227.387	34.25
227.621	51.25
227.856	49.25
228.09	34.25
228.324	43.25
228.559	51.25
228.793	53.25
229.027	53.25
229.262	60.25
229.496	66.25
229.73	72.25
229.964	75.25
230.199	67.25
230.433	65.25
230.667	69.25
230.901	69.25
231.136	83.25
231.37	72.25
231.604	67.25
231.838	74.25
232.072	73.25
232.306	79.25
232.541	67.25
232.775	66.25
233.009	75.25
233.243	70.25
233.477	72.25
233.711	95.25
233.945	65.25
234.179	79.25
234.413	90.25
234.647	78.25
234.881	73.25
235.115	74.25
235.349	79.25
235.583	70.25
235.817	82.25
236.051	56.25
236.285	94.25
236.519	70.25
236.753	76.25
236.987	78.25
237.221	77.25
237.455	69.25
237.689	69.25
237.922	79.25
238.156	80.25
238.39	66.25
238.624	86.25
238.858	74.25
239.091	71.25
239.325	75.25
239.559	74.25
239.793	55.25
240.027	72.25
240.26	63.25
240.494	70.25
240.728	71.25
240.961	55.25
241.195	73.25
241.429	83.25
241.662	70.25
241.896	64.25
242.13	79.25
242.363	71.25
242.597	59.25
242.83	78.25
243.064	80.25
243.298	59.25
243.531	67.25
243.765	71.25
243.998	69.25
244.232	79.25
244.465	86.25
244.699	80.25
244.932	72.25
245.166	89.25
245.399	62.25
245.633	82.25
245.866	66.25
246.099	65.25
246.333	68.25
246.566	84.25
246.8	66.25
247.033	59.25
247.266	74.25
247.5	77.25
247.733	69.25
247.966	60.25
248.2	70.25
248.433	72.25
248.666	72.25
248.899	76.25
249.133	69.25
249.366	73.25
249.599	85.25
249.832	85.25
250.066	75.25
250.299	83.25
250.532	70.25
250.765	73.25
250.998	68.25
251.231	68.25
251.465	70.25
251.698	82.25
251.931	71.25
252.164	78.25
252.397	80.25
252.63	67.25
252.863	75.25
253.096	66.25
253.329	67.25
253.562	79.25
253.795	75.25
254.028	90.25
254.261	81.25
254.494	71.25
254.727	77.25
254.96	80.25
255.193	73.25
255.426	78.25
255.659	69.25
255.892	92.25
256.124	80.25
256.357	74.25
256.59	86.25
256.823	90.25
257.056	85.25
257.289	68.25
257.521	73.25
257.754	83.25
257.987	72.25
258.22	88.25
258.452	80.25
258.685	62.25
258.918	85.25
259.151	62.25
259.383	61.25
259.616	83.25
259.849	74.25
260.081	77.25
260.314	86.25
260.547	75.25
260.779	74.25
261.012	81.25
261.244	70.25
261.477	82.25
261.71	90.25
261.942	84.25
262.175	96.25
262.407	86.25
262.64	70.25
262.872	60.25
263.105	77.25
263.337	76.25
263.57	83.25
263.802	82.25
264.035	86.25
264.267	67.25
264.499	94.25
264.732	73.25
264.964	89.25
265.197	77.25
265.429	76.25
265.661	74.25
265.894	82.25
266.126	81.25
266.358	87.25
266.591	71.25
266.823	81.25
267.055	57.25
267.287	70.25
267.52	59.25
267.752	82.25
267.984	89.25
268.216	81.25
268.448	71.25
268.681	72.25
268.913	67.25
269.145	66.25
269.377	82.25
269.609	94.25
269.841	71.25
270.073	64.25
270.306	78.25
270.538	73.25
270.77	75.25
271.002	91.25
271.234	84.25
271.466	89.25
271.698	78.25
271.93	82.25
272.162	89.25
272.394	81.25
272.626	81.25
272.858	72.25
273.09	78.25
273.322	78.25
273.553	78.25
273.785	75.25
274.017	67.25
274.249	68.25
274.481	85.25
274.713	83.25
274.945	81.25
275.176	72.25
275.408	58.25
275.64	85.25
275.872	79.25
276.104	75.25
276.335	86.25
276.567	79.25
276.799	75.25
277.031	86.25
277.262	82.25
277.494	79.25
277.726	78.25
277.957	101.25
278.189	87.25
278.421	87.25
278.652	80.25
278.884	81.25
279.115	78.25
279.347	60.25
279.579	90.25
279.81	79.25
280.042	77.25
280.273	82.25
280.505	86.25
280.736	97.25
280.968	82.25
281.199	70.25
281.431	83.25
281.662	82.25
281.894	75.25
282.125	93.25
282.356	90.25
282.588	75.25
282.819	86.25
283.051	76.25
283.282	95.25
283.513	94.25
283.745	86.25
283.976	83.25
284.207	83.25
284.439	77.25
284.67	106.25
284.901	86.25
285.132	74.25
285.364	80.25
285.595	64.25
285.826	83.25
286.057	89.25
286.288	74.25
286.52	94.25
286.751	75.25
286.982	77.25
287.213	77.25
287.444	80.25
287.675	89.25
287.906	83.25
288.138	83.25
288.369	69.25
288.6	74.25
288.831	69.25
289.062	88.25
289.293	82.25
289.524	54.25
289.755	89.25
289.986	73.25
290.217	94.25
290.448	77.25
290.679	81.25
290.91	86.25
291.141	78.25
291.371	96.25
291.602	74.25
291.833	86.25
292.064	79.25
292.295	76.25
292.526	89.25
292.757	87.25
292.987	98.25
293.218	79.25
293.449	72.25
293.68	100.25
293.91	80.25
294.141	94.25
294.372	85.25
294.603	66.25
294.833	96.25
295.064	86.25
295.295	94.25
295.525	81.25
295.756	83.25
295.987	83.25
296.217	78.25
296.448	85.25
296.679	81.25
296.909	93.25
297.14	82.25
297.37	89.25
297.601	77.25
297.831	82.25
298.062	94.25
298.292	72.25
298.523	82.25
298.753	82.25
298.984	79.25
299.214	80.25
299.445	85.25
299.675	84.25
299.905	81.25
300.136	84.25
300.366	76.25
300.597	83.25
300.827	78.25
301.057	98.25
301.288	80.25
301.518	84.25
301.748	91.25
301.979	98.25
302.209	71.25
302.439	83.25
302.669	86.25
302.9	96.25
303.13	68.25
303.36	91.25
303.59	94.25
303.82	71.25
304.051	71.25
304.281	72.25
304.511	100.25
304.741	92.25
304.971	87.25
305.201	81.25
305.431	79.25
305.661	94.25
305.891	94.25
306.121	71.25
306.352	69.25
306.582	89.25
306.812	91.25
307.042	73.25
307.272	88.25
307.502	80.25
307.731	88.25
307.961	79.25
308.191	71.25
308.421	80.25
308.651	88.25
308.881	84.25
309.111	91.25
309.341	97.25
309.571	94.25
309.8	102.25
310.03	80.25
310.26	65.25
310.49	82.25
310.72	83.25
310.949	101.25
311.179	83.25
311.409	76.25
311.639	86.25
311.868	96.25
312.098	98.25
312.328	76.25
312.557	94.25
312.787	87.25
313.017	80.25
313.246	80.25
313.476	74.25
313.706	78.25
313.935	79.25
314.165	86.25
314.394	72.25
314.624	88.25
314.853	83.25
315.083	79.25
315.312	78.25
315.542	71.25
315.771	78.25
316.001	80.25
316.23	86.25
316.46	69.25
316.689	81.25
316.919	88.25
317.148	89.25
317.377	83.25
317.607	92.25
317.836	92.25
318.065	85.25
318.295	75.25
318.524	62.25
318.753	72.25
318.983	81.25
319.212	83.25
319.441	72.25
319.67	83.25
319.9	96.25
320.129	87.25
320.358	82.25
320.587	87.25
320.816	77.25
321.046	75.25
321.275	75.25
321.504	72.25
321.733	90.25
321.962	78.25
322.191	83.25
322.42	78.25
322.649	86.25
322.878	86.25
323.108	80.25
323.337	107.25
323.566	82.25
323.795	96.25
324.024	84.25
324.253	91.25
324.482	88.25
324.71	82.25
324.939	88.25
325.168	91.25
325.397	78.25
325.626	89.25
325.855	95.25
326.084	85.25
326.313	82.25
326.542	82.25
326.77	73.25
326.999	78.25
327.228	74.25
327.457	82.25
327.686	83.25
327.914	91.25
328.143	79.25
328.372	71.25
328.6	86.25
328.829	72.25
329.058	88.25
329.287	76.25
329.515	83.25
329.744	78.25
329.972	81.25
330.201	79.25
330.43	73.25
330.658	86.25
330.887	89.25
331.115	90.25
331.344	88.25
331.572	86.25
331.801	84.25
332.03	79.25
332.258	91.25
332.486	88.25
332.715	84.25
332.943	82.25
333.172	88.25
333.4	76.25
333.629	91.25
333.857	81.25
334.085	92.25
334.314	82.25
334.542	99.25
334.771	76.25
334.999	81.25
335.227	85.25
335.455	90.25
335.684	84.25
335.912	89.25
336.14	96.25
336.369	68.25
336.597	78.25
336.825	82.25
337.053	83.25
337.281	80.25
337.51	89.25
337.738	95.25
337.966	76.25
338.194	92.25
338.422	80.25
338.65	82.25
338.878	72.25
339.106	73.25
339.334	84.25
339.562	84.25
339.79	86.25
340.018	98.25
340.246	99.25
340.474	72.25
340.702	86.25
340.93	91.25
341.158	90.25
341.386	73.25
341.614	74.25
341.842	87.25
342.07	84.25
342.298	92.25
342.526	85.25
342.754	85.25
342.981	76.25
343.209	87.25
343.437	87.25
343.665	88.25
343.893	89.25
344.12	91.25
344.348	91.25
344.576	72.25
344.804	72.25
345.031	89.25
345.259	80.25
345.487	80.25
345.714	74.25
345.942	73.25
346.17	78.25
346.397	94.25
346.625	97.25
346.853	86.25
347.08	89.25
347.308	80.25
347.535	76.25
347.763	66.25
347.99	102.25
348.218	97.25
348.445	86.25
348.673	82.25
348.9	81.25
349.128	88.25
349.355	77.25
349.583	79.25
349.81	82.25
350.037	80.25
350.265	95.25
350.492	70.25
350.72	101.25
350.947	87.25
351.174	91.25
351.402	85.25
351.629	60.25
351.856	85.25
352.083	85.25
352.311	83.25
352.538	78.25
352.765	72.25
352.992	83.25
353.22	80.25
353.447	83.25
353.674	87.25
353.901	93.25
354.128	81.25
354.355	89.25
354.583	91.25
354.81	95.25
355.037	82.25
355.264	66.25
355.491	95.25
355.718	73.25
355.945	85.25
356.172	74.25
356.399	81.25
356.626	77.25
356.853	97.25
357.08	91.25
357.307	74.25
357.534	76.25
357.761	91.25
357.988	98.25
358.215	87.25
358.441	81.25
358.668	73.25
358.895	79.25
359.122	75.25
359.349	74.25
359.576	91.25
359.802	82.25
360.029	78.25
360.256	97.25
360.483	75.25
360.709	73.25
360.936	94.25
361.163	99.25
361.39	96.25
361.616	71.25
361.843	84.25
362.07	88.25
362.296	77.25
362.523	74.25
362.749	81.25
362.976	78.25
363.203	71.25
363.429	74.25
363.656	78.25
363.882	104.25
364.109	87.25
364.335	80.25
364.562	75.25
364.788	86.25
365.015	96.25
365.241	94.25
365.468	80.25
365.694	82.25
365.92	84.25
366.147	82.25
366.373	93.25
366.599	87.25
366.826	90.25
367.052	87.25
367.278	83.25
367.505	75.25
367.731	75.25
367.957	82.25
368.184	80.25
368.41	98.25
368.636	86.25
368.862	81.25
369.089	79.25
369.315	85.25
369.541	78.25
369.767	86.25
369.993	89.25
370.219	92.25
370.445	87.25
370.672	88.25
370.898	87.25
371.124	80.25
371.35	91.25
371.576	94.25
371.802	80.25
372.028	79.25
372.254	91.25
372.48	82.25
372.706	73.25
372.932	98.25
373.158	92.25
373.384	101.25
373.61	73.25
373.835	87.25
374.061	82.25
374.287	94.25
374.513	92.25
374.739	83.25
374.965	85.25
375.191	83.25
375.416	83.25
375.642	83.25
375.868	83.25
376.094	75.25
376.319	90.25
376.545	88.25
376.771	84.25
376.997	81.25
377.222	79.25
377.448	76.25
377.674	83.25
377.899	94.25
378.125	87.25
378.35	91.25
378.576	81.25
378.802	83.25
379.027	81.25
379.253	96.25
379.478	90.25
379.704	88.25
379.929	91.25
380.155	92.25
380.38	75.25
380.606	82.25
380.831	85.25
381.057	79.25
381.282	98.25
381.507	87.25
381.733	79.25
381.958	86.25
382.184	92.25
382.409	88.25
382.634	81.25
382.86	71.25
383.085	85.25
383.31	89.25
383.535	73.25
383.761	79.25
383.986	83.25
384.211	91.25
384.436	84.25
384.662	86.25
384.887	82.25
385.112	80.25
385.337	85.25
385.562	80.25
385.787	90.25
386.013	84.25
386.238	94.25
386.463	72.25
386.688	97.25
386.913	84.25
387.138	74.25
387.363	86.25
387.588	89.25
387.813	75.25
388.038	68.25
388.263	88.25
388.488	88.25
388.713	82.25
388.938	77.25
389.163	78.25
389.387	94.25
389.612	83.25
389.837	81.25
390.062	90.25
390.287	91.25
390.512	92.25
390.736	76.25
390.961	84.25
391.186	77.25
391.411	87.25
391.636	84.25
391.86	74.25
392.085	76.25
392.31	81.25
392.534	84.25
392.759	87.25
392.984	86.25
393.208	88.25
393.433	101.25
393.658	88.25
393.882	96.25
394.107	94.25
394.331	86.25
394.556	81.25
394.78	78.25
395.005	100.25
395.229	88.25
395.454	86.25
395.678	93.25
395.903	92.25
396.127	91.25
396.352	85.25
396.576	74.25
396.801	86.25
397.025	88.25
397.249	90.25
397.474	91.25
397.698	90.25
397.922	97.25
398.147	74.25
398.371	90.25
398.595	83.25
398.82	73.25
399.044	79.25
399.268	94.25
399.492	82.25
399.717	93.25
399.941	88.25
400.165	91.25
400.389	94.25
400.613	82.25
400.837	85.25
401.062	82.25
401.286	77.25
401.51	74.25
401.734	71.25
401.958	97.25
402.182	81.25
402.406	84.25
402.63	84.25
402.854	85.25
403.078	97.25
403.302	83.25
403.526	82.25
403.75	80.25
403.974	83.25
404.198	73.25
404.422	87.25
404.645	89.25
404.869	89.25
405.093	83.25
405.317	88.25
405.541	83.25
405.765	84.25
405.988	92.25
406.212	87.25
406.436	94.25
406.66	87.25
406.883	69.25
407.107	73.25
407.331	88.25
407.555	82.25
407.778	87.25
408.002	76.25
408.226	98.25
408.449	88.25
408.673	84.25
408.896	88.25
409.12	89.25
409.344	96.25
409.567	76.25
409.791	92.25
410.014	86.25
410.238	83.25
410.461	89.25
410.685	82.25
410.908	82.25
411.132	79.25
411.355	89.25
411.578	94.25
411.802	73.25
412.025	83.25
412.249	86.25
412.472	86.25
412.695	70.25
412.919	67.25
413.142	74.25
413.365	87.25
413.589	87.25
413.812	75.25
414.035	86.25
414.258	78.25
414.482	86.25
414.705	81.25
414.928	76.25
415.151	96.25
415.374	86.25
415.597	97.25
415.821	98.25
416.044	83.25
416.267	76.25
416.49	76.25
416.713	86.25
416.936	71.25
417.159	91.25
417.382	91.25
417.605	87.25
417.828	94.25
418.051	84.25
418.274	83.25
418.497	88.25
418.72	81.25
418.943	89.25
419.166	86.25
419.389	78.25
419.611	86.25
419.834	85.25
420.057	100.25
420.28	87.25
420.503	89.25
420.726	89.25
420.948	76.25
421.171	84.25
421.394	85.25
421.617	80.25
421.839	82.25
422.062	95.25
422.285	100.25
422.507	89.25
422.73	89.25
422.953	83.25
423.175	76.25
423.398	94.25
423.621	82.25
423.843	87.25
424.066	94.25
424.288	76.25
424.511	92.25
424.733	92.25
424.956	76.25
425.178	83.25
425.401	74.25
425.623	94.25
425.846	96.25
426.068	92.25
426.291	92.25
426.513	92.25
426.735	83.25
426.958	85.25
427.18	88.25
427.402	86.25
427.625	85.25
427.847	67.25
428.069	80.25
428.292	72.25
428.514	86.25
428.736	87.25
428.958	67.25
429.181	80.25
429.403	98.25
429.625	93.25
429.847	75.25
430.069	88.25
430.292	72.25
430.514	84.25
430.736	83.25
430.958	74.25
431.18	84.25
431.402	82.25
431.624	96.25
431.846	80.25
432.068	84.25
432.29	84.25
432.512	76.25
432.734	89.25
432.956	79.25
433.178	89.25
433.4	78.25
433.622	74.25
433.844	77.25
434.066	87.25
434.287	91.25
434.509	72.25
434.731	102.25
434.953	69.25
435.175	70.25
435.397	83.25
435.618	80.25
435.84	90.25
436.062	94.25
436.284	83.25
436.505	79.25
436.727	83.25
436.949	81.25
437.17	83.25
437.392	89.25
437.614	98.25
437.835	82.25
438.057	76.25
438.278	75.25
438.5	82.25
438.721	84.25
438.943	97.25
439.165	94.25
439.386	66.25
439.608	88.25
439.829	85.25
440.05	96.25
440.272	84.25
440.493	72.25
440.715	87.25
440.936	74.25
441.158	95.25
441.379	93.25
441.6	79.25
441.822	88.25
442.043	81.25
442.264	82.25
442.486	89.25
442.707	89.25
442.928	91.25
443.149	89.25
443.371	90.25
443.592	71.25
443.813	86.25
444.034	86.25
444.255	83.25
444.476	81.25
444.698	86.25
444.919	74.25
445.14	176.25
445.361	134.25
445.582	88.25
445.803	81.25
446.024	87.25
446.245	95.25
446.466	85.25
446.687	98.25
446.908	91.25
447.129	82.25
447.35	87.25
447.571	91.25
447.792	65.25
448.013	88.25
448.234	96.25
448.455	91.25
448.675	80.25
448.896	87.25
449.117	80.25
449.338	92.25
449.559	86.25
449.779	79.25
450	81.25
450.221	91.25
450.442	76.25
450.662	83.25
450.883	79.25
451.104	99.25
451.324	82.25
451.545	80.25
451.766	78.25
451.986	76.25
452.207	80.25
452.428	73.25
452.648	81.25
452.869	87.25
453.089	94.25
453.31	64.25
453.53	78.25
453.751	89.25
453.971	87.25
454.192	73.25
454.412	83.25
454.633	80.25
454.853	90.25
455.073	78.25
455.294	84.25
455.514	88.25
455.734	87.25
455.955	78.25
456.175	85.25
456.395	74.25
456.616	85.25
456.836	95.25
457.056	81.25
457.276	83.25
457.497	73.25
457.717	71.25
457.937	75.25
458.157	91.25
458.377	66.25
458.598	72.25
458.818	78.25
459.038	83.25
459.258	82.25
459.478	86.25
459.698	89.25
459.918	95.25
460.138	82.25
460.358	88.25
460.578	83.25
460.798	92.25
461.018	94.25
461.238	87.25
461.458	92.25
461.678	86.25
461.898	84.25
462.118	76.25
462.338	75.25
462.558	88.25
462.777	88.25
462.997	100.25
463.217	90.25
463.437	86.25
463.657	83.25
463.876	94.25
464.096	78.25
464.316	90.25
464.536	82.25
464.755	70.25
464.975	87.25
465.195	84.25
465.414	83.25
465.634	83.25
465.854	73.25
466.073	87.25
466.293	80.25
466.512	82.25
466.732	80.25
466.951	87.25
467.171	89.25
467.391	75.25
467.61	83.25
467.829	76.25
468.049	82.25
468.268	74.25
468.488	85.25
468.707	83.25
468.927	78.25
469.146	80.25
469.365	92.25
469.585	87.25
469.804	84.25
470.023	90.25
470.243	81.25
470.462	80.25
470.681	75.25
470.901	74.25
471.12	82.25
471.339	86.25
471.558	91.25
471.777	79.25
471.997	75.25
472.216	78.25
472.435	78.25
472.654	80.25
472.873	75.25
473.092	79.25
473.311	74.25
473.53	80.25
473.749	79.25
473.968	90.25
474.187	79.25
474.406	68.25
474.625	89.25
474.844	81.25
475.063	88.25
475.282	91.25
475.501	91.25
475.72	87.25
475.939	83.25
476.158	73.25
476.377	82.25
476.596	83.25
476.814	84.25
477.033	89.25
477.252	79.25
477.471	87.25
477.69	72.25
477.908	85.25
478.127	91.25
478.346	87.25
478.564	75.25
478.783	94.25
479.002	83.25
479.22	80.25
479.439	95.25
479.658	82.25
479.876	91.25
480.095	70.25
480.313	74.25
480.532	75.25
480.751	80.25
480.969	80.25
481.188	94.25
481.406	96.25
481.624	86.25
481.843	85.25
482.061	80.25
482.28	80.25
482.498	88.25
482.717	83.25
482.935	96.25
483.153	79.25
483.372	78.25
483.59	96.25
483.808	90.25
484.027	92.25
484.245	73.25
484.463	87.25
484.681	99.25
484.9	80.25
485.118	90.25
485.336	90.25
485.554	102.25
485.772	81.25
485.99	86.25
486.209	78.25
486.427	99.25
486.645	86.25
486.863	85.25
487.081	95.25
487.299	89.25
487.517	76.25
487.735	78.25
487.953	98.25
488.171	86.25
488.389	90.25
488.607	80.25
488.825	79.25
489.043	84.25
489.261	95.25
489.479	92.25
489.696	74.25
489.914	85.25
490.132	78.25
490.35	79.25
490.568	101.25
490.786	98.25
491.003	80.25
491.221	102.25
491.439	83.25
491.657	74.25
491.874	78.25
492.092	87.25
492.31	91.25
492.527	86.25
492.745	70.25
492.963	90.25
493.18	75.25
493.398	88.25
493.615	81.25
493.833	100.25
494.05	84.25
494.268	90.25
494.485	81.25
494.703	84.25
494.92	79.25
495.138	85.25
495.355	93.25
495.573	88.25
495.79	86.25
496.008	84.25
496.225	84.25
496.442	85.25
496.66	81.25
496.877	86.25
497.094	90.25
497.312	88.25
497.529	94.25
497.746	100.25
497.963	76.25
498.181	95.25
498.398	88.25
498.615	104.25
498.832	102.25
499.049	97.25
499.267	88.25
499.484	100.25
499.701	98.25
499.918	85.25
500.135	95.25
500.352	116.25
500.569	108.25
500.786	118.25
501.003	101.25
501.22	85.25
501.437	97.25
501.654	96.25
501.871	90.25
502.088	88.25
502.305	98.25
502.522	94.25
502.739	97.25
502.956	90.25
503.172	87.25
503.389	86.25
503.606	79.25
503.823	85.25
504.04	91.25
504.256	95.25
504.473	96.25
504.69	84.25
504.907	89.25
505.123	84.25
505.34	99.25
505.557	76.25
505.773	88.25
505.99	73.25
506.207	78.25
506.423	89.25
506.64	89.25
506.856	85.25
507.073	91.25
507.289	82.25
507.506	81.25
507.722	79.25
507.939	84.25
508.155	79.25
508.372	84.25
508.588	85.25
508.805	89.25
509.021	89.25
509.238	78.25
509.454	79.25
509.67	70.25
509.887	94.25
510.103	90.25
510.319	97.25
510.536	94.25
510.752	72.25
510.968	81.25
511.184	76.25
511.401	89.25
511.617	87.25
511.833	84.25
512.049	94.25
512.265	92.25
512.481	74.25
512.698	86.25
512.914	79.25
513.13	95.25
513.346	89.25
513.562	89.25
513.778	76.25
513.994	81.25
514.21	88.25
514.426	89.25
514.642	78.25
514.858	78.25
515.074	96.25
515.29	98.25
515.506	90.25
515.721	70.25
515.937	100.25
516.153	79.25
516.369	82.25
516.585	71.25
516.801	74.25
517.016	83.25
517.232	85.25
517.448	89.25
517.664	88.25
517.879	82.25
518.095	91.25
518.311	92.25
518.527	108.25
518.742	92.25
518.958	90.25
519.173	85.25
519.389	79.25
519.605	100.25
519.82	103.25
520.036	82.25
