Data from BG_HRD10591_057.txt Node
Date: Fri May 16 15:14:51 EDT 2025
User: Yrep
Spectrometer: HR+D1059
Trigger mode: 1
Integration Time (sec): 1.000000E-1
Scans to average: 1
Electric dark correction enabled: true
Nonlinearity correction enabled: false
Boxcar width: 0
XAxis mode: Wavelengths
Number of Pixels in Spectrum: 2048
>>>>>Begin Spectral Data<<<<<
223.165	-21.06
223.4	-21.06
223.635	-21.06
223.869	-16.06
224.104	-21.06
224.338	-22.06
224.573	-18.06
224.808	-15.06
225.042	2.94
225.277	-0.06
225.511	-0.06
225.746	3.94
225.98	8.94
226.215	7.94
226.449	19.94
226.683	21.94
226.918	27.94
227.152	19.94
227.387	31.94
227.621	31.94
227.856	42.94
228.09	38.94
228.324	40.94
228.559	52.94
228.793	61.94
229.027	62.94
229.262	62.94
229.496	76.94
229.73	90.94
229.964	75.94
230.199	73.94
230.433	71.94
230.667	70.94
230.901	73.94
231.136	89.94
231.37	75.94
231.604	79.94
231.838	74.94
232.072	60.94
232.306	79.94
232.541	72.94
232.775	77.94
233.009	73.94
233.243	73.94
233.477	87.94
233.711	83.94
233.945	85.94
234.179	82.94
234.413	79.94
234.647	87.94
234.881	96.94
235.115	86.94
235.349	86.94
235.583	69.94
235.817	70.94
236.051	73.94
236.285	84.94
236.519	77.94
236.753	83.94
236.987	63.94
237.221	82.94
237.455	86.94
237.689	69.94
237.922	80.94
238.156	74.94
238.39	73.94
238.624	77.94
238.858	75.94
239.091	68.94
239.325	78.94
239.559	77.94
239.793	71.94
240.027	80.94
240.26	89.94
240.494	73.94
240.728	83.94
240.961	76.94
241.195	77.94
241.429	73.94
241.662	69.94
241.896	87.94
242.13	80.94
242.363	80.94
242.597	85.94
242.83	77.94
243.064	80.94
243.298	86.94
243.531	92.94
243.765	83.94
243.998	61.94
244.232	87.94
244.465	84.94
244.699	62.94
244.932	84.94
245.166	87.94
245.399	70.94
245.633	81.94
245.866	77.94
246.099	79.94
246.333	68.94
246.566	87.94
246.8	57.94
247.033	75.94
247.266	69.94
247.5	72.94
247.733	69.94
247.966	82.94
248.2	91.94
248.433	71.94
248.666	78.94
248.899	79.94
249.133	64.94
249.366	83.94
249.599	79.94
249.832	74.94
250.066	79.94
250.299	75.94
250.532	70.94
250.765	80.94
250.998	76.94
251.231	87.94
251.465	87.94
251.698	76.94
251.931	96.94
252.164	84.94
252.397	77.94
252.63	78.94
252.863	85.94
253.096	80.94
253.329	79.94
253.562	67.94
253.795	91.94
254.028	84.94
254.261	85.94
254.494	68.94
254.727	84.94
254.96	86.94
255.193	79.94
255.426	72.94
255.659	78.94
255.892	86.94
256.124	86.94
256.357	79.94
256.59	84.94
256.823	62.94
257.056	85.94
257.289	86.94
257.521	76.94
257.754	67.94
257.987	95.94
258.22	90.94
258.452	99.94
258.685	79.94
258.918	78.94
259.151	83.94
259.383	86.94
259.616	62.94
259.849	75.94
260.081	97.94
260.314	94.94
260.547	78.94
260.779	71.94
261.012	73.94
261.244	80.94
261.477	87.94
261.71	73.94
261.942	82.94
262.175	96.94
262.407	79.94
262.64	79.94
262.872	77.94
263.105	71.94
263.337	83.94
263.57	75.94
263.802	101.94
264.035	81.94
264.267	79.94
264.499	82.94
264.732	72.94
264.964	82.94
265.197	84.94
265.429	80.94
265.661	68.94
265.894	92.94
266.126	81.94
266.358	76.94
266.591	72.94
266.823	78.94
267.055	79.94
267.287	70.94
267.52	84.94
267.752	103.94
267.984	81.94
268.216	94.94
268.448	99.94
268.681	78.94
268.913	83.94
269.145	71.94
269.377	81.94
269.609	76.94
269.841	76.94
270.073	75.94
270.306	74.94
270.538	81.94
270.77	84.94
271.002	81.94
271.234	83.94
271.466	90.94
271.698	75.94
271.93	75.94
272.162	81.94
272.394	80.94
272.626	83.94
272.858	75.94
273.09	92.94
273.322	94.94
273.553	78.94
273.785	81.94
274.017	79.94
274.249	86.94
274.481	83.94
274.713	90.94
274.945	79.94
275.176	82.94
275.408	87.94
275.64	87.94
275.872	85.94
276.104	88.94
276.335	77.94
276.567	79.94
276.799	80.94
277.031	89.94
277.262	77.94
277.494	87.94
277.726	64.94
277.957	85.94
278.189	79.94
278.421	89.94
278.652	85.94
278.884	86.94
279.115	93.94
279.347	87.94
279.579	93.94
279.81	80.94
280.042	84.94
280.273	80.94
280.505	83.94
280.736	80.94
280.968	86.94
281.199	71.94
281.431	83.94
281.662	83.94
281.894	76.94
282.125	85.94
282.356	94.94
282.588	82.94
282.819	94.94
283.051	79.94
283.282	83.94
283.513	76.94
283.745	89.94
283.976	75.94
284.207	76.94
284.439	88.94
284.67	87.94
284.901	76.94
285.132	89.94
285.364	86.94
285.595	83.94
285.826	79.94
286.057	94.94
286.288	77.94
286.52	96.94
286.751	89.94
286.982	83.94
287.213	91.94
287.444	86.94
287.675	71.94
287.906	76.94
288.138	92.94
288.369	96.94
288.6	79.94
288.831	104.94
289.062	85.94
289.293	94.94
289.524	88.94
289.755	90.94
289.986	74.94
290.217	81.94
290.448	84.94
290.679	89.94
290.91	82.94
291.141	77.94
291.371	72.94
291.602	80.94
291.833	81.94
292.064	77.94
292.295	79.94
292.526	69.94
292.757	91.94
292.987	83.94
293.218	89.94
293.449	92.94
293.68	75.94
293.91	77.94
294.141	95.94
294.372	87.94
294.603	95.94
294.833	80.94
295.064	90.94
295.295	76.94
295.525	80.94
295.756	81.94
295.987	86.94
296.217	80.94
296.448	85.94
296.679	93.94
296.909	76.94
297.14	72.94
297.37	85.94
297.601	90.94
297.831	83.94
298.062	87.94
298.292	85.94
298.523	84.94
298.753	86.94
298.984	73.94
299.214	83.94
299.445	89.94
299.675	76.94
299.905	86.94
300.136	83.94
300.366	84.94
300.597	85.94
300.827	81.94
301.057	89.94
301.288	99.94
301.518	89.94
301.748	86.94
301.979	106.94
302.209	87.94
302.439	80.94
302.669	88.94
302.9	79.94
303.13	82.94
303.36	101.94
303.59	81.94
303.82	73.94
304.051	81.94
304.281	80.94
304.511	81.94
304.741	89.94
304.971	76.94
305.201	95.94
305.431	77.94
305.661	88.94
305.891	78.94
306.121	75.94
306.352	74.94
306.582	75.94
306.812	80.94
307.042	71.94
307.272	71.94
307.502	81.94
307.731	99.94
307.961	93.94
308.191	87.94
308.421	65.94
308.651	83.94
308.881	95.94
309.111	90.94
309.341	73.94
309.571	77.94
309.8	85.94
310.03	63.94
310.26	88.94
310.49	72.94
310.72	81.94
310.949	73.94
311.179	82.94
311.409	92.94
311.639	92.94
311.868	78.94
312.098	83.94
312.328	80.94
312.557	74.94
312.787	75.94
313.017	74.94
313.246	94.94
313.476	95.94
313.706	91.94
313.935	76.94
314.165	80.94
314.394	87.94
314.624	78.94
314.853	78.94
315.083	84.94
315.312	101.94
315.542	91.94
315.771	102.94
316.001	87.94
316.23	77.94
316.46	73.94
316.689	91.94
316.919	83.94
317.148	84.94
317.377	100.94
317.607	89.94
317.836	95.94
318.065	92.94
318.295	77.94
318.524	80.94
318.753	81.94
318.983	101.94
319.212	91.94
319.441	89.94
319.67	102.94
319.9	99.94
320.129	80.94
320.358	78.94
320.587	77.94
320.816	68.94
321.046	85.94
321.275	96.94
321.504	84.94
321.733	79.94
321.962	87.94
322.191	79.94
322.42	97.94
322.649	85.94
322.878	78.94
323.108	80.94
323.337	75.94
323.566	77.94
323.795	82.94
324.024	86.94
324.253	95.94
324.482	77.94
324.71	76.94
324.939	92.94
325.168	76.94
325.397	89.94
325.626	86.94
325.855	96.94
326.084	74.94
326.313	77.94
326.542	76.94
326.77	80.94
326.999	89.94
327.228	74.94
327.457	99.94
327.686	85.94
327.914	88.94
328.143	85.94
328.372	87.94
328.6	83.94
328.829	78.94
329.058	85.94
329.287	75.94
329.515	72.94
329.744	82.94
329.972	85.94
330.201	68.94
330.43	85.94
330.658	75.94
330.887	86.94
331.115	85.94
331.344	89.94
331.572	81.94
331.801	72.94
332.03	64.94
332.258	97.94
332.486	88.94
332.715	84.94
332.943	83.94
333.172	72.94
333.4	71.94
333.629	80.94
333.857	89.94
334.085	89.94
334.314	83.94
334.542	83.94
334.771	72.94
334.999	75.94
335.227	76.94
335.455	83.94
335.684	79.94
335.912	75.94
336.14	69.94
336.369	73.94
336.597	81.94
336.825	74.94
337.053	81.94
337.281	77.94
337.51	87.94
337.738	90.94
337.966	99.94
338.194	80.94
338.422	78.94
338.65	87.94
338.878	82.94
339.106	79.94
339.334	88.94
339.562	73.94
339.79	85.94
340.018	94.94
340.246	83.94
340.474	78.94
340.702	84.94
340.93	88.94
341.158	91.94
341.386	82.94
341.614	80.94
341.842	80.94
342.07	83.94
342.298	84.94
342.526	87.94
342.754	87.94
342.981	82.94
343.209	76.94
343.437	87.94
343.665	77.94
343.893	86.94
344.12	84.94
344.348	75.94
344.576	80.94
344.804	80.94
345.031	78.94
345.259	80.94
345.487	76.94
345.714	85.94
345.942	68.94
346.17	73.94
346.397	77.94
346.625	79.94
346.853	91.94
347.08	88.94
347.308	85.94
347.535	82.94
347.763	75.94
347.99	78.94
348.218	95.94
348.445	76.94
348.673	66.94
348.9	109.94
349.128	75.94
349.355	88.94
349.583	79.94
349.81	87.94
350.037	84.94
350.265	85.94
350.492	86.94
350.72	96.94
350.947	77.94
351.174	87.94
351.402	79.94
351.629	76.94
351.856	91.94
352.083	87.94
352.311	75.94
352.538	82.94
352.765	92.94
352.992	81.94
353.22	87.94
353.447	75.94
353.674	83.94
353.901	94.94
354.128	77.94
354.355	69.94
354.583	81.94
354.81	91.94
355.037	64.94
355.264	92.94
355.491	80.94
355.718	79.94
355.945	80.94
356.172	83.94
356.399	92.94
356.626	75.94
356.853	78.94
357.08	76.94
357.307	79.94
357.534	84.94
357.761	87.94
357.988	88.94
358.215	85.94
358.441	90.94
358.668	83.94
358.895	82.94
359.122	95.94
359.349	86.94
359.576	79.94
359.802	81.94
360.029	83.94
360.256	79.94
360.483	75.94
360.709	81.94
360.936	87.94
361.163	73.94
361.39	70.94
361.616	77.94
361.843	77.94
362.07	79.94
362.296	84.94
362.523	80.94
362.749	82.94
362.976	79.94
363.203	92.94
363.429	85.94
363.656	81.94
363.882	77.94
364.109	84.94
364.335	85.94
364.562	78.94
364.788	81.94
365.015	77.94
365.241	73.94
365.468	85.94
365.694	94.94
365.92	91.94
366.147	70.94
366.373	80.94
366.599	87.94
366.826	84.94
367.052	68.94
367.278	73.94
367.505	79.94
367.731	82.94
367.957	68.94
368.184	86.94
368.41	75.94
368.636	71.94
368.862	81.94
369.089	91.94
369.315	87.94
369.541	88.94
369.767	83.94
369.993	74.94
370.219	85.94
370.445	87.94
370.672	86.94
370.898	82.94
371.124	72.94
371.35	76.94
371.576	82.94
371.802	87.94
372.028	65.94
372.254	86.94
372.48	81.94
372.706	71.94
372.932	84.94
373.158	71.94
373.384	72.94
373.61	81.94
373.835	85.94
374.061	96.94
374.287	76.94
374.513	77.94
374.739	96.94
374.965	79.94
375.191	80.94
375.416	92.94
375.642	88.94
375.868	73.94
376.094	88.94
376.319	96.94
376.545	87.94
376.771	81.94
376.997	79.94
377.222	89.94
377.448	86.94
377.674	80.94
377.899	88.94
378.125	71.94
378.35	86.94
378.576	96.94
378.802	80.94
379.027	84.94
379.253	93.94
379.478	79.94
379.704	83.94
379.929	83.94
380.155	68.94
380.38	72.94
380.606	93.94
380.831	92.94
381.057	95.94
381.282	84.94
381.507	80.94
381.733	86.94
381.958	75.94
382.184	86.94
382.409	84.94
382.634	89.94
382.86	71.94
383.085	92.94
383.31	66.94
383.535	59.94
383.761	73.94
383.986	75.94
384.211	77.94
384.436	81.94
384.662	73.94
384.887	83.94
385.112	79.94
385.337	83.94
385.562	77.94
385.787	79.94
386.013	69.94
386.238	86.94
386.463	91.94
386.688	74.94
386.913	91.94
387.138	85.94
387.363	89.94
387.588	88.94
387.813	95.94
388.038	91.94
388.263	69.94
388.488	79.94
388.713	85.94
388.938	78.94
389.163	79.94
389.387	75.94
389.612	64.94
389.837	90.94
390.062	79.94
390.287	95.94
390.512	83.94
390.736	81.94
390.961	83.94
391.186	77.94
391.411	95.94
391.636	79.94
391.86	69.94
392.085	78.94
392.31	70.94
392.534	86.94
392.759	76.94
392.984	83.94
393.208	79.94
393.433	84.94
393.658	81.94
393.882	79.94
394.107	90.94
394.331	65.94
394.556	60.94
394.78	85.94
395.005	78.94
395.229	81.94
395.454	79.94
395.678	84.94
395.903	79.94
396.127	90.94
396.352	78.94
396.576	92.94
396.801	79.94
397.025	87.94
397.249	75.94
397.474	99.94
397.698	85.94
397.922	70.94
398.147	90.94
398.371	78.94
398.595	88.94
398.82	84.94
399.044	68.94
399.268	75.94
399.492	78.94
399.717	86.94
399.941	85.94
400.165	83.94
400.389	87.94
400.613	80.94
400.837	83.94
401.062	80.94
401.286	84.94
401.51	67.94
401.734	80.94
401.958	89.94
402.182	77.94
402.406	78.94
402.63	71.94
402.854	86.94
403.078	71.94
403.302	74.94
403.526	77.94
403.75	80.94
403.974	90.94
404.198	80.94
404.422	86.94
404.645	73.94
404.869	85.94
405.093	76.94
405.317	81.94
405.541	82.94
405.765	77.94
405.988	81.94
406.212	76.94
406.436	87.94
406.66	84.94
406.883	90.94
407.107	82.94
407.331	76.94
407.555	73.94
407.778	76.94
408.002	78.94
408.226	92.94
408.449	95.94
408.673	77.94
408.896	79.94
409.12	89.94
409.344	95.94
409.567	83.94
409.791	83.94
410.014	86.94
410.238	74.94
410.461	71.94
410.685	71.94
410.908	80.94
411.132	88.94
411.355	83.94
411.578	72.94
411.802	78.94
412.025	78.94
412.249	88.94
412.472	74.94
412.695	83.94
412.919	79.94
413.142	74.94
413.365	74.94
413.589	83.94
413.812	84.94
414.035	73.94
414.258	89.94
414.482	85.94
414.705	81.94
414.928	82.94
415.151	78.94
415.374	78.94
415.597	80.94
415.821	78.94
416.044	85.94
416.267	84.94
416.49	79.94
416.713	79.94
416.936	85.94
417.159	81.94
417.382	75.94
417.605	83.94
417.828	93.94
418.051	91.94
418.274	84.94
418.497	88.94
418.72	86.94
418.943	96.94
419.166	72.94
419.389	80.94
419.611	68.94
419.834	79.94
420.057	99.94
420.28	95.94
420.503	76.94
420.726	87.94
420.948	70.94
421.171	87.94
421.394	86.94
421.617	79.94
421.839	84.94
422.062	77.94
422.285	91.94
422.507	92.94
422.73	78.94
422.953	73.94
423.175	86.94
423.398	84.94
423.621	80.94
423.843	69.94
424.066	79.94
424.288	83.94
424.511	90.94
424.733	77.94
424.956	75.94
425.178	79.94
425.401	83.94
425.623	77.94
425.846	75.94
426.068	88.94
426.291	76.94
426.513	81.94
426.735	87.94
426.958	91.94
427.18	77.94
427.402	72.94
427.625	89.94
427.847	87.94
428.069	83.94
428.292	85.94
428.514	81.94
428.736	89.94
428.958	94.94
429.181	69.94
429.403	67.94
429.625	86.94
429.847	92.94
430.069	80.94
430.292	99.94
430.514	73.94
430.736	83.94
430.958	92.94
431.18	74.94
431.402	79.94
431.624	72.94
431.846	68.94
432.068	85.94
432.29	84.94
432.512	80.94
432.734	78.94
432.956	74.94
433.178	68.94
433.4	83.94
433.622	99.94
433.844	83.94
434.066	77.94
434.287	83.94
434.509	78.94
434.731	71.94
434.953	80.94
435.175	90.94
435.397	84.94
435.618	74.94
435.84	85.94
436.062	69.94
436.284	79.94
436.505	83.94
436.727	65.94
436.949	88.94
437.17	72.94
437.392	71.94
437.614	89.94
437.835	78.94
438.057	68.94
438.278	81.94
438.5	74.94
438.721	88.94
438.943	72.94
439.165	83.94
439.386	73.94
439.608	89.94
439.829	81.94
440.05	75.94
440.272	67.94
440.493	96.94
440.715	85.94
440.936	87.94
441.158	85.94
441.379	87.94
441.6	72.94
441.822	93.94
442.043	69.94
442.264	89.94
442.486	94.94
442.707	78.94
442.928	86.94
443.149	88.94
443.371	77.94
443.592	70.94
443.813	79.94
444.034	74.94
444.255	79.94
444.476	78.94
444.698	79.94
444.919	85.94
445.14	179.94
445.361	124.94
445.582	87.94
445.803	81.94
446.024	95.94
446.245	77.94
446.466	92.94
446.687	74.94
446.908	78.94
447.129	81.94
447.35	77.94
447.571	99.94
447.792	70.94
448.013	78.94
448.234	83.94
448.455	78.94
448.675	76.94
448.896	79.94
449.117	91.94
449.338	86.94
449.559	72.94
449.779	89.94
450	75.94
450.221	75.94
450.442	84.94
450.662	87.94
450.883	66.94
451.104	83.94
451.324	82.94
451.545	71.94
451.766	80.94
451.986	71.94
452.207	85.94
452.428	75.94
452.648	87.94
452.869	81.94
453.089	85.94
453.31	88.94
453.53	72.94
453.751	80.94
453.971	82.94
454.192	77.94
454.412	90.94
454.633	77.94
454.853	72.94
455.073	81.94
455.294	79.94
455.514	88.94
455.734	100.94
455.955	79.94
456.175	87.94
456.395	65.94
456.616	68.94
456.836	80.94
457.056	88.94
457.276	72.94
457.497	62.94
457.717	83.94
457.937	75.94
458.157	76.94
458.377	79.94
458.598	71.94
458.818	76.94
459.038	76.94
459.258	74.94
459.478	71.94
459.698	96.94
459.918	99.94
460.138	75.94
460.358	75.94
460.578	83.94
460.798	82.94
461.018	79.94
461.238	81.94
461.458	89.94
461.678	75.94
461.898	63.94
462.118	79.94
462.338	76.94
462.558	64.94
462.777	84.94
462.997	69.94
463.217	71.94
463.437	83.94
463.657	88.94
463.876	68.94
464.096	89.94
464.316	75.94
464.536	71.94
464.755	75.94
464.975	73.94
465.195	84.94
465.414	86.94
465.634	81.94
465.854	83.94
466.073	87.94
466.293	79.94
466.512	83.94
466.732	81.94
466.951	79.94
467.171	77.94
467.391	80.94
467.61	78.94
467.829	90.94
468.049	88.94
468.268	70.94
468.488	90.94
468.707	87.94
468.927	72.94
469.146	94.94
469.365	78.94
469.585	80.94
469.804	88.94
470.023	62.94
470.243	65.94
470.462	76.94
470.681	100.94
470.901	81.94
471.12	80.94
471.339	89.94
471.558	77.94
471.777	81.94
471.997	97.94
472.216	80.94
472.435	86.94
472.654	81.94
472.873	88.94
473.092	77.94
473.311	93.94
473.53	88.94
473.749	76.94
473.968	79.94
474.187	81.94
474.406	67.94
474.625	78.94
474.844	75.94
475.063	85.94
475.282	82.94
475.501	94.94
475.72	104.94
475.939	76.94
476.158	75.94
476.377	95.94
476.596	84.94
476.814	96.94
477.033	70.94
477.252	87.94
477.471	79.94
477.69	76.94
477.908	81.94
478.127	81.94
478.346	85.94
478.564	78.94
478.783	86.94
479.002	78.94
479.22	86.94
479.439	70.94
479.658	80.94
479.876	71.94
480.095	84.94
480.313	80.94
480.532	74.94
480.751	69.94
480.969	76.94
481.188	86.94
481.406	88.94
481.624	85.94
481.843	83.94
482.061	87.94
482.28	73.94
482.498	93.94
482.717	76.94
482.935	91.94
483.153	86.94
483.372	94.94
483.59	102.94
483.808	91.94
484.027	101.94
484.245	80.94
484.463	73.94
484.681	94.94
484.9	85.94
485.118	94.94
485.336	98.94
485.554	83.94
485.772	69.94
485.99	86.94
486.209	87.94
486.427	85.94
486.645	87.94
486.863	75.94
487.081	75.94
487.299	70.94
487.517	96.94
487.735	81.94
487.953	88.94
488.171	80.94
488.389	79.94
488.607	66.94
488.825	78.94
489.043	85.94
489.261	91.94
489.479	72.94
489.696	77.94
489.914	96.94
490.132	76.94
490.35	69.94
490.568	87.94
490.786	81.94
491.003	79.94
491.221	96.94
491.439	85.94
491.657	76.94
491.874	87.94
492.092	93.94
492.31	87.94
492.527	83.94
492.745	95.94
492.963	84.94
493.18	75.94
493.398	91.94
493.615	92.94
493.833	79.94
494.05	104.94
494.268	87.94
494.485	63.94
494.703	75.94
494.92	81.94
495.138	81.94
495.355	75.94
495.573	93.94
495.79	78.94
496.008	89.94
496.225	80.94
496.442	71.94
496.66	93.94
496.877	72.94
497.094	77.94
497.312	74.94
497.529	79.94
497.746	73.94
497.963	91.94
498.181	91.94
498.398	81.94
498.615	87.94
498.832	73.94
499.049	72.94
499.267	89.94
499.484	93.94
499.701	77.94
499.918	74.94
500.135	81.94
500.352	84.94
500.569	82.94
500.786	81.94
501.003	78.94
501.22	95.94
501.437	91.94
501.654	74.94
501.871	87.94
502.088	93.94
502.305	85.94
502.522	87.94
502.739	85.94
502.956	75.94
503.172	88.94
503.389	79.94
503.606	87.94
503.823	76.94
504.04	86.94
504.256	92.94
504.473	84.94
504.69	74.94
504.907	95.94
505.123	80.94
505.34	78.94
505.557	73.94
505.773	72.94
505.99	80.94
506.207	100.94
506.423	76.94
506.64	103.94
506.856	72.94
507.073	89.94
507.289	82.94
507.506	83.94
507.722	83.94
507.939	87.94
508.155	80.94
508.372	75.94
508.588	81.94
508.805	81.94
509.021	69.94
509.238	81.94
509.454	72.94
509.67	66.94
509.887	96.94
510.103	72.94
510.319	77.94
510.536	78.94
510.752	88.94
510.968	85.94
511.184	73.94
511.401	91.94
511.617	78.94
511.833	100.94
512.049	92.94
512.265	80.94
512.481	77.94
512.698	105.94
512.914	83.94
513.13	86.94
513.346	80.94
513.562	85.94
513.778	85.94
513.994	80.94
514.21	93.94
514.426	93.94
514.642	78.94
514.858	93.94
515.074	82.94
515.29	87.94
515.506	85.94
515.721	97.94
515.937	77.94
516.153	72.94
516.369	80.94
516.585	87.94
516.801	92.94
517.016	92.94
517.232	83.94
517.448	74.94
517.664	88.94
517.879	93.94
518.095	93.94
518.311	74.94
518.527	80.94
518.742	92.94
518.958	80.94
519.173	72.94
519.389	79.94
519.605	83.94
519.82	78.94
520.036	81.94
