Data from BG_HRD10591_086.txt Node
Date: Fri May 16 15:15:05 EDT 2025
User: Yrep
Spectrometer: HR+D1059
Trigger mode: 1
Integration Time (sec): 1.000000E-1
Scans to average: 1
Electric dark correction enabled: true
Nonlinearity correction enabled: false
Boxcar width: 0
XAxis mode: Wavelengths
Number of Pixels in Spectrum: 2048
>>>>>Begin Spectral Data<<<<<
223.165	-28.38
223.4	-28.38
223.635	-28.38
223.869	-21.38
224.104	-25.38
224.338	-25.38
224.573	-9.38
224.808	-10.38
225.042	-11.38
225.277	2.62
225.511	-5.38
225.746	1.62
225.98	11.62
226.215	-1.38
226.449	12.62
226.683	33.62
226.918	34.62
227.152	41.62
227.387	34.62
227.621	45.62
227.856	39.62
228.09	50.62
228.324	41.62
228.559	73.62
228.793	66.62
229.027	63.62
229.262	67.62
229.496	59.62
229.73	85.62
229.964	71.62
230.199	66.62
230.433	85.62
230.667	77.62
230.901	79.62
231.136	89.62
231.37	80.62
231.604	89.62
231.838	72.62
232.072	71.62
232.306	75.62
232.541	75.62
232.775	82.62
233.009	99.62
233.243	88.62
233.477	82.62
233.711	83.62
233.945	90.62
234.179	78.62
234.413	70.62
234.647	80.62
234.881	98.62
235.115	69.62
235.349	82.62
235.583	92.62
235.817	86.62
236.051	71.62
236.285	65.62
236.519	74.62
236.753	75.62
236.987	90.62
237.221	88.62
237.455	91.62
237.689	94.62
237.922	71.62
238.156	80.62
238.39	67.62
238.624	80.62
238.858	85.62
239.091	77.62
239.325	78.62
239.559	77.62
239.793	77.62
240.027	87.62
240.26	79.62
240.494	84.62
240.728	79.62
240.961	80.62
241.195	63.62
241.429	90.62
241.662	67.62
241.896	78.62
242.13	84.62
242.363	90.62
242.597	90.62
242.83	79.62
243.064	73.62
243.298	103.62
243.531	63.62
243.765	79.62
243.998	77.62
244.232	80.62
244.465	88.62
244.699	77.62
244.932	77.62
245.166	81.62
245.399	78.62
245.633	92.62
245.866	84.62
246.099	74.62
246.333	91.62
246.566	89.62
246.8	83.62
247.033	80.62
247.266	72.62
247.5	85.62
247.733	89.62
247.966	72.62
248.2	92.62
248.433	90.62
248.666	70.62
248.899	85.62
249.133	79.62
249.366	74.62
249.599	81.62
249.832	82.62
250.066	75.62
250.299	90.62
250.532	81.62
250.765	83.62
250.998	72.62
251.231	77.62
251.465	90.62
251.698	89.62
251.931	82.62
252.164	82.62
252.397	84.62
252.63	93.62
252.863	77.62
253.096	87.62
253.329	78.62
253.562	89.62
253.795	81.62
254.028	89.62
254.261	79.62
254.494	90.62
254.727	82.62
254.96	91.62
255.193	88.62
255.426	75.62
255.659	66.62
255.892	72.62
256.124	82.62
256.357	93.62
256.59	96.62
256.823	81.62
257.056	79.62
257.289	94.62
257.521	97.62
257.754	87.62
257.987	83.62
258.22	78.62
258.452	87.62
258.685	94.62
258.918	95.62
259.151	94.62
259.383	82.62
259.616	74.62
259.849	89.62
260.081	79.62
260.314	85.62
260.547	85.62
260.779	92.62
261.012	89.62
261.244	85.62
261.477	77.62
261.71	88.62
261.942	92.62
262.175	90.62
262.407	103.62
262.64	96.62
262.872	78.62
263.105	88.62
263.337	63.62
263.57	102.62
263.802	89.62
264.035	70.62
264.267	88.62
264.499	75.62
264.732	89.62
264.964	86.62
265.197	82.62
265.429	83.62
265.661	77.62
265.894	80.62
266.126	94.62
266.358	87.62
266.591	71.62
266.823	80.62
267.055	83.62
267.287	85.62
267.52	91.62
267.752	105.62
267.984	86.62
268.216	87.62
268.448	79.62
268.681	97.62
268.913	82.62
269.145	89.62
269.377	95.62
269.609	82.62
269.841	80.62
270.073	78.62
270.306	78.62
270.538	92.62
270.77	82.62
271.002	84.62
271.234	67.62
271.466	86.62
271.698	80.62
271.93	95.62
272.162	84.62
272.394	93.62
272.626	87.62
272.858	99.62
273.09	90.62
273.322	95.62
273.553	92.62
273.785	93.62
274.017	86.62
274.249	91.62
274.481	101.62
274.713	104.62
274.945	106.62
275.176	97.62
275.408	88.62
275.64	93.62
275.872	91.62
276.104	86.62
276.335	90.62
276.567	77.62
276.799	83.62
277.031	99.62
277.262	85.62
277.494	97.62
277.726	94.62
277.957	90.62
278.189	81.62
278.421	105.62
278.652	96.62
278.884	82.62
279.115	109.62
279.347	80.62
279.579	82.62
279.81	81.62
280.042	78.62
280.273	104.62
280.505	87.62
280.736	91.62
280.968	77.62
281.199	96.62
281.431	79.62
281.662	91.62
281.894	87.62
282.125	90.62
282.356	85.62
282.588	86.62
282.819	94.62
283.051	83.62
283.282	79.62
283.513	86.62
283.745	78.62
283.976	83.62
284.207	77.62
284.439	89.62
284.67	85.62
284.901	69.62
285.132	86.62
285.364	89.62
285.595	94.62
285.826	93.62
286.057	98.62
286.288	90.62
286.52	87.62
286.751	73.62
286.982	90.62
287.213	95.62
287.444	78.62
287.675	93.62
287.906	79.62
288.138	87.62
288.369	91.62
288.6	85.62
288.831	92.62
289.062	100.62
289.293	101.62
289.524	78.62
289.755	75.62
289.986	83.62
290.217	88.62
290.448	74.62
290.679	91.62
290.91	78.62
291.141	77.62
291.371	89.62
291.602	79.62
291.833	85.62
292.064	77.62
292.295	94.62
292.526	88.62
292.757	87.62
292.987	83.62
293.218	89.62
293.449	76.62
293.68	87.62
293.91	77.62
294.141	95.62
294.372	97.62
294.603	99.62
294.833	94.62
295.064	89.62
295.295	93.62
295.525	81.62
295.756	103.62
295.987	93.62
296.217	96.62
296.448	87.62
296.679	107.62
296.909	91.62
297.14	86.62
297.37	98.62
297.601	78.62
297.831	85.62
298.062	83.62
298.292	90.62
298.523	103.62
298.753	93.62
298.984	96.62
299.214	93.62
299.445	81.62
299.675	104.62
299.905	87.62
300.136	104.62
300.366	96.62
300.597	76.62
300.827	88.62
301.057	92.62
301.288	98.62
301.518	104.62
301.748	94.62
301.979	102.62
302.209	91.62
302.439	92.62
302.669	90.62
302.9	83.62
303.13	92.62
303.36	87.62
303.59	84.62
303.82	89.62
304.051	89.62
304.281	88.62
304.511	107.62
304.741	97.62
304.971	102.62
305.201	102.62
305.431	108.62
305.661	88.62
305.891	82.62
306.121	88.62
306.352	90.62
306.582	83.62
306.812	89.62
307.042	94.62
307.272	85.62
307.502	94.62
307.731	95.62
307.961	93.62
308.191	104.62
308.421	93.62
308.651	90.62
308.881	89.62
309.111	81.62
309.341	101.62
309.571	92.62
309.8	87.62
310.03	85.62
310.26	83.62
310.49	74.62
310.72	88.62
310.949	93.62
311.179	95.62
311.409	85.62
311.639	94.62
311.868	90.62
312.098	87.62
312.328	98.62
312.557	89.62
312.787	83.62
313.017	88.62
313.246	85.62
313.476	87.62
313.706	90.62
313.935	83.62
314.165	83.62
314.394	99.62
314.624	93.62
314.853	86.62
315.083	86.62
315.312	103.62
315.542	103.62
315.771	94.62
316.001	103.62
316.23	91.62
316.46	101.62
316.689	82.62
316.919	94.62
317.148	78.62
317.377	81.62
317.607	91.62
317.836	82.62
318.065	85.62
318.295	81.62
318.524	82.62
318.753	84.62
318.983	91.62
319.212	91.62
319.441	99.62
319.67	85.62
319.9	81.62
320.129	109.62
320.358	93.62
320.587	93.62
320.816	88.62
321.046	87.62
321.275	98.62
321.504	107.62
321.733	90.62
321.962	97.62
322.191	105.62
322.42	96.62
322.649	94.62
322.878	93.62
323.108	96.62
323.337	96.62
323.566	80.62
323.795	91.62
324.024	97.62
324.253	91.62
324.482	88.62
324.71	93.62
324.939	86.62
325.168	83.62
325.397	82.62
325.626	90.62
325.855	88.62
326.084	93.62
326.313	82.62
326.542	101.62
326.77	87.62
326.999	83.62
327.228	94.62
327.457	98.62
327.686	97.62
327.914	102.62
328.143	95.62
328.372	97.62
328.6	102.62
328.829	88.62
329.058	111.62
329.287	104.62
329.515	89.62
329.744	94.62
329.972	89.62
330.201	90.62
330.43	102.62
330.658	86.62
330.887	70.62
331.115	103.62
331.344	91.62
331.572	88.62
331.801	101.62
332.03	101.62
332.258	89.62
332.486	94.62
332.715	100.62
332.943	98.62
333.172	90.62
333.4	91.62
333.629	90.62
333.857	95.62
334.085	103.62
334.314	88.62
334.542	89.62
334.771	89.62
334.999	77.62
335.227	71.62
335.455	91.62
335.684	95.62
335.912	95.62
336.14	81.62
336.369	86.62
336.597	92.62
336.825	95.62
337.053	88.62
337.281	84.62
337.51	91.62
337.738	92.62
337.966	91.62
338.194	82.62
338.422	73.62
338.65	87.62
338.878	102.62
339.106	81.62
339.334	93.62
339.562	91.62
339.79	83.62
340.018	94.62
340.246	90.62
340.474	93.62
340.702	86.62
340.93	89.62
341.158	82.62
341.386	84.62
341.614	82.62
341.842	97.62
342.07	92.62
342.298	93.62
342.526	84.62
342.754	77.62
342.981	85.62
343.209	91.62
343.437	104.62
343.665	98.62
343.893	81.62
344.12	103.62
344.348	98.62
344.576	99.62
344.804	88.62
345.031	74.62
345.259	88.62
345.487	102.62
345.714	93.62
345.942	94.62
346.17	95.62
346.397	103.62
346.625	91.62
346.853	82.62
347.08	80.62
347.308	88.62
347.535	78.62
347.763	91.62
347.99	96.62
348.218	91.62
348.445	92.62
348.673	97.62
348.9	90.62
349.128	73.62
349.355	60.62
349.583	92.62
349.81	94.62
350.037	87.62
350.265	102.62
350.492	96.62
350.72	105.62
350.947	95.62
351.174	91.62
351.402	75.62
351.629	83.62
351.856	91.62
352.083	80.62
352.311	92.62
352.538	99.62
352.765	87.62
352.992	86.62
353.22	95.62
353.447	82.62
353.674	99.62
353.901	93.62
354.128	92.62
354.355	94.62
354.583	95.62
354.81	97.62
355.037	87.62
355.264	88.62
355.491	92.62
355.718	85.62
355.945	82.62
356.172	88.62
356.399	92.62
356.626	93.62
356.853	86.62
357.08	88.62
357.307	91.62
357.534	94.62
357.761	104.62
357.988	95.62
358.215	87.62
358.441	88.62
358.668	85.62
358.895	86.62
359.122	78.62
359.349	73.62
359.576	96.62
359.802	89.62
360.029	104.62
360.256	95.62
360.483	89.62
360.709	86.62
360.936	97.62
361.163	75.62
361.39	81.62
361.616	81.62
361.843	83.62
362.07	87.62
362.296	93.62
362.523	91.62
362.749	83.62
362.976	90.62
363.203	78.62
363.429	106.62
363.656	103.62
363.882	75.62
364.109	92.62
364.335	98.62
364.562	93.62
364.788	96.62
365.015	92.62
365.241	77.62
365.468	104.62
365.694	93.62
365.92	105.62
366.147	89.62
366.373	92.62
366.599	89.62
366.826	98.62
367.052	78.62
367.278	89.62
367.505	92.62
367.731	88.62
367.957	88.62
368.184	86.62
368.41	103.62
368.636	94.62
368.862	80.62
369.089	96.62
369.315	73.62
369.541	88.62
369.767	100.62
369.993	101.62
370.219	82.62
370.445	74.62
370.672	81.62
370.898	81.62
371.124	78.62
371.35	85.62
371.576	77.62
371.802	93.62
372.028	85.62
372.254	95.62
372.48	90.62
372.706	98.62
372.932	88.62
373.158	86.62
373.384	72.62
373.61	91.62
373.835	90.62
374.061	92.62
374.287	82.62
374.513	87.62
374.739	73.62
374.965	79.62
375.191	85.62
375.416	86.62
375.642	88.62
375.868	88.62
376.094	94.62
376.319	82.62
376.545	79.62
376.771	82.62
376.997	91.62
377.222	85.62
377.448	79.62
377.674	81.62
377.899	91.62
378.125	99.62
378.35	81.62
378.576	94.62
378.802	97.62
379.027	85.62
379.253	89.62
379.478	80.62
379.704	100.62
379.929	90.62
380.155	91.62
380.38	97.62
380.606	86.62
380.831	96.62
381.057	106.62
381.282	89.62
381.507	97.62
381.733	102.62
381.958	91.62
382.184	93.62
382.409	85.62
382.634	91.62
382.86	97.62
383.085	95.62
383.31	89.62
383.535	94.62
383.761	82.62
383.986	103.62
384.211	93.62
384.436	91.62
384.662	91.62
384.887	92.62
385.112	87.62
385.337	101.62
385.562	81.62
385.787	93.62
386.013	93.62
386.238	89.62
386.463	94.62
386.688	85.62
386.913	101.62
387.138	98.62
387.363	101.62
387.588	81.62
387.813	90.62
388.038	81.62
388.263	92.62
388.488	88.62
388.713	99.62
388.938	81.62
389.163	98.62
389.387	99.62
389.612	86.62
389.837	97.62
390.062	87.62
390.287	91.62
390.512	78.62
390.736	89.62
390.961	91.62
391.186	103.62
391.411	73.62
391.636	101.62
391.86	96.62
392.085	101.62
392.31	83.62
392.534	87.62
392.759	81.62
392.984	88.62
393.208	95.62
393.433	89.62
393.658	91.62
393.882	91.62
394.107	92.62
394.331	90.62
394.556	87.62
394.78	90.62
395.005	96.62
395.229	88.62
395.454	92.62
395.678	83.62
395.903	110.62
396.127	81.62
396.352	84.62
396.576	89.62
396.801	94.62
397.025	89.62
397.249	78.62
397.474	90.62
397.698	90.62
397.922	99.62
398.147	82.62
398.371	95.62
398.595	93.62
398.82	86.62
399.044	85.62
399.268	79.62
399.492	80.62
399.717	96.62
399.941	91.62
400.165	103.62
400.389	76.62
400.613	84.62
400.837	97.62
401.062	93.62
401.286	91.62
401.51	101.62
401.734	93.62
401.958	90.62
402.182	94.62
402.406	100.62
402.63	103.62
402.854	93.62
403.078	93.62
403.302	77.62
403.526	87.62
403.75	98.62
403.974	85.62
404.198	90.62
404.422	89.62
404.645	94.62
404.869	88.62
405.093	97.62
405.317	91.62
405.541	93.62
405.765	81.62
405.988	109.62
406.212	90.62
406.436	96.62
406.66	97.62
406.883	94.62
407.107	90.62
407.331	107.62
407.555	90.62
407.778	75.62
408.002	84.62
408.226	121.62
408.449	83.62
408.673	87.62
408.896	91.62
409.12	90.62
409.344	77.62
409.567	88.62
409.791	83.62
410.014	88.62
410.238	95.62
410.461	101.62
410.685	81.62
410.908	77.62
411.132	112.62
411.355	84.62
411.578	91.62
411.802	79.62
412.025	83.62
412.249	92.62
412.472	90.62
412.695	96.62
412.919	87.62
413.142	91.62
413.365	83.62
413.589	83.62
413.812	75.62
414.035	84.62
414.258	82.62
414.482	81.62
414.705	101.62
414.928	91.62
415.151	109.62
415.374	94.62
415.597	97.62
415.821	96.62
416.044	90.62
416.267	102.62
416.49	95.62
416.713	93.62
416.936	92.62
417.159	86.62
417.382	96.62
417.605	91.62
417.828	79.62
418.051	89.62
418.274	95.62
418.497	91.62
418.72	96.62
418.943	87.62
419.166	96.62
419.389	98.62
419.611	70.62
419.834	83.62
420.057	83.62
420.28	95.62
420.503	90.62
420.726	87.62
420.948	89.62
421.171	92.62
421.394	93.62
421.617	83.62
421.839	95.62
422.062	91.62
422.285	92.62
422.507	99.62
422.73	85.62
422.953	84.62
423.175	93.62
423.398	98.62
423.621	92.62
423.843	89.62
424.066	94.62
424.288	90.62
424.511	88.62
424.733	98.62
424.956	96.62
425.178	85.62
425.401	78.62
425.623	101.62
425.846	78.62
426.068	97.62
426.291	105.62
426.513	92.62
426.735	92.62
426.958	84.62
427.18	98.62
427.402	85.62
427.625	83.62
427.847	94.62
428.069	88.62
428.292	82.62
428.514	95.62
428.736	79.62
428.958	97.62
429.181	89.62
429.403	89.62
429.625	87.62
429.847	91.62
430.069	97.62
430.292	93.62
430.514	96.62
430.736	87.62
430.958	89.62
431.18	83.62
431.402	93.62
431.624	85.62
431.846	87.62
432.068	98.62
432.29	94.62
432.512	103.62
432.734	98.62
432.956	95.62
433.178	90.62
433.4	85.62
433.622	96.62
433.844	103.62
434.066	92.62
434.287	82.62
434.509	94.62
434.731	87.62
434.953	85.62
435.175	94.62
435.397	75.62
435.618	78.62
435.84	90.62
436.062	91.62
436.284	97.62
436.505	84.62
436.727	96.62
436.949	87.62
437.17	77.62
437.392	86.62
437.614	83.62
437.835	82.62
438.057	97.62
438.278	89.62
438.5	88.62
438.721	79.62
438.943	89.62
439.165	90.62
439.386	83.62
439.608	92.62
439.829	93.62
440.05	93.62
440.272	84.62
440.493	83.62
440.715	81.62
440.936	84.62
441.158	90.62
441.379	91.62
441.6	112.62
441.822	92.62
442.043	94.62
442.264	79.62
442.486	87.62
442.707	81.62
442.928	95.62
443.149	82.62
443.371	93.62
443.592	89.62
443.813	90.62
444.034	87.62
444.255	91.62
444.476	98.62
444.698	86.62
444.919	95.62
445.14	176.62
445.361	127.62
445.582	103.62
445.803	87.62
446.024	105.62
446.245	85.62
446.466	98.62
446.687	97.62
446.908	83.62
447.129	89.62
447.35	90.62
447.571	82.62
447.792	83.62
448.013	90.62
448.234	77.62
448.455	90.62
448.675	83.62
448.896	90.62
449.117	82.62
449.338	84.62
449.559	98.62
449.779	95.62
450	88.62
450.221	87.62
450.442	90.62
450.662	90.62
450.883	84.62
451.104	88.62
451.324	97.62
451.545	82.62
451.766	83.62
451.986	79.62
452.207	83.62
452.428	104.62
452.648	96.62
452.869	77.62
453.089	89.62
453.31	89.62
453.53	84.62
453.751	76.62
453.971	87.62
454.192	94.62
454.412	79.62
454.633	98.62
454.853	87.62
455.073	85.62
455.294	83.62
455.514	81.62
455.734	90.62
455.955	80.62
456.175	92.62
456.395	86.62
456.616	76.62
456.836	106.62
457.056	80.62
457.276	85.62
457.497	77.62
457.717	90.62
457.937	106.62
458.157	96.62
458.377	88.62
458.598	88.62
458.818	90.62
459.038	84.62
459.258	85.62
459.478	91.62
459.698	94.62
459.918	79.62
460.138	89.62
460.358	92.62
460.578	92.62
460.798	94.62
461.018	99.62
461.238	97.62
461.458	97.62
461.678	95.62
461.898	87.62
462.118	89.62
462.338	101.62
462.558	101.62
462.777	93.62
462.997	97.62
463.217	89.62
463.437	97.62
463.657	109.62
463.876	94.62
464.096	105.62
464.316	96.62
464.536	106.62
464.755	89.62
464.975	96.62
465.195	110.62
465.414	80.62
465.634	78.62
465.854	109.62
466.073	91.62
466.293	88.62
466.512	83.62
466.732	91.62
466.951	105.62
467.171	86.62
467.391	89.62
467.61	94.62
467.829	91.62
468.049	91.62
468.268	86.62
468.488	86.62
468.707	80.62
468.927	79.62
469.146	91.62
469.365	92.62
469.585	101.62
469.804	85.62
470.023	94.62
470.243	87.62
470.462	68.62
470.681	79.62
470.901	81.62
471.12	75.62
471.339	97.62
471.558	85.62
471.777	94.62
471.997	88.62
472.216	88.62
472.435	93.62
472.654	93.62
472.873	71.62
473.092	94.62
473.311	81.62
473.53	83.62
473.749	93.62
473.968	99.62
474.187	73.62
474.406	69.62
474.625	87.62
474.844	107.62
475.063	82.62
475.282	91.62
475.501	95.62
475.72	101.62
475.939	85.62
476.158	90.62
476.377	85.62
476.596	86.62
476.814	81.62
477.033	93.62
477.252	91.62
477.471	82.62
477.69	78.62
477.908	90.62
478.127	96.62
478.346	89.62
478.564	102.62
478.783	94.62
479.002	88.62
479.22	81.62
479.439	92.62
479.658	95.62
479.876	93.62
480.095	97.62
480.313	98.62
480.532	91.62
480.751	94.62
480.969	99.62
481.188	94.62
481.406	102.62
481.624	84.62
481.843	90.62
482.061	82.62
482.28	84.62
482.498	76.62
482.717	83.62
482.935	82.62
483.153	90.62
483.372	97.62
483.59	87.62
483.808	84.62
484.027	82.62
484.245	91.62
484.463	80.62
484.681	89.62
484.9	101.62
485.118	101.62
485.336	90.62
485.554	85.62
485.772	89.62
485.99	106.62
486.209	85.62
486.427	81.62
486.645	94.62
486.863	93.62
487.081	103.62
487.299	88.62
487.517	103.62
487.735	89.62
487.953	87.62
488.171	87.62
488.389	95.62
488.607	94.62
488.825	90.62
489.043	87.62
489.261	104.62
489.479	94.62
489.696	96.62
489.914	90.62
490.132	90.62
490.35	98.62
490.568	103.62
490.786	89.62
491.003	103.62
491.221	99.62
491.439	93.62
491.657	99.62
491.874	104.62
492.092	101.62
492.31	81.62
492.527	94.62
492.745	94.62
492.963	94.62
493.18	86.62
493.398	95.62
493.615	92.62
493.833	87.62
494.05	81.62
494.268	87.62
494.485	107.62
494.703	103.62
494.92	99.62
495.138	82.62
495.355	96.62
495.573	84.62
495.79	89.62
496.008	87.62
496.225	101.62
496.442	100.62
496.66	99.62
496.877	105.62
497.094	117.62
497.312	113.62
497.529	92.62
497.746	97.62
497.963	98.62
498.181	101.62
498.398	98.62
498.615	97.62
498.832	110.62
499.049	86.62
499.267	89.62
499.484	112.62
499.701	108.62
499.918	125.62
500.135	112.62
500.352	128.62
500.569	112.62
500.786	113.62
501.003	103.62
501.22	121.62
501.437	102.62
501.654	108.62
501.871	101.62
502.088	95.62
502.305	99.62
502.522	95.62
502.739	106.62
502.956	90.62
503.172	94.62
503.389	93.62
503.606	76.62
503.823	89.62
504.04	94.62
504.256	95.62
504.473	88.62
504.69	106.62
504.907	98.62
505.123	94.62
505.34	109.62
505.557	99.62
505.773	93.62
505.99	86.62
506.207	90.62
506.423	95.62
506.64	102.62
506.856	91.62
507.073	76.62
507.289	80.62
507.506	101.62
507.722	91.62
507.939	83.62
508.155	95.62
508.372	99.62
508.588	102.62
508.805	89.62
509.021	78.62
509.238	101.62
509.454	90.62
509.67	77.62
509.887	82.62
510.103	104.62
510.319	97.62
510.536	96.62
510.752	88.62
510.968	82.62
511.184	81.62
511.401	100.62
511.617	91.62
511.833	99.62
512.049	96.62
512.265	107.62
512.481	80.62
512.698	97.62
512.914	77.62
513.13	92.62
513.346	91.62
513.562	86.62
513.778	81.62
513.994	103.62
514.21	93.62
514.426	94.62
514.642	91.62
514.858	95.62
515.074	81.62
515.29	107.62
515.506	101.62
515.721	105.62
515.937	93.62
516.153	87.62
516.369	89.62
516.585	97.62
516.801	103.62
517.016	104.62
517.232	89.62
517.448	98.62
517.664	92.62
517.879	97.62
518.095	107.62
