Data from BG_HRD10591_075.txt Node
Date: Fri May 16 15:15:00 EDT 2025
User: Yrep
Spectrometer: HR+D1059
Trigger mode: 1
Integration Time (sec): 1.000000E-1
Scans to average: 1
Electric dark correction enabled: true
Nonlinearity correction enabled: false
Boxcar width: 0
XAxis mode: Wavelengths
Number of Pixels in Spectrum: 2048
>>>>>Begin Spectral Data<<<<<
223.165	-28.5
223.4	-28.5
223.635	-28.5
223.869	-18.5
224.104	-12.5
224.338	-16.5
224.573	-16.5
224.808	-12.5
225.042	-4.5
225.277	-4.5
225.511	-0.5
225.746	2.5
225.98	15.5
226.215	16.5
226.449	4.5
226.683	22.5
226.918	15.5
227.152	37.5
227.387	31.5
227.621	46.5
227.856	42.5
228.09	45.5
228.324	61.5
228.559	58.5
228.793	59.5
229.027	73.5
229.262	71.5
229.496	72.5
229.73	62.5
229.964	72.5
230.199	59.5
230.433	71.5
230.667	80.5
230.901	75.5
231.136	76.5
231.37	72.5
231.604	77.5
231.838	70.5
232.072	80.5
232.306	86.5
232.541	65.5
232.775	75.5
233.009	87.5
233.243	72.5
233.477	85.5
233.711	84.5
233.945	71.5
234.179	73.5
234.413	82.5
234.647	78.5
234.881	71.5
235.115	83.5
235.349	70.5
235.583	77.5
235.817	85.5
236.051	72.5
236.285	73.5
236.519	85.5
236.753	78.5
236.987	79.5
237.221	76.5
237.455	64.5
237.689	85.5
237.922	71.5
238.156	77.5
238.39	83.5
238.624	80.5
238.858	74.5
239.091	74.5
239.325	76.5
239.559	71.5
239.793	82.5
240.027	78.5
240.26	70.5
240.494	84.5
240.728	88.5
240.961	74.5
241.195	72.5
241.429	71.5
241.662	78.5
241.896	68.5
242.13	70.5
242.363	64.5
242.597	85.5
242.83	79.5
243.064	74.5
243.298	80.5
243.531	87.5
243.765	70.5
243.998	70.5
244.232	91.5
244.465	75.5
244.699	86.5
244.932	71.5
245.166	81.5
245.399	84.5
245.633	91.5
245.866	85.5
246.099	66.5
246.333	70.5
246.566	79.5
246.8	80.5
247.033	70.5
247.266	76.5
247.5	78.5
247.733	82.5
247.966	82.5
248.2	88.5
248.433	90.5
248.666	85.5
248.899	78.5
249.133	87.5
249.366	89.5
249.599	68.5
249.832	71.5
250.066	68.5
250.299	73.5
250.532	82.5
250.765	70.5
250.998	76.5
251.231	82.5
251.465	72.5
251.698	65.5
251.931	72.5
252.164	69.5
252.397	74.5
252.63	78.5
252.863	80.5
253.096	75.5
253.329	79.5
253.562	91.5
253.795	82.5
254.028	64.5
254.261	82.5
254.494	80.5
254.727	79.5
254.96	69.5
255.193	70.5
255.426	76.5
255.659	78.5
255.892	80.5
256.124	76.5
256.357	73.5
256.59	62.5
256.823	82.5
257.056	75.5
257.289	80.5
257.521	90.5
257.754	90.5
257.987	80.5
258.22	84.5
258.452	78.5
258.685	76.5
258.918	89.5
259.151	72.5
259.383	90.5
259.616	76.5
259.849	86.5
260.081	80.5
260.314	77.5
260.547	77.5
260.779	64.5
261.012	82.5
261.244	74.5
261.477	84.5
261.71	93.5
261.942	85.5
262.175	75.5
262.407	77.5
262.64	91.5
262.872	83.5
263.105	77.5
263.337	84.5
263.57	79.5
263.802	82.5
264.035	74.5
264.267	57.5
264.499	92.5
264.732	85.5
264.964	79.5
265.197	80.5
265.429	69.5
265.661	80.5
265.894	83.5
266.126	81.5
266.358	86.5
266.591	84.5
266.823	88.5
267.055	76.5
267.287	90.5
267.52	87.5
267.752	71.5
267.984	82.5
268.216	81.5
268.448	87.5
268.681	77.5
268.913	94.5
269.145	77.5
269.377	86.5
269.609	70.5
269.841	76.5
270.073	84.5
270.306	90.5
270.538	71.5
270.77	69.5
271.002	83.5
271.234	80.5
271.466	77.5
271.698	87.5
271.93	86.5
272.162	84.5
272.394	83.5
272.626	86.5
272.858	84.5
273.09	75.5
273.322	85.5
273.553	76.5
273.785	70.5
274.017	81.5
274.249	92.5
274.481	85.5
274.713	84.5
274.945	71.5
275.176	87.5
275.408	73.5
275.64	76.5
275.872	82.5
276.104	98.5
276.335	71.5
276.567	74.5
276.799	77.5
277.031	96.5
277.262	86.5
277.494	72.5
277.726	89.5
277.957	90.5
278.189	97.5
278.421	92.5
278.652	78.5
278.884	81.5
279.115	83.5
279.347	76.5
279.579	83.5
279.81	70.5
280.042	82.5
280.273	89.5
280.505	85.5
280.736	90.5
280.968	84.5
281.199	82.5
281.431	107.5
281.662	73.5
281.894	92.5
282.125	80.5
282.356	82.5
282.588	87.5
282.819	90.5
283.051	72.5
283.282	79.5
283.513	83.5
283.745	85.5
283.976	92.5
284.207	82.5
284.439	80.5
284.67	79.5
284.901	82.5
285.132	77.5
285.364	77.5
285.595	94.5
285.826	80.5
286.057	102.5
286.288	77.5
286.52	79.5
286.751	80.5
286.982	83.5
287.213	83.5
287.444	76.5
287.675	84.5
287.906	100.5
288.138	86.5
288.369	87.5
288.6	89.5
288.831	103.5
289.062	99.5
289.293	83.5
289.524	87.5
289.755	71.5
289.986	76.5
290.217	92.5
290.448	95.5
290.679	88.5
290.91	86.5
291.141	83.5
291.371	71.5
291.602	84.5
291.833	94.5
292.064	88.5
292.295	85.5
292.526	77.5
292.757	83.5
292.987	90.5
293.218	92.5
293.449	77.5
293.68	92.5
293.91	94.5
294.141	93.5
294.372	87.5
294.603	87.5
294.833	85.5
295.064	76.5
295.295	82.5
295.525	101.5
295.756	88.5
295.987	86.5
296.217	72.5
296.448	74.5
296.679	86.5
296.909	86.5
297.14	72.5
297.37	95.5
297.601	71.5
297.831	83.5
298.062	81.5
298.292	99.5
298.523	83.5
298.753	82.5
298.984	76.5
299.214	80.5
299.445	90.5
299.675	104.5
299.905	85.5
300.136	98.5
300.366	89.5
300.597	92.5
300.827	78.5
301.057	79.5
301.288	83.5
301.518	90.5
301.748	84.5
301.979	99.5
302.209	94.5
302.439	79.5
302.669	82.5
302.9	77.5
303.13	83.5
303.36	88.5
303.59	83.5
303.82	87.5
304.051	94.5
304.281	84.5
304.511	89.5
304.741	83.5
304.971	94.5
305.201	65.5
305.431	86.5
305.661	90.5
305.891	73.5
306.121	88.5
306.352	90.5
306.582	86.5
306.812	71.5
307.042	92.5
307.272	93.5
307.502	78.5
307.731	81.5
307.961	90.5
308.191	91.5
308.421	105.5
308.651	83.5
308.881	86.5
309.111	83.5
309.341	78.5
309.571	84.5
309.8	92.5
310.03	96.5
310.26	86.5
310.49	84.5
310.72	91.5
310.949	88.5
311.179	91.5
311.409	78.5
311.639	88.5
311.868	84.5
312.098	83.5
312.328	78.5
312.557	75.5
312.787	93.5
313.017	85.5
313.246	77.5
313.476	92.5
313.706	82.5
313.935	92.5
314.165	94.5
314.394	87.5
314.624	87.5
314.853	89.5
315.083	85.5
315.312	88.5
315.542	86.5
315.771	80.5
316.001	98.5
316.23	80.5
316.46	87.5
316.689	78.5
316.919	86.5
317.148	91.5
317.377	86.5
317.607	72.5
317.836	75.5
318.065	82.5
318.295	94.5
318.524	79.5
318.753	80.5
318.983	96.5
319.212	91.5
319.441	94.5
319.67	80.5
319.9	79.5
320.129	86.5
320.358	81.5
320.587	74.5
320.816	95.5
321.046	82.5
321.275	85.5
321.504	106.5
321.733	90.5
321.962	90.5
322.191	83.5
322.42	87.5
322.649	84.5
322.878	81.5
323.108	103.5
323.337	87.5
323.566	87.5
323.795	88.5
324.024	101.5
324.253	95.5
324.482	92.5
324.71	88.5
324.939	79.5
325.168	90.5
325.397	90.5
325.626	80.5
325.855	85.5
326.084	93.5
326.313	80.5
326.542	70.5
326.77	74.5
326.999	91.5
327.228	78.5
327.457	93.5
327.686	71.5
327.914	84.5
328.143	83.5
328.372	92.5
328.6	101.5
328.829	84.5
329.058	80.5
329.287	66.5
329.515	88.5
329.744	90.5
329.972	74.5
330.201	76.5
330.43	81.5
330.658	80.5
330.887	84.5
331.115	78.5
331.344	93.5
331.572	82.5
331.801	83.5
332.03	92.5
332.258	78.5
332.486	82.5
332.715	92.5
332.943	93.5
333.172	84.5
333.4	94.5
333.629	82.5
333.857	80.5
334.085	95.5
334.314	89.5
334.542	75.5
334.771	77.5
334.999	83.5
335.227	79.5
335.455	85.5
335.684	89.5
335.912	79.5
336.14	74.5
336.369	85.5
336.597	85.5
336.825	86.5
337.053	96.5
337.281	67.5
337.51	91.5
337.738	78.5
337.966	94.5
338.194	83.5
338.422	79.5
338.65	83.5
338.878	98.5
339.106	96.5
339.334	87.5
339.562	79.5
339.79	79.5
340.018	80.5
340.246	88.5
340.474	90.5
340.702	87.5
340.93	81.5
341.158	85.5
341.386	90.5
341.614	88.5
341.842	87.5
342.07	100.5
342.298	98.5
342.526	91.5
342.754	74.5
342.981	94.5
343.209	87.5
343.437	89.5
343.665	80.5
343.893	81.5
344.12	76.5
344.348	84.5
344.576	86.5
344.804	90.5
345.031	76.5
345.259	94.5
345.487	85.5
345.714	86.5
345.942	101.5
346.17	89.5
346.397	82.5
346.625	76.5
346.853	59.5
347.08	78.5
347.308	89.5
347.535	87.5
347.763	87.5
347.99	90.5
348.218	95.5
348.445	98.5
348.673	86.5
348.9	90.5
349.128	78.5
349.355	87.5
349.583	88.5
349.81	78.5
350.037	88.5
350.265	88.5
350.492	89.5
350.72	76.5
350.947	78.5
351.174	76.5
351.402	83.5
351.629	75.5
351.856	77.5
352.083	95.5
352.311	84.5
352.538	90.5
352.765	77.5
352.992	74.5
353.22	94.5
353.447	68.5
353.674	92.5
353.901	88.5
354.128	98.5
354.355	98.5
354.583	79.5
354.81	88.5
355.037	90.5
355.264	87.5
355.491	92.5
355.718	87.5
355.945	92.5
356.172	87.5
356.399	90.5
356.626	95.5
356.853	91.5
357.08	82.5
357.307	94.5
357.534	80.5
357.761	88.5
357.988	76.5
358.215	91.5
358.441	82.5
358.668	88.5
358.895	86.5
359.122	96.5
359.349	78.5
359.576	94.5
359.802	92.5
360.029	86.5
360.256	95.5
360.483	79.5
360.709	79.5
360.936	88.5
361.163	85.5
361.39	78.5
361.616	94.5
361.843	82.5
362.07	77.5
362.296	93.5
362.523	75.5
362.749	76.5
362.976	87.5
363.203	98.5
363.429	73.5
363.656	90.5
363.882	91.5
364.109	94.5
364.335	94.5
364.562	83.5
364.788	94.5
365.015	80.5
365.241	90.5
365.468	87.5
365.694	82.5
365.92	82.5
366.147	87.5
366.373	96.5
366.599	102.5
366.826	94.5
367.052	90.5
367.278	78.5
367.505	79.5
367.731	101.5
367.957	102.5
368.184	88.5
368.41	78.5
368.636	85.5
368.862	98.5
369.089	86.5
369.315	93.5
369.541	103.5
369.767	78.5
369.993	93.5
370.219	86.5
370.445	96.5
370.672	89.5
370.898	98.5
371.124	92.5
371.35	84.5
371.576	83.5
371.802	80.5
372.028	83.5
372.254	86.5
372.48	82.5
372.706	98.5
372.932	85.5
373.158	82.5
373.384	92.5
373.61	91.5
373.835	88.5
374.061	72.5
374.287	100.5
374.513	92.5
374.739	90.5
374.965	91.5
375.191	88.5
375.416	86.5
375.642	85.5
375.868	98.5
376.094	90.5
376.319	86.5
376.545	86.5
376.771	77.5
376.997	101.5
377.222	73.5
377.448	85.5
377.674	95.5
377.899	95.5
378.125	88.5
378.35	75.5
378.576	85.5
378.802	96.5
379.027	72.5
379.253	76.5
379.478	74.5
379.704	87.5
379.929	95.5
380.155	83.5
380.38	85.5
380.606	81.5
380.831	80.5
381.057	84.5
381.282	101.5
381.507	87.5
381.733	98.5
381.958	103.5
382.184	74.5
382.409	74.5
382.634	86.5
382.86	83.5
383.085	104.5
383.31	108.5
383.535	100.5
383.761	92.5
383.986	80.5
384.211	85.5
384.436	83.5
384.662	88.5
384.887	74.5
385.112	63.5
385.337	76.5
385.562	86.5
385.787	84.5
386.013	95.5
386.238	84.5
386.463	74.5
386.688	92.5
386.913	97.5
387.138	75.5
387.363	74.5
387.588	90.5
387.813	83.5
388.038	90.5
388.263	86.5
388.488	83.5
388.713	88.5
388.938	88.5
389.163	94.5
389.387	99.5
389.612	80.5
389.837	80.5
390.062	84.5
390.287	102.5
390.512	83.5
390.736	86.5
390.961	85.5
391.186	84.5
391.411	93.5
391.636	98.5
391.86	91.5
392.085	89.5
392.31	100.5
392.534	70.5
392.759	79.5
392.984	79.5
393.208	90.5
393.433	90.5
393.658	88.5
393.882	83.5
394.107	79.5
394.331	94.5
394.556	93.5
394.78	94.5
395.005	96.5
395.229	85.5
395.454	80.5
395.678	93.5
395.903	84.5
396.127	93.5
396.352	96.5
396.576	86.5
396.801	78.5
397.025	89.5
397.249	99.5
397.474	84.5
397.698	78.5
397.922	94.5
398.147	99.5
398.371	99.5
398.595	88.5
398.82	82.5
399.044	86.5
399.268	93.5
399.492	85.5
399.717	103.5
399.941	104.5
400.165	98.5
400.389	87.5
400.613	78.5
400.837	82.5
401.062	94.5
401.286	88.5
401.51	85.5
401.734	73.5
401.958	88.5
402.182	78.5
402.406	80.5
402.63	92.5
402.854	79.5
403.078	85.5
403.302	86.5
403.526	95.5
403.75	87.5
403.974	92.5
404.198	100.5
404.422	95.5
404.645	96.5
404.869	90.5
405.093	96.5
405.317	91.5
405.541	84.5
405.765	82.5
405.988	93.5
406.212	104.5
406.436	96.5
406.66	98.5
406.883	92.5
407.107	93.5
407.331	95.5
407.555	78.5
407.778	95.5
408.002	91.5
408.226	105.5
408.449	90.5
408.673	91.5
408.896	85.5
409.12	84.5
409.344	86.5
409.567	81.5
409.791	98.5
410.014	99.5
410.238	89.5
410.461	89.5
410.685	85.5
410.908	84.5
411.132	86.5
411.355	87.5
411.578	73.5
411.802	79.5
412.025	85.5
412.249	97.5
412.472	90.5
412.695	91.5
412.919	78.5
413.142	93.5
413.365	95.5
413.589	91.5
413.812	104.5
414.035	78.5
414.258	97.5
414.482	99.5
414.705	87.5
414.928	87.5
415.151	86.5
415.374	89.5
415.597	86.5
415.821	91.5
416.044	85.5
416.267	82.5
416.49	87.5
416.713	91.5
416.936	103.5
417.159	86.5
417.382	102.5
417.605	88.5
417.828	85.5
418.051	84.5
418.274	84.5
418.497	77.5
418.72	85.5
418.943	87.5
419.166	91.5
419.389	87.5
419.611	83.5
419.834	92.5
420.057	92.5
420.28	90.5
420.503	95.5
420.726	94.5
420.948	91.5
421.171	91.5
421.394	79.5
421.617	77.5
421.839	90.5
422.062	104.5
422.285	90.5
422.507	84.5
422.73	89.5
422.953	77.5
423.175	86.5
423.398	85.5
423.621	83.5
423.843	91.5
424.066	93.5
424.288	79.5
424.511	89.5
424.733	91.5
424.956	88.5
425.178	85.5
425.401	90.5
425.623	87.5
425.846	86.5
426.068	85.5
426.291	83.5
426.513	88.5
426.735	99.5
426.958	88.5
427.18	85.5
427.402	91.5
427.625	78.5
427.847	82.5
428.069	82.5
428.292	88.5
428.514	93.5
428.736	94.5
428.958	77.5
429.181	90.5
429.403	96.5
429.625	94.5
429.847	85.5
430.069	89.5
430.292	97.5
430.514	73.5
430.736	95.5
430.958	79.5
431.18	77.5
431.402	86.5
431.624	72.5
431.846	85.5
432.068	100.5
432.29	94.5
432.512	93.5
432.734	114.5
432.956	82.5
433.178	89.5
433.4	73.5
433.622	108.5
433.844	98.5
434.066	90.5
434.287	87.5
434.509	94.5
434.731	89.5
434.953	85.5
435.175	80.5
435.397	92.5
435.618	85.5
435.84	92.5
436.062	88.5
436.284	88.5
436.505	94.5
436.727	84.5
436.949	88.5
437.17	84.5
437.392	96.5
437.614	82.5
437.835	100.5
438.057	74.5
438.278	82.5
438.5	76.5
438.721	84.5
438.943	74.5
439.165	89.5
439.386	78.5
439.608	92.5
439.829	79.5
440.05	107.5
440.272	87.5
440.493	91.5
440.715	93.5
440.936	80.5
441.158	85.5
441.379	72.5
441.6	82.5
441.822	92.5
442.043	90.5
442.264	85.5
442.486	87.5
442.707	90.5
442.928	92.5
443.149	87.5
443.371	88.5
443.592	94.5
443.813	92.5
444.034	108.5
444.255	85.5
444.476	82.5
444.698	90.5
444.919	108.5
445.14	165.5
445.361	116.5
445.582	111.5
445.803	98.5
446.024	95.5
446.245	94.5
446.466	89.5
446.687	88.5
446.908	88.5
447.129	100.5
447.35	93.5
447.571	93.5
447.792	92.5
448.013	85.5
448.234	89.5
448.455	76.5
448.675	88.5
448.896	83.5
449.117	85.5
449.338	87.5
449.559	96.5
449.779	87.5
450	90.5
450.221	102.5
450.442	94.5
450.662	98.5
450.883	82.5
451.104	89.5
451.324	95.5
451.545	86.5
451.766	89.5
451.986	83.5
452.207	101.5
452.428	81.5
452.648	111.5
452.869	87.5
453.089	87.5
453.31	87.5
453.53	91.5
453.751	91.5
453.971	88.5
454.192	81.5
454.412	88.5
454.633	83.5
454.853	90.5
455.073	88.5
455.294	87.5
455.514	88.5
455.734	91.5
455.955	91.5
456.175	79.5
456.395	71.5
456.616	84.5
456.836	95.5
457.056	85.5
457.276	90.5
457.497	87.5
457.717	98.5
457.937	80.5
458.157	93.5
458.377	75.5
458.598	89.5
458.818	87.5
459.038	86.5
459.258	78.5
459.478	87.5
459.698	82.5
459.918	103.5
460.138	89.5
460.358	79.5
460.578	90.5
460.798	83.5
461.018	95.5
461.238	96.5
461.458	82.5
461.678	91.5
461.898	90.5
462.118	103.5
462.338	101.5
462.558	105.5
462.777	103.5
462.997	82.5
463.217	90.5
463.437	91.5
463.657	94.5
463.876	87.5
464.096	93.5
464.316	78.5
464.536	89.5
464.755	95.5
464.975	90.5
465.195	86.5
465.414	91.5
465.634	82.5
465.854	92.5
466.073	89.5
466.293	84.5
466.512	87.5
466.732	93.5
466.951	95.5
467.171	92.5
467.391	87.5
467.61	91.5
467.829	85.5
468.049	92.5
468.268	78.5
468.488	72.5
468.707	94.5
468.927	86.5
469.146	85.5
469.365	80.5
469.585	80.5
469.804	91.5
470.023	96.5
470.243	79.5
470.462	80.5
470.681	95.5
470.901	71.5
471.12	76.5
471.339	80.5
471.558	101.5
471.777	85.5
471.997	101.5
472.216	89.5
472.435	71.5
472.654	85.5
472.873	100.5
473.092	98.5
473.311	94.5
473.53	75.5
473.749	83.5
473.968	86.5
474.187	82.5
474.406	84.5
474.625	79.5
474.844	94.5
475.063	93.5
475.282	91.5
475.501	90.5
475.72	88.5
475.939	92.5
476.158	85.5
476.377	79.5
476.596	74.5
476.814	87.5
477.033	87.5
477.252	111.5
477.471	86.5
477.69	71.5
477.908	93.5
478.127	90.5
478.346	85.5
478.564	98.5
478.783	99.5
479.002	84.5
479.22	89.5
479.439	91.5
479.658	99.5
479.876	103.5
480.095	80.5
480.313	80.5
480.532	102.5
480.751	102.5
480.969	91.5
481.188	84.5
481.406	93.5
481.624	84.5
481.843	78.5
482.061	88.5
482.28	82.5
482.498	102.5
482.717	88.5
482.935	87.5
483.153	95.5
483.372	94.5
483.59	88.5
483.808	84.5
484.027	83.5
484.245	93.5
484.463	90.5
484.681	84.5
484.9	88.5
485.118	90.5
485.336	100.5
485.554	95.5
485.772	86.5
485.99	92.5
486.209	100.5
486.427	86.5
486.645	90.5
486.863	105.5
487.081	98.5
487.299	100.5
487.517	83.5
487.735	86.5
487.953	85.5
488.171	91.5
488.389	86.5
488.607	91.5
488.825	84.5
489.043	94.5
489.261	106.5
489.479	72.5
489.696	86.5
489.914	91.5
490.132	79.5
490.35	81.5
490.568	84.5
490.786	82.5
491.003	88.5
491.221	91.5
491.439	103.5
491.657	90.5
491.874	91.5
492.092	94.5
492.31	95.5
492.527	85.5
492.745	89.5
492.963	92.5
493.18	93.5
493.398	91.5
493.615	72.5
493.833	87.5
494.05	86.5
494.268	102.5
494.485	90.5
494.703	77.5
494.92	87.5
495.138	98.5
495.355	91.5
495.573	92.5
495.79	80.5
496.008	92.5
496.225	90.5
496.442	90.5
496.66	88.5
496.877	103.5
497.094	102.5
497.312	78.5
497.529	100.5
497.746	84.5
497.963	84.5
498.181	91.5
498.398	94.5
498.615	91.5
498.832	101.5
499.049	80.5
499.267	86.5
499.484	95.5
499.701	87.5
499.918	102.5
500.135	110.5
500.352	119.5
500.569	108.5
500.786	120.5
501.003	111.5
501.22	100.5
501.437	110.5
501.654	90.5
501.871	84.5
502.088	104.5
502.305	87.5
502.522	110.5
502.739	108.5
502.956	106.5
503.172	86.5
503.389	86.5
503.606	87.5
503.823	89.5
504.04	108.5
504.256	102.5
504.473	90.5
504.69	82.5
504.907	91.5
505.123	83.5
505.34	92.5
505.557	93.5
505.773	91.5
505.99	96.5
506.207	88.5
506.423	93.5
506.64	96.5
506.856	98.5
507.073	82.5
507.289	99.5
507.506	99.5
507.722	77.5
507.939	91.5
508.155	91.5
508.372	96.5
508.588	91.5
508.805	104.5
509.021	82.5
509.238	86.5
509.454	91.5
509.67	94.5
509.887	89.5
510.103	81.5
510.319	81.5
510.536	75.5
510.752	100.5
510.968	87.5
511.184	89.5
511.401	89.5
511.617	78.5
511.833	96.5
512.049	81.5
512.265	108.5
512.481	95.5
512.698	103.5
512.914	91.5
513.13	91.5
513.346	90.5
513.562	96.5
513.778	89.5
513.994	94.5
514.21	80.5
514.426	78.5
514.642	80.5
514.858	74.5
515.074	80.5
515.29	88.5
515.506	89.5
515.721	78.5
515.937	88.5
516.153	84.5
516.369	92.5
516.585	100.5
516.801	89.5
517.016	88.5
517.232	100.5
517.448	94.5
517.664	94.5
517.879	102.5
518.095	83.5
518.311	95.5
518.527	94.5
518.742	94.5
518.958	94.5
519.173	83.5
519.389	86.5
519.605	104.5
519.82	75.5
520.036	89.5
520.251	108.5
520.467	82.5
520.682	91.5
520.898	85.5
521.113	95.5
521.329	88.5
521.544	83.5
521.76	94.5
521.975	94.5
522.19	76.5
522.406	88.5
522.621	86.5
522.836	79.5
523.052	90.5
523.267	87.5
523.482	100.5
523.698	95.5
523.913	82.5
524.128	82.5
524.343	108.5
524.559	105.5
524.774	92.5
524.989	84.5
525.204	85.5
525.419	96.5
525.634	89.5
525.849	93.5
526.064	88.5
526.28	84.5
526.495	78.5
526.71	84.5
526.925	95.5
527.14	90.5
527.355	87.5
527.57	89.5
527.785	87.5
527.999	82.5
528.214	102.5
528.429	90.5
528.644	82.5
528.859	100.5
529.074	97.5
529.289	101.5
529.503	79.5
529.718	86.5
529.933	83.5
530.148	89.5
530.363	84.5
530.577	83.5
530.792	79.5
531.007	78.5
531.221	82.5
531.436	98.5
531.651	96.5
531.865	100.5
532.08	90.5
532.295	94.5
532.509	88.5
532.724	103.5
532.938	89.5
533.153	75.5
533.367	80.5
533.582	98.5
533.796	92.5
534.011	80.5
534.225	89.5
534.44	79.5
534.654	86.5
534.868	88.5
535.083	84.5
535.297	88.5
535.511	91.5
535.726	83.5
535.94	85.5
536.154	94.5
536.369	90.5
536.583	73.5
536.797	86.5
537.011	81.5
537.225	97.5
537.44	100.5
537.654	99.5
537.868	90.5
538.082	80.5
538.296	91.5
538.51	84.5
538.724	83.5
538.938	87.5
539.153	89.5
