Data from BG_HRD10591_010.txt Node
Date: Fri May 16 15:14:27 EDT 2025
User: Yrep
Spectrometer: HR+D1059
Trigger mode: 1
Integration Time (sec): 1.000000E-1
Scans to average: 1
Electric dark correction enabled: true
Nonlinearity correction enabled: false
Boxcar width: 0
XAxis mode: Wavelengths
Number of Pixels in Spectrum: 2048
>>>>>Begin Spectral Data<<<<<
223.165	-12.31
223.4	-12.31
223.635	-12.31
223.869	-20.31
224.104	-7.31
224.338	-5.31
224.573	-15.31
224.808	-14.31
225.042	-6.31
225.277	-23.31
225.511	-6.31
225.746	-0.31
225.98	4.69
226.215	12.69
226.449	6.69
226.683	26.69
226.918	26.69
227.152	33.69
227.387	35.69
227.621	43.69
227.856	58.69
228.09	47.69
228.324	78.69
228.559	54.69
228.793	57.69
229.027	80.69
229.262	66.69
229.496	80.69
229.73	87.69
229.964	80.69
230.199	79.69
230.433	82.69
230.667	88.69
230.901	77.69
231.136	92.69
231.37	101.69
231.604	88.69
231.838	92.69
232.072	90.69
232.306	90.69
232.541	86.69
232.775	84.69
233.009	88.69
233.243	77.69
233.477	68.69
233.711	94.69
233.945	87.69
234.179	100.69
234.413	67.69
234.647	94.69
234.881	89.69
235.115	78.69
235.349	78.69
235.583	74.69
235.817	65.69
236.051	76.69
236.285	76.69
236.519	83.69
236.753	75.69
236.987	88.69
237.221	80.69
237.455	73.69
237.689	73.69
237.922	67.69
238.156	75.69
238.39	90.69
238.624	80.69
238.858	81.69
239.091	74.69
239.325	79.69
239.559	76.69
239.793	74.69
240.027	79.69
240.26	68.69
240.494	70.69
240.728	76.69
240.961	94.69
241.195	84.69
241.429	94.69
241.662	78.69
241.896	77.69
242.13	71.69
242.363	67.69
242.597	88.69
242.83	71.69
243.064	87.69
243.298	74.69
243.531	74.69
243.765	80.69
243.998	72.69
244.232	77.69
244.465	68.69
244.699	78.69
244.932	80.69
245.166	75.69
245.399	87.69
245.633	77.69
245.866	76.69
246.099	77.69
246.333	88.69
246.566	78.69
246.8	78.69
247.033	78.69
247.266	69.69
247.5	68.69
247.733	63.69
247.966	75.69
248.2	79.69
248.433	85.69
248.666	79.69
248.899	84.69
249.133	83.69
249.366	90.69
249.599	93.69
249.832	92.69
250.066	95.69
250.299	89.69
250.532	68.69
250.765	79.69
250.998	88.69
251.231	75.69
251.465	85.69
251.698	87.69
251.931	81.69
252.164	71.69
252.397	83.69
252.63	84.69
252.863	77.69
253.096	73.69
253.329	75.69
253.562	71.69
253.795	85.69
254.028	80.69
254.261	93.69
254.494	69.69
254.727	100.69
254.96	74.69
255.193	76.69
255.426	79.69
255.659	81.69
255.892	70.69
256.124	76.69
256.357	80.69
256.59	69.69
256.823	78.69
257.056	75.69
257.289	77.69
257.521	77.69
257.754	91.69
257.987	81.69
258.22	83.69
258.452	73.69
258.685	92.69
258.918	85.69
259.151	83.69
259.383	88.69
259.616	66.69
259.849	81.69
260.081	82.69
260.314	90.69
260.547	87.69
260.779	88.69
261.012	74.69
261.244	91.69
261.477	99.69
261.71	81.69
261.942	89.69
262.175	99.69
262.407	93.69
262.64	79.69
262.872	83.69
263.105	80.69
263.337	81.69
263.57	82.69
263.802	77.69
264.035	88.69
264.267	104.69
264.499	87.69
264.732	90.69
264.964	83.69
265.197	83.69
265.429	71.69
265.661	76.69
265.894	78.69
266.126	94.69
266.358	81.69
266.591	83.69
266.823	89.69
267.055	88.69
267.287	76.69
267.52	94.69
267.752	85.69
267.984	99.69
268.216	82.69
268.448	87.69
268.681	92.69
268.913	79.69
269.145	91.69
269.377	81.69
269.609	85.69
269.841	75.69
270.073	81.69
270.306	85.69
270.538	89.69
270.77	81.69
271.002	89.69
271.234	84.69
271.466	77.69
271.698	87.69
271.93	95.69
272.162	99.69
272.394	95.69
272.626	78.69
272.858	90.69
273.09	89.69
273.322	85.69
273.553	80.69
273.785	85.69
274.017	71.69
274.249	94.69
274.481	92.69
274.713	96.69
274.945	73.69
275.176	84.69
275.408	89.69
275.64	90.69
275.872	93.69
276.104	84.69
276.335	87.69
276.567	83.69
276.799	93.69
277.031	93.69
277.262	85.69
277.494	81.69
277.726	85.69
277.957	92.69
278.189	87.69
278.421	101.69
278.652	82.69
278.884	91.69
279.115	93.69
279.347	68.69
279.579	79.69
279.81	83.69
280.042	92.69
280.273	82.69
280.505	90.69
280.736	87.69
280.968	95.69
281.199	73.69
281.431	87.69
281.662	79.69
281.894	75.69
282.125	80.69
282.356	82.69
282.588	79.69
282.819	79.69
283.051	81.69
283.282	89.69
283.513	89.69
283.745	89.69
283.976	107.69
284.207	89.69
284.439	92.69
284.67	94.69
284.901	81.69
285.132	78.69
285.364	80.69
285.595	85.69
285.826	87.69
286.057	83.69
286.288	86.69
286.52	92.69
286.751	76.69
286.982	100.69
287.213	84.69
287.444	87.69
287.675	90.69
287.906	85.69
288.138	73.69
288.369	94.69
288.6	80.69
288.831	99.69
289.062	69.69
289.293	72.69
289.524	89.69
289.755	90.69
289.986	83.69
290.217	78.69
290.448	84.69
290.679	84.69
290.91	94.69
291.141	105.69
291.371	87.69
291.602	91.69
291.833	101.69
292.064	92.69
292.295	88.69
292.526	87.69
292.757	77.69
292.987	82.69
293.218	88.69
293.449	97.69
293.68	91.69
293.91	86.69
294.141	94.69
294.372	92.69
294.603	77.69
294.833	85.69
295.064	89.69
295.295	85.69
295.525	88.69
295.756	91.69
295.987	90.69
296.217	89.69
296.448	88.69
296.679	79.69
296.909	89.69
297.14	89.69
297.37	84.69
297.601	79.69
297.831	85.69
298.062	93.69
298.292	81.69
298.523	85.69
298.753	98.69
298.984	98.69
299.214	87.69
299.445	76.69
299.675	93.69
299.905	93.69
300.136	89.69
300.366	92.69
300.597	98.69
300.827	88.69
301.057	85.69
301.288	99.69
301.518	88.69
301.748	86.69
301.979	104.69
302.209	92.69
302.439	100.69
302.669	99.69
302.9	88.69
303.13	87.69
303.36	89.69
303.59	76.69
303.82	72.69
304.051	83.69
304.281	91.69
304.511	96.69
304.741	86.69
304.971	86.69
305.201	92.69
305.431	108.69
305.661	85.69
305.891	83.69
306.121	100.69
306.352	94.69
306.582	90.69
306.812	94.69
307.042	97.69
307.272	89.69
307.502	83.69
307.731	88.69
307.961	92.69
308.191	95.69
308.421	93.69
308.651	86.69
308.881	85.69
309.111	92.69
309.341	91.69
309.571	65.69
309.8	93.69
310.03	79.69
310.26	89.69
310.49	86.69
310.72	95.69
310.949	83.69
311.179	94.69
311.409	85.69
311.639	93.69
311.868	83.69
312.098	80.69
312.328	96.69
312.557	90.69
312.787	80.69
313.017	89.69
313.246	95.69
313.476	97.69
313.706	87.69
313.935	99.69
314.165	87.69
314.394	80.69
314.624	80.69
314.853	100.69
315.083	82.69
315.312	99.69
315.542	90.69
315.771	86.69
316.001	94.69
316.23	90.69
316.46	92.69
316.689	100.69
316.919	101.69
317.148	93.69
317.377	96.69
317.607	96.69
317.836	70.69
318.065	83.69
318.295	81.69
318.524	84.69
318.753	89.69
318.983	85.69
319.212	113.69
319.441	99.69
319.67	87.69
319.9	96.69
320.129	87.69
320.358	82.69
320.587	97.69
320.816	85.69
321.046	93.69
321.275	98.69
321.504	94.69
321.733	88.69
321.962	88.69
322.191	90.69
322.42	92.69
322.649	88.69
322.878	95.69
323.108	89.69
323.337	83.69
323.566	89.69
323.795	85.69
324.024	85.69
324.253	96.69
324.482	93.69
324.71	73.69
324.939	84.69
325.168	83.69
325.397	84.69
325.626	85.69
325.855	74.69
326.084	88.69
326.313	72.69
326.542	77.69
326.77	98.69
326.999	89.69
327.228	92.69
327.457	93.69
327.686	87.69
327.914	78.69
328.143	84.69
328.372	83.69
328.6	93.69
328.829	95.69
329.058	90.69
329.287	83.69
329.515	83.69
329.744	83.69
329.972	80.69
330.201	83.69
330.43	89.69
330.658	85.69
330.887	83.69
331.115	81.69
331.344	94.69
331.572	95.69
331.801	88.69
332.03	90.69
332.258	94.69
332.486	97.69
332.715	83.69
332.943	88.69
333.172	91.69
333.4	83.69
333.629	87.69
333.857	92.69
334.085	76.69
334.314	94.69
334.542	73.69
334.771	84.69
334.999	90.69
335.227	92.69
335.455	85.69
335.684	94.69
335.912	92.69
336.14	87.69
336.369	81.69
336.597	85.69
336.825	85.69
337.053	91.69
337.281	98.69
337.51	77.69
337.738	82.69
337.966	100.69
338.194	79.69
338.422	80.69
338.65	84.69
338.878	94.69
339.106	89.69
339.334	91.69
339.562	78.69
339.79	80.69
340.018	100.69
340.246	88.69
340.474	76.69
340.702	86.69
340.93	93.69
341.158	85.69
341.386	93.69
341.614	90.69
341.842	84.69
342.07	90.69
342.298	76.69
342.526	97.69
342.754	68.69
342.981	81.69
343.209	76.69
343.437	93.69
343.665	96.69
343.893	96.69
344.12	91.69
344.348	90.69
344.576	73.69
344.804	87.69
345.031	71.69
345.259	81.69
345.487	96.69
345.714	87.69
345.942	83.69
346.17	98.69
346.397	87.69
346.625	85.69
346.853	96.69
347.08	87.69
347.308	86.69
347.535	92.69
347.763	88.69
347.99	93.69
348.218	74.69
348.445	81.69
348.673	85.69
348.9	89.69
349.128	84.69
349.355	79.69
349.583	88.69
349.81	88.69
350.037	91.69
350.265	86.69
350.492	88.69
350.72	90.69
350.947	88.69
351.174	108.69
351.402	90.69
351.629	84.69
351.856	89.69
352.083	79.69
352.311	71.69
352.538	93.69
352.765	77.69
352.992	88.69
353.22	95.69
353.447	88.69
353.674	76.69
353.901	78.69
354.128	86.69
354.355	80.69
354.583	81.69
354.81	92.69
355.037	80.69
355.264	83.69
355.491	85.69
355.718	75.69
355.945	88.69
356.172	81.69
356.399	83.69
356.626	72.69
356.853	85.69
357.08	83.69
357.307	82.69
357.534	84.69
357.761	87.69
357.988	88.69
358.215	102.69
358.441	74.69
358.668	86.69
358.895	74.69
359.122	79.69
359.349	89.69
359.576	82.69
359.802	75.69
360.029	90.69
360.256	87.69
360.483	81.69
360.709	91.69
360.936	87.69
361.163	90.69
361.39	81.69
361.616	87.69
361.843	80.69
362.07	93.69
362.296	95.69
362.523	80.69
362.749	73.69
362.976	78.69
363.203	82.69
363.429	93.69
363.656	97.69
363.882	80.69
364.109	91.69
364.335	88.69
364.562	78.69
364.788	84.69
365.015	90.69
365.241	82.69
365.468	74.69
365.694	83.69
365.92	103.69
366.147	83.69
366.373	84.69
366.599	85.69
366.826	89.69
367.052	81.69
367.278	90.69
367.505	73.69
367.731	91.69
367.957	83.69
368.184	84.69
368.41	90.69
368.636	83.69
368.862	79.69
369.089	81.69
369.315	91.69
369.541	96.69
369.767	74.69
369.993	81.69
370.219	96.69
370.445	91.69
370.672	84.69
370.898	80.69
371.124	84.69
371.35	92.69
371.576	82.69
371.802	69.69
372.028	86.69
372.254	80.69
372.48	82.69
372.706	89.69
372.932	91.69
373.158	66.69
373.384	83.69
373.61	92.69
373.835	80.69
374.061	98.69
374.287	100.69
374.513	84.69
374.739	76.69
374.965	89.69
375.191	84.69
375.416	72.69
375.642	79.69
375.868	85.69
376.094	77.69
376.319	89.69
376.545	84.69
376.771	76.69
376.997	97.69
377.222	74.69
377.448	76.69
377.674	88.69
377.899	89.69
378.125	80.69
378.35	90.69
378.576	89.69
378.802	71.69
379.027	86.69
379.253	83.69
379.478	91.69
379.704	89.69
379.929	99.69
380.155	75.69
380.38	100.69
380.606	91.69
380.831	80.69
381.057	96.69
381.282	91.69
381.507	87.69
381.733	72.69
381.958	74.69
382.184	82.69
382.409	91.69
382.634	81.69
382.86	63.69
383.085	83.69
383.31	77.69
383.535	88.69
383.761	89.69
383.986	93.69
384.211	77.69
384.436	73.69
384.662	75.69
384.887	76.69
385.112	66.69
385.337	82.69
385.562	79.69
385.787	76.69
386.013	81.69
386.238	82.69
386.463	84.69
386.688	85.69
386.913	78.69
387.138	75.69
387.363	80.69
387.588	93.69
387.813	79.69
388.038	83.69
388.263	72.69
388.488	89.69
388.713	92.69
388.938	76.69
389.163	104.69
389.387	92.69
389.612	70.69
389.837	73.69
390.062	88.69
390.287	91.69
390.512	83.69
390.736	87.69
390.961	69.69
391.186	68.69
391.411	73.69
391.636	78.69
391.86	73.69
392.085	95.69
392.31	70.69
392.534	85.69
392.759	79.69
392.984	79.69
393.208	87.69
393.433	90.69
393.658	78.69
393.882	83.69
394.107	89.69
394.331	73.69
394.556	70.69
394.78	88.69
395.005	87.69
395.229	94.69
395.454	81.69
395.678	93.69
395.903	81.69
396.127	97.69
396.352	81.69
396.576	79.69
396.801	81.69
397.025	79.69
397.249	93.69
397.474	89.69
397.698	97.69
397.922	92.69
398.147	96.69
398.371	88.69
398.595	95.69
398.82	83.69
399.044	77.69
399.268	83.69
399.492	88.69
399.717	80.69
399.941	77.69
400.165	83.69
400.389	88.69
400.613	78.69
400.837	76.69
401.062	69.69
401.286	92.69
401.51	89.69
401.734	83.69
401.958	81.69
402.182	80.69
402.406	90.69
402.63	91.69
402.854	88.69
403.078	81.69
403.302	85.69
403.526	76.69
403.75	81.69
403.974	67.69
404.198	96.69
404.422	73.69
404.645	75.69
404.869	75.69
405.093	83.69
405.317	95.69
405.541	83.69
405.765	77.69
405.988	73.69
406.212	80.69
406.436	82.69
406.66	89.69
406.883	91.69
407.107	83.69
407.331	79.69
407.555	94.69
407.778	85.69
408.002	74.69
408.226	74.69
408.449	82.69
408.673	74.69
408.896	77.69
409.12	87.69
409.344	89.69
409.567	71.69
409.791	87.69
410.014	85.69
410.238	84.69
410.461	90.69
410.685	93.69
410.908	88.69
411.132	80.69
411.355	75.69
411.578	84.69
411.802	85.69
412.025	91.69
412.249	71.69
412.472	81.69
412.695	79.69
412.919	80.69
413.142	87.69
413.365	79.69
413.589	88.69
413.812	93.69
414.035	84.69
414.258	75.69
414.482	81.69
414.705	70.69
414.928	82.69
415.151	94.69
415.374	90.69
415.597	84.69
415.821	90.69
416.044	88.69
416.267	87.69
416.49	77.69
416.713	73.69
416.936	87.69
417.159	86.69
417.382	78.69
417.605	87.69
417.828	85.69
418.051	74.69
418.274	75.69
418.497	80.69
418.72	97.69
418.943	89.69
419.166	92.69
419.389	82.69
419.611	85.69
419.834	87.69
420.057	86.69
420.28	83.69
420.503	81.69
420.726	71.69
420.948	80.69
421.171	84.69
421.394	65.69
421.617	80.69
421.839	65.69
422.062	75.69
422.285	79.69
422.507	78.69
422.73	80.69
422.953	82.69
423.175	89.69
423.398	82.69
423.621	81.69
423.843	90.69
424.066	75.69
424.288	74.69
424.511	82.69
424.733	82.69
424.956	88.69
425.178	78.69
425.401	75.69
425.623	89.69
425.846	90.69
426.068	82.69
426.291	93.69
426.513	101.69
426.735	84.69
426.958	82.69
427.18	84.69
427.402	70.69
427.625	68.69
427.847	77.69
428.069	93.69
428.292	94.69
428.514	82.69
428.736	72.69
428.958	87.69
429.181	88.69
429.403	75.69
429.625	83.69
429.847	82.69
430.069	76.69
430.292	92.69
430.514	82.69
430.736	77.69
430.958	87.69
431.18	91.69
431.402	78.69
431.624	95.69
431.846	95.69
432.068	77.69
432.29	76.69
432.512	83.69
432.734	77.69
432.956	75.69
433.178	87.69
433.4	83.69
433.622	83.69
433.844	89.69
434.066	79.69
434.287	75.69
434.509	74.69
434.731	86.69
434.953	72.69
435.175	67.69
435.397	83.69
435.618	87.69
435.84	92.69
436.062	81.69
436.284	77.69
436.505	82.69
436.727	82.69
436.949	92.69
437.17	96.69
437.392	80.69
437.614	91.69
437.835	81.69
438.057	98.69
438.278	93.69
438.5	91.69
438.721	85.69
438.943	87.69
439.165	85.69
439.386	89.69
439.608	76.69
439.829	84.69
440.05	86.69
440.272	93.69
440.493	80.69
440.715	95.69
440.936	101.69
441.158	86.69
441.379	88.69
441.6	91.69
441.822	96.69
442.043	64.69
442.264	73.69
442.486	94.69
442.707	82.69
442.928	91.69
443.149	92.69
443.371	85.69
443.592	85.69
443.813	73.69
444.034	80.69
444.255	88.69
444.476	86.69
444.698	88.69
444.919	84.69
445.14	151.69
445.361	100.69
445.582	94.69
445.803	83.69
446.024	78.69
446.245	87.69
446.466	81.69
446.687	89.69
446.908	91.69
447.129	90.69
447.35	96.69
447.571	73.69
447.792	100.69
448.013	70.69
448.234	93.69
448.455	83.69
448.675	84.69
448.896	74.69
449.117	91.69
449.338	87.69
449.559	76.69
449.779	75.69
450	90.69
450.221	69.69
450.442	81.69
450.662	73.69
450.883	78.69
451.104	73.69
451.324	89.69
451.545	92.69
451.766	90.69
451.986	89.69
452.207	76.69
452.428	75.69
452.648	86.69
452.869	80.69
453.089	88.69
453.31	86.69
453.53	96.69
453.751	76.69
453.971	89.69
454.192	77.69
454.412	79.69
454.633	89.69
454.853	86.69
455.073	91.69
455.294	87.69
455.514	84.69
455.734	87.69
455.955	83.69
456.175	108.69
456.395	83.69
456.616	84.69
456.836	91.69
457.056	91.69
457.276	92.69
457.497	89.69
457.717	75.69
457.937	95.69
458.157	67.69
458.377	81.69
458.598	82.69
458.818	85.69
459.038	92.69
459.258	82.69
459.478	87.69
459.698	76.69
459.918	92.69
460.138	92.69
460.358	88.69
460.578	92.69
460.798	83.69
461.018	84.69
461.238	97.69
461.458	81.69
461.678	79.69
461.898	77.69
462.118	75.69
462.338	88.69
462.558	75.69
462.777	82.69
462.997	95.69
463.217	65.69
463.437	79.69
463.657	87.69
463.876	78.69
464.096	82.69
464.316	78.69
464.536	84.69
464.755	94.69
464.975	72.69
465.195	81.69
465.414	93.69
465.634	91.69
465.854	89.69
466.073	82.69
466.293	79.69
466.512	93.69
466.732	93.69
466.951	85.69
467.171	91.69
467.391	88.69
467.61	78.69
467.829	88.69
468.049	85.69
468.268	91.69
468.488	85.69
468.707	88.69
468.927	81.69
469.146	89.69
469.365	79.69
469.585	79.69
469.804	72.69
470.023	66.69
470.243	92.69
470.462	83.69
470.681	85.69
470.901	79.69
471.12	90.69
471.339	78.69
471.558	87.69
471.777	98.69
471.997	88.69
472.216	87.69
472.435	87.69
472.654	82.69
472.873	94.69
473.092	89.69
473.311	78.69
473.53	73.69
473.749	92.69
473.968	103.69
474.187	93.69
474.406	99.69
474.625	108.69
474.844	85.69
475.063	83.69
475.282	88.69
475.501	89.69
475.72	97.69
475.939	76.69
476.158	86.69
476.377	81.69
476.596	76.69
476.814	79.69
477.033	82.69
477.252	86.69
477.471	97.69
477.69	85.69
477.908	83.69
478.127	95.69
478.346	92.69
478.564	83.69
478.783	108.69
479.002	94.69
479.22	83.69
479.439	94.69
479.658	79.69
479.876	94.69
480.095	85.69
480.313	87.69
480.532	91.69
480.751	83.69
480.969	74.69
481.188	88.69
481.406	79.69
481.624	90.69
481.843	66.69
482.061	77.69
482.28	95.69
482.498	79.69
482.717	88.69
482.935	83.69
483.153	87.69
483.372	96.69
483.59	90.69
483.808	73.69
484.027	94.69
484.245	79.69
484.463	89.69
484.681	80.69
484.9	88.69
485.118	75.69
485.336	91.69
485.554	88.69
485.772	87.69
485.99	75.69
486.209	98.69
486.427	93.69
486.645	85.69
486.863	81.69
487.081	91.69
487.299	69.69
487.517	95.69
487.735	95.69
487.953	87.69
488.171	82.69
488.389	95.69
488.607	83.69
488.825	87.69
489.043	84.69
489.261	85.69
489.479	83.69
489.696	79.69
489.914	74.69
490.132	105.69
490.35	83.69
490.568	92.69
490.786	92.69
491.003	85.69
491.221	83.69
491.439	86.69
491.657	69.69
491.874	77.69
492.092	90.69
492.31	95.69
492.527	99.69
492.745	88.69
492.963	91.69
493.18	87.69
493.398	90.69
493.615	78.69
493.833	86.69
494.05	83.69
494.268	81.69
494.485	90.69
494.703	79.69
494.92	95.69
495.138	82.69
495.355	83.69
495.573	87.69
495.79	89.69
496.008	86.69
496.225	83.69
496.442	93.69
496.66	99.69
496.877	93.69
497.094	100.69
497.312	91.69
497.529	90.69
497.746	86.69
497.963	92.69
498.181	83.69
498.398	90.69
498.615	105.69
498.832	78.69
499.049	68.69
499.267	90.69
499.484	69.69
499.701	96.69
499.918	86.69
500.135	74.69
500.352	74.69
500.569	77.69
500.786	75.69
501.003	85.69
501.22	86.69
501.437	91.69
501.654	82.69
501.871	88.69
502.088	80.69
502.305	86.69
502.522	89.69
502.739	84.69
502.956	77.69
503.172	92.69
503.389	85.69
503.606	92.69
503.823	84.69
504.04	93.69
504.256	86.69
504.473	69.69
504.69	69.69
504.907	87.69
505.123	94.69
505.34	84.69
505.557	82.69
505.773	91.69
505.99	84.69
506.207	92.69
506.423	77.69
506.64	81.69
506.856	76.69
507.073	87.69
507.289	87.69
507.506	87.69
507.722	81.69
507.939	86.69
508.155	86.69
508.372	76.69
508.588	91.69
508.805	96.69
509.021	83.69
509.238	91.69
509.454	92.69
509.67	92.69
509.887	96.69
510.103	85.69
510.319	90.69
510.536	91.69
510.752	82.69
510.968	90.69
511.184	79.69
511.401	89.69
511.617	93.69
511.833	90.69
512.049	76.69
512.265	76.69
512.481	73.69
512.698	84.69
512.914	96.69
513.13	98.69
513.346	85.69
513.562	85.69
513.778	86.69
513.994	87.69
514.21	84.69
514.426	81.69
514.642	77.69
514.858	92.69
515.074	78.69
515.29	91.69
515.506	96.69
515.721	97.69
515.937	80.69
516.153	93.69
516.369	103.69
516.585	85.69
516.801	91.69
517.016	95.69
517.232	87.69
517.448	80.69
517.664	85.69
517.879	86.69
518.095	83.69
518.311	85.69
518.527	72.69
518.742	82.69
518.958	78.69
519.173	83.69
519.389	80.69
519.605	85.69
519.82	80.69
