Data from BG_HRD10591_015.txt Node
Date: Fri May 16 15:14:30 EDT 2025
User: Yrep
Spectrometer: HR+D1059
Trigger mode: 1
Integration Time (sec): 1.000000E-1
Scans to average: 1
Electric dark correction enabled: true
Nonlinearity correction enabled: false
Boxcar width: 0
XAxis mode: Wavelengths
Number of Pixels in Spectrum: 2048
>>>>>Begin Spectral Data<<<<<
223.165	-14.06
223.4	-14.06
223.635	-14.06
223.869	-11.06
224.104	-9.06
224.338	-11.06
224.573	-10.06
224.808	-17.06
225.042	0.94
225.277	-13.06
225.511	3.94
225.746	10.94
225.98	6.94
226.215	9.94
226.449	17.94
226.683	0.94
226.918	11.94
227.152	21.94
227.387	37.94
227.621	39.94
227.856	48.94
228.09	62.94
228.324	50.94
228.559	50.94
228.793	50.94
229.027	71.94
229.262	69.94
229.496	70.94
229.73	78.94
229.964	72.94
230.199	72.94
230.433	81.94
230.667	77.94
230.901	74.94
231.136	83.94
231.37	66.94
231.604	78.94
231.838	95.94
232.072	94.94
232.306	72.94
232.541	88.94
232.775	93.94
233.009	71.94
233.243	79.94
233.477	88.94
233.711	69.94
233.945	76.94
234.179	74.94
234.413	75.94
234.647	76.94
234.881	85.94
235.115	91.94
235.349	60.94
235.583	79.94
235.817	78.94
236.051	77.94
236.285	89.94
236.519	79.94
236.753	65.94
236.987	84.94
237.221	78.94
237.455	66.94
237.689	72.94
237.922	70.94
238.156	70.94
238.39	95.94
238.624	83.94
238.858	83.94
239.091	77.94
239.325	73.94
239.559	74.94
239.793	78.94
240.027	81.94
240.26	80.94
240.494	74.94
240.728	69.94
240.961	92.94
241.195	88.94
241.429	57.94
241.662	63.94
241.896	73.94
242.13	76.94
242.363	70.94
242.597	76.94
242.83	87.94
243.064	65.94
243.298	75.94
243.531	83.94
243.765	96.94
243.998	83.94
244.232	61.94
244.465	57.94
244.699	76.94
244.932	79.94
245.166	83.94
245.399	88.94
245.633	75.94
245.866	57.94
246.099	63.94
246.333	84.94
246.566	84.94
246.8	81.94
247.033	81.94
247.266	79.94
247.5	77.94
247.733	86.94
247.966	72.94
248.2	73.94
248.433	79.94
248.666	73.94
248.899	82.94
249.133	80.94
249.366	85.94
249.599	74.94
249.832	87.94
250.066	70.94
250.299	85.94
250.532	88.94
250.765	94.94
250.998	91.94
251.231	88.94
251.465	81.94
251.698	82.94
251.931	77.94
252.164	65.94
252.397	74.94
252.63	77.94
252.863	71.94
253.096	80.94
253.329	77.94
253.562	74.94
253.795	84.94
254.028	69.94
254.261	62.94
254.494	75.94
254.727	78.94
254.96	87.94
255.193	70.94
255.426	73.94
255.659	72.94
255.892	79.94
256.124	62.94
256.357	77.94
256.59	75.94
256.823	73.94
257.056	77.94
257.289	66.94
257.521	84.94
257.754	76.94
257.987	94.94
258.22	77.94
258.452	80.94
258.685	77.94
258.918	80.94
259.151	78.94
259.383	85.94
259.616	75.94
259.849	87.94
260.081	87.94
260.314	80.94
260.547	64.94
260.779	78.94
261.012	73.94
261.244	76.94
261.477	88.94
261.71	85.94
261.942	89.94
262.175	74.94
262.407	66.94
262.64	72.94
262.872	82.94
263.105	83.94
263.337	73.94
263.57	81.94
263.802	87.94
264.035	89.94
264.267	77.94
264.499	70.94
264.732	80.94
264.964	79.94
265.197	84.94
265.429	85.94
265.661	64.94
265.894	79.94
266.126	73.94
266.358	92.94
266.591	80.94
266.823	73.94
267.055	77.94
267.287	94.94
267.52	83.94
267.752	73.94
267.984	85.94
268.216	83.94
268.448	77.94
268.681	81.94
268.913	85.94
269.145	83.94
269.377	83.94
269.609	81.94
269.841	87.94
270.073	96.94
270.306	74.94
270.538	78.94
270.77	96.94
271.002	77.94
271.234	92.94
271.466	84.94
271.698	85.94
271.93	86.94
272.162	73.94
272.394	87.94
272.626	96.94
272.858	94.94
273.09	82.94
273.322	78.94
273.553	77.94
273.785	79.94
274.017	81.94
274.249	78.94
274.481	78.94
274.713	81.94
274.945	91.94
275.176	75.94
275.408	88.94
275.64	76.94
275.872	80.94
276.104	90.94
276.335	79.94
276.567	74.94
276.799	76.94
277.031	92.94
277.262	72.94
277.494	69.94
277.726	89.94
277.957	86.94
278.189	78.94
278.421	70.94
278.652	84.94
278.884	88.94
279.115	93.94
279.347	91.94
279.579	75.94
279.81	79.94
280.042	82.94
280.273	80.94
280.505	85.94
280.736	80.94
280.968	69.94
281.199	84.94
281.431	88.94
281.662	76.94
281.894	91.94
282.125	76.94
282.356	91.94
282.588	85.94
282.819	77.94
283.051	83.94
283.282	85.94
283.513	94.94
283.745	82.94
283.976	72.94
284.207	79.94
284.439	88.94
284.67	79.94
284.901	85.94
285.132	78.94
285.364	93.94
285.595	84.94
285.826	85.94
286.057	87.94
286.288	85.94
286.52	66.94
286.751	88.94
286.982	86.94
287.213	71.94
287.444	79.94
287.675	94.94
287.906	89.94
288.138	86.94
288.369	89.94
288.6	78.94
288.831	87.94
289.062	83.94
289.293	84.94
289.524	82.94
289.755	84.94
289.986	88.94
290.217	82.94
290.448	93.94
290.679	91.94
290.91	83.94
291.141	76.94
291.371	96.94
291.602	79.94
291.833	77.94
292.064	78.94
292.295	75.94
292.526	88.94
292.757	80.94
292.987	91.94
293.218	79.94
293.449	91.94
293.68	78.94
293.91	80.94
294.141	80.94
294.372	87.94
294.603	97.94
294.833	81.94
295.064	74.94
295.295	88.94
295.525	87.94
295.756	84.94
295.987	79.94
296.217	88.94
296.448	102.94
296.679	87.94
296.909	95.94
297.14	85.94
297.37	76.94
297.601	77.94
297.831	77.94
298.062	103.94
298.292	85.94
298.523	87.94
298.753	85.94
298.984	89.94
299.214	78.94
299.445	83.94
299.675	88.94
299.905	78.94
300.136	91.94
300.366	74.94
300.597	75.94
300.827	94.94
301.057	91.94
301.288	82.94
301.518	75.94
301.748	89.94
301.979	91.94
302.209	81.94
302.439	81.94
302.669	90.94
302.9	86.94
303.13	85.94
303.36	83.94
303.59	88.94
303.82	72.94
304.051	90.94
304.281	86.94
304.511	75.94
304.741	80.94
304.971	84.94
305.201	75.94
305.431	84.94
305.661	82.94
305.891	80.94
306.121	87.94
306.352	81.94
306.582	85.94
306.812	89.94
307.042	80.94
307.272	94.94
307.502	58.94
307.731	86.94
307.961	87.94
308.191	72.94
308.421	84.94
308.651	93.94
308.881	81.94
309.111	80.94
309.341	80.94
309.571	80.94
309.8	75.94
310.03	80.94
310.26	92.94
310.49	82.94
310.72	77.94
310.949	93.94
311.179	87.94
311.409	76.94
311.639	80.94
311.868	86.94
312.098	84.94
312.328	81.94
312.557	86.94
312.787	95.94
313.017	79.94
313.246	78.94
313.476	77.94
313.706	70.94
313.935	72.94
314.165	87.94
314.394	80.94
314.624	91.94
314.853	87.94
315.083	74.94
315.312	92.94
315.542	76.94
315.771	67.94
316.001	83.94
316.23	83.94
316.46	83.94
316.689	100.94
316.919	83.94
317.148	76.94
317.377	93.94
317.607	80.94
317.836	87.94
318.065	86.94
318.295	82.94
318.524	84.94
318.753	79.94
318.983	83.94
319.212	84.94
319.441	87.94
319.67	84.94
319.9	73.94
320.129	78.94
320.358	78.94
320.587	91.94
320.816	84.94
321.046	85.94
321.275	78.94
321.504	89.94
321.733	91.94
321.962	80.94
322.191	71.94
322.42	81.94
322.649	81.94
322.878	95.94
323.108	75.94
323.337	79.94
323.566	95.94
323.795	85.94
324.024	74.94
324.253	93.94
324.482	84.94
324.71	77.94
324.939	86.94
325.168	87.94
325.397	63.94
325.626	70.94
325.855	79.94
326.084	79.94
326.313	80.94
326.542	87.94
326.77	93.94
326.999	80.94
327.228	87.94
327.457	94.94
327.686	83.94
327.914	82.94
328.143	60.94
328.372	83.94
328.6	63.94
328.829	87.94
329.058	63.94
329.287	85.94
329.515	87.94
329.744	79.94
329.972	94.94
330.201	78.94
330.43	83.94
330.658	76.94
330.887	78.94
331.115	84.94
331.344	84.94
331.572	82.94
331.801	76.94
332.03	91.94
332.258	84.94
332.486	90.94
332.715	92.94
332.943	88.94
333.172	76.94
333.4	89.94
333.629	83.94
333.857	83.94
334.085	85.94
334.314	78.94
334.542	90.94
334.771	71.94
334.999	72.94
335.227	81.94
335.455	76.94
335.684	82.94
335.912	95.94
336.14	97.94
336.369	84.94
336.597	81.94
336.825	63.94
337.053	96.94
337.281	92.94
337.51	87.94
337.738	79.94
337.966	83.94
338.194	76.94
338.422	80.94
338.65	91.94
338.878	86.94
339.106	77.94
339.334	76.94
339.562	86.94
339.79	98.94
340.018	81.94
340.246	90.94
340.474	74.94
340.702	72.94
340.93	88.94
341.158	84.94
341.386	88.94
341.614	77.94
341.842	80.94
342.07	83.94
342.298	89.94
342.526	94.94
342.754	66.94
342.981	92.94
343.209	87.94
343.437	89.94
343.665	88.94
343.893	87.94
344.12	82.94
344.348	96.94
344.576	84.94
344.804	83.94
345.031	89.94
345.259	80.94
345.487	87.94
345.714	88.94
345.942	87.94
346.17	81.94
346.397	88.94
346.625	80.94
346.853	77.94
347.08	74.94
347.308	92.94
347.535	87.94
347.763	88.94
347.99	94.94
348.218	76.94
348.445	78.94
348.673	89.94
348.9	79.94
349.128	86.94
349.355	79.94
349.583	88.94
349.81	79.94
350.037	87.94
350.265	80.94
350.492	79.94
350.72	78.94
350.947	72.94
351.174	74.94
351.402	89.94
351.629	85.94
351.856	93.94
352.083	89.94
352.311	78.94
352.538	82.94
352.765	83.94
352.992	91.94
353.22	80.94
353.447	87.94
353.674	82.94
353.901	81.94
354.128	81.94
354.355	87.94
354.583	73.94
354.81	76.94
355.037	77.94
355.264	81.94
355.491	65.94
355.718	76.94
355.945	77.94
356.172	84.94
356.399	75.94
356.626	93.94
356.853	92.94
357.08	77.94
357.307	80.94
357.534	99.94
357.761	75.94
357.988	78.94
358.215	73.94
358.441	78.94
358.668	68.94
358.895	68.94
359.122	72.94
359.349	77.94
359.576	84.94
359.802	80.94
360.029	95.94
360.256	85.94
360.483	91.94
360.709	78.94
360.936	87.94
361.163	76.94
361.39	81.94
361.616	84.94
361.843	80.94
362.07	74.94
362.296	92.94
362.523	79.94
362.749	96.94
362.976	92.94
363.203	87.94
363.429	89.94
363.656	75.94
363.882	66.94
364.109	77.94
364.335	80.94
364.562	87.94
364.788	79.94
365.015	73.94
365.241	83.94
365.468	89.94
365.694	78.94
365.92	87.94
366.147	100.94
366.373	75.94
366.599	78.94
366.826	75.94
367.052	91.94
367.278	70.94
367.505	87.94
367.731	84.94
367.957	66.94
368.184	83.94
368.41	68.94
368.636	73.94
368.862	57.94
369.089	76.94
369.315	84.94
369.541	86.94
369.767	85.94
369.993	89.94
370.219	76.94
370.445	85.94
370.672	92.94
370.898	87.94
371.124	83.94
371.35	81.94
371.576	83.94
371.802	86.94
372.028	83.94
372.254	77.94
372.48	82.94
372.706	77.94
372.932	82.94
373.158	73.94
373.384	84.94
373.61	69.94
373.835	84.94
374.061	81.94
374.287	79.94
374.513	65.94
374.739	77.94
374.965	78.94
375.191	85.94
375.416	94.94
375.642	80.94
375.868	85.94
376.094	69.94
376.319	94.94
376.545	70.94
376.771	69.94
376.997	75.94
377.222	85.94
377.448	71.94
377.674	81.94
377.899	75.94
378.125	81.94
378.35	93.94
378.576	82.94
378.802	81.94
379.027	83.94
379.253	67.94
379.478	80.94
379.704	74.94
379.929	92.94
380.155	79.94
380.38	92.94
380.606	79.94
380.831	76.94
381.057	68.94
381.282	82.94
381.507	70.94
381.733	73.94
381.958	86.94
382.184	79.94
382.409	87.94
382.634	74.94
382.86	75.94
383.085	75.94
383.31	66.94
383.535	72.94
383.761	87.94
383.986	85.94
384.211	83.94
384.436	72.94
384.662	85.94
384.887	73.94
385.112	61.94
385.337	67.94
385.562	71.94
385.787	80.94
386.013	87.94
386.238	80.94
386.463	73.94
386.688	93.94
386.913	95.94
387.138	91.94
387.363	83.94
387.588	86.94
387.813	88.94
388.038	65.94
388.263	73.94
388.488	49.94
388.713	76.94
388.938	80.94
389.163	76.94
389.387	72.94
389.612	77.94
389.837	79.94
390.062	75.94
390.287	77.94
390.512	76.94
390.736	81.94
390.961	64.94
391.186	67.94
391.411	77.94
391.636	84.94
391.86	78.94
392.085	76.94
392.31	85.94
392.534	80.94
392.759	81.94
392.984	89.94
393.208	79.94
393.433	83.94
393.658	74.94
393.882	59.94
394.107	70.94
394.331	77.94
394.556	75.94
394.78	89.94
395.005	77.94
395.229	93.94
395.454	77.94
395.678	79.94
395.903	83.94
396.127	71.94
396.352	80.94
396.576	88.94
396.801	86.94
397.025	79.94
397.249	75.94
397.474	89.94
397.698	82.94
397.922	84.94
398.147	75.94
398.371	83.94
398.595	88.94
398.82	74.94
399.044	58.94
399.268	71.94
399.492	75.94
399.717	90.94
399.941	91.94
400.165	98.94
400.389	80.94
400.613	54.94
400.837	91.94
401.062	85.94
401.286	81.94
401.51	79.94
401.734	83.94
401.958	72.94
402.182	96.94
402.406	73.94
402.63	77.94
402.854	64.94
403.078	75.94
403.302	74.94
403.526	82.94
403.75	85.94
403.974	79.94
404.198	85.94
404.422	87.94
404.645	86.94
404.869	74.94
405.093	92.94
405.317	68.94
405.541	69.94
405.765	69.94
405.988	77.94
406.212	91.94
406.436	73.94
406.66	80.94
406.883	85.94
407.107	81.94
407.331	80.94
407.555	71.94
407.778	81.94
408.002	83.94
408.226	77.94
408.449	86.94
408.673	70.94
408.896	80.94
409.12	77.94
409.344	66.94
409.567	74.94
409.791	74.94
410.014	77.94
410.238	54.94
410.461	90.94
410.685	83.94
410.908	73.94
411.132	82.94
411.355	72.94
411.578	71.94
411.802	79.94
412.025	79.94
412.249	56.94
412.472	79.94
412.695	85.94
412.919	84.94
413.142	99.94
413.365	88.94
413.589	83.94
413.812	69.94
414.035	86.94
414.258	88.94
414.482	92.94
414.705	75.94
414.928	72.94
415.151	69.94
415.374	65.94
415.597	86.94
415.821	79.94
416.044	90.94
416.267	73.94
416.49	70.94
416.713	73.94
416.936	68.94
417.159	76.94
417.382	78.94
417.605	82.94
417.828	78.94
418.051	80.94
418.274	76.94
418.497	68.94
418.72	78.94
418.943	77.94
419.166	77.94
419.389	84.94
419.611	84.94
419.834	78.94
420.057	83.94
420.28	77.94
420.503	83.94
420.726	86.94
420.948	77.94
421.171	65.94
421.394	86.94
421.617	71.94
421.839	79.94
422.062	83.94
422.285	76.94
422.507	94.94
422.73	75.94
422.953	88.94
423.175	87.94
423.398	79.94
423.621	89.94
423.843	88.94
424.066	73.94
424.288	85.94
424.511	84.94
424.733	84.94
424.956	88.94
425.178	89.94
425.401	93.94
425.623	75.94
425.846	77.94
426.068	84.94
426.291	79.94
426.513	66.94
426.735	79.94
426.958	77.94
427.18	67.94
427.402	69.94
427.625	71.94
427.847	66.94
428.069	81.94
428.292	74.94
428.514	84.94
428.736	79.94
428.958	78.94
429.181	84.94
429.403	82.94
429.625	65.94
429.847	69.94
430.069	68.94
430.292	82.94
430.514	89.94
430.736	70.94
430.958	81.94
431.18	87.94
431.402	85.94
431.624	74.94
431.846	79.94
432.068	76.94
432.29	79.94
432.512	77.94
432.734	77.94
432.956	78.94
433.178	83.94
433.4	91.94
433.622	87.94
433.844	75.94
434.066	79.94
434.287	73.94
434.509	84.94
434.731	85.94
434.953	80.94
435.175	81.94
435.397	89.94
435.618	91.94
435.84	71.94
436.062	83.94
436.284	93.94
436.505	85.94
436.727	78.94
436.949	71.94
437.17	73.94
437.392	84.94
437.614	81.94
437.835	87.94
438.057	80.94
438.278	73.94
438.5	70.94
438.721	75.94
438.943	79.94
439.165	81.94
439.386	68.94
439.608	84.94
439.829	78.94
440.05	89.94
440.272	71.94
440.493	75.94
440.715	73.94
440.936	80.94
441.158	85.94
441.379	85.94
441.6	80.94
441.822	75.94
442.043	93.94
442.264	80.94
442.486	77.94
442.707	84.94
442.928	86.94
443.149	86.94
443.371	70.94
443.592	69.94
443.813	77.94
444.034	76.94
444.255	74.94
444.476	79.94
444.698	79.94
444.919	89.94
445.14	124.94
445.361	99.94
445.582	79.94
445.803	84.94
446.024	71.94
446.245	73.94
446.466	75.94
446.687	94.94
446.908	82.94
447.129	88.94
447.35	83.94
447.571	78.94
447.792	79.94
448.013	86.94
448.234	78.94
448.455	84.94
448.675	80.94
448.896	76.94
449.117	84.94
449.338	100.94
449.559	73.94
449.779	73.94
450	81.94
450.221	90.94
450.442	71.94
450.662	77.94
450.883	78.94
451.104	77.94
451.324	74.94
451.545	87.94
451.766	76.94
451.986	73.94
452.207	70.94
452.428	75.94
452.648	81.94
452.869	87.94
453.089	77.94
453.31	75.94
453.53	89.94
453.751	85.94
453.971	70.94
454.192	77.94
454.412	76.94
454.633	76.94
454.853	84.94
455.073	75.94
455.294	78.94
455.514	74.94
455.734	65.94
455.955	98.94
456.175	87.94
456.395	86.94
456.616	84.94
456.836	81.94
457.056	77.94
457.276	68.94
457.497	75.94
457.717	83.94
457.937	90.94
458.157	83.94
458.377	79.94
458.598	79.94
458.818	84.94
459.038	75.94
459.258	83.94
459.478	75.94
459.698	73.94
459.918	81.94
460.138	89.94
460.358	87.94
460.578	73.94
460.798	73.94
461.018	75.94
461.238	81.94
461.458	76.94
461.678	79.94
461.898	77.94
462.118	87.94
462.338	76.94
462.558	71.94
462.777	81.94
462.997	75.94
463.217	90.94
463.437	92.94
463.657	79.94
463.876	90.94
464.096	89.94
464.316	84.94
464.536	84.94
464.755	66.94
464.975	83.94
465.195	76.94
465.414	80.94
465.634	73.94
465.854	82.94
466.073	77.94
466.293	79.94
466.512	69.94
466.732	78.94
466.951	78.94
467.171	84.94
467.391	93.94
467.61	81.94
467.829	76.94
468.049	82.94
468.268	75.94
468.488	82.94
468.707	78.94
468.927	55.94
469.146	75.94
469.365	89.94
469.585	91.94
469.804	86.94
470.023	80.94
470.243	80.94
470.462	84.94
470.681	84.94
470.901	74.94
471.12	80.94
471.339	72.94
471.558	76.94
471.777	84.94
471.997	84.94
472.216	88.94
472.435	80.94
472.654	85.94
472.873	74.94
473.092	73.94
473.311	72.94
473.53	84.94
473.749	65.94
473.968	84.94
474.187	96.94
474.406	84.94
474.625	81.94
474.844	103.94
475.063	91.94
475.282	84.94
475.501	78.94
475.72	88.94
475.939	82.94
476.158	90.94
476.377	80.94
476.596	72.94
476.814	76.94
477.033	71.94
477.252	82.94
477.471	76.94
477.69	87.94
477.908	89.94
478.127	65.94
478.346	79.94
478.564	84.94
478.783	83.94
479.002	85.94
479.22	69.94
479.439	69.94
479.658	75.94
479.876	83.94
480.095	82.94
480.313	77.94
480.532	85.94
480.751	81.94
480.969	72.94
481.188	96.94
481.406	89.94
481.624	76.94
481.843	88.94
482.061	85.94
482.28	92.94
482.498	86.94
482.717	84.94
482.935	85.94
483.153	73.94
483.372	97.94
483.59	85.94
483.808	87.94
484.027	66.94
484.245	81.94
484.463	94.94
484.681	86.94
484.9	69.94
485.118	81.94
485.336	75.94
485.554	71.94
485.772	67.94
485.99	79.94
486.209	87.94
486.427	84.94
486.645	87.94
486.863	76.94
487.081	87.94
487.299	78.94
487.517	78.94
487.735	78.94
487.953	92.94
488.171	84.94
488.389	89.94
488.607	88.94
488.825	87.94
489.043	92.94
489.261	94.94
489.479	76.94
489.696	89.94
489.914	87.94
490.132	86.94
490.35	69.94
490.568	59.94
490.786	81.94
491.003	75.94
491.221	81.94
491.439	90.94
491.657	83.94
491.874	81.94
492.092	83.94
492.31	78.94
492.527	81.94
492.745	78.94
492.963	81.94
493.18	81.94
493.398	77.94
493.615	62.94
493.833	77.94
494.05	83.94
494.268	79.94
494.485	94.94
494.703	89.94
494.92	83.94
495.138	77.94
495.355	72.94
495.573	71.94
495.79	81.94
496.008	78.94
496.225	77.94
496.442	70.94
496.66	65.94
496.877	83.94
497.094	87.94
497.312	69.94
497.529	81.94
497.746	72.94
497.963	60.94
498.181	77.94
498.398	68.94
498.615	78.94
498.832	89.94
499.049	79.94
499.267	76.94
499.484	86.94
499.701	72.94
499.918	69.94
500.135	81.94
500.352	79.94
500.569	88.94
500.786	90.94
501.003	76.94
501.22	96.94
501.437	89.94
501.654	89.94
501.871	78.94
502.088	80.94
502.305	72.94
502.522	80.94
502.739	86.94
502.956	85.94
503.172	87.94
503.389	79.94
503.606	76.94
503.823	84.94
504.04	77.94
504.256	77.94
504.473	83.94
504.69	87.94
504.907	92.94
505.123	75.94
505.34	65.94
505.557	93.94
505.773	70.94
505.99	80.94
506.207	77.94
506.423	79.94
506.64	84.94
506.856	69.94
507.073	81.94
507.289	81.94
507.506	75.94
507.722	76.94
507.939	74.94
508.155	83.94
508.372	83.94
508.588	74.94
508.805	93.94
509.021	84.94
509.238	94.94
509.454	84.94
509.67	76.94
509.887	76.94
510.103	78.94
510.319	73.94
510.536	92.94
510.752	83.94
510.968	88.94
511.184	76.94
511.401	81.94
511.617	100.94
511.833	89.94
512.049	79.94
512.265	82.94
512.481	85.94
512.698	77.94
512.914	85.94
513.13	79.94
513.346	89.94
513.562	89.94
513.778	76.94
513.994	72.94
514.21	80.94
514.426	72.94
514.642	65.94
514.858	61.94
515.074	85.94
515.29	77.94
515.506	81.94
515.721	89.94
515.937	75.94
516.153	75.94
516.369	87.94
516.585	90.94
516.801	80.94
517.016	83.94
517.232	85.94
517.448	96.94
517.664	68.94
517.879	67.94
518.095	90.94
518.311	70.94
518.527	71.94
518.742	88.94
518.958	74.94
519.173	95.94
519.389	73.94
519.605	78.94
519.82	85.94
520.036	68.94
520.251	76.94
