Data from BG_HRD10591_078.txt Node
Date: Fri May 16 15:15:01 EDT 2025
User: Yrep
Spectrometer: HR+D1059
Trigger mode: 1
Integration Time (sec): 1.000000E-1
Scans to average: 1
Electric dark correction enabled: true
Nonlinearity correction enabled: false
Boxcar width: 0
XAxis mode: Wavelengths
Number of Pixels in Spectrum: 2048
>>>>>Begin Spectral Data<<<<<
223.165	-14.19
223.4	-14.19
223.635	-14.19
223.869	-12.19
224.104	-25.19
224.338	0.81
224.573	-5.19
224.808	-14.19
225.042	-16.19
225.277	-1.19
225.511	-1.19
225.746	-5.19
225.98	8.81
226.215	17.81
226.449	2.81
226.683	20.81
226.918	14.81
227.152	28.81
227.387	38.81
227.621	37.81
227.856	51.81
228.09	38.81
228.324	31.81
228.559	56.81
228.793	55.81
229.027	58.81
229.262	65.81
229.496	76.81
229.73	76.81
229.964	85.81
230.199	67.81
230.433	92.81
230.667	69.81
230.901	74.81
231.136	85.81
231.37	78.81
231.604	96.81
231.838	71.81
232.072	84.81
232.306	87.81
232.541	79.81
232.775	74.81
233.009	87.81
233.243	70.81
233.477	74.81
233.711	76.81
233.945	59.81
234.179	74.81
234.413	78.81
234.647	86.81
234.881	88.81
235.115	81.81
235.349	91.81
235.583	75.81
235.817	62.81
236.051	78.81
236.285	78.81
236.519	88.81
236.753	86.81
236.987	77.81
237.221	86.81
237.455	75.81
237.689	64.81
237.922	88.81
238.156	69.81
238.39	72.81
238.624	71.81
238.858	72.81
239.091	81.81
239.325	74.81
239.559	87.81
239.793	66.81
240.027	73.81
240.26	80.81
240.494	79.81
240.728	80.81
240.961	73.81
241.195	74.81
241.429	77.81
241.662	92.81
241.896	83.81
242.13	94.81
242.363	90.81
242.597	66.81
242.83	77.81
243.064	67.81
243.298	77.81
243.531	77.81
243.765	85.81
243.998	71.81
244.232	80.81
244.465	73.81
244.699	71.81
244.932	89.81
245.166	63.81
245.399	59.81
245.633	87.81
245.866	75.81
246.099	99.81
246.333	74.81
246.566	82.81
246.8	83.81
247.033	95.81
247.266	85.81
247.5	83.81
247.733	77.81
247.966	78.81
248.2	72.81
248.433	69.81
248.666	80.81
248.899	85.81
249.133	88.81
249.366	75.81
249.599	79.81
249.832	73.81
250.066	80.81
250.299	83.81
250.532	70.81
250.765	91.81
250.998	80.81
251.231	74.81
251.465	78.81
251.698	80.81
251.931	75.81
252.164	85.81
252.397	71.81
252.63	85.81
252.863	81.81
253.096	87.81
253.329	77.81
253.562	75.81
253.795	85.81
254.028	69.81
254.261	79.81
254.494	91.81
254.727	82.81
254.96	79.81
255.193	78.81
255.426	72.81
255.659	73.81
255.892	79.81
256.124	89.81
256.357	72.81
256.59	81.81
256.823	83.81
257.056	83.81
257.289	93.81
257.521	73.81
257.754	87.81
257.987	89.81
258.22	71.81
258.452	92.81
258.685	88.81
258.918	86.81
259.151	86.81
259.383	71.81
259.616	89.81
259.849	94.81
260.081	78.81
260.314	78.81
260.547	93.81
260.779	76.81
261.012	83.81
261.244	71.81
261.477	96.81
261.71	95.81
261.942	88.81
262.175	81.81
262.407	84.81
262.64	89.81
262.872	86.81
263.105	77.81
263.337	90.81
263.57	81.81
263.802	85.81
264.035	99.81
264.267	71.81
264.499	77.81
264.732	76.81
264.964	87.81
265.197	86.81
265.429	79.81
265.661	87.81
265.894	92.81
266.126	86.81
266.358	78.81
266.591	97.81
266.823	95.81
267.055	79.81
267.287	84.81
267.52	74.81
267.752	70.81
267.984	85.81
268.216	67.81
268.448	87.81
268.681	85.81
268.913	75.81
269.145	87.81
269.377	78.81
269.609	80.81
269.841	90.81
270.073	73.81
270.306	80.81
270.538	72.81
270.77	79.81
271.002	84.81
271.234	76.81
271.466	79.81
271.698	76.81
271.93	71.81
272.162	79.81
272.394	102.81
272.626	88.81
272.858	90.81
273.09	85.81
273.322	72.81
273.553	74.81
273.785	82.81
274.017	95.81
274.249	92.81
274.481	94.81
274.713	86.81
274.945	91.81
275.176	90.81
275.408	77.81
275.64	86.81
275.872	90.81
276.104	77.81
276.335	83.81
276.567	84.81
276.799	76.81
277.031	74.81
277.262	80.81
277.494	85.81
277.726	79.81
277.957	69.81
278.189	95.81
278.421	85.81
278.652	73.81
278.884	88.81
279.115	81.81
279.347	99.81
279.579	90.81
279.81	110.81
280.042	104.81
280.273	83.81
280.505	92.81
280.736	84.81
280.968	89.81
281.199	84.81
281.431	92.81
281.662	92.81
281.894	92.81
282.125	99.81
282.356	87.81
282.588	92.81
282.819	95.81
283.051	93.81
283.282	92.81
283.513	87.81
283.745	79.81
283.976	83.81
284.207	83.81
284.439	85.81
284.67	63.81
284.901	86.81
285.132	94.81
285.364	99.81
285.595	85.81
285.826	88.81
286.057	81.81
286.288	92.81
286.52	86.81
286.751	85.81
286.982	79.81
287.213	79.81
287.444	91.81
287.675	80.81
287.906	84.81
288.138	71.81
288.369	84.81
288.6	86.81
288.831	79.81
289.062	77.81
289.293	92.81
289.524	85.81
289.755	82.81
289.986	92.81
290.217	93.81
290.448	88.81
290.679	111.81
290.91	83.81
291.141	91.81
291.371	81.81
291.602	87.81
291.833	94.81
292.064	85.81
292.295	70.81
292.526	92.81
292.757	89.81
292.987	95.81
293.218	76.81
293.449	96.81
293.68	94.81
293.91	91.81
294.141	92.81
294.372	81.81
294.603	74.81
294.833	88.81
295.064	76.81
295.295	78.81
295.525	90.81
295.756	89.81
295.987	86.81
296.217	88.81
296.448	85.81
296.679	88.81
296.909	91.81
297.14	88.81
297.37	104.81
297.601	88.81
297.831	93.81
298.062	96.81
298.292	89.81
298.523	93.81
298.753	97.81
298.984	99.81
299.214	92.81
299.445	99.81
299.675	91.81
299.905	87.81
300.136	94.81
300.366	96.81
300.597	95.81
300.827	84.81
301.057	91.81
301.288	86.81
301.518	81.81
301.748	93.81
301.979	102.81
302.209	82.81
302.439	90.81
302.669	87.81
302.9	93.81
303.13	83.81
303.36	80.81
303.59	86.81
303.82	86.81
304.051	92.81
304.281	83.81
304.511	87.81
304.741	86.81
304.971	91.81
305.201	102.81
305.431	79.81
305.661	89.81
305.891	68.81
306.121	89.81
306.352	89.81
306.582	94.81
306.812	85.81
307.042	71.81
307.272	88.81
307.502	87.81
307.731	95.81
307.961	92.81
308.191	95.81
308.421	74.81
308.651	90.81
308.881	81.81
309.111	80.81
309.341	77.81
309.571	105.81
309.8	87.81
310.03	107.81
310.26	83.81
310.49	87.81
310.72	97.81
310.949	95.81
311.179	88.81
311.409	93.81
311.639	93.81
311.868	95.81
312.098	72.81
312.328	91.81
312.557	95.81
312.787	72.81
313.017	83.81
313.246	98.81
313.476	77.81
313.706	83.81
313.935	77.81
314.165	84.81
314.394	82.81
314.624	91.81
314.853	92.81
315.083	78.81
315.312	84.81
315.542	87.81
315.771	90.81
316.001	96.81
316.23	86.81
316.46	83.81
316.689	82.81
316.919	90.81
317.148	84.81
317.377	87.81
317.607	105.81
317.836	84.81
318.065	103.81
318.295	93.81
318.524	93.81
318.753	74.81
318.983	87.81
319.212	91.81
319.441	91.81
319.67	83.81
319.9	84.81
320.129	89.81
320.358	91.81
320.587	80.81
320.816	82.81
321.046	85.81
321.275	96.81
321.504	88.81
321.733	99.81
321.962	87.81
322.191	87.81
322.42	88.81
322.649	99.81
322.878	91.81
323.108	81.81
323.337	88.81
323.566	83.81
323.795	78.81
324.024	96.81
324.253	74.81
324.482	83.81
324.71	95.81
324.939	92.81
325.168	98.81
325.397	82.81
325.626	84.81
325.855	84.81
326.084	86.81
326.313	89.81
326.542	93.81
326.77	92.81
326.999	83.81
327.228	89.81
327.457	95.81
327.686	83.81
327.914	94.81
328.143	94.81
328.372	100.81
328.6	78.81
328.829	83.81
329.058	83.81
329.287	84.81
329.515	103.81
329.744	83.81
329.972	83.81
330.201	92.81
330.43	91.81
330.658	84.81
330.887	91.81
331.115	84.81
331.344	79.81
331.572	86.81
331.801	79.81
332.03	87.81
332.258	91.81
332.486	77.81
332.715	81.81
332.943	87.81
333.172	81.81
333.4	87.81
333.629	85.81
333.857	89.81
334.085	88.81
334.314	102.81
334.542	84.81
334.771	79.81
334.999	89.81
335.227	75.81
335.455	73.81
335.684	83.81
335.912	88.81
336.14	76.81
336.369	87.81
336.597	85.81
336.825	89.81
337.053	95.81
337.281	108.81
337.51	88.81
337.738	87.81
337.966	83.81
338.194	88.81
338.422	86.81
338.65	86.81
338.878	82.81
339.106	92.81
339.334	104.81
339.562	71.81
339.79	88.81
340.018	70.81
340.246	80.81
340.474	82.81
340.702	92.81
340.93	94.81
341.158	84.81
341.386	94.81
341.614	72.81
341.842	89.81
342.07	80.81
342.298	86.81
342.526	85.81
342.754	99.81
342.981	85.81
343.209	98.81
343.437	93.81
343.665	75.81
343.893	79.81
344.12	86.81
344.348	87.81
344.576	91.81
344.804	89.81
345.031	103.81
345.259	85.81
345.487	83.81
345.714	99.81
345.942	86.81
346.17	90.81
346.397	69.81
346.625	95.81
346.853	80.81
347.08	81.81
347.308	81.81
347.535	97.81
347.763	77.81
347.99	100.81
348.218	79.81
348.445	89.81
348.673	102.81
348.9	100.81
349.128	94.81
349.355	78.81
349.583	90.81
349.81	97.81
350.037	80.81
350.265	74.81
350.492	87.81
350.72	78.81
350.947	95.81
351.174	81.81
351.402	93.81
351.629	83.81
351.856	100.81
352.083	101.81
352.311	92.81
352.538	94.81
352.765	100.81
352.992	96.81
353.22	93.81
353.447	79.81
353.674	82.81
353.901	78.81
354.128	102.81
354.355	88.81
354.583	93.81
354.81	87.81
355.037	97.81
355.264	88.81
355.491	78.81
355.718	90.81
355.945	93.81
356.172	90.81
356.399	80.81
356.626	79.81
356.853	81.81
357.08	101.81
357.307	86.81
357.534	93.81
357.761	91.81
357.988	74.81
358.215	80.81
358.441	85.81
358.668	76.81
358.895	74.81
359.122	92.81
359.349	75.81
359.576	74.81
359.802	87.81
360.029	79.81
360.256	90.81
360.483	94.81
360.709	81.81
360.936	94.81
361.163	92.81
361.39	94.81
361.616	87.81
361.843	95.81
362.07	83.81
362.296	78.81
362.523	84.81
362.749	99.81
362.976	92.81
363.203	92.81
363.429	73.81
363.656	76.81
363.882	71.81
364.109	83.81
364.335	79.81
364.562	84.81
364.788	83.81
365.015	97.81
365.241	99.81
365.468	80.81
365.694	90.81
365.92	85.81
366.147	88.81
366.373	79.81
366.599	91.81
366.826	91.81
367.052	97.81
367.278	99.81
367.505	86.81
367.731	96.81
367.957	85.81
368.184	82.81
368.41	85.81
368.636	97.81
368.862	75.81
369.089	94.81
369.315	89.81
369.541	92.81
369.767	79.81
369.993	83.81
370.219	91.81
370.445	92.81
370.672	91.81
370.898	81.81
371.124	89.81
371.35	87.81
371.576	93.81
371.802	73.81
372.028	85.81
372.254	78.81
372.48	75.81
372.706	89.81
372.932	87.81
373.158	78.81
373.384	86.81
373.61	93.81
373.835	93.81
374.061	94.81
374.287	93.81
374.513	93.81
374.739	94.81
374.965	89.81
375.191	83.81
375.416	73.81
375.642	81.81
375.868	80.81
376.094	81.81
376.319	94.81
376.545	102.81
376.771	88.81
376.997	83.81
377.222	77.81
377.448	77.81
377.674	80.81
377.899	82.81
378.125	87.81
378.35	102.81
378.576	96.81
378.802	86.81
379.027	81.81
379.253	78.81
379.478	85.81
379.704	83.81
379.929	76.81
380.155	73.81
380.38	95.81
380.606	94.81
380.831	100.81
381.057	97.81
381.282	99.81
381.507	84.81
381.733	91.81
381.958	95.81
382.184	80.81
382.409	86.81
382.634	75.81
382.86	97.81
383.085	91.81
383.31	99.81
383.535	87.81
383.761	91.81
383.986	90.81
384.211	83.81
384.436	80.81
384.662	89.81
384.887	81.81
385.112	88.81
385.337	105.81
385.562	91.81
385.787	86.81
386.013	91.81
386.238	100.81
386.463	91.81
386.688	81.81
386.913	71.81
387.138	88.81
387.363	86.81
387.588	103.81
387.813	85.81
388.038	78.81
388.263	101.81
388.488	75.81
388.713	79.81
388.938	77.81
389.163	104.81
389.387	93.81
389.612	75.81
389.837	75.81
390.062	84.81
390.287	86.81
390.512	79.81
390.736	96.81
390.961	76.81
391.186	70.81
391.411	87.81
391.636	79.81
391.86	100.81
392.085	73.81
392.31	100.81
392.534	101.81
392.759	77.81
392.984	88.81
393.208	95.81
393.433	73.81
393.658	76.81
393.882	98.81
394.107	80.81
394.331	79.81
394.556	86.81
394.78	87.81
395.005	90.81
395.229	83.81
395.454	99.81
395.678	94.81
395.903	92.81
396.127	93.81
396.352	87.81
396.576	84.81
396.801	106.81
397.025	94.81
397.249	81.81
397.474	92.81
397.698	96.81
397.922	84.81
398.147	83.81
398.371	76.81
398.595	100.81
398.82	95.81
399.044	81.81
399.268	82.81
399.492	100.81
399.717	91.81
399.941	83.81
400.165	93.81
400.389	75.81
400.613	80.81
400.837	89.81
401.062	93.81
401.286	92.81
401.51	99.81
401.734	80.81
401.958	93.81
402.182	80.81
402.406	85.81
402.63	99.81
402.854	87.81
403.078	94.81
403.302	86.81
403.526	91.81
403.75	88.81
403.974	88.81
404.198	87.81
404.422	86.81
404.645	95.81
404.869	86.81
405.093	84.81
405.317	82.81
405.541	90.81
405.765	88.81
405.988	88.81
406.212	83.81
406.436	90.81
406.66	91.81
406.883	103.81
407.107	93.81
407.331	87.81
407.555	84.81
407.778	84.81
408.002	113.81
408.226	101.81
408.449	86.81
408.673	89.81
408.896	85.81
409.12	91.81
409.344	89.81
409.567	91.81
409.791	83.81
410.014	92.81
410.238	77.81
410.461	90.81
410.685	94.81
410.908	84.81
411.132	99.81
411.355	94.81
411.578	89.81
411.802	81.81
412.025	86.81
412.249	76.81
412.472	83.81
412.695	97.81
412.919	88.81
413.142	90.81
413.365	73.81
413.589	95.81
413.812	82.81
414.035	90.81
414.258	87.81
414.482	87.81
414.705	111.81
414.928	81.81
415.151	92.81
415.374	89.81
415.597	85.81
415.821	80.81
416.044	80.81
416.267	84.81
416.49	83.81
416.713	88.81
416.936	77.81
417.159	86.81
417.382	90.81
417.605	86.81
417.828	97.81
418.051	81.81
418.274	79.81
418.497	85.81
418.72	78.81
418.943	86.81
419.166	95.81
419.389	103.81
419.611	84.81
419.834	87.81
420.057	99.81
420.28	87.81
420.503	88.81
420.726	102.81
420.948	99.81
421.171	97.81
421.394	88.81
421.617	91.81
421.839	79.81
422.062	81.81
422.285	87.81
422.507	90.81
422.73	91.81
422.953	104.81
423.175	83.81
423.398	89.81
423.621	81.81
423.843	101.81
424.066	89.81
424.288	99.81
424.511	89.81
424.733	92.81
424.956	83.81
425.178	85.81
425.401	92.81
425.623	86.81
425.846	87.81
426.068	82.81
426.291	86.81
426.513	85.81
426.735	75.81
426.958	92.81
427.18	76.81
427.402	96.81
427.625	104.81
427.847	79.81
428.069	91.81
428.292	91.81
428.514	82.81
428.736	94.81
428.958	78.81
429.181	96.81
429.403	92.81
429.625	88.81
429.847	84.81
430.069	91.81
430.292	84.81
430.514	94.81
430.736	96.81
430.958	96.81
431.18	96.81
431.402	96.81
431.624	100.81
431.846	71.81
432.068	88.81
432.29	91.81
432.512	76.81
432.734	91.81
432.956	95.81
433.178	90.81
433.4	94.81
433.622	94.81
433.844	83.81
434.066	69.81
434.287	89.81
434.509	104.81
434.731	89.81
434.953	103.81
435.175	84.81
435.397	93.81
435.618	85.81
435.84	80.81
436.062	78.81
436.284	97.81
436.505	87.81
436.727	74.81
436.949	81.81
437.17	81.81
437.392	99.81
437.614	83.81
437.835	81.81
438.057	82.81
438.278	86.81
438.5	86.81
438.721	95.81
438.943	102.81
439.165	88.81
439.386	84.81
439.608	96.81
439.829	88.81
440.05	94.81
440.272	90.81
440.493	99.81
440.715	77.81
440.936	81.81
441.158	88.81
441.379	87.81
441.6	79.81
441.822	98.81
442.043	77.81
442.264	94.81
442.486	96.81
442.707	75.81
442.928	90.81
443.149	86.81
443.371	85.81
443.592	84.81
443.813	86.81
444.034	94.81
444.255	84.81
444.476	81.81
444.698	92.81
444.919	87.81
445.14	168.81
445.361	113.81
445.582	91.81
445.803	91.81
446.024	91.81
446.245	102.81
446.466	89.81
446.687	87.81
446.908	76.81
447.129	78.81
447.35	88.81
447.571	99.81
447.792	84.81
448.013	85.81
448.234	90.81
448.455	84.81
448.675	81.81
448.896	94.81
449.117	88.81
449.338	80.81
449.559	78.81
449.779	89.81
450	87.81
450.221	100.81
450.442	83.81
450.662	89.81
450.883	86.81
451.104	83.81
451.324	83.81
451.545	83.81
451.766	80.81
451.986	85.81
452.207	95.81
452.428	88.81
452.648	85.81
452.869	90.81
453.089	87.81
453.31	79.81
453.53	79.81
453.751	81.81
453.971	84.81
454.192	79.81
454.412	99.81
454.633	82.81
454.853	78.81
455.073	83.81
455.294	76.81
455.514	96.81
455.734	97.81
455.955	87.81
456.175	75.81
456.395	83.81
456.616	81.81
456.836	64.81
457.056	87.81
457.276	78.81
457.497	83.81
457.717	80.81
457.937	93.81
458.157	80.81
458.377	100.81
458.598	83.81
458.818	87.81
459.038	94.81
459.258	84.81
459.478	90.81
459.698	88.81
459.918	89.81
460.138	87.81
460.358	93.81
460.578	90.81
460.798	99.81
461.018	96.81
461.238	95.81
461.458	102.81
461.678	102.81
461.898	93.81
462.118	85.81
462.338	91.81
462.558	95.81
462.777	82.81
462.997	93.81
463.217	92.81
463.437	85.81
463.657	89.81
463.876	97.81
464.096	96.81
464.316	106.81
464.536	87.81
464.755	87.81
464.975	91.81
465.195	90.81
465.414	90.81
465.634	83.81
465.854	93.81
466.073	94.81
466.293	88.81
466.512	97.81
466.732	95.81
466.951	83.81
467.171	75.81
467.391	100.81
467.61	83.81
467.829	86.81
468.049	86.81
468.268	99.81
468.488	85.81
468.707	97.81
468.927	96.81
469.146	85.81
469.365	88.81
469.585	82.81
469.804	86.81
470.023	92.81
470.243	89.81
470.462	96.81
470.681	90.81
470.901	93.81
471.12	93.81
471.339	94.81
471.558	86.81
471.777	90.81
471.997	81.81
472.216	84.81
472.435	81.81
472.654	91.81
472.873	90.81
473.092	76.81
473.311	84.81
473.53	92.81
473.749	87.81
473.968	88.81
474.187	95.81
474.406	90.81
474.625	86.81
474.844	82.81
475.063	76.81
475.282	91.81
475.501	86.81
475.72	93.81
475.939	97.81
476.158	92.81
476.377	91.81
476.596	96.81
476.814	101.81
477.033	92.81
477.252	88.81
477.471	103.81
477.69	91.81
477.908	88.81
478.127	87.81
478.346	97.81
478.564	84.81
478.783	94.81
479.002	98.81
479.22	87.81
479.439	84.81
479.658	91.81
479.876	83.81
480.095	86.81
480.313	103.81
480.532	89.81
480.751	90.81
480.969	85.81
481.188	91.81
481.406	88.81
481.624	107.81
481.843	95.81
482.061	97.81
482.28	78.81
482.498	106.81
482.717	110.81
482.935	99.81
483.153	100.81
483.372	108.81
483.59	91.81
483.808	87.81
484.027	97.81
484.245	95.81
484.463	66.81
484.681	81.81
484.9	84.81
485.118	96.81
485.336	79.81
485.554	85.81
485.772	103.81
485.99	100.81
486.209	80.81
486.427	86.81
486.645	87.81
486.863	81.81
487.081	98.81
487.299	79.81
487.517	80.81
487.735	93.81
487.953	86.81
488.171	79.81
488.389	78.81
488.607	77.81
488.825	89.81
489.043	82.81
489.261	105.81
489.479	88.81
489.696	101.81
489.914	101.81
490.132	90.81
490.35	92.81
490.568	95.81
490.786	81.81
491.003	85.81
491.221	84.81
491.439	88.81
491.657	102.81
491.874	89.81
492.092	93.81
492.31	96.81
492.527	75.81
492.745	80.81
492.963	93.81
493.18	88.81
493.398	106.81
493.615	81.81
493.833	72.81
494.05	80.81
494.268	94.81
494.485	115.81
494.703	83.81
494.92	89.81
495.138	97.81
495.355	100.81
495.573	95.81
495.79	86.81
496.008	93.81
496.225	72.81
496.442	96.81
496.66	92.81
496.877	87.81
497.094	103.81
497.312	93.81
497.529	84.81
497.746	83.81
497.963	70.81
498.181	89.81
498.398	100.81
498.615	87.81
498.832	109.81
499.049	95.81
499.267	87.81
499.484	103.81
499.701	109.81
499.918	94.81
500.135	95.81
500.352	103.81
500.569	110.81
500.786	117.81
501.003	103.81
501.22	109.81
501.437	105.81
501.654	104.81
501.871	101.81
502.088	94.81
502.305	103.81
502.522	107.81
502.739	86.81
502.956	89.81
503.172	83.81
503.389	96.81
503.606	85.81
503.823	78.81
504.04	95.81
504.256	94.81
504.473	107.81
504.69	99.81
504.907	114.81
505.123	104.81
505.34	83.81
505.557	95.81
505.773	98.81
505.99	87.81
506.207	90.81
506.423	80.81
506.64	105.81
506.856	101.81
507.073	85.81
507.289	99.81
507.506	85.81
507.722	83.81
507.939	88.81
508.155	82.81
508.372	78.81
508.588	84.81
508.805	103.81
509.021	86.81
509.238	89.81
509.454	88.81
509.67	81.81
509.887	87.81
510.103	89.81
510.319	75.81
510.536	96.81
510.752	87.81
510.968	95.81
511.184	88.81
511.401	87.81
511.617	101.81
511.833	95.81
512.049	83.81
512.265	88.81
512.481	72.81
512.698	89.81
512.914	109.81
513.13	85.81
513.346	70.81
513.562	91.81
513.778	102.81
513.994	95.81
514.21	87.81
514.426	95.81
514.642	103.81
514.858	105.81
515.074	92.81
515.29	82.81
515.506	83.81
515.721	91.81
515.937	88.81
516.153	101.81
516.369	83.81
516.585	90.81
516.801	71.81
517.016	84.81
517.232	89.81
517.448	100.81
517.664	92.81
517.879	103.81
518.095	92.81
518.311	105.81
518.527	100.81
518.742	92.81
518.958	84.81
