Data from BG_HRD10591_025.txt Node
Date: Fri May 16 15:14:35 EDT 2025
User: Yrep
Spectrometer: HR+D1059
Trigger mode: 1
Integration Time (sec): 1.000000E-1
Scans to average: 1
Electric dark correction enabled: true
Nonlinearity correction enabled: false
Boxcar width: 0
XAxis mode: Wavelengths
Number of Pixels in Spectrum: 2048
>>>>>Begin Spectral Data<<<<<
223.165	-21.25
223.4	-21.25
223.635	-21.25
223.869	-18.25
224.104	-20.25
224.338	-18.25
224.573	-17.25
224.808	-15.25
225.042	1.75
225.277	-3.25
225.511	-0.25
225.746	3.75
225.98	8.75
226.215	22.75
226.449	19.75
226.683	21.75
226.918	12.75
227.152	22.75
227.387	29.75
227.621	35.75
227.856	44.75
228.09	29.75
228.324	42.75
228.559	57.75
228.793	66.75
229.027	60.75
229.262	60.75
229.496	62.75
229.73	74.75
229.964	60.75
230.199	70.75
230.433	62.75
230.667	72.75
230.901	69.75
231.136	65.75
231.37	68.75
231.604	80.75
231.838	67.75
232.072	84.75
232.306	68.75
232.541	77.75
232.775	92.75
233.009	84.75
233.243	92.75
233.477	77.75
233.711	73.75
233.945	68.75
234.179	83.75
234.413	77.75
234.647	79.75
234.881	75.75
235.115	64.75
235.349	73.75
235.583	87.75
235.817	92.75
236.051	80.75
236.285	72.75
236.519	76.75
236.753	74.75
236.987	88.75
237.221	88.75
237.455	71.75
237.689	78.75
237.922	88.75
238.156	78.75
238.39	85.75
238.624	90.75
238.858	83.75
239.091	70.75
239.325	73.75
239.559	79.75
239.793	85.75
240.027	87.75
240.26	77.75
240.494	66.75
240.728	87.75
240.961	62.75
241.195	70.75
241.429	68.75
241.662	67.75
241.896	76.75
242.13	74.75
242.363	73.75
242.597	87.75
242.83	76.75
243.064	78.75
243.298	87.75
243.531	76.75
243.765	84.75
243.998	72.75
244.232	83.75
244.465	69.75
244.699	70.75
244.932	71.75
245.166	71.75
245.399	83.75
245.633	67.75
245.866	80.75
246.099	78.75
246.333	67.75
246.566	80.75
246.8	86.75
247.033	72.75
247.266	74.75
247.5	79.75
247.733	71.75
247.966	69.75
248.2	79.75
248.433	73.75
248.666	71.75
248.899	72.75
249.133	94.75
249.366	82.75
249.599	74.75
249.832	87.75
250.066	82.75
250.299	89.75
250.532	66.75
250.765	89.75
250.998	76.75
251.231	81.75
251.465	78.75
251.698	72.75
251.931	80.75
252.164	92.75
252.397	82.75
252.63	98.75
252.863	93.75
253.096	82.75
253.329	72.75
253.562	76.75
253.795	74.75
254.028	86.75
254.261	83.75
254.494	86.75
254.727	71.75
254.96	85.75
255.193	87.75
255.426	86.75
255.659	68.75
255.892	70.75
256.124	70.75
256.357	77.75
256.59	90.75
256.823	86.75
257.056	69.75
257.289	83.75
257.521	64.75
257.754	77.75
257.987	71.75
258.22	80.75
258.452	85.75
258.685	70.75
258.918	86.75
259.151	89.75
259.383	71.75
259.616	80.75
259.849	70.75
260.081	77.75
260.314	67.75
260.547	84.75
260.779	80.75
261.012	72.75
261.244	78.75
261.477	85.75
261.71	72.75
261.942	69.75
262.175	81.75
262.407	80.75
262.64	70.75
262.872	84.75
263.105	76.75
263.337	87.75
263.57	86.75
263.802	82.75
264.035	79.75
264.267	86.75
264.499	85.75
264.732	91.75
264.964	87.75
265.197	72.75
265.429	84.75
265.661	74.75
265.894	70.75
266.126	98.75
266.358	81.75
266.591	78.75
266.823	74.75
267.055	79.75
267.287	96.75
267.52	97.75
267.752	87.75
267.984	82.75
268.216	92.75
268.448	82.75
268.681	72.75
268.913	79.75
269.145	80.75
269.377	98.75
269.609	95.75
269.841	80.75
270.073	64.75
270.306	84.75
270.538	75.75
270.77	78.75
271.002	65.75
271.234	89.75
271.466	78.75
271.698	82.75
271.93	88.75
272.162	100.75
272.394	102.75
272.626	86.75
272.858	90.75
273.09	94.75
273.322	93.75
273.553	75.75
273.785	82.75
274.017	74.75
274.249	86.75
274.481	75.75
274.713	91.75
274.945	86.75
275.176	84.75
275.408	87.75
275.64	74.75
275.872	80.75
276.104	83.75
276.335	80.75
276.567	73.75
276.799	84.75
277.031	83.75
277.262	85.75
277.494	76.75
277.726	80.75
277.957	82.75
278.189	80.75
278.421	72.75
278.652	72.75
278.884	93.75
279.115	83.75
279.347	86.75
279.579	84.75
279.81	95.75
280.042	73.75
280.273	65.75
280.505	75.75
280.736	100.75
280.968	78.75
281.199	79.75
281.431	77.75
281.662	86.75
281.894	90.75
282.125	82.75
282.356	74.75
282.588	70.75
282.819	86.75
283.051	89.75
283.282	76.75
283.513	98.75
283.745	81.75
283.976	94.75
284.207	91.75
284.439	90.75
284.67	82.75
284.901	99.75
285.132	85.75
285.364	71.75
285.595	89.75
285.826	90.75
286.057	88.75
286.288	82.75
286.52	83.75
286.751	84.75
286.982	70.75
287.213	86.75
287.444	81.75
287.675	85.75
287.906	90.75
288.138	108.75
288.369	90.75
288.6	95.75
288.831	86.75
289.062	92.75
289.293	93.75
289.524	93.75
289.755	96.75
289.986	99.75
290.217	93.75
290.448	84.75
290.679	87.75
290.91	80.75
291.141	88.75
291.371	75.75
291.602	76.75
291.833	85.75
292.064	102.75
292.295	91.75
292.526	88.75
292.757	84.75
292.987	82.75
293.218	98.75
293.449	84.75
293.68	85.75
293.91	91.75
294.141	95.75
294.372	107.75
294.603	84.75
294.833	86.75
295.064	98.75
295.295	84.75
295.525	91.75
295.756	99.75
295.987	67.75
296.217	94.75
296.448	101.75
296.679	89.75
296.909	83.75
297.14	92.75
297.37	95.75
297.601	86.75
297.831	90.75
298.062	89.75
298.292	89.75
298.523	86.75
298.753	91.75
298.984	98.75
299.214	83.75
299.445	86.75
299.675	91.75
299.905	90.75
300.136	80.75
300.366	87.75
300.597	91.75
300.827	88.75
301.057	86.75
301.288	80.75
301.518	99.75
301.748	88.75
301.979	98.75
302.209	82.75
302.439	90.75
302.669	74.75
302.9	85.75
303.13	79.75
303.36	80.75
303.59	91.75
303.82	98.75
304.051	86.75
304.281	89.75
304.511	84.75
304.741	79.75
304.971	87.75
305.201	77.75
305.431	80.75
305.661	77.75
305.891	83.75
306.121	91.75
306.352	86.75
306.582	81.75
306.812	93.75
307.042	79.75
307.272	87.75
307.502	82.75
307.731	90.75
307.961	91.75
308.191	89.75
308.421	93.75
308.651	97.75
308.881	79.75
309.111	89.75
309.341	95.75
309.571	81.75
309.8	88.75
310.03	82.75
310.26	89.75
310.49	95.75
310.72	95.75
310.949	84.75
311.179	84.75
311.409	96.75
311.639	92.75
311.868	84.75
312.098	103.75
312.328	93.75
312.557	86.75
312.787	95.75
313.017	94.75
313.246	71.75
313.476	94.75
313.706	88.75
313.935	97.75
314.165	86.75
314.394	106.75
314.624	89.75
314.853	88.75
315.083	82.75
315.312	81.75
315.542	84.75
315.771	103.75
316.001	76.75
316.23	89.75
316.46	88.75
316.689	79.75
316.919	83.75
317.148	88.75
317.377	75.75
317.607	87.75
317.836	86.75
318.065	87.75
318.295	93.75
318.524	83.75
318.753	91.75
318.983	70.75
319.212	90.75
319.441	88.75
319.67	75.75
319.9	96.75
320.129	80.75
320.358	82.75
320.587	93.75
320.816	94.75
321.046	87.75
321.275	86.75
321.504	74.75
321.733	82.75
321.962	93.75
322.191	91.75
322.42	99.75
322.649	95.75
322.878	84.75
323.108	87.75
323.337	71.75
323.566	87.75
323.795	77.75
324.024	100.75
324.253	70.75
324.482	82.75
324.71	92.75
324.939	90.75
325.168	87.75
325.397	84.75
325.626	75.75
325.855	71.75
326.084	94.75
326.313	86.75
326.542	100.75
326.77	84.75
326.999	74.75
327.228	82.75
327.457	80.75
327.686	82.75
327.914	74.75
328.143	92.75
328.372	78.75
328.6	102.75
328.829	94.75
329.058	95.75
329.287	68.75
329.515	86.75
329.744	93.75
329.972	106.75
330.201	76.75
330.43	84.75
330.658	92.75
330.887	91.75
331.115	96.75
331.344	94.75
331.572	88.75
331.801	92.75
332.03	94.75
332.258	100.75
332.486	78.75
332.715	76.75
332.943	95.75
333.172	96.75
333.4	98.75
333.629	84.75
333.857	90.75
334.085	94.75
334.314	83.75
334.542	88.75
334.771	94.75
334.999	94.75
335.227	79.75
335.455	79.75
335.684	91.75
335.912	77.75
336.14	82.75
336.369	94.75
336.597	100.75
336.825	93.75
337.053	77.75
337.281	78.75
337.51	94.75
337.738	75.75
337.966	96.75
338.194	95.75
338.422	85.75
338.65	76.75
338.878	98.75
339.106	82.75
339.334	102.75
339.562	69.75
339.79	107.75
340.018	86.75
340.246	86.75
340.474	87.75
340.702	105.75
340.93	85.75
341.158	92.75
341.386	86.75
341.614	80.75
341.842	94.75
342.07	93.75
342.298	89.75
342.526	88.75
342.754	91.75
342.981	91.75
343.209	91.75
343.437	101.75
343.665	76.75
343.893	80.75
344.12	87.75
344.348	80.75
344.576	101.75
344.804	91.75
345.031	98.75
345.259	87.75
345.487	88.75
345.714	103.75
345.942	89.75
346.17	90.75
346.397	82.75
346.625	105.75
346.853	91.75
347.08	83.75
347.308	102.75
347.535	76.75
347.763	92.75
347.99	77.75
348.218	80.75
348.445	98.75
348.673	78.75
348.9	87.75
349.128	82.75
349.355	72.75
349.583	86.75
349.81	80.75
350.037	84.75
350.265	82.75
350.492	82.75
350.72	80.75
350.947	85.75
351.174	106.75
351.402	90.75
351.629	69.75
351.856	93.75
352.083	93.75
352.311	84.75
352.538	89.75
352.765	82.75
352.992	87.75
353.22	88.75
353.447	84.75
353.674	95.75
353.901	103.75
354.128	86.75
354.355	82.75
354.583	88.75
354.81	83.75
355.037	99.75
355.264	72.75
355.491	92.75
355.718	90.75
355.945	72.75
356.172	88.75
356.399	79.75
356.626	80.75
356.853	72.75
357.08	99.75
357.307	82.75
357.534	97.75
357.761	90.75
357.988	85.75
358.215	89.75
358.441	83.75
358.668	91.75
358.895	82.75
359.122	80.75
359.349	96.75
359.576	78.75
359.802	84.75
360.029	71.75
360.256	82.75
360.483	87.75
360.709	76.75
360.936	86.75
361.163	95.75
361.39	82.75
361.616	89.75
361.843	78.75
362.07	81.75
362.296	89.75
362.523	89.75
362.749	90.75
362.976	83.75
363.203	80.75
363.429	75.75
363.656	96.75
363.882	91.75
364.109	79.75
364.335	92.75
364.562	85.75
364.788	80.75
365.015	86.75
365.241	90.75
365.468	91.75
365.694	75.75
365.92	88.75
366.147	82.75
366.373	85.75
366.599	89.75
366.826	101.75
367.052	87.75
367.278	95.75
367.505	76.75
367.731	88.75
367.957	77.75
368.184	95.75
368.41	83.75
368.636	87.75
368.862	90.75
369.089	78.75
369.315	86.75
369.541	85.75
369.767	93.75
369.993	86.75
370.219	91.75
370.445	85.75
370.672	91.75
370.898	83.75
371.124	83.75
371.35	95.75
371.576	99.75
371.802	77.75
372.028	78.75
372.254	94.75
372.48	93.75
372.706	92.75
372.932	89.75
373.158	91.75
373.384	89.75
373.61	84.75
373.835	91.75
374.061	92.75
374.287	75.75
374.513	76.75
374.739	80.75
374.965	93.75
375.191	76.75
375.416	75.75
375.642	100.75
375.868	86.75
376.094	94.75
376.319	76.75
376.545	91.75
376.771	85.75
376.997	98.75
377.222	100.75
377.448	95.75
377.674	86.75
377.899	103.75
378.125	84.75
378.35	89.75
378.576	78.75
378.802	86.75
379.027	83.75
379.253	82.75
379.478	95.75
379.704	86.75
379.929	93.75
380.155	84.75
380.38	74.75
380.606	75.75
380.831	87.75
381.057	83.75
381.282	99.75
381.507	96.75
381.733	87.75
381.958	91.75
382.184	80.75
382.409	93.75
382.634	99.75
382.86	87.75
383.085	84.75
383.31	89.75
383.535	97.75
383.761	96.75
383.986	84.75
384.211	84.75
384.436	67.75
384.662	76.75
384.887	97.75
385.112	94.75
385.337	83.75
385.562	78.75
385.787	95.75
386.013	92.75
386.238	86.75
386.463	88.75
386.688	112.75
386.913	86.75
387.138	82.75
387.363	77.75
387.588	83.75
387.813	97.75
388.038	92.75
388.263	78.75
388.488	84.75
388.713	91.75
388.938	105.75
389.163	79.75
389.387	90.75
389.612	88.75
389.837	90.75
390.062	88.75
390.287	65.75
390.512	91.75
390.736	89.75
390.961	105.75
391.186	88.75
391.411	97.75
391.636	91.75
391.86	94.75
392.085	107.75
392.31	79.75
392.534	85.75
392.759	82.75
392.984	76.75
393.208	92.75
393.433	84.75
393.658	96.75
393.882	72.75
394.107	96.75
394.331	87.75
394.556	91.75
394.78	82.75
395.005	94.75
395.229	76.75
395.454	90.75
395.678	86.75
395.903	83.75
396.127	72.75
396.352	96.75
396.576	81.75
396.801	88.75
397.025	86.75
397.249	103.75
397.474	88.75
397.698	111.75
397.922	108.75
398.147	86.75
398.371	90.75
398.595	101.75
398.82	92.75
399.044	98.75
399.268	95.75
399.492	98.75
399.717	93.75
399.941	92.75
400.165	92.75
400.389	89.75
400.613	98.75
400.837	81.75
401.062	98.75
401.286	91.75
401.51	79.75
401.734	86.75
401.958	92.75
402.182	82.75
402.406	85.75
402.63	78.75
402.854	93.75
403.078	86.75
403.302	94.75
403.526	88.75
403.75	104.75
403.974	86.75
404.198	85.75
404.422	95.75
404.645	100.75
404.869	102.75
405.093	109.75
405.317	102.75
405.541	85.75
405.765	80.75
405.988	80.75
406.212	89.75
406.436	82.75
406.66	89.75
406.883	103.75
407.107	90.75
407.331	104.75
407.555	102.75
407.778	86.75
408.002	80.75
408.226	89.75
408.449	100.75
408.673	91.75
408.896	90.75
409.12	67.75
409.344	80.75
409.567	79.75
409.791	84.75
410.014	109.75
410.238	88.75
410.461	80.75
410.685	98.75
410.908	87.75
411.132	91.75
411.355	78.75
411.578	96.75
411.802	90.75
412.025	88.75
412.249	89.75
412.472	94.75
412.695	99.75
412.919	94.75
413.142	84.75
413.365	97.75
413.589	90.75
413.812	88.75
414.035	100.75
414.258	89.75
414.482	96.75
414.705	88.75
414.928	100.75
415.151	80.75
415.374	90.75
415.597	103.75
415.821	74.75
416.044	97.75
416.267	87.75
416.49	84.75
416.713	84.75
416.936	89.75
417.159	82.75
417.382	100.75
417.605	88.75
417.828	84.75
418.051	94.75
418.274	94.75
418.497	85.75
418.72	87.75
418.943	84.75
419.166	79.75
419.389	85.75
419.611	76.75
419.834	86.75
420.057	84.75
420.28	93.75
420.503	83.75
420.726	92.75
420.948	87.75
421.171	93.75
421.394	76.75
421.617	99.75
421.839	91.75
422.062	86.75
422.285	86.75
422.507	76.75
422.73	98.75
422.953	87.75
423.175	88.75
423.398	106.75
423.621	92.75
423.843	86.75
424.066	83.75
424.288	88.75
424.511	85.75
424.733	88.75
424.956	95.75
425.178	79.75
425.401	99.75
425.623	86.75
425.846	91.75
426.068	98.75
426.291	85.75
426.513	82.75
426.735	101.75
426.958	98.75
427.18	96.75
427.402	102.75
427.625	91.75
427.847	71.75
428.069	89.75
428.292	80.75
428.514	91.75
428.736	104.75
428.958	80.75
429.181	76.75
429.403	96.75
429.625	91.75
429.847	95.75
430.069	93.75
430.292	80.75
430.514	75.75
430.736	103.75
430.958	89.75
431.18	65.75
431.402	84.75
431.624	77.75
431.846	80.75
432.068	79.75
432.29	87.75
432.512	79.75
432.734	81.75
432.956	98.75
433.178	88.75
433.4	89.75
433.622	80.75
433.844	83.75
434.066	83.75
434.287	93.75
434.509	83.75
434.731	87.75
434.953	85.75
435.175	85.75
435.397	84.75
435.618	90.75
435.84	91.75
436.062	98.75
436.284	95.75
436.505	92.75
436.727	77.75
436.949	90.75
437.17	84.75
437.392	84.75
437.614	92.75
437.835	85.75
438.057	87.75
438.278	91.75
438.5	77.75
438.721	78.75
438.943	88.75
439.165	97.75
439.386	106.75
439.608	85.75
439.829	82.75
440.05	85.75
440.272	91.75
440.493	85.75
440.715	104.75
440.936	91.75
441.158	92.75
441.379	82.75
441.6	90.75
441.822	85.75
442.043	91.75
442.264	98.75
442.486	84.75
442.707	88.75
442.928	99.75
443.149	83.75
443.371	87.75
443.592	93.75
443.813	86.75
444.034	87.75
444.255	78.75
444.476	99.75
444.698	86.75
444.919	92.75
445.14	150.75
445.361	123.75
445.582	84.75
445.803	98.75
446.024	85.75
446.245	89.75
446.466	81.75
446.687	83.75
446.908	88.75
447.129	80.75
447.35	82.75
447.571	87.75
447.792	84.75
448.013	80.75
448.234	91.75
448.455	93.75
448.675	84.75
448.896	87.75
449.117	92.75
449.338	94.75
449.559	83.75
449.779	88.75
450	88.75
450.221	85.75
450.442	77.75
450.662	82.75
450.883	90.75
451.104	87.75
451.324	91.75
451.545	87.75
451.766	82.75
451.986	84.75
452.207	83.75
452.428	83.75
452.648	93.75
452.869	88.75
453.089	100.75
453.31	96.75
453.53	102.75
453.751	84.75
453.971	92.75
454.192	91.75
454.412	79.75
454.633	86.75
454.853	100.75
455.073	79.75
455.294	89.75
455.514	79.75
455.734	84.75
455.955	86.75
456.175	82.75
456.395	91.75
456.616	92.75
456.836	81.75
457.056	84.75
457.276	79.75
457.497	86.75
457.717	84.75
457.937	77.75
458.157	86.75
458.377	76.75
458.598	87.75
458.818	100.75
459.038	83.75
459.258	80.75
459.478	79.75
459.698	82.75
459.918	88.75
460.138	95.75
460.358	88.75
460.578	76.75
460.798	71.75
461.018	90.75
461.238	77.75
461.458	95.75
461.678	96.75
461.898	99.75
462.118	93.75
462.338	82.75
462.558	91.75
462.777	90.75
462.997	100.75
463.217	94.75
463.437	92.75
463.657	93.75
463.876	83.75
464.096	86.75
464.316	88.75
464.536	83.75
464.755	92.75
464.975	75.75
465.195	78.75
465.414	89.75
465.634	91.75
465.854	88.75
466.073	95.75
466.293	82.75
466.512	84.75
466.732	84.75
466.951	74.75
467.171	99.75
467.391	76.75
467.61	82.75
467.829	91.75
468.049	83.75
468.268	92.75
468.488	96.75
468.707	83.75
468.927	76.75
469.146	87.75
469.365	95.75
469.585	71.75
469.804	75.75
470.023	86.75
470.243	102.75
470.462	83.75
470.681	86.75
470.901	78.75
471.12	89.75
471.339	86.75
471.558	90.75
471.777	87.75
471.997	82.75
472.216	84.75
472.435	81.75
472.654	98.75
472.873	87.75
473.092	80.75
473.311	87.75
473.53	96.75
473.749	72.75
473.968	98.75
474.187	98.75
474.406	92.75
474.625	76.75
474.844	89.75
475.063	94.75
475.282	80.75
475.501	100.75
475.72	105.75
475.939	95.75
476.158	98.75
476.377	76.75
476.596	81.75
476.814	79.75
477.033	88.75
477.252	87.75
477.471	79.75
477.69	99.75
477.908	93.75
478.127	88.75
478.346	85.75
478.564	72.75
478.783	84.75
479.002	83.75
479.22	85.75
479.439	91.75
479.658	91.75
479.876	79.75
480.095	98.75
480.313	91.75
480.532	87.75
480.751	90.75
480.969	96.75
481.188	89.75
481.406	84.75
481.624	91.75
481.843	104.75
482.061	98.75
482.28	92.75
482.498	92.75
482.717	94.75
482.935	74.75
483.153	91.75
483.372	102.75
483.59	76.75
483.808	93.75
484.027	95.75
484.245	91.75
484.463	80.75
484.681	88.75
484.9	92.75
485.118	82.75
485.336	88.75
485.554	106.75
485.772	87.75
485.99	96.75
486.209	102.75
486.427	87.75
486.645	85.75
486.863	79.75
487.081	91.75
487.299	92.75
487.517	96.75
487.735	100.75
487.953	101.75
488.171	100.75
488.389	106.75
488.607	87.75
488.825	73.75
489.043	80.75
489.261	89.75
489.479	79.75
489.696	88.75
489.914	92.75
490.132	83.75
490.35	102.75
490.568	103.75
490.786	75.75
491.003	74.75
491.221	85.75
491.439	74.75
491.657	95.75
491.874	85.75
492.092	95.75
492.31	86.75
492.527	100.75
492.745	102.75
492.963	100.75
493.18	98.75
493.398	94.75
493.615	92.75
493.833	98.75
494.05	79.75
494.268	78.75
494.485	89.75
494.703	78.75
494.92	86.75
495.138	89.75
495.355	82.75
495.573	87.75
495.79	86.75
496.008	93.75
496.225	83.75
496.442	103.75
496.66	78.75
496.877	84.75
497.094	86.75
497.312	98.75
497.529	99.75
497.746	89.75
497.963	81.75
498.181	85.75
498.398	88.75
498.615	87.75
498.832	79.75
499.049	100.75
499.267	91.75
499.484	102.75
499.701	108.75
499.918	106.75
500.135	117.75
500.352	115.75
500.569	112.75
500.786	114.75
501.003	104.75
501.22	102.75
501.437	109.75
501.654	105.75
501.871	103.75
502.088	91.75
502.305	108.75
502.522	94.75
502.739	82.75
502.956	101.75
503.172	98.75
503.389	102.75
503.606	96.75
503.823	102.75
504.04	80.75
504.256	106.75
504.473	97.75
504.69	93.75
504.907	102.75
505.123	73.75
505.34	91.75
505.557	87.75
505.773	96.75
505.99	92.75
506.207	76.75
506.423	84.75
506.64	94.75
506.856	79.75
507.073	88.75
507.289	87.75
507.506	92.75
507.722	90.75
507.939	79.75
508.155	91.75
508.372	79.75
508.588	106.75
508.805	97.75
509.021	98.75
509.238	106.75
509.454	86.75
509.67	89.75
509.887	82.75
510.103	85.75
510.319	73.75
510.536	93.75
510.752	91.75
510.968	75.75
511.184	76.75
511.401	91.75
511.617	91.75
511.833	83.75
512.049	81.75
512.265	90.75
512.481	91.75
512.698	96.75
512.914	104.75
513.13	89.75
513.346	92.75
513.562	86.75
513.778	77.75
513.994	89.75
514.21	77.75
514.426	84.75
514.642	79.75
514.858	95.75
515.074	78.75
515.29	87.75
515.506	101.75
515.721	82.75
515.937	86.75
516.153	91.75
516.369	86.75
516.585	90.75
516.801	86.75
517.016	89.75
517.232	93.75
517.448	68.75
517.664	86.75
517.879	92.75
518.095	75.75
518.311	93.75
518.527	94.75
518.742	92.75
518.958	103.75
