Data from BG_HRD10591_013.txt Node
Date: Fri May 16 15:14:29 EDT 2025
User: Yrep
Spectrometer: HR+D1059
Trigger mode: 1
Integration Time (sec): 1.000000E-1
Scans to average: 1
Electric dark correction enabled: true
Nonlinearity correction enabled: false
Boxcar width: 0
XAxis mode: Wavelengths
Number of Pixels in Spectrum: 2048
>>>>>Begin Spectral Data<<<<<
223.165	-32.06
223.4	-32.06
223.635	-32.06
223.869	-3.06
224.104	-18.06
224.338	-17.06
224.573	-24.06
224.808	-20.06
225.042	-17.06
225.277	4.94
225.511	2.94
225.746	-5.06
225.98	15.94
226.215	10.94
226.449	18.94
226.683	16.94
226.918	21.94
227.152	43.94
227.387	50.94
227.621	41.94
227.856	55.94
228.09	41.94
228.324	55.94
228.559	68.94
228.793	49.94
229.027	56.94
229.262	59.94
229.496	62.94
229.73	60.94
229.964	74.94
230.199	86.94
230.433	83.94
230.667	89.94
230.901	79.94
231.136	76.94
231.37	82.94
231.604	76.94
231.838	62.94
232.072	75.94
232.306	76.94
232.541	74.94
232.775	78.94
233.009	74.94
233.243	73.94
233.477	78.94
233.711	76.94
233.945	85.94
234.179	86.94
234.413	86.94
234.647	80.94
234.881	87.94
235.115	70.94
235.349	89.94
235.583	88.94
235.817	81.94
236.051	75.94
236.285	81.94
236.519	83.94
236.753	91.94
236.987	73.94
237.221	53.94
237.455	65.94
237.689	77.94
237.922	74.94
238.156	82.94
238.39	76.94
238.624	72.94
238.858	79.94
239.091	71.94
239.325	73.94
239.559	80.94
239.793	64.94
240.027	68.94
240.26	80.94
240.494	82.94
240.728	75.94
240.961	78.94
241.195	76.94
241.429	70.94
241.662	69.94
241.896	65.94
242.13	92.94
242.363	72.94
242.597	89.94
242.83	78.94
243.064	72.94
243.298	70.94
243.531	63.94
243.765	93.94
243.998	75.94
244.232	69.94
244.465	79.94
244.699	61.94
244.932	74.94
245.166	69.94
245.399	81.94
245.633	68.94
245.866	78.94
246.099	81.94
246.333	72.94
246.566	79.94
246.8	73.94
247.033	78.94
247.266	89.94
247.5	82.94
247.733	74.94
247.966	73.94
248.2	82.94
248.433	84.94
248.666	85.94
248.899	81.94
249.133	69.94
249.366	85.94
249.599	71.94
249.832	72.94
250.066	76.94
250.299	81.94
250.532	64.94
250.765	71.94
250.998	84.94
251.231	84.94
251.465	90.94
251.698	80.94
251.931	77.94
252.164	72.94
252.397	78.94
252.63	74.94
252.863	74.94
253.096	73.94
253.329	84.94
253.562	74.94
253.795	68.94
254.028	71.94
254.261	70.94
254.494	84.94
254.727	87.94
254.96	83.94
255.193	88.94
255.426	74.94
255.659	72.94
255.892	82.94
256.124	77.94
256.357	84.94
256.59	79.94
256.823	78.94
257.056	79.94
257.289	69.94
257.521	77.94
257.754	82.94
257.987	80.94
258.22	81.94
258.452	66.94
258.685	80.94
258.918	82.94
259.151	74.94
259.383	74.94
259.616	88.94
259.849	76.94
260.081	74.94
260.314	63.94
260.547	74.94
260.779	88.94
261.012	97.94
261.244	69.94
261.477	85.94
261.71	83.94
261.942	72.94
262.175	87.94
262.407	76.94
262.64	68.94
262.872	74.94
263.105	85.94
263.337	87.94
263.57	86.94
263.802	80.94
264.035	69.94
264.267	78.94
264.499	76.94
264.732	77.94
264.964	61.94
265.197	76.94
265.429	66.94
265.661	77.94
265.894	89.94
266.126	77.94
266.358	88.94
266.591	87.94
266.823	94.94
267.055	84.94
267.287	94.94
267.52	88.94
267.752	88.94
267.984	95.94
268.216	83.94
268.448	86.94
268.681	86.94
268.913	90.94
269.145	84.94
269.377	84.94
269.609	77.94
269.841	78.94
270.073	81.94
270.306	87.94
270.538	82.94
270.77	83.94
271.002	78.94
271.234	84.94
271.466	81.94
271.698	76.94
271.93	79.94
272.162	78.94
272.394	88.94
272.626	78.94
272.858	84.94
273.09	77.94
273.322	98.94
273.553	93.94
273.785	91.94
274.017	81.94
274.249	77.94
274.481	84.94
274.713	65.94
274.945	85.94
275.176	83.94
275.408	74.94
275.64	70.94
275.872	102.94
276.104	81.94
276.335	90.94
276.567	76.94
276.799	74.94
277.031	59.94
277.262	81.94
277.494	84.94
277.726	93.94
277.957	72.94
278.189	63.94
278.421	82.94
278.652	84.94
278.884	79.94
279.115	77.94
279.347	83.94
279.579	84.94
279.81	72.94
280.042	73.94
280.273	86.94
280.505	80.94
280.736	81.94
280.968	81.94
281.199	76.94
281.431	78.94
281.662	82.94
281.894	84.94
282.125	81.94
282.356	82.94
282.588	87.94
282.819	88.94
283.051	91.94
283.282	78.94
283.513	92.94
283.745	67.94
283.976	72.94
284.207	83.94
284.439	95.94
284.67	82.94
284.901	73.94
285.132	75.94
285.364	91.94
285.595	95.94
285.826	75.94
286.057	92.94
286.288	81.94
286.52	78.94
286.751	74.94
286.982	88.94
287.213	81.94
287.444	90.94
287.675	84.94
287.906	79.94
288.138	84.94
288.369	86.94
288.6	88.94
288.831	88.94
289.062	87.94
289.293	68.94
289.524	82.94
289.755	70.94
289.986	85.94
290.217	88.94
290.448	68.94
290.679	82.94
290.91	96.94
291.141	96.94
291.371	90.94
291.602	84.94
291.833	72.94
292.064	85.94
292.295	86.94
292.526	84.94
292.757	81.94
292.987	94.94
293.218	76.94
293.449	78.94
293.68	94.94
293.91	87.94
294.141	95.94
294.372	66.94
294.603	81.94
294.833	80.94
295.064	66.94
295.295	68.94
295.525	89.94
295.756	85.94
295.987	89.94
296.217	80.94
296.448	87.94
296.679	91.94
296.909	89.94
297.14	77.94
297.37	75.94
297.601	80.94
297.831	98.94
298.062	88.94
298.292	81.94
298.523	91.94
298.753	84.94
298.984	72.94
299.214	72.94
299.445	88.94
299.675	84.94
299.905	88.94
300.136	73.94
300.366	90.94
300.597	95.94
300.827	85.94
301.057	93.94
301.288	91.94
301.518	104.94
301.748	89.94
301.979	76.94
302.209	76.94
302.439	86.94
302.669	86.94
302.9	81.94
303.13	83.94
303.36	72.94
303.59	91.94
303.82	79.94
304.051	76.94
304.281	90.94
304.511	107.94
304.741	92.94
304.971	78.94
305.201	81.94
305.431	83.94
305.661	82.94
305.891	85.94
306.121	79.94
306.352	92.94
306.582	85.94
306.812	95.94
307.042	84.94
307.272	89.94
307.502	90.94
307.731	92.94
307.961	86.94
308.191	90.94
308.421	94.94
308.651	60.94
308.881	102.94
309.111	84.94
309.341	86.94
309.571	83.94
309.8	71.94
310.03	73.94
310.26	80.94
310.49	93.94
310.72	77.94
310.949	82.94
311.179	78.94
311.409	93.94
311.639	90.94
311.868	73.94
312.098	69.94
312.328	86.94
312.557	87.94
312.787	83.94
313.017	86.94
313.246	71.94
313.476	88.94
313.706	75.94
313.935	88.94
314.165	92.94
314.394	91.94
314.624	96.94
314.853	90.94
315.083	78.94
315.312	77.94
315.542	105.94
315.771	77.94
316.001	84.94
316.23	95.94
316.46	79.94
316.689	76.94
316.919	91.94
317.148	86.94
317.377	86.94
317.607	91.94
317.836	92.94
318.065	95.94
318.295	85.94
318.524	82.94
318.753	95.94
318.983	84.94
319.212	67.94
319.441	83.94
319.67	87.94
319.9	80.94
320.129	76.94
320.358	81.94
320.587	108.94
320.816	85.94
321.046	78.94
321.275	84.94
321.504	79.94
321.733	72.94
321.962	81.94
322.191	84.94
322.42	88.94
322.649	89.94
322.878	84.94
323.108	82.94
323.337	67.94
323.566	86.94
323.795	67.94
324.024	104.94
324.253	96.94
324.482	92.94
324.71	87.94
324.939	78.94
325.168	87.94
325.397	89.94
325.626	91.94
325.855	79.94
326.084	83.94
326.313	78.94
326.542	81.94
326.77	83.94
326.999	81.94
327.228	90.94
327.457	85.94
327.686	76.94
327.914	86.94
328.143	95.94
328.372	91.94
328.6	89.94
328.829	100.94
329.058	76.94
329.287	88.94
329.515	88.94
329.744	84.94
329.972	77.94
330.201	72.94
330.43	94.94
330.658	92.94
330.887	76.94
331.115	87.94
331.344	82.94
331.572	102.94
331.801	90.94
332.03	71.94
332.258	79.94
332.486	92.94
332.715	81.94
332.943	77.94
333.172	72.94
333.4	81.94
333.629	92.94
333.857	83.94
334.085	91.94
334.314	90.94
334.542	70.94
334.771	73.94
334.999	77.94
335.227	87.94
335.455	83.94
335.684	86.94
335.912	85.94
336.14	87.94
336.369	79.94
336.597	95.94
336.825	80.94
337.053	78.94
337.281	100.94
337.51	86.94
337.738	66.94
337.966	81.94
338.194	83.94
338.422	81.94
338.65	97.94
338.878	84.94
339.106	74.94
339.334	85.94
339.562	76.94
339.79	81.94
340.018	85.94
340.246	85.94
340.474	79.94
340.702	73.94
340.93	79.94
341.158	88.94
341.386	82.94
341.614	86.94
341.842	77.94
342.07	89.94
342.298	82.94
342.526	85.94
342.754	85.94
342.981	93.94
343.209	79.94
343.437	90.94
343.665	96.94
343.893	68.94
344.12	82.94
344.348	88.94
344.576	89.94
344.804	87.94
345.031	84.94
345.259	73.94
345.487	80.94
345.714	81.94
345.942	64.94
346.17	66.94
346.397	79.94
346.625	87.94
346.853	97.94
347.08	86.94
347.308	78.94
347.535	76.94
347.763	90.94
347.99	73.94
348.218	89.94
348.445	73.94
348.673	78.94
348.9	79.94
349.128	84.94
349.355	90.94
349.583	78.94
349.81	72.94
350.037	86.94
350.265	71.94
350.492	92.94
350.72	78.94
350.947	82.94
351.174	82.94
351.402	78.94
351.629	79.94
351.856	72.94
352.083	77.94
352.311	84.94
352.538	82.94
352.765	78.94
352.992	81.94
353.22	83.94
353.447	76.94
353.674	86.94
353.901	76.94
354.128	77.94
354.355	84.94
354.583	89.94
354.81	84.94
355.037	98.94
355.264	97.94
355.491	90.94
355.718	81.94
355.945	94.94
356.172	81.94
356.399	76.94
356.626	78.94
356.853	68.94
357.08	88.94
357.307	74.94
357.534	85.94
357.761	81.94
357.988	91.94
358.215	70.94
358.441	79.94
358.668	85.94
358.895	81.94
359.122	89.94
359.349	69.94
359.576	80.94
359.802	86.94
360.029	87.94
360.256	77.94
360.483	66.94
360.709	79.94
360.936	88.94
361.163	89.94
361.39	85.94
361.616	84.94
361.843	85.94
362.07	77.94
362.296	81.94
362.523	104.94
362.749	76.94
362.976	78.94
363.203	91.94
363.429	82.94
363.656	80.94
363.882	70.94
364.109	90.94
364.335	84.94
364.562	89.94
364.788	73.94
365.015	84.94
365.241	70.94
365.468	90.94
365.694	74.94
365.92	70.94
366.147	87.94
366.373	84.94
366.599	81.94
366.826	92.94
367.052	94.94
367.278	71.94
367.505	86.94
367.731	84.94
367.957	72.94
368.184	76.94
368.41	68.94
368.636	89.94
368.862	90.94
369.089	84.94
369.315	91.94
369.541	89.94
369.767	73.94
369.993	75.94
370.219	77.94
370.445	75.94
370.672	85.94
370.898	94.94
371.124	75.94
371.35	85.94
371.576	100.94
371.802	80.94
372.028	81.94
372.254	80.94
372.48	79.94
372.706	75.94
372.932	81.94
373.158	80.94
373.384	88.94
373.61	80.94
373.835	87.94
374.061	81.94
374.287	90.94
374.513	80.94
374.739	83.94
374.965	84.94
375.191	76.94
375.416	98.94
375.642	86.94
375.868	88.94
376.094	68.94
376.319	87.94
376.545	85.94
376.771	78.94
376.997	80.94
377.222	81.94
377.448	103.94
377.674	76.94
377.899	100.94
378.125	80.94
378.35	77.94
378.576	77.94
378.802	92.94
379.027	87.94
379.253	82.94
379.478	92.94
379.704	81.94
379.929	78.94
380.155	69.94
380.38	82.94
380.606	86.94
380.831	88.94
381.057	88.94
381.282	76.94
381.507	89.94
381.733	61.94
381.958	87.94
382.184	76.94
382.409	82.94
382.634	87.94
382.86	77.94
383.085	95.94
383.31	77.94
383.535	80.94
383.761	78.94
383.986	62.94
384.211	78.94
384.436	77.94
384.662	84.94
384.887	88.94
385.112	82.94
385.337	86.94
385.562	88.94
385.787	89.94
386.013	89.94
386.238	81.94
386.463	81.94
386.688	101.94
386.913	86.94
387.138	81.94
387.363	92.94
387.588	96.94
387.813	78.94
388.038	87.94
388.263	72.94
388.488	80.94
388.713	84.94
388.938	80.94
389.163	77.94
389.387	75.94
389.612	60.94
389.837	86.94
390.062	81.94
390.287	72.94
390.512	78.94
390.736	81.94
390.961	96.94
391.186	95.94
391.411	88.94
391.636	86.94
391.86	56.94
392.085	101.94
392.31	76.94
392.534	83.94
392.759	76.94
392.984	82.94
393.208	78.94
393.433	79.94
393.658	84.94
393.882	83.94
394.107	88.94
394.331	77.94
394.556	82.94
394.78	86.94
395.005	77.94
395.229	77.94
395.454	101.94
395.678	79.94
395.903	77.94
396.127	89.94
396.352	80.94
396.576	82.94
396.801	65.94
397.025	74.94
397.249	73.94
397.474	86.94
397.698	82.94
397.922	67.94
398.147	88.94
398.371	72.94
398.595	94.94
398.82	94.94
399.044	72.94
399.268	92.94
399.492	85.94
399.717	88.94
399.941	76.94
400.165	81.94
400.389	78.94
400.613	93.94
400.837	74.94
401.062	83.94
401.286	64.94
401.51	84.94
401.734	88.94
401.958	89.94
402.182	78.94
402.406	99.94
402.63	80.94
402.854	72.94
403.078	98.94
403.302	80.94
403.526	81.94
403.75	76.94
403.974	74.94
404.198	88.94
404.422	74.94
404.645	86.94
404.869	80.94
405.093	86.94
405.317	89.94
405.541	70.94
405.765	76.94
405.988	78.94
406.212	81.94
406.436	74.94
406.66	89.94
406.883	79.94
407.107	76.94
407.331	70.94
407.555	94.94
407.778	74.94
408.002	85.94
408.226	76.94
408.449	72.94
408.673	76.94
408.896	86.94
409.12	66.94
409.344	78.94
409.567	77.94
409.791	76.94
410.014	77.94
410.238	55.94
410.461	74.94
410.685	87.94
410.908	81.94
411.132	89.94
411.355	90.94
411.578	76.94
411.802	91.94
412.025	84.94
412.249	79.94
412.472	82.94
412.695	74.94
412.919	80.94
413.142	84.94
413.365	70.94
413.589	70.94
413.812	65.94
414.035	81.94
414.258	70.94
414.482	87.94
414.705	89.94
414.928	75.94
415.151	89.94
415.374	74.94
415.597	93.94
415.821	77.94
416.044	71.94
416.267	87.94
416.49	71.94
416.713	71.94
416.936	88.94
417.159	80.94
417.382	79.94
417.605	74.94
417.828	79.94
418.051	76.94
418.274	90.94
418.497	71.94
418.72	95.94
418.943	88.94
419.166	81.94
419.389	84.94
419.611	81.94
419.834	74.94
420.057	90.94
420.28	70.94
420.503	64.94
420.726	92.94
420.948	72.94
421.171	90.94
421.394	77.94
421.617	81.94
421.839	83.94
422.062	68.94
422.285	71.94
422.507	72.94
422.73	77.94
422.953	89.94
423.175	80.94
423.398	94.94
423.621	82.94
423.843	75.94
424.066	80.94
424.288	71.94
424.511	83.94
424.733	80.94
424.956	88.94
425.178	74.94
425.401	82.94
425.623	66.94
425.846	93.94
426.068	79.94
426.291	73.94
426.513	69.94
426.735	81.94
426.958	87.94
427.18	81.94
427.402	64.94
427.625	90.94
427.847	82.94
428.069	70.94
428.292	91.94
428.514	78.94
428.736	80.94
428.958	81.94
429.181	74.94
429.403	85.94
429.625	86.94
429.847	81.94
430.069	76.94
430.292	76.94
430.514	77.94
430.736	76.94
430.958	90.94
431.18	87.94
431.402	74.94
431.624	85.94
431.846	76.94
432.068	74.94
432.29	86.94
432.512	84.94
432.734	84.94
432.956	76.94
433.178	94.94
433.4	73.94
433.622	81.94
433.844	98.94
434.066	78.94
434.287	78.94
434.509	75.94
434.731	77.94
434.953	81.94
435.175	74.94
435.397	79.94
435.618	75.94
435.84	75.94
436.062	77.94
436.284	85.94
436.505	83.94
436.727	81.94
436.949	74.94
437.17	75.94
437.392	74.94
437.614	64.94
437.835	78.94
438.057	83.94
438.278	71.94
438.5	67.94
438.721	78.94
438.943	75.94
439.165	88.94
439.386	86.94
439.608	86.94
439.829	89.94
440.05	82.94
440.272	81.94
440.493	84.94
440.715	65.94
440.936	92.94
441.158	85.94
441.379	87.94
441.6	69.94
441.822	78.94
442.043	79.94
442.264	94.94
442.486	82.94
442.707	83.94
442.928	82.94
443.149	78.94
443.371	79.94
443.592	75.94
443.813	91.94
444.034	77.94
444.255	74.94
444.476	76.94
444.698	70.94
444.919	66.94
445.14	164.94
445.361	114.94
445.582	70.94
445.803	82.94
446.024	71.94
446.245	92.94
446.466	87.94
446.687	84.94
446.908	74.94
447.129	81.94
447.35	72.94
447.571	74.94
447.792	81.94
448.013	70.94
448.234	78.94
448.455	90.94
448.675	92.94
448.896	72.94
449.117	90.94
449.338	86.94
449.559	72.94
449.779	80.94
450	81.94
450.221	75.94
450.442	73.94
450.662	78.94
450.883	85.94
451.104	72.94
451.324	74.94
451.545	68.94
451.766	86.94
451.986	85.94
452.207	94.94
452.428	85.94
452.648	80.94
452.869	88.94
453.089	75.94
453.31	86.94
453.53	85.94
453.751	68.94
453.971	69.94
454.192	85.94
454.412	82.94
454.633	94.94
454.853	78.94
455.073	83.94
455.294	91.94
455.514	78.94
455.734	78.94
455.955	81.94
456.175	75.94
456.395	84.94
456.616	77.94
456.836	80.94
457.056	86.94
457.276	83.94
457.497	73.94
457.717	81.94
457.937	63.94
458.157	92.94
458.377	81.94
458.598	81.94
458.818	74.94
459.038	73.94
459.258	93.94
459.478	90.94
459.698	96.94
459.918	77.94
460.138	75.94
460.358	79.94
460.578	85.94
460.798	72.94
461.018	95.94
461.238	65.94
461.458	85.94
461.678	72.94
461.898	77.94
462.118	84.94
462.338	83.94
462.558	98.94
462.777	81.94
462.997	66.94
463.217	90.94
463.437	81.94
463.657	81.94
463.876	78.94
464.096	78.94
464.316	88.94
464.536	85.94
464.755	73.94
464.975	71.94
465.195	77.94
465.414	92.94
465.634	92.94
465.854	85.94
466.073	68.94
466.293	81.94
466.512	81.94
466.732	84.94
466.951	72.94
467.171	72.94
467.391	71.94
467.61	88.94
467.829	81.94
468.049	91.94
468.268	71.94
468.488	83.94
468.707	73.94
468.927	82.94
469.146	87.94
469.365	84.94
469.585	81.94
469.804	94.94
470.023	98.94
470.243	77.94
470.462	75.94
470.681	90.94
470.901	73.94
471.12	72.94
471.339	84.94
471.558	79.94
471.777	78.94
471.997	86.94
472.216	81.94
472.435	78.94
472.654	62.94
472.873	88.94
473.092	67.94
473.311	84.94
473.53	80.94
473.749	77.94
473.968	84.94
474.187	71.94
474.406	78.94
474.625	98.94
474.844	92.94
475.063	80.94
475.282	90.94
475.501	84.94
475.72	87.94
475.939	87.94
476.158	72.94
476.377	65.94
476.596	72.94
476.814	79.94
477.033	78.94
477.252	79.94
477.471	78.94
477.69	87.94
477.908	89.94
478.127	79.94
478.346	88.94
478.564	76.94
478.783	78.94
479.002	74.94
479.22	76.94
479.439	84.94
479.658	73.94
479.876	75.94
480.095	70.94
480.313	87.94
480.532	75.94
480.751	77.94
480.969	66.94
481.188	72.94
481.406	84.94
481.624	79.94
481.843	88.94
482.061	89.94
482.28	93.94
482.498	75.94
482.717	81.94
482.935	80.94
483.153	91.94
483.372	77.94
483.59	88.94
483.808	84.94
484.027	93.94
484.245	86.94
484.463	75.94
484.681	75.94
484.9	80.94
485.118	78.94
485.336	90.94
485.554	84.94
485.772	81.94
485.99	79.94
486.209	94.94
486.427	79.94
486.645	68.94
486.863	80.94
487.081	80.94
487.299	80.94
487.517	87.94
487.735	71.94
487.953	100.94
488.171	82.94
488.389	86.94
488.607	82.94
488.825	80.94
489.043	64.94
489.261	81.94
489.479	88.94
489.696	79.94
489.914	72.94
490.132	89.94
490.35	88.94
490.568	85.94
490.786	75.94
491.003	85.94
491.221	86.94
491.439	82.94
491.657	76.94
491.874	77.94
492.092	87.94
492.31	86.94
492.527	77.94
492.745	78.94
492.963	74.94
493.18	70.94
493.398	76.94
493.615	80.94
493.833	85.94
494.05	90.94
494.268	84.94
494.485	105.94
494.703	86.94
494.92	86.94
495.138	80.94
495.355	73.94
495.573	85.94
495.79	88.94
496.008	96.94
496.225	100.94
496.442	68.94
496.66	82.94
496.877	80.94
497.094	79.94
497.312	89.94
497.529	78.94
497.746	77.94
497.963	79.94
498.181	67.94
498.398	78.94
498.615	80.94
498.832	83.94
499.049	84.94
499.267	82.94
499.484	69.94
499.701	85.94
499.918	84.94
500.135	65.94
500.352	84.94
500.569	93.94
500.786	80.94
501.003	92.94
501.22	76.94
501.437	77.94
501.654	73.94
501.871	71.94
502.088	84.94
502.305	85.94
502.522	84.94
502.739	83.94
502.956	79.94
503.172	77.94
503.389	81.94
503.606	81.94
503.823	77.94
504.04	83.94
504.256	83.94
504.473	93.94
504.69	81.94
504.907	85.94
505.123	95.94
505.34	83.94
505.557	71.94
505.773	82.94
505.99	85.94
506.207	89.94
506.423	82.94
506.64	94.94
506.856	80.94
507.073	76.94
507.289	82.94
507.506	89.94
507.722	83.94
507.939	94.94
508.155	65.94
508.372	83.94
508.588	82.94
508.805	86.94
509.021	81.94
509.238	79.94
509.454	69.94
509.67	80.94
509.887	80.94
510.103	79.94
510.319	76.94
510.536	85.94
510.752	71.94
510.968	74.94
511.184	89.94
511.401	89.94
511.617	96.94
511.833	85.94
512.049	76.94
512.265	83.94
512.481	75.94
512.698	86.94
512.914	86.94
513.13	78.94
513.346	76.94
513.562	79.94
513.778	76.94
513.994	81.94
514.21	93.94
514.426	84.94
514.642	75.94
514.858	88.94
515.074	83.94
515.29	81.94
515.506	85.94
515.721	80.94
515.937	76.94
516.153	76.94
516.369	84.94
516.585	60.94
516.801	73.94
517.016	81.94
517.232	82.94
517.448	88.94
517.664	79.94
517.879	80.94
518.095	93.94
518.311	86.94
518.527	80.94
518.742	77.94
518.958	72.94
519.173	68.94
519.389	84.94
519.605	84.94
519.82	86.94
520.036	84.94
