Data from BG_HRD10591_061.txt Node
Date: Fri May 16 15:14:53 EDT 2025
User: Yrep
Spectrometer: HR+D1059
Trigger mode: 1
Integration Time (sec): 1.000000E-1
Scans to average: 1
Electric dark correction enabled: true
Nonlinearity correction enabled: false
Boxcar width: 0
XAxis mode: Wavelengths
Number of Pixels in Spectrum: 2048
>>>>>Begin Spectral Data<<<<<
223.165	-27.19
223.4	-27.19
223.635	-27.19
223.869	-22.19
224.104	-17.19
224.338	-5.19
224.573	-22.19
224.808	-8.19
225.042	-12.19
225.277	2.81
225.511	3.81
225.746	5.81
225.98	-1.19
226.215	21.81
226.449	16.81
226.683	19.81
226.918	19.81
227.152	24.81
227.387	47.81
227.621	37.81
227.856	58.81
228.09	41.81
228.324	60.81
228.559	45.81
228.793	68.81
229.027	69.81
229.262	69.81
229.496	55.81
229.73	66.81
229.964	68.81
230.199	71.81
230.433	58.81
230.667	89.81
230.901	83.81
231.136	91.81
231.37	77.81
231.604	56.81
231.838	65.81
232.072	74.81
232.306	77.81
232.541	79.81
232.775	87.81
233.009	78.81
233.243	76.81
233.477	80.81
233.711	82.81
233.945	79.81
234.179	80.81
234.413	89.81
234.647	74.81
234.881	68.81
235.115	75.81
235.349	78.81
235.583	79.81
235.817	71.81
236.051	72.81
236.285	95.81
236.519	78.81
236.753	65.81
236.987	83.81
237.221	70.81
237.455	94.81
237.689	75.81
237.922	78.81
238.156	66.81
238.39	75.81
238.624	60.81
238.858	71.81
239.091	79.81
239.325	59.81
239.559	68.81
239.793	72.81
240.027	62.81
240.26	74.81
240.494	69.81
240.728	75.81
240.961	55.81
241.195	76.81
241.429	79.81
241.662	79.81
241.896	89.81
242.13	69.81
242.363	79.81
242.597	74.81
242.83	71.81
243.064	85.81
243.298	77.81
243.531	82.81
243.765	99.81
243.998	77.81
244.232	81.81
244.465	89.81
244.699	77.81
244.932	56.81
245.166	79.81
245.399	87.81
245.633	79.81
245.866	76.81
246.099	78.81
246.333	79.81
246.566	70.81
246.8	73.81
247.033	70.81
247.266	87.81
247.5	90.81
247.733	70.81
247.966	80.81
248.2	89.81
248.433	75.81
248.666	74.81
248.899	84.81
249.133	79.81
249.366	77.81
249.599	83.81
249.832	68.81
250.066	81.81
250.299	82.81
250.532	81.81
250.765	75.81
250.998	60.81
251.231	85.81
251.465	77.81
251.698	76.81
251.931	95.81
252.164	75.81
252.397	81.81
252.63	89.81
252.863	79.81
253.096	83.81
253.329	75.81
253.562	81.81
253.795	85.81
254.028	71.81
254.261	72.81
254.494	79.81
254.727	80.81
254.96	64.81
255.193	86.81
255.426	74.81
255.659	85.81
255.892	76.81
256.124	92.81
256.357	86.81
256.59	73.81
256.823	87.81
257.056	71.81
257.289	73.81
257.521	66.81
257.754	95.81
257.987	66.81
258.22	88.81
258.452	71.81
258.685	74.81
258.918	87.81
259.151	84.81
259.383	77.81
259.616	76.81
259.849	70.81
260.081	76.81
260.314	81.81
260.547	67.81
260.779	78.81
261.012	77.81
261.244	86.81
261.477	81.81
261.71	76.81
261.942	79.81
262.175	86.81
262.407	87.81
262.64	88.81
262.872	93.81
263.105	76.81
263.337	70.81
263.57	80.81
263.802	59.81
264.035	78.81
264.267	79.81
264.499	79.81
264.732	85.81
264.964	74.81
265.197	87.81
265.429	82.81
265.661	78.81
265.894	80.81
266.126	89.81
266.358	95.81
266.591	72.81
266.823	86.81
267.055	80.81
267.287	93.81
267.52	79.81
267.752	80.81
267.984	88.81
268.216	81.81
268.448	75.81
268.681	88.81
268.913	78.81
269.145	73.81
269.377	87.81
269.609	87.81
269.841	65.81
270.073	83.81
270.306	89.81
270.538	75.81
270.77	77.81
271.002	94.81
271.234	107.81
271.466	80.81
271.698	68.81
271.93	79.81
272.162	100.81
272.394	82.81
272.626	85.81
272.858	99.81
273.09	90.81
273.322	87.81
273.553	78.81
273.785	83.81
274.017	76.81
274.249	79.81
274.481	82.81
274.713	97.81
274.945	88.81
275.176	82.81
275.408	85.81
275.64	90.81
275.872	94.81
276.104	80.81
276.335	87.81
276.567	101.81
276.799	95.81
277.031	84.81
277.262	97.81
277.494	103.81
277.726	83.81
277.957	81.81
278.189	85.81
278.421	100.81
278.652	86.81
278.884	78.81
279.115	95.81
279.347	97.81
279.579	85.81
279.81	86.81
280.042	85.81
280.273	93.81
280.505	89.81
280.736	86.81
280.968	87.81
281.199	88.81
281.431	86.81
281.662	93.81
281.894	89.81
282.125	89.81
282.356	76.81
282.588	86.81
282.819	82.81
283.051	98.81
283.282	96.81
283.513	86.81
283.745	93.81
283.976	92.81
284.207	88.81
284.439	79.81
284.67	89.81
284.901	85.81
285.132	77.81
285.364	92.81
285.595	83.81
285.826	78.81
286.057	91.81
286.288	86.81
286.52	76.81
286.751	93.81
286.982	94.81
287.213	83.81
287.444	99.81
287.675	88.81
287.906	108.81
288.138	85.81
288.369	67.81
288.6	104.81
288.831	101.81
289.062	84.81
289.293	92.81
289.524	87.81
289.755	91.81
289.986	80.81
290.217	90.81
290.448	96.81
290.679	87.81
290.91	80.81
291.141	88.81
291.371	121.81
291.602	99.81
291.833	85.81
292.064	84.81
292.295	92.81
292.526	82.81
292.757	88.81
292.987	86.81
293.218	94.81
293.449	80.81
293.68	87.81
293.91	79.81
294.141	77.81
294.372	71.81
294.603	83.81
294.833	83.81
295.064	103.81
295.295	81.81
295.525	94.81
295.756	89.81
295.987	86.81
296.217	84.81
296.448	88.81
296.679	92.81
296.909	93.81
297.14	87.81
297.37	91.81
297.601	90.81
297.831	93.81
298.062	93.81
298.292	92.81
298.523	93.81
298.753	75.81
298.984	99.81
299.214	104.81
299.445	85.81
299.675	89.81
299.905	88.81
300.136	89.81
300.366	84.81
300.597	78.81
300.827	86.81
301.057	84.81
301.288	77.81
301.518	79.81
301.748	99.81
301.979	103.81
302.209	82.81
302.439	92.81
302.669	91.81
302.9	96.81
303.13	86.81
303.36	94.81
303.59	86.81
303.82	92.81
304.051	90.81
304.281	90.81
304.511	88.81
304.741	84.81
304.971	99.81
305.201	88.81
305.431	83.81
305.661	96.81
305.891	89.81
306.121	92.81
306.352	89.81
306.582	74.81
306.812	83.81
307.042	95.81
307.272	76.81
307.502	92.81
307.731	87.81
307.961	90.81
308.191	99.81
308.421	94.81
308.651	83.81
308.881	92.81
309.111	84.81
309.341	83.81
309.571	79.81
309.8	84.81
310.03	79.81
310.26	84.81
310.49	90.81
310.72	94.81
310.949	73.81
311.179	93.81
311.409	84.81
311.639	97.81
311.868	95.81
312.098	107.81
312.328	87.81
312.557	87.81
312.787	89.81
313.017	95.81
313.246	89.81
313.476	96.81
313.706	78.81
313.935	87.81
314.165	80.81
314.394	80.81
314.624	83.81
314.853	95.81
315.083	69.81
315.312	87.81
315.542	81.81
315.771	95.81
316.001	88.81
316.23	81.81
316.46	88.81
316.689	80.81
316.919	80.81
317.148	99.81
317.377	85.81
317.607	80.81
317.836	76.81
318.065	95.81
318.295	85.81
318.524	96.81
318.753	88.81
318.983	84.81
319.212	93.81
319.441	80.81
319.67	92.81
319.9	69.81
320.129	91.81
320.358	92.81
320.587	76.81
320.816	93.81
321.046	87.81
321.275	97.81
321.504	96.81
321.733	93.81
321.962	98.81
322.191	83.81
322.42	98.81
322.649	84.81
322.878	91.81
323.108	75.81
323.337	84.81
323.566	77.81
323.795	85.81
324.024	78.81
324.253	89.81
324.482	91.81
324.71	102.81
324.939	93.81
325.168	95.81
325.397	104.81
325.626	89.81
325.855	79.81
326.084	88.81
326.313	98.81
326.542	86.81
326.77	100.81
326.999	103.81
327.228	82.81
327.457	89.81
327.686	102.81
327.914	94.81
328.143	104.81
328.372	79.81
328.6	85.81
328.829	75.81
329.058	89.81
329.287	107.81
329.515	86.81
329.744	102.81
329.972	78.81
330.201	74.81
330.43	78.81
330.658	76.81
330.887	87.81
331.115	84.81
331.344	87.81
331.572	85.81
331.801	78.81
332.03	96.81
332.258	74.81
332.486	92.81
332.715	104.81
332.943	97.81
333.172	91.81
333.4	102.81
333.629	88.81
333.857	99.81
334.085	94.81
334.314	89.81
334.542	100.81
334.771	80.81
334.999	86.81
335.227	90.81
335.455	88.81
335.684	94.81
335.912	88.81
336.14	84.81
336.369	80.81
336.597	91.81
336.825	100.81
337.053	87.81
337.281	84.81
337.51	78.81
337.738	89.81
337.966	88.81
338.194	96.81
338.422	82.81
338.65	103.81
338.878	89.81
339.106	90.81
339.334	97.81
339.562	80.81
339.79	101.81
340.018	90.81
340.246	83.81
340.474	83.81
340.702	80.81
340.93	85.81
341.158	75.81
341.386	95.81
341.614	83.81
341.842	83.81
342.07	86.81
342.298	96.81
342.526	83.81
342.754	83.81
342.981	93.81
343.209	85.81
343.437	99.81
343.665	88.81
343.893	89.81
344.12	94.81
344.348	86.81
344.576	90.81
344.804	86.81
345.031	74.81
345.259	87.81
345.487	75.81
345.714	73.81
345.942	94.81
346.17	84.81
346.397	89.81
346.625	97.81
346.853	92.81
347.08	93.81
347.308	93.81
347.535	96.81
347.763	92.81
347.99	103.81
348.218	92.81
348.445	93.81
348.673	100.81
348.9	94.81
349.128	88.81
349.355	88.81
349.583	99.81
349.81	96.81
350.037	83.81
350.265	95.81
350.492	92.81
350.72	81.81
350.947	86.81
351.174	91.81
351.402	79.81
351.629	70.81
351.856	83.81
352.083	91.81
352.311	71.81
352.538	84.81
352.765	79.81
352.992	99.81
353.22	97.81
353.447	71.81
353.674	95.81
353.901	95.81
354.128	91.81
354.355	90.81
354.583	82.81
354.81	83.81
355.037	88.81
355.264	95.81
355.491	82.81
355.718	73.81
355.945	88.81
356.172	87.81
356.399	88.81
356.626	95.81
356.853	91.81
357.08	85.81
357.307	77.81
357.534	106.81
357.761	84.81
357.988	99.81
358.215	85.81
358.441	92.81
358.668	91.81
358.895	100.81
359.122	75.81
359.349	94.81
359.576	71.81
359.802	68.81
360.029	82.81
360.256	86.81
360.483	91.81
360.709	96.81
360.936	93.81
361.163	80.81
361.39	88.81
361.616	79.81
361.843	96.81
362.07	73.81
362.296	92.81
362.523	92.81
362.749	85.81
362.976	101.81
363.203	84.81
363.429	95.81
363.656	86.81
363.882	84.81
364.109	80.81
364.335	88.81
364.562	96.81
364.788	73.81
365.015	92.81
365.241	97.81
365.468	89.81
365.694	75.81
365.92	95.81
366.147	87.81
366.373	79.81
366.599	84.81
366.826	96.81
367.052	83.81
367.278	80.81
367.505	95.81
367.731	94.81
367.957	101.81
368.184	93.81
368.41	84.81
368.636	97.81
368.862	77.81
369.089	91.81
369.315	89.81
369.541	91.81
369.767	85.81
369.993	85.81
370.219	92.81
370.445	97.81
370.672	86.81
370.898	86.81
371.124	73.81
371.35	81.81
371.576	78.81
371.802	77.81
372.028	91.81
372.254	83.81
372.48	80.81
372.706	90.81
372.932	80.81
373.158	90.81
373.384	97.81
373.61	82.81
373.835	88.81
374.061	83.81
374.287	95.81
374.513	99.81
374.739	88.81
374.965	99.81
375.191	95.81
375.416	88.81
375.642	92.81
375.868	78.81
376.094	90.81
376.319	75.81
376.545	72.81
376.771	78.81
376.997	108.81
377.222	82.81
377.448	93.81
377.674	93.81
377.899	91.81
378.125	87.81
378.35	87.81
378.576	85.81
378.802	69.81
379.027	80.81
379.253	79.81
379.478	90.81
379.704	90.81
379.929	78.81
380.155	93.81
380.38	71.81
380.606	85.81
380.831	94.81
381.057	100.81
381.282	76.81
381.507	85.81
381.733	87.81
381.958	93.81
382.184	92.81
382.409	84.81
382.634	79.81
382.86	75.81
383.085	89.81
383.31	96.81
383.535	84.81
383.761	111.81
383.986	94.81
384.211	83.81
384.436	80.81
384.662	95.81
384.887	85.81
385.112	86.81
385.337	94.81
385.562	83.81
385.787	83.81
386.013	78.81
386.238	91.81
386.463	94.81
386.688	85.81
386.913	92.81
387.138	94.81
387.363	80.81
387.588	91.81
387.813	103.81
388.038	76.81
388.263	93.81
388.488	100.81
388.713	95.81
388.938	79.81
389.163	80.81
389.387	87.81
389.612	91.81
389.837	92.81
390.062	79.81
390.287	77.81
390.512	84.81
390.736	79.81
390.961	94.81
391.186	90.81
391.411	80.81
391.636	91.81
391.86	97.81
392.085	97.81
392.31	78.81
392.534	91.81
392.759	81.81
392.984	88.81
393.208	73.81
393.433	95.81
393.658	76.81
393.882	89.81
394.107	86.81
394.331	72.81
394.556	92.81
394.78	89.81
395.005	99.81
395.229	87.81
395.454	85.81
395.678	90.81
395.903	102.81
396.127	77.81
396.352	81.81
396.576	94.81
396.801	85.81
397.025	90.81
397.249	76.81
397.474	88.81
397.698	80.81
397.922	72.81
398.147	65.81
398.371	84.81
398.595	96.81
398.82	85.81
399.044	86.81
399.268	85.81
399.492	95.81
399.717	95.81
399.941	84.81
400.165	92.81
400.389	92.81
400.613	104.81
400.837	86.81
401.062	101.81
401.286	91.81
401.51	88.81
401.734	81.81
401.958	80.81
402.182	86.81
402.406	87.81
402.63	99.81
402.854	101.81
403.078	90.81
403.302	83.81
403.526	90.81
403.75	83.81
403.974	78.81
404.198	94.81
404.422	89.81
404.645	97.81
404.869	92.81
405.093	89.81
405.317	81.81
405.541	94.81
405.765	90.81
405.988	94.81
406.212	90.81
406.436	101.81
406.66	92.81
406.883	96.81
407.107	97.81
407.331	86.81
407.555	78.81
407.778	83.81
408.002	91.81
408.226	72.81
408.449	92.81
408.673	75.81
408.896	95.81
409.12	91.81
409.344	104.81
409.567	86.81
409.791	85.81
410.014	83.81
410.238	70.81
410.461	88.81
410.685	86.81
410.908	84.81
411.132	99.81
411.355	87.81
411.578	93.81
411.802	84.81
412.025	83.81
412.249	79.81
412.472	101.81
412.695	85.81
412.919	77.81
413.142	89.81
413.365	82.81
413.589	82.81
413.812	78.81
414.035	74.81
414.258	98.81
414.482	91.81
414.705	99.81
414.928	87.81
415.151	81.81
415.374	74.81
415.597	77.81
415.821	66.81
416.044	94.81
416.267	89.81
416.49	80.81
416.713	80.81
416.936	92.81
417.159	99.81
417.382	90.81
417.605	100.81
417.828	88.81
418.051	90.81
418.274	96.81
418.497	95.81
418.72	87.81
418.943	86.81
419.166	85.81
419.389	71.81
419.611	92.81
419.834	94.81
420.057	107.81
420.28	97.81
420.503	79.81
420.726	84.81
420.948	87.81
421.171	89.81
421.394	101.81
421.617	99.81
421.839	100.81
422.062	85.81
422.285	98.81
422.507	75.81
422.73	88.81
422.953	81.81
423.175	96.81
423.398	105.81
423.621	84.81
423.843	86.81
424.066	85.81
424.288	84.81
424.511	101.81
424.733	77.81
424.956	91.81
425.178	99.81
425.401	91.81
425.623	86.81
425.846	91.81
426.068	68.81
426.291	110.81
426.513	81.81
426.735	109.81
426.958	93.81
427.18	94.81
427.402	103.81
427.625	92.81
427.847	81.81
428.069	79.81
428.292	84.81
428.514	99.81
428.736	101.81
428.958	96.81
429.181	92.81
429.403	85.81
429.625	100.81
429.847	86.81
430.069	86.81
430.292	80.81
430.514	88.81
430.736	87.81
430.958	92.81
431.18	85.81
431.402	65.81
431.624	73.81
431.846	103.81
432.068	92.81
432.29	89.81
432.512	90.81
432.734	90.81
432.956	99.81
433.178	100.81
433.4	79.81
433.622	95.81
433.844	105.81
434.066	83.81
434.287	89.81
434.509	109.81
434.731	92.81
434.953	96.81
435.175	76.81
435.397	57.81
435.618	72.81
435.84	93.81
436.062	81.81
436.284	83.81
436.505	87.81
436.727	81.81
436.949	86.81
437.17	88.81
437.392	89.81
437.614	86.81
437.835	82.81
438.057	92.81
438.278	77.81
438.5	89.81
438.721	98.81
438.943	75.81
439.165	79.81
439.386	87.81
439.608	86.81
439.829	92.81
440.05	92.81
440.272	95.81
440.493	86.81
440.715	96.81
440.936	86.81
441.158	96.81
441.379	77.81
441.6	96.81
441.822	85.81
442.043	92.81
442.264	84.81
442.486	75.81
442.707	77.81
442.928	88.81
443.149	77.81
443.371	83.81
443.592	87.81
443.813	89.81
444.034	85.81
444.255	84.81
444.476	92.81
444.698	87.81
444.919	87.81
445.14	184.81
445.361	129.81
445.582	85.81
445.803	86.81
446.024	87.81
446.245	88.81
446.466	91.81
446.687	95.81
446.908	91.81
447.129	88.81
447.35	84.81
447.571	85.81
447.792	85.81
448.013	103.81
448.234	110.81
448.455	72.81
448.675	70.81
448.896	84.81
449.117	81.81
449.338	78.81
449.559	84.81
449.779	76.81
450	80.81
450.221	90.81
450.442	92.81
450.662	82.81
450.883	94.81
451.104	94.81
451.324	76.81
451.545	85.81
451.766	83.81
451.986	72.81
452.207	88.81
452.428	89.81
452.648	85.81
452.869	87.81
453.089	95.81
453.31	92.81
453.53	88.81
453.751	81.81
453.971	85.81
454.192	84.81
454.412	85.81
454.633	91.81
454.853	75.81
455.073	83.81
455.294	81.81
455.514	87.81
455.734	94.81
455.955	91.81
456.175	80.81
456.395	89.81
456.616	89.81
456.836	85.81
457.056	77.81
457.276	87.81
457.497	94.81
457.717	80.81
457.937	85.81
458.157	86.81
458.377	96.81
458.598	88.81
458.818	93.81
459.038	96.81
459.258	67.81
459.478	81.81
459.698	91.81
459.918	104.81
460.138	87.81
460.358	89.81
460.578	85.81
460.798	102.81
461.018	82.81
461.238	80.81
461.458	74.81
461.678	94.81
461.898	95.81
462.118	73.81
462.338	85.81
462.558	83.81
462.777	99.81
462.997	103.81
463.217	91.81
463.437	80.81
463.657	104.81
463.876	79.81
464.096	90.81
464.316	98.81
464.536	85.81
464.755	87.81
464.975	84.81
465.195	90.81
465.414	88.81
465.634	90.81
465.854	95.81
466.073	87.81
466.293	90.81
466.512	109.81
466.732	91.81
466.951	87.81
467.171	79.81
467.391	73.81
467.61	88.81
467.829	95.81
468.049	88.81
468.268	83.81
468.488	78.81
468.707	88.81
468.927	90.81
469.146	79.81
469.365	82.81
469.585	100.81
469.804	91.81
470.023	75.81
470.243	83.81
470.462	83.81
470.681	86.81
470.901	83.81
471.12	97.81
471.339	91.81
471.558	93.81
471.777	96.81
471.997	90.81
472.216	102.81
472.435	81.81
472.654	92.81
472.873	87.81
473.092	79.81
473.311	95.81
473.53	81.81
473.749	93.81
473.968	91.81
474.187	100.81
474.406	96.81
474.625	93.81
474.844	76.81
475.063	82.81
475.282	89.81
475.501	76.81
475.72	99.81
475.939	93.81
476.158	89.81
476.377	86.81
476.596	90.81
476.814	88.81
477.033	85.81
477.252	75.81
477.471	100.81
477.69	99.81
477.908	85.81
478.127	89.81
478.346	84.81
478.564	88.81
478.783	79.81
479.002	78.81
479.22	91.81
479.439	92.81
479.658	100.81
479.876	86.81
480.095	94.81
480.313	81.81
480.532	91.81
480.751	89.81
480.969	90.81
481.188	81.81
481.406	97.81
481.624	85.81
481.843	84.81
482.061	73.81
482.28	85.81
482.498	81.81
482.717	86.81
482.935	79.81
483.153	90.81
483.372	74.81
483.59	91.81
483.808	96.81
484.027	94.81
484.245	77.81
484.463	85.81
484.681	95.81
484.9	87.81
485.118	95.81
485.336	79.81
485.554	84.81
485.772	86.81
485.99	89.81
486.209	85.81
486.427	95.81
486.645	80.81
486.863	75.81
487.081	89.81
487.299	88.81
487.517	89.81
487.735	87.81
487.953	85.81
488.171	82.81
488.389	97.81
488.607	99.81
488.825	94.81
489.043	97.81
489.261	86.81
489.479	79.81
489.696	78.81
489.914	76.81
490.132	101.81
490.35	88.81
490.568	109.81
490.786	99.81
491.003	92.81
491.221	68.81
491.439	84.81
491.657	92.81
491.874	87.81
492.092	89.81
492.31	99.81
492.527	81.81
492.745	100.81
492.963	87.81
493.18	101.81
493.398	97.81
493.615	99.81
493.833	101.81
494.05	87.81
494.268	80.81
494.485	92.81
494.703	97.81
494.92	85.81
495.138	80.81
495.355	97.81
495.573	97.81
495.79	91.81
496.008	85.81
496.225	96.81
496.442	94.81
496.66	90.81
496.877	92.81
497.094	77.81
497.312	83.81
497.529	93.81
497.746	93.81
497.963	89.81
498.181	100.81
498.398	87.81
498.615	99.81
498.832	103.81
499.049	92.81
499.267	102.81
499.484	88.81
499.701	101.81
499.918	114.81
500.135	120.81
500.352	99.81
500.569	132.81
500.786	113.81
501.003	96.81
501.22	92.81
501.437	106.81
501.654	96.81
501.871	89.81
502.088	100.81
502.305	97.81
502.522	101.81
502.739	103.81
502.956	84.81
503.172	96.81
503.389	88.81
503.606	95.81
503.823	79.81
504.04	88.81
504.256	91.81
504.473	96.81
504.69	85.81
504.907	87.81
505.123	94.81
505.34	105.81
505.557	90.81
505.773	85.81
505.99	70.81
506.207	96.81
506.423	88.81
506.64	91.81
506.856	85.81
507.073	88.81
507.289	88.81
507.506	85.81
507.722	83.81
507.939	86.81
508.155	91.81
508.372	86.81
508.588	90.81
508.805	88.81
509.021	90.81
509.238	86.81
509.454	70.81
509.67	84.81
509.887	88.81
510.103	91.81
510.319	97.81
510.536	80.81
510.752	80.81
510.968	93.81
511.184	83.81
511.401	96.81
511.617	100.81
511.833	86.81
512.049	94.81
512.265	99.81
512.481	89.81
512.698	101.81
512.914	99.81
513.13	105.81
513.346	81.81
513.562	76.81
513.778	85.81
513.994	94.81
514.21	103.81
514.426	92.81
514.642	99.81
514.858	78.81
515.074	94.81
515.29	90.81
515.506	84.81
515.721	94.81
515.937	89.81
516.153	89.81
516.369	105.81
516.585	102.81
516.801	84.81
517.016	104.81
517.232	88.81
517.448	104.81
517.664	99.81
517.879	99.81
518.095	96.81
518.311	90.81
518.527	101.81
518.742	85.81
518.958	92.81
