Data from BG_HRD10591_033.txt Node
Date: Fri May 16 15:14:39 EDT 2025
User: Yrep
Spectrometer: HR+D1059
Trigger mode: 1
Integration Time (sec): 1.000000E-1
Scans to average: 1
Electric dark correction enabled: true
Nonlinearity correction enabled: false
Boxcar width: 0
XAxis mode: Wavelengths
Number of Pixels in Spectrum: 2048
>>>>>Begin Spectral Data<<<<<
223.165	-16.69
223.4	-16.69
223.635	-16.69
223.869	-22.69
224.104	-18.69
224.338	-9.69
224.573	-3.69
224.808	-20.69
225.042	-6.69
225.277	-3.69
225.511	-16.69
225.746	-1.69
225.98	2.31
226.215	22.31
226.449	19.31
226.683	22.31
226.918	31.31
227.152	23.31
227.387	43.31
227.621	57.31
227.856	59.31
228.09	43.31
228.324	52.31
228.559	62.31
228.793	67.31
229.027	67.31
229.262	65.31
229.496	63.31
229.73	61.31
229.964	62.31
230.199	76.31
230.433	64.31
230.667	71.31
230.901	78.31
231.136	84.31
231.37	78.31
231.604	80.31
231.838	65.31
232.072	80.31
232.306	93.31
232.541	78.31
232.775	67.31
233.009	99.31
233.243	77.31
233.477	87.31
233.711	85.31
233.945	66.31
234.179	77.31
234.413	86.31
234.647	89.31
234.881	80.31
235.115	88.31
235.349	86.31
235.583	80.31
235.817	86.31
236.051	91.31
236.285	81.31
236.519	73.31
236.753	78.31
236.987	72.31
237.221	72.31
237.455	76.31
237.689	81.31
237.922	78.31
238.156	78.31
238.39	84.31
238.624	65.31
238.858	75.31
239.091	78.31
239.325	74.31
239.559	61.31
239.793	72.31
240.027	92.31
240.26	78.31
240.494	74.31
240.728	57.31
240.961	66.31
241.195	67.31
241.429	91.31
241.662	83.31
241.896	62.31
242.13	80.31
242.363	72.31
242.597	70.31
242.83	59.31
243.064	65.31
243.298	72.31
243.531	73.31
243.765	71.31
243.998	69.31
244.232	81.31
244.465	80.31
244.699	77.31
244.932	73.31
245.166	70.31
245.399	87.31
245.633	79.31
245.866	76.31
246.099	69.31
246.333	90.31
246.566	82.31
246.8	74.31
247.033	80.31
247.266	75.31
247.5	73.31
247.733	68.31
247.966	87.31
248.2	65.31
248.433	77.31
248.666	85.31
248.899	57.31
249.133	95.31
249.366	94.31
249.599	81.31
249.832	73.31
250.066	69.31
250.299	87.31
250.532	79.31
250.765	75.31
250.998	75.31
251.231	79.31
251.465	82.31
251.698	79.31
251.931	86.31
252.164	72.31
252.397	69.31
252.63	91.31
252.863	71.31
253.096	81.31
253.329	77.31
253.562	70.31
253.795	71.31
254.028	84.31
254.261	67.31
254.494	76.31
254.727	78.31
254.96	84.31
255.193	85.31
255.426	84.31
255.659	75.31
255.892	80.31
256.124	94.31
256.357	95.31
256.59	70.31
256.823	93.31
257.056	84.31
257.289	92.31
257.521	76.31
257.754	80.31
257.987	87.31
258.22	92.31
258.452	77.31
258.685	77.31
258.918	78.31
259.151	67.31
259.383	78.31
259.616	88.31
259.849	77.31
260.081	83.31
260.314	96.31
260.547	94.31
260.779	70.31
261.012	75.31
261.244	79.31
261.477	81.31
261.71	96.31
261.942	80.31
262.175	80.31
262.407	84.31
262.64	71.31
262.872	67.31
263.105	84.31
263.337	81.31
263.57	76.31
263.802	88.31
264.035	70.31
264.267	79.31
264.499	89.31
264.732	91.31
264.964	75.31
265.197	85.31
265.429	90.31
265.661	91.31
265.894	87.31
266.126	72.31
266.358	83.31
266.591	99.31
266.823	78.31
267.055	81.31
267.287	86.31
267.52	68.31
267.752	84.31
267.984	100.31
268.216	94.31
268.448	92.31
268.681	82.31
268.913	72.31
269.145	81.31
269.377	88.31
269.609	74.31
269.841	97.31
270.073	85.31
270.306	84.31
270.538	86.31
270.77	92.31
271.002	83.31
271.234	95.31
271.466	89.31
271.698	77.31
271.93	89.31
272.162	83.31
272.394	86.31
272.626	78.31
272.858	81.31
273.09	85.31
273.322	81.31
273.553	83.31
273.785	91.31
274.017	84.31
274.249	97.31
274.481	80.31
274.713	88.31
274.945	90.31
275.176	78.31
275.408	84.31
275.64	91.31
275.872	77.31
276.104	70.31
276.335	104.31
276.567	94.31
276.799	75.31
277.031	88.31
277.262	85.31
277.494	85.31
277.726	96.31
277.957	82.31
278.189	85.31
278.421	92.31
278.652	85.31
278.884	88.31
279.115	82.31
279.347	93.31
279.579	83.31
279.81	90.31
280.042	91.31
280.273	90.31
280.505	85.31
280.736	81.31
280.968	86.31
281.199	88.31
281.431	93.31
281.662	80.31
281.894	78.31
282.125	80.31
282.356	89.31
282.588	87.31
282.819	93.31
283.051	78.31
283.282	80.31
283.513	76.31
283.745	82.31
283.976	84.31
284.207	83.31
284.439	90.31
284.67	92.31
284.901	83.31
285.132	89.31
285.364	87.31
285.595	87.31
285.826	70.31
286.057	89.31
286.288	85.31
286.52	87.31
286.751	71.31
286.982	87.31
287.213	93.31
287.444	85.31
287.675	98.31
287.906	91.31
288.138	67.31
288.369	73.31
288.6	79.31
288.831	81.31
289.062	91.31
289.293	84.31
289.524	92.31
289.755	91.31
289.986	82.31
290.217	83.31
290.448	84.31
290.679	75.31
290.91	93.31
291.141	91.31
291.371	86.31
291.602	87.31
291.833	82.31
292.064	83.31
292.295	89.31
292.526	99.31
292.757	79.31
292.987	85.31
293.218	77.31
293.449	83.31
293.68	87.31
293.91	87.31
294.141	91.31
294.372	85.31
294.603	78.31
294.833	76.31
295.064	87.31
295.295	87.31
295.525	97.31
295.756	79.31
295.987	67.31
296.217	90.31
296.448	89.31
296.679	95.31
296.909	86.31
297.14	85.31
297.37	83.31
297.601	86.31
297.831	95.31
298.062	85.31
298.292	94.31
298.523	98.31
298.753	93.31
298.984	95.31
299.214	91.31
299.445	89.31
299.675	80.31
299.905	71.31
300.136	84.31
300.366	79.31
300.597	90.31
300.827	78.31
301.057	76.31
301.288	76.31
301.518	87.31
301.748	91.31
301.979	109.31
302.209	71.31
302.439	98.31
302.669	85.31
302.9	79.31
303.13	82.31
303.36	88.31
303.59	94.31
303.82	84.31
304.051	88.31
304.281	77.31
304.511	83.31
304.741	81.31
304.971	71.31
305.201	86.31
305.431	96.31
305.661	92.31
305.891	92.31
306.121	81.31
306.352	87.31
306.582	71.31
306.812	79.31
307.042	106.31
307.272	92.31
307.502	101.31
307.731	88.31
307.961	93.31
308.191	93.31
308.421	94.31
308.651	89.31
308.881	80.31
309.111	96.31
309.341	91.31
309.571	97.31
309.8	92.31
310.03	96.31
310.26	74.31
310.49	80.31
310.72	73.31
310.949	83.31
311.179	94.31
311.409	86.31
311.639	86.31
311.868	106.31
312.098	84.31
312.328	70.31
312.557	93.31
312.787	84.31
313.017	91.31
313.246	77.31
313.476	86.31
313.706	91.31
313.935	82.31
314.165	75.31
314.394	75.31
314.624	88.31
314.853	89.31
315.083	92.31
315.312	87.31
315.542	91.31
315.771	94.31
316.001	87.31
316.23	85.31
316.46	90.31
316.689	85.31
316.919	79.31
317.148	101.31
317.377	101.31
317.607	79.31
317.836	96.31
318.065	90.31
318.295	95.31
318.524	92.31
318.753	95.31
318.983	83.31
319.212	81.31
319.441	78.31
319.67	85.31
319.9	103.31
320.129	82.31
320.358	93.31
320.587	82.31
320.816	89.31
321.046	84.31
321.275	85.31
321.504	76.31
321.733	87.31
321.962	89.31
322.191	79.31
322.42	92.31
322.649	92.31
322.878	88.31
323.108	79.31
323.337	90.31
323.566	74.31
323.795	93.31
324.024	94.31
324.253	83.31
324.482	100.31
324.71	93.31
324.939	80.31
325.168	93.31
325.397	95.31
325.626	90.31
325.855	87.31
326.084	79.31
326.313	97.31
326.542	99.31
326.77	92.31
326.999	87.31
327.228	96.31
327.457	87.31
327.686	94.31
327.914	105.31
328.143	94.31
328.372	89.31
328.6	99.31
328.829	83.31
329.058	80.31
329.287	81.31
329.515	93.31
329.744	91.31
329.972	85.31
330.201	89.31
330.43	81.31
330.658	85.31
330.887	80.31
331.115	92.31
331.344	90.31
331.572	94.31
331.801	75.31
332.03	87.31
332.258	88.31
332.486	88.31
332.715	84.31
332.943	78.31
333.172	90.31
333.4	86.31
333.629	95.31
333.857	87.31
334.085	81.31
334.314	90.31
334.542	77.31
334.771	75.31
334.999	75.31
335.227	89.31
335.455	81.31
335.684	95.31
335.912	92.31
336.14	105.31
336.369	87.31
336.597	97.31
336.825	92.31
337.053	78.31
337.281	90.31
337.51	94.31
337.738	92.31
337.966	92.31
338.194	90.31
338.422	100.31
338.65	90.31
338.878	93.31
339.106	83.31
339.334	87.31
339.562	88.31
339.79	89.31
340.018	93.31
340.246	83.31
340.474	86.31
340.702	86.31
340.93	83.31
341.158	63.31
341.386	72.31
341.614	99.31
341.842	79.31
342.07	103.31
342.298	89.31
342.526	97.31
342.754	89.31
342.981	89.31
343.209	86.31
343.437	85.31
343.665	83.31
343.893	101.31
344.12	85.31
344.348	80.31
344.576	95.31
344.804	82.31
345.031	83.31
345.259	80.31
345.487	77.31
345.714	90.31
345.942	94.31
346.17	94.31
346.397	95.31
346.625	87.31
346.853	83.31
347.08	86.31
347.308	95.31
347.535	93.31
347.763	95.31
347.99	105.31
348.218	95.31
348.445	93.31
348.673	87.31
348.9	78.31
349.128	103.31
349.355	73.31
349.583	84.31
349.81	83.31
350.037	87.31
350.265	83.31
350.492	96.31
350.72	99.31
350.947	80.31
351.174	83.31
351.402	90.31
351.629	79.31
351.856	87.31
352.083	91.31
352.311	91.31
352.538	96.31
352.765	95.31
352.992	87.31
353.22	87.31
353.447	95.31
353.674	93.31
353.901	102.31
354.128	81.31
354.355	85.31
354.583	85.31
354.81	82.31
355.037	73.31
355.264	99.31
355.491	85.31
355.718	78.31
355.945	100.31
356.172	80.31
356.399	66.31
356.626	85.31
356.853	93.31
357.08	89.31
357.307	101.31
357.534	99.31
357.761	84.31
357.988	101.31
358.215	92.31
358.441	90.31
358.668	86.31
358.895	82.31
359.122	80.31
359.349	87.31
359.576	99.31
359.802	83.31
360.029	92.31
360.256	97.31
360.483	83.31
360.709	83.31
360.936	81.31
361.163	96.31
361.39	90.31
361.616	82.31
361.843	88.31
362.07	79.31
362.296	88.31
362.523	85.31
362.749	79.31
362.976	96.31
363.203	92.31
363.429	93.31
363.656	83.31
363.882	83.31
364.109	87.31
364.335	88.31
364.562	73.31
364.788	84.31
365.015	91.31
365.241	72.31
365.468	75.31
365.694	83.31
365.92	103.31
366.147	95.31
366.373	77.31
366.599	75.31
366.826	92.31
367.052	94.31
367.278	90.31
367.505	85.31
367.731	82.31
367.957	89.31
368.184	95.31
368.41	95.31
368.636	82.31
368.862	99.31
369.089	91.31
369.315	93.31
369.541	85.31
369.767	93.31
369.993	87.31
370.219	99.31
370.445	80.31
370.672	76.31
370.898	79.31
371.124	91.31
371.35	91.31
371.576	80.31
371.802	83.31
372.028	92.31
372.254	90.31
372.48	87.31
372.706	88.31
372.932	77.31
373.158	80.31
373.384	70.31
373.61	86.31
373.835	72.31
374.061	78.31
374.287	83.31
374.513	93.31
374.739	86.31
374.965	86.31
375.191	84.31
375.416	85.31
375.642	80.31
375.868	100.31
376.094	95.31
376.319	99.31
376.545	75.31
376.771	86.31
376.997	79.31
377.222	92.31
377.448	78.31
377.674	85.31
377.899	79.31
378.125	87.31
378.35	94.31
378.576	90.31
378.802	75.31
379.027	83.31
379.253	91.31
379.478	88.31
379.704	92.31
379.929	111.31
380.155	102.31
380.38	76.31
380.606	91.31
380.831	81.31
381.057	85.31
381.282	82.31
381.507	80.31
381.733	97.31
381.958	92.31
382.184	100.31
382.409	83.31
382.634	84.31
382.86	79.31
383.085	79.31
383.31	89.31
383.535	87.31
383.761	84.31
383.986	74.31
384.211	77.31
384.436	83.31
384.662	89.31
384.887	87.31
385.112	83.31
385.337	95.31
385.562	92.31
385.787	78.31
386.013	84.31
386.238	84.31
386.463	84.31
386.688	103.31
386.913	89.31
387.138	76.31
387.363	87.31
387.588	93.31
387.813	96.31
388.038	90.31
388.263	88.31
388.488	95.31
388.713	87.31
388.938	78.31
389.163	88.31
389.387	77.31
389.612	80.31
389.837	86.31
390.062	94.31
390.287	88.31
390.512	96.31
390.736	89.31
390.961	91.31
391.186	82.31
391.411	88.31
391.636	99.31
391.86	93.31
392.085	95.31
392.31	99.31
392.534	79.31
392.759	84.31
392.984	80.31
393.208	87.31
393.433	98.31
393.658	85.31
393.882	96.31
394.107	90.31
394.331	92.31
394.556	86.31
394.78	97.31
395.005	100.31
395.229	95.31
395.454	81.31
395.678	84.31
395.903	84.31
396.127	92.31
396.352	84.31
396.576	100.31
396.801	93.31
397.025	88.31
397.249	81.31
397.474	94.31
397.698	85.31
397.922	91.31
398.147	89.31
398.371	94.31
398.595	94.31
398.82	86.31
399.044	96.31
399.268	89.31
399.492	92.31
399.717	105.31
399.941	95.31
400.165	96.31
400.389	84.31
400.613	101.31
400.837	69.31
401.062	102.31
401.286	95.31
401.51	91.31
401.734	99.31
401.958	77.31
402.182	93.31
402.406	102.31
402.63	91.31
402.854	79.31
403.078	81.31
403.302	84.31
403.526	99.31
403.75	93.31
403.974	93.31
404.198	105.31
404.422	101.31
404.645	78.31
404.869	81.31
405.093	102.31
405.317	89.31
405.541	101.31
405.765	99.31
405.988	83.31
406.212	90.31
406.436	93.31
406.66	99.31
406.883	83.31
407.107	93.31
407.331	88.31
407.555	96.31
407.778	98.31
408.002	94.31
408.226	84.31
408.449	95.31
408.673	81.31
408.896	97.31
409.12	79.31
409.344	83.31
409.567	89.31
409.791	77.31
410.014	91.31
410.238	90.31
410.461	95.31
410.685	83.31
410.908	82.31
411.132	96.31
411.355	72.31
411.578	87.31
411.802	79.31
412.025	82.31
412.249	93.31
412.472	86.31
412.695	79.31
412.919	94.31
413.142	86.31
413.365	87.31
413.589	89.31
413.812	92.31
414.035	113.31
414.258	86.31
414.482	84.31
414.705	89.31
414.928	85.31
415.151	88.31
415.374	87.31
415.597	73.31
415.821	91.31
416.044	108.31
416.267	95.31
416.49	81.31
416.713	92.31
416.936	85.31
417.159	90.31
417.382	86.31
417.605	97.31
417.828	93.31
418.051	84.31
418.274	92.31
418.497	82.31
418.72	92.31
418.943	73.31
419.166	88.31
419.389	95.31
419.611	88.31
419.834	100.31
420.057	75.31
420.28	89.31
420.503	87.31
420.726	85.31
420.948	96.31
421.171	86.31
421.394	86.31
421.617	86.31
421.839	88.31
422.062	87.31
422.285	87.31
422.507	88.31
422.73	91.31
422.953	86.31
423.175	101.31
423.398	93.31
423.621	101.31
423.843	92.31
424.066	81.31
424.288	83.31
424.511	85.31
424.733	84.31
424.956	83.31
425.178	89.31
425.401	109.31
425.623	90.31
425.846	64.31
426.068	87.31
426.291	85.31
426.513	86.31
426.735	99.31
426.958	81.31
427.18	83.31
427.402	95.31
427.625	69.31
427.847	86.31
428.069	88.31
428.292	84.31
428.514	65.31
428.736	87.31
428.958	90.31
429.181	95.31
429.403	93.31
429.625	88.31
429.847	73.31
430.069	91.31
430.292	86.31
430.514	87.31
430.736	79.31
430.958	83.31
431.18	85.31
431.402	78.31
431.624	87.31
431.846	91.31
432.068	74.31
432.29	87.31
432.512	84.31
432.734	99.31
432.956	84.31
433.178	94.31
433.4	98.31
433.622	94.31
433.844	99.31
434.066	88.31
434.287	97.31
434.509	79.31
434.731	94.31
434.953	89.31
435.175	80.31
435.397	87.31
435.618	88.31
435.84	89.31
436.062	85.31
436.284	96.31
436.505	95.31
436.727	99.31
436.949	77.31
437.17	101.31
437.392	104.31
437.614	84.31
437.835	95.31
438.057	97.31
438.278	91.31
438.5	65.31
438.721	95.31
438.943	71.31
439.165	104.31
439.386	87.31
439.608	92.31
439.829	103.31
440.05	74.31
440.272	86.31
440.493	90.31
440.715	82.31
440.936	100.31
441.158	99.31
441.379	95.31
441.6	84.31
441.822	92.31
442.043	86.31
442.264	90.31
442.486	93.31
442.707	88.31
442.928	83.31
443.149	103.31
443.371	97.31
443.592	87.31
443.813	94.31
444.034	80.31
444.255	88.31
444.476	84.31
444.698	85.31
444.919	93.31
445.14	181.31
445.361	131.31
445.582	103.31
445.803	75.31
446.024	104.31
446.245	85.31
446.466	99.31
446.687	95.31
446.908	88.31
447.129	88.31
447.35	99.31
447.571	93.31
447.792	90.31
448.013	86.31
448.234	76.31
448.455	84.31
448.675	83.31
448.896	95.31
449.117	86.31
449.338	85.31
449.559	86.31
449.779	87.31
450	79.31
450.221	80.31
450.442	83.31
450.662	101.31
450.883	100.31
451.104	83.31
451.324	93.31
451.545	102.31
451.766	99.31
451.986	95.31
452.207	97.31
452.428	83.31
452.648	82.31
452.869	92.31
453.089	84.31
453.31	92.31
453.53	83.31
453.751	79.31
453.971	90.31
454.192	75.31
454.412	83.31
454.633	76.31
454.853	87.31
455.073	88.31
455.294	85.31
455.514	87.31
455.734	85.31
455.955	79.31
456.175	93.31
456.395	89.31
456.616	68.31
456.836	75.31
457.056	99.31
457.276	76.31
457.497	95.31
457.717	97.31
457.937	96.31
458.157	93.31
458.377	85.31
458.598	82.31
458.818	83.31
459.038	74.31
459.258	93.31
459.478	95.31
459.698	85.31
459.918	104.31
460.138	91.31
460.358	83.31
460.578	100.31
460.798	96.31
461.018	92.31
461.238	94.31
461.458	96.31
461.678	81.31
461.898	87.31
462.118	79.31
462.338	89.31
462.558	93.31
462.777	91.31
462.997	87.31
463.217	99.31
463.437	101.31
463.657	82.31
463.876	93.31
464.096	86.31
464.316	84.31
464.536	102.31
464.755	87.31
464.975	88.31
465.195	85.31
465.414	90.31
465.634	84.31
465.854	87.31
466.073	77.31
466.293	82.31
466.512	91.31
466.732	101.31
466.951	87.31
467.171	84.31
467.391	87.31
467.61	90.31
467.829	72.31
468.049	93.31
468.268	88.31
468.488	87.31
468.707	89.31
468.927	88.31
469.146	88.31
469.365	90.31
469.585	90.31
469.804	88.31
470.023	93.31
470.243	104.31
470.462	99.31
470.681	86.31
470.901	89.31
471.12	96.31
471.339	93.31
471.558	101.31
471.777	90.31
471.997	76.31
472.216	96.31
472.435	81.31
472.654	86.31
472.873	80.31
473.092	105.31
473.311	107.31
473.53	86.31
473.749	88.31
473.968	96.31
474.187	97.31
474.406	86.31
474.625	90.31
474.844	92.31
475.063	78.31
475.282	105.31
475.501	101.31
475.72	100.31
475.939	100.31
476.158	95.31
476.377	85.31
476.596	95.31
476.814	100.31
477.033	88.31
477.252	94.31
477.471	100.31
477.69	85.31
477.908	81.31
478.127	101.31
478.346	96.31
478.564	75.31
478.783	87.31
479.002	93.31
479.22	96.31
479.439	91.31
479.658	85.31
479.876	88.31
480.095	91.31
480.313	95.31
480.532	113.31
480.751	96.31
480.969	96.31
481.188	83.31
481.406	95.31
481.624	77.31
481.843	87.31
482.061	91.31
482.28	76.31
482.498	94.31
482.717	88.31
482.935	84.31
483.153	108.31
483.372	87.31
483.59	85.31
483.808	96.31
484.027	91.31
484.245	78.31
484.463	89.31
484.681	100.31
484.9	83.31
485.118	103.31
485.336	82.31
485.554	82.31
485.772	101.31
485.99	91.31
486.209	101.31
486.427	85.31
486.645	89.31
486.863	91.31
487.081	97.31
487.299	90.31
487.517	108.31
487.735	84.31
487.953	89.31
488.171	87.31
488.389	85.31
488.607	92.31
488.825	100.31
489.043	76.31
489.261	86.31
489.479	90.31
489.696	88.31
489.914	91.31
490.132	83.31
490.35	88.31
490.568	95.31
490.786	84.31
491.003	88.31
491.221	81.31
491.439	91.31
491.657	87.31
491.874	68.31
492.092	99.31
492.31	89.31
492.527	97.31
492.745	90.31
492.963	91.31
493.18	88.31
493.398	87.31
493.615	94.31
493.833	101.31
494.05	92.31
494.268	94.31
494.485	106.31
494.703	103.31
494.92	102.31
495.138	88.31
495.355	88.31
495.573	93.31
495.79	95.31
496.008	83.31
496.225	87.31
496.442	95.31
496.66	90.31
496.877	89.31
497.094	105.31
497.312	83.31
497.529	89.31
497.746	92.31
497.963	85.31
498.181	80.31
498.398	82.31
498.615	82.31
498.832	99.31
499.049	102.31
499.267	99.31
499.484	97.31
499.701	108.31
499.918	115.31
500.135	102.31
500.352	121.31
500.569	104.31
500.786	128.31
501.003	122.31
501.22	118.31
501.437	101.31
501.654	94.31
501.871	79.31
502.088	90.31
502.305	95.31
502.522	84.31
502.739	99.31
502.956	86.31
503.172	85.31
503.389	93.31
503.606	88.31
503.823	80.31
504.04	91.31
504.256	111.31
504.473	94.31
504.69	94.31
504.907	87.31
505.123	86.31
505.34	93.31
505.557	90.31
505.773	81.31
505.99	99.31
506.207	87.31
506.423	85.31
506.64	92.31
506.856	91.31
507.073	92.31
507.289	89.31
507.506	70.31
507.722	81.31
507.939	86.31
508.155	97.31
508.372	96.31
508.588	93.31
508.805	99.31
509.021	96.31
509.238	83.31
509.454	93.31
509.67	87.31
509.887	90.31
510.103	87.31
510.319	86.31
510.536	77.31
510.752	85.31
510.968	89.31
511.184	90.31
511.401	73.31
511.617	91.31
511.833	103.31
512.049	93.31
512.265	91.31
512.481	96.31
512.698	115.31
512.914	101.31
513.13	84.31
513.346	84.31
513.562	80.31
513.778	104.31
513.994	94.31
514.21	93.31
514.426	88.31
514.642	79.31
514.858	83.31
515.074	99.31
515.29	96.31
515.506	82.31
515.721	82.31
515.937	86.31
516.153	92.31
516.369	101.31
516.585	97.31
516.801	99.31
517.016	97.31
517.232	93.31
517.448	98.31
517.664	91.31
517.879	113.31
518.095	92.31
518.311	89.31
518.527	104.31
518.742	84.31
518.958	97.31
