Data from BG_HRD10591_047.txt Node
Date: Fri May 16 15:14:46 EDT 2025
User: Yrep
Spectrometer: HR+D1059
Trigger mode: 1
Integration Time (sec): 1.000000E-1
Scans to average: 1
Electric dark correction enabled: true
Nonlinearity correction enabled: false
Boxcar width: 0
XAxis mode: Wavelengths
Number of Pixels in Spectrum: 2048
>>>>>Begin Spectral Data<<<<<
223.165	-20.31
223.4	-20.31
223.635	-20.31
223.869	-25.31
224.104	-17.31
224.338	-15.31
224.573	-11.31
224.808	-10.31
225.042	-11.31
225.277	-5.31
225.511	-0.31
225.746	-3.31
225.98	7.69
226.215	5.69
226.449	20.69
226.683	24.69
226.918	34.69
227.152	26.69
227.387	27.69
227.621	42.69
227.856	38.69
228.09	40.69
228.324	42.69
228.559	52.69
228.793	56.69
229.027	64.69
229.262	60.69
229.496	62.69
229.73	64.69
229.964	64.69
230.199	65.69
230.433	62.69
230.667	72.69
230.901	80.69
231.136	78.69
231.37	92.69
231.604	73.69
231.838	76.69
232.072	61.69
232.306	94.69
232.541	74.69
232.775	74.69
233.009	79.69
233.243	77.69
233.477	69.69
233.711	82.69
233.945	72.69
234.179	69.69
234.413	83.69
234.647	65.69
234.881	78.69
235.115	78.69
235.349	73.69
235.583	71.69
235.817	73.69
236.051	73.69
236.285	72.69
236.519	78.69
236.753	78.69
236.987	76.69
237.221	70.69
237.455	73.69
237.689	65.69
237.922	54.69
238.156	63.69
238.39	78.69
238.624	78.69
238.858	79.69
239.091	73.69
239.325	67.69
239.559	73.69
239.793	67.69
240.027	78.69
240.26	66.69
240.494	78.69
240.728	70.69
240.961	61.69
241.195	82.69
241.429	74.69
241.662	79.69
241.896	91.69
242.13	74.69
242.363	68.69
242.597	73.69
242.83	68.69
243.064	74.69
243.298	78.69
243.531	56.69
243.765	78.69
243.998	79.69
244.232	88.69
244.465	78.69
244.699	83.69
244.932	87.69
245.166	65.69
245.399	73.69
245.633	71.69
245.866	83.69
246.099	66.69
246.333	68.69
246.566	61.69
246.8	76.69
247.033	80.69
247.266	75.69
247.5	71.69
247.733	81.69
247.966	72.69
248.2	80.69
248.433	74.69
248.666	64.69
248.899	74.69
249.133	71.69
249.366	85.69
249.599	71.69
249.832	90.69
250.066	76.69
250.299	69.69
250.532	69.69
250.765	69.69
250.998	64.69
251.231	72.69
251.465	80.69
251.698	83.69
251.931	80.69
252.164	72.69
252.397	61.69
252.63	77.69
252.863	70.69
253.096	76.69
253.329	84.69
253.562	71.69
253.795	83.69
254.028	76.69
254.261	68.69
254.494	66.69
254.727	84.69
254.96	71.69
255.193	74.69
255.426	78.69
255.659	69.69
255.892	90.69
256.124	74.69
256.357	76.69
256.59	73.69
256.823	73.69
257.056	81.69
257.289	75.69
257.521	84.69
257.754	81.69
257.987	79.69
258.22	83.69
258.452	78.69
258.685	83.69
258.918	68.69
259.151	78.69
259.383	71.69
259.616	80.69
259.849	77.69
260.081	79.69
260.314	88.69
260.547	95.69
260.779	76.69
261.012	71.69
261.244	77.69
261.477	79.69
261.71	71.69
261.942	80.69
262.175	61.69
262.407	76.69
262.64	80.69
262.872	85.69
263.105	70.69
263.337	78.69
263.57	80.69
263.802	82.69
264.035	84.69
264.267	75.69
264.499	94.69
264.732	76.69
264.964	76.69
265.197	73.69
265.429	85.69
265.661	81.69
265.894	85.69
266.126	64.69
266.358	70.69
266.591	80.69
266.823	88.69
267.055	76.69
267.287	82.69
267.52	75.69
267.752	71.69
267.984	71.69
268.216	81.69
268.448	77.69
268.681	77.69
268.913	83.69
269.145	75.69
269.377	88.69
269.609	76.69
269.841	71.69
270.073	77.69
270.306	81.69
270.538	83.69
270.77	75.69
271.002	75.69
271.234	78.69
271.466	76.69
271.698	76.69
271.93	78.69
272.162	87.69
272.394	66.69
272.626	77.69
272.858	63.69
273.09	70.69
273.322	84.69
273.553	89.69
273.785	89.69
274.017	87.69
274.249	75.69
274.481	70.69
274.713	78.69
274.945	88.69
275.176	74.69
275.408	80.69
275.64	94.69
275.872	78.69
276.104	78.69
276.335	90.69
276.567	75.69
276.799	96.69
277.031	89.69
277.262	78.69
277.494	84.69
277.726	91.69
277.957	73.69
278.189	81.69
278.421	83.69
278.652	84.69
278.884	69.69
279.115	89.69
279.347	88.69
279.579	80.69
279.81	73.69
280.042	80.69
280.273	77.69
280.505	80.69
280.736	82.69
280.968	96.69
281.199	70.69
281.431	73.69
281.662	68.69
281.894	76.69
282.125	79.69
282.356	78.69
282.588	85.69
282.819	81.69
283.051	64.69
283.282	80.69
283.513	89.69
283.745	78.69
283.976	94.69
284.207	79.69
284.439	84.69
284.67	79.69
284.901	86.69
285.132	84.69
285.364	80.69
285.595	98.69
285.826	59.69
286.057	91.69
286.288	91.69
286.52	74.69
286.751	84.69
286.982	88.69
287.213	91.69
287.444	79.69
287.675	86.69
287.906	86.69
288.138	88.69
288.369	81.69
288.6	75.69
288.831	98.69
289.062	76.69
289.293	75.69
289.524	85.69
289.755	74.69
289.986	85.69
290.217	71.69
290.448	75.69
290.679	80.69
290.91	80.69
291.141	91.69
291.371	73.69
291.602	76.69
291.833	80.69
292.064	80.69
292.295	73.69
292.526	80.69
292.757	87.69
292.987	80.69
293.218	76.69
293.449	75.69
293.68	101.69
293.91	84.69
294.141	87.69
294.372	77.69
294.603	88.69
294.833	89.69
295.064	86.69
295.295	76.69
295.525	73.69
295.756	79.69
295.987	70.69
296.217	83.69
296.448	76.69
296.679	96.69
296.909	83.69
297.14	81.69
297.37	95.69
297.601	90.69
297.831	66.69
298.062	86.69
298.292	74.69
298.523	104.69
298.753	76.69
298.984	81.69
299.214	87.69
299.445	82.69
299.675	79.69
299.905	76.69
300.136	74.69
300.366	82.69
300.597	81.69
300.827	87.69
301.057	76.69
301.288	84.69
301.518	87.69
301.748	85.69
301.979	96.69
302.209	82.69
302.439	73.69
302.669	81.69
302.9	76.69
303.13	85.69
303.36	81.69
303.59	83.69
303.82	86.69
304.051	90.69
304.281	86.69
304.511	79.69
304.741	90.69
304.971	74.69
305.201	90.69
305.431	81.69
305.661	87.69
305.891	64.69
306.121	81.69
306.352	88.69
306.582	100.69
306.812	80.69
307.042	83.69
307.272	99.69
307.502	84.69
307.731	78.69
307.961	73.69
308.191	79.69
308.421	91.69
308.651	87.69
308.881	86.69
309.111	76.69
309.341	85.69
309.571	64.69
309.8	80.69
310.03	98.69
310.26	86.69
310.49	70.69
310.72	104.69
310.949	90.69
311.179	112.69
311.409	86.69
311.639	86.69
311.868	81.69
312.098	80.69
312.328	85.69
312.557	82.69
312.787	99.69
313.017	94.69
313.246	86.69
313.476	66.69
313.706	82.69
313.935	86.69
314.165	83.69
314.394	86.69
314.624	79.69
314.853	90.69
315.083	78.69
315.312	84.69
315.542	87.69
315.771	90.69
316.001	88.69
316.23	87.69
316.46	72.69
316.689	90.69
316.919	81.69
317.148	87.69
317.377	88.69
317.607	89.69
317.836	71.69
318.065	85.69
318.295	88.69
318.524	86.69
318.753	92.69
318.983	90.69
319.212	76.69
319.441	75.69
319.67	71.69
319.9	91.69
320.129	83.69
320.358	88.69
320.587	75.69
320.816	86.69
321.046	94.69
321.275	87.69
321.504	81.69
321.733	80.69
321.962	89.69
322.191	84.69
322.42	82.69
322.649	97.69
322.878	88.69
323.108	74.69
323.337	80.69
323.566	84.69
323.795	89.69
324.024	89.69
324.253	82.69
324.482	74.69
324.71	85.69
324.939	74.69
325.168	84.69
325.397	78.69
325.626	75.69
325.855	73.69
326.084	92.69
326.313	91.69
326.542	70.69
326.77	82.69
326.999	96.69
327.228	78.69
327.457	82.69
327.686	98.69
327.914	81.69
328.143	75.69
328.372	76.69
328.6	87.69
328.829	74.69
329.058	66.69
329.287	83.69
329.515	76.69
329.744	96.69
329.972	78.69
330.201	89.69
330.43	84.69
330.658	86.69
330.887	99.69
331.115	85.69
331.344	91.69
331.572	74.69
331.801	94.69
332.03	63.69
332.258	79.69
332.486	82.69
332.715	80.69
332.943	82.69
333.172	85.69
333.4	80.69
333.629	79.69
333.857	93.69
334.085	85.69
334.314	94.69
334.542	80.69
334.771	86.69
334.999	98.69
335.227	76.69
335.455	76.69
335.684	89.69
335.912	73.69
336.14	85.69
336.369	83.69
336.597	78.69
336.825	81.69
337.053	75.69
337.281	85.69
337.51	83.69
337.738	84.69
337.966	84.69
338.194	72.69
338.422	83.69
338.65	75.69
338.878	85.69
339.106	83.69
339.334	97.69
339.562	79.69
339.79	83.69
340.018	94.69
340.246	76.69
340.474	89.69
340.702	81.69
340.93	92.69
341.158	81.69
341.386	78.69
341.614	88.69
341.842	89.69
342.07	82.69
342.298	81.69
342.526	77.69
342.754	93.69
342.981	94.69
343.209	84.69
343.437	87.69
343.665	75.69
343.893	75.69
344.12	80.69
344.348	107.69
344.576	84.69
344.804	80.69
345.031	83.69
345.259	72.69
345.487	91.69
345.714	88.69
345.942	88.69
346.17	84.69
346.397	87.69
346.625	96.69
346.853	94.69
347.08	87.69
347.308	82.69
347.535	82.69
347.763	95.69
347.99	72.69
348.218	73.69
348.445	90.69
348.673	80.69
348.9	81.69
349.128	76.69
349.355	96.69
349.583	74.69
349.81	88.69
350.037	87.69
350.265	85.69
350.492	76.69
350.72	79.69
350.947	72.69
351.174	90.69
351.402	76.69
351.629	82.69
351.856	80.69
352.083	83.69
352.311	90.69
352.538	99.69
352.765	89.69
352.992	88.69
353.22	90.69
353.447	93.69
353.674	78.69
353.901	89.69
354.128	80.69
354.355	88.69
354.583	73.69
354.81	91.69
355.037	72.69
355.264	90.69
355.491	78.69
355.718	73.69
355.945	90.69
356.172	85.69
356.399	82.69
356.626	87.69
356.853	90.69
357.08	83.69
357.307	78.69
357.534	74.69
357.761	79.69
357.988	73.69
358.215	73.69
358.441	78.69
358.668	75.69
358.895	77.69
359.122	78.69
359.349	81.69
359.576	91.69
359.802	94.69
360.029	81.69
360.256	71.69
360.483	74.69
360.709	81.69
360.936	101.69
361.163	87.69
361.39	81.69
361.616	79.69
361.843	83.69
362.07	91.69
362.296	89.69
362.523	90.69
362.749	80.69
362.976	84.69
363.203	94.69
363.429	89.69
363.656	74.69
363.882	85.69
364.109	81.69
364.335	77.69
364.562	86.69
364.788	68.69
365.015	83.69
365.241	74.69
365.468	85.69
365.694	82.69
365.92	82.69
366.147	73.69
366.373	79.69
366.599	81.69
366.826	86.69
367.052	84.69
367.278	81.69
367.505	86.69
367.731	92.69
367.957	87.69
368.184	83.69
368.41	76.69
368.636	80.69
368.862	76.69
369.089	94.69
369.315	78.69
369.541	98.69
369.767	93.69
369.993	73.69
370.219	75.69
370.445	81.69
370.672	87.69
370.898	83.69
371.124	81.69
371.35	63.69
371.576	77.69
371.802	76.69
372.028	79.69
372.254	92.69
372.48	80.69
372.706	76.69
372.932	68.69
373.158	81.69
373.384	87.69
373.61	75.69
373.835	80.69
374.061	76.69
374.287	96.69
374.513	95.69
374.739	85.69
374.965	69.69
375.191	87.69
375.416	75.69
375.642	88.69
375.868	94.69
376.094	75.69
376.319	94.69
376.545	70.69
376.771	94.69
376.997	91.69
377.222	69.69
377.448	90.69
377.674	70.69
377.899	83.69
378.125	70.69
378.35	77.69
378.576	82.69
378.802	83.69
379.027	84.69
379.253	91.69
379.478	66.69
379.704	73.69
379.929	87.69
380.155	82.69
380.38	103.69
380.606	85.69
380.831	91.69
381.057	83.69
381.282	75.69
381.507	79.69
381.733	87.69
381.958	73.69
382.184	88.69
382.409	77.69
382.634	91.69
382.86	73.69
383.085	76.69
383.31	72.69
383.535	76.69
383.761	75.69
383.986	81.69
384.211	80.69
384.436	85.69
384.662	91.69
384.887	104.69
385.112	74.69
385.337	77.69
385.562	92.69
385.787	79.69
386.013	92.69
386.238	86.69
386.463	99.69
386.688	98.69
386.913	74.69
387.138	84.69
387.363	77.69
387.588	98.69
387.813	75.69
388.038	90.69
388.263	94.69
388.488	92.69
388.713	88.69
388.938	81.69
389.163	65.69
389.387	84.69
389.612	88.69
389.837	85.69
390.062	79.69
390.287	90.69
390.512	80.69
390.736	75.69
390.961	70.69
391.186	81.69
391.411	83.69
391.636	78.69
391.86	88.69
392.085	78.69
392.31	87.69
392.534	86.69
392.759	88.69
392.984	80.69
393.208	87.69
393.433	78.69
393.658	88.69
393.882	80.69
394.107	84.69
394.331	87.69
394.556	91.69
394.78	87.69
395.005	80.69
395.229	82.69
395.454	88.69
395.678	78.69
395.903	83.69
396.127	92.69
396.352	73.69
396.576	78.69
396.801	80.69
397.025	76.69
397.249	75.69
397.474	73.69
397.698	78.69
397.922	80.69
398.147	85.69
398.371	89.69
398.595	88.69
398.82	86.69
399.044	76.69
399.268	83.69
399.492	102.69
399.717	96.69
399.941	101.69
400.165	88.69
400.389	91.69
400.613	82.69
400.837	81.69
401.062	86.69
401.286	76.69
401.51	100.69
401.734	91.69
401.958	95.69
402.182	88.69
402.406	81.69
402.63	71.69
402.854	83.69
403.078	98.69
403.302	91.69
403.526	96.69
403.75	96.69
403.974	94.69
404.198	77.69
404.422	97.69
404.645	72.69
404.869	85.69
405.093	88.69
405.317	70.69
405.541	86.69
405.765	97.69
405.988	86.69
406.212	72.69
406.436	91.69
406.66	87.69
406.883	97.69
407.107	102.69
407.331	78.69
407.555	91.69
407.778	96.69
408.002	90.69
408.226	99.69
408.449	80.69
408.673	75.69
408.896	68.69
409.12	73.69
409.344	88.69
409.567	81.69
409.791	89.69
410.014	92.69
410.238	99.69
410.461	92.69
410.685	91.69
410.908	91.69
411.132	99.69
411.355	86.69
411.578	87.69
411.802	83.69
412.025	83.69
412.249	79.69
412.472	90.69
412.695	89.69
412.919	91.69
413.142	108.69
413.365	90.69
413.589	84.69
413.812	83.69
414.035	85.69
414.258	78.69
414.482	86.69
414.705	82.69
414.928	98.69
415.151	80.69
415.374	95.69
415.597	83.69
415.821	80.69
416.044	94.69
416.267	100.69
416.49	80.69
416.713	92.69
416.936	88.69
417.159	100.69
417.382	81.69
417.605	75.69
417.828	72.69
418.051	88.69
418.274	96.69
418.497	102.69
418.72	96.69
418.943	85.69
419.166	84.69
419.389	83.69
419.611	81.69
419.834	79.69
420.057	94.69
420.28	91.69
420.503	80.69
420.726	92.69
420.948	76.69
421.171	76.69
421.394	93.69
421.617	98.69
421.839	80.69
422.062	94.69
422.285	79.69
422.507	85.69
422.73	95.69
422.953	87.69
423.175	76.69
423.398	78.69
423.621	89.69
423.843	84.69
424.066	89.69
424.288	83.69
424.511	98.69
424.733	86.69
424.956	88.69
425.178	84.69
425.401	86.69
425.623	96.69
425.846	97.69
426.068	88.69
426.291	98.69
426.513	81.69
426.735	84.69
426.958	87.69
427.18	85.69
427.402	94.69
427.625	102.69
427.847	74.69
428.069	80.69
428.292	82.69
428.514	95.69
428.736	88.69
428.958	83.69
429.181	86.69
429.403	101.69
429.625	84.69
429.847	82.69
430.069	88.69
430.292	87.69
430.514	88.69
430.736	75.69
430.958	96.69
431.18	82.69
431.402	72.69
431.624	86.69
431.846	91.69
432.068	91.69
432.29	96.69
432.512	92.69
432.734	82.69
432.956	86.69
433.178	85.69
433.4	82.69
433.622	87.69
433.844	87.69
434.066	76.69
434.287	90.69
434.509	85.69
434.731	96.69
434.953	86.69
435.175	88.69
435.397	86.69
435.618	83.69
435.84	86.69
436.062	90.69
436.284	85.69
436.505	71.69
436.727	102.69
436.949	83.69
437.17	89.69
437.392	88.69
437.614	78.69
437.835	84.69
438.057	66.69
438.278	94.69
438.5	90.69
438.721	80.69
438.943	81.69
439.165	102.69
439.386	85.69
439.608	83.69
439.829	83.69
440.05	99.69
440.272	75.69
440.493	75.69
440.715	78.69
440.936	88.69
441.158	92.69
441.379	82.69
441.6	71.69
441.822	86.69
442.043	79.69
442.264	87.69
442.486	98.69
442.707	89.69
442.928	70.69
443.149	91.69
443.371	91.69
443.592	95.69
443.813	91.69
444.034	92.69
444.255	90.69
444.476	92.69
444.698	84.69
444.919	80.69
445.14	170.69
445.361	117.69
445.582	88.69
445.803	100.69
446.024	68.69
446.245	90.69
446.466	88.69
446.687	81.69
446.908	82.69
447.129	85.69
447.35	95.69
447.571	89.69
447.792	90.69
448.013	94.69
448.234	90.69
448.455	86.69
448.675	86.69
448.896	76.69
449.117	94.69
449.338	89.69
449.559	81.69
449.779	103.69
450	94.69
450.221	90.69
450.442	95.69
450.662	81.69
450.883	72.69
451.104	91.69
451.324	97.69
451.545	90.69
451.766	89.69
451.986	108.69
452.207	71.69
452.428	78.69
452.648	87.69
452.869	90.69
453.089	84.69
453.31	92.69
453.53	94.69
453.751	86.69
453.971	80.69
454.192	95.69
454.412	86.69
454.633	98.69
454.853	72.69
455.073	76.69
455.294	75.69
455.514	95.69
455.734	94.69
455.955	87.69
456.175	86.69
456.395	80.69
456.616	86.69
456.836	87.69
457.056	84.69
457.276	95.69
457.497	90.69
457.717	90.69
457.937	88.69
458.157	100.69
458.377	74.69
458.598	86.69
458.818	90.69
459.038	82.69
459.258	84.69
459.478	93.69
459.698	90.69
459.918	96.69
460.138	81.69
460.358	92.69
460.578	94.69
460.798	93.69
461.018	89.69
461.238	96.69
461.458	87.69
461.678	87.69
461.898	96.69
462.118	84.69
462.338	92.69
462.558	92.69
462.777	88.69
462.997	89.69
463.217	107.69
463.437	96.69
463.657	89.69
463.876	94.69
464.096	79.69
464.316	96.69
464.536	84.69
464.755	91.69
464.975	94.69
465.195	88.69
465.414	80.69
465.634	81.69
465.854	89.69
466.073	81.69
466.293	78.69
466.512	82.69
466.732	87.69
466.951	94.69
467.171	94.69
467.391	82.69
467.61	88.69
467.829	83.69
468.049	89.69
468.268	87.69
468.488	83.69
468.707	84.69
468.927	86.69
469.146	90.69
469.365	82.69
469.585	78.69
469.804	94.69
470.023	76.69
470.243	97.69
470.462	96.69
470.681	75.69
470.901	88.69
471.12	94.69
471.339	91.69
471.558	106.69
471.777	81.69
471.997	91.69
472.216	80.69
472.435	82.69
472.654	78.69
472.873	89.69
473.092	83.69
473.311	83.69
473.53	82.69
473.749	97.69
473.968	80.69
474.187	75.69
474.406	86.69
474.625	86.69
474.844	80.69
475.063	81.69
475.282	96.69
475.501	86.69
475.72	87.69
475.939	91.69
476.158	80.69
476.377	95.69
476.596	76.69
476.814	89.69
477.033	97.69
477.252	99.69
477.471	86.69
477.69	102.69
477.908	88.69
478.127	91.69
478.346	87.69
478.564	88.69
478.783	89.69
479.002	78.69
479.22	99.69
479.439	105.69
479.658	82.69
479.876	75.69
480.095	74.69
480.313	82.69
480.532	91.69
480.751	83.69
480.969	98.69
481.188	98.69
481.406	96.69
481.624	94.69
481.843	87.69
482.061	81.69
482.28	103.69
482.498	85.69
482.717	81.69
482.935	88.69
483.153	80.69
483.372	89.69
483.59	89.69
483.808	86.69
484.027	74.69
484.245	74.69
484.463	82.69
484.681	94.69
484.9	91.69
485.118	102.69
485.336	87.69
485.554	83.69
485.772	95.69
485.99	88.69
486.209	81.69
486.427	84.69
486.645	89.69
486.863	98.69
487.081	86.69
487.299	83.69
487.517	84.69
487.735	85.69
487.953	78.69
488.171	84.69
488.389	76.69
488.607	87.69
488.825	81.69
489.043	84.69
489.261	74.69
489.479	91.69
489.696	81.69
489.914	83.69
490.132	73.69
490.35	87.69
490.568	82.69
490.786	111.69
491.003	88.69
491.221	89.69
491.439	80.69
491.657	82.69
491.874	87.69
492.092	98.69
492.31	86.69
492.527	76.69
492.745	81.69
492.963	90.69
493.18	74.69
493.398	80.69
493.615	92.69
493.833	83.69
494.05	98.69
494.268	93.69
494.485	92.69
494.703	90.69
494.92	95.69
495.138	98.69
495.355	88.69
495.573	96.69
495.79	91.69
496.008	87.69
496.225	84.69
496.442	86.69
496.66	96.69
496.877	87.69
497.094	86.69
497.312	91.69
497.529	81.69
497.746	82.69
497.963	76.69
498.181	94.69
498.398	87.69
498.615	89.69
498.832	96.69
499.049	94.69
499.267	92.69
499.484	106.69
499.701	98.69
499.918	98.69
500.135	106.69
500.352	114.69
500.569	114.69
500.786	116.69
501.003	101.69
501.22	96.69
501.437	116.69
501.654	109.69
501.871	102.69
502.088	91.69
502.305	114.69
502.522	89.69
502.739	89.69
502.956	92.69
503.172	104.69
503.389	80.69
503.606	91.69
503.823	91.69
504.04	89.69
504.256	116.69
504.473	100.69
504.69	82.69
504.907	72.69
505.123	82.69
505.34	84.69
505.557	91.69
505.773	100.69
505.99	81.69
506.207	88.69
506.423	83.69
506.64	97.69
506.856	83.69
507.073	83.69
507.289	92.69
507.506	88.69
507.722	85.69
507.939	98.69
508.155	89.69
508.372	86.69
508.588	79.69
508.805	104.69
509.021	87.69
509.238	91.69
509.454	82.69
509.67	90.69
509.887	82.69
510.103	74.69
510.319	86.69
510.536	90.69
510.752	84.69
510.968	81.69
511.184	65.69
511.401	82.69
511.617	86.69
511.833	95.69
512.049	80.69
512.265	82.69
512.481	91.69
512.698	83.69
512.914	78.69
513.13	84.69
513.346	99.69
513.562	88.69
513.778	85.69
513.994	77.69
514.21	99.69
514.426	98.69
514.642	85.69
514.858	91.69
515.074	81.69
515.29	98.69
515.506	100.69
515.721	88.69
515.937	83.69
516.153	88.69
516.369	85.69
516.585	97.69
516.801	72.69
517.016	85.69
517.232	90.69
517.448	106.69
517.664	98.69
517.879	95.69
518.095	90.69
518.311	90.69
518.527	85.69
518.742	92.69
518.958	87.69
519.173	97.69
519.389	99.69
519.605	87.69
