Data from BG_HRD10591_081.txt Node
Date: Fri May 16 15:15:03 EDT 2025
User: Yrep
Spectrometer: HR+D1059
Trigger mode: 1
Integration Time (sec): 1.000000E-1
Scans to average: 1
Electric dark correction enabled: true
Nonlinearity correction enabled: false
Boxcar width: 0
XAxis mode: Wavelengths
Number of Pixels in Spectrum: 2048
>>>>>Begin Spectral Data<<<<<
223.165	-12.06
223.4	-12.06
223.635	-12.06
223.869	-15.06
224.104	-21.06
224.338	-22.06
224.573	-4.06
224.808	-12.06
225.042	-3.06
225.277	-13.06
225.511	-0.06
225.746	-10.06
225.98	0.94
226.215	-1.06
226.449	17.94
226.683	36.94
226.918	21.94
227.152	35.94
227.387	42.94
227.621	38.94
227.856	35.94
228.09	56.94
228.324	44.94
228.559	58.94
228.793	59.94
229.027	52.94
229.262	50.94
229.496	54.94
229.73	67.94
229.964	80.94
230.199	67.94
230.433	70.94
230.667	74.94
230.901	89.94
231.136	79.94
231.37	80.94
231.604	75.94
231.838	70.94
232.072	81.94
232.306	83.94
232.541	67.94
232.775	94.94
233.009	89.94
233.243	72.94
233.477	83.94
233.711	80.94
233.945	70.94
234.179	77.94
234.413	79.94
234.647	84.94
234.881	79.94
235.115	82.94
235.349	77.94
235.583	75.94
235.817	74.94
236.051	82.94
236.285	77.94
236.519	69.94
236.753	73.94
236.987	85.94
237.221	67.94
237.455	70.94
237.689	56.94
237.922	88.94
238.156	74.94
238.39	71.94
238.624	60.94
238.858	69.94
239.091	68.94
239.325	74.94
239.559	80.94
239.793	85.94
240.027	69.94
240.26	66.94
240.494	66.94
240.728	78.94
240.961	79.94
241.195	80.94
241.429	72.94
241.662	66.94
241.896	80.94
242.13	75.94
242.363	72.94
242.597	63.94
242.83	69.94
243.064	73.94
243.298	75.94
243.531	82.94
243.765	70.94
243.998	76.94
244.232	88.94
244.465	75.94
244.699	67.94
244.932	67.94
245.166	68.94
245.399	59.94
245.633	72.94
245.866	78.94
246.099	80.94
246.333	75.94
246.566	67.94
246.8	64.94
247.033	79.94
247.266	89.94
247.5	70.94
247.733	86.94
247.966	84.94
248.2	76.94
248.433	71.94
248.666	70.94
248.899	58.94
249.133	62.94
249.366	84.94
249.599	73.94
249.832	70.94
250.066	82.94
250.299	63.94
250.532	94.94
250.765	72.94
250.998	83.94
251.231	60.94
251.465	81.94
251.698	63.94
251.931	74.94
252.164	90.94
252.397	79.94
252.63	74.94
252.863	90.94
253.096	72.94
253.329	79.94
253.562	57.94
253.795	94.94
254.028	75.94
254.261	89.94
254.494	62.94
254.727	76.94
254.96	75.94
255.193	72.94
255.426	72.94
255.659	75.94
255.892	79.94
256.124	85.94
256.357	76.94
256.59	75.94
256.823	73.94
257.056	78.94
257.289	66.94
257.521	83.94
257.754	66.94
257.987	70.94
258.22	73.94
258.452	71.94
258.685	81.94
258.918	84.94
259.151	81.94
259.383	82.94
259.616	68.94
259.849	67.94
260.081	78.94
260.314	76.94
260.547	76.94
260.779	76.94
261.012	78.94
261.244	75.94
261.477	66.94
261.71	72.94
261.942	59.94
262.175	79.94
262.407	82.94
262.64	75.94
262.872	67.94
263.105	80.94
263.337	82.94
263.57	81.94
263.802	83.94
264.035	81.94
264.267	81.94
264.499	84.94
264.732	83.94
264.964	83.94
265.197	74.94
265.429	90.94
265.661	61.94
265.894	72.94
266.126	79.94
266.358	80.94
266.591	85.94
266.823	69.94
267.055	80.94
267.287	83.94
267.52	71.94
267.752	64.94
267.984	86.94
268.216	101.94
268.448	83.94
268.681	76.94
268.913	78.94
269.145	76.94
269.377	67.94
269.609	96.94
269.841	74.94
270.073	68.94
270.306	71.94
270.538	72.94
270.77	81.94
271.002	74.94
271.234	87.94
271.466	74.94
271.698	69.94
271.93	72.94
272.162	66.94
272.394	66.94
272.626	76.94
272.858	71.94
273.09	82.94
273.322	78.94
273.553	85.94
273.785	71.94
274.017	65.94
274.249	83.94
274.481	69.94
274.713	74.94
274.945	79.94
275.176	90.94
275.408	82.94
275.64	75.94
275.872	70.94
276.104	74.94
276.335	70.94
276.567	85.94
276.799	86.94
277.031	74.94
277.262	79.94
277.494	78.94
277.726	87.94
277.957	83.94
278.189	71.94
278.421	81.94
278.652	64.94
278.884	74.94
279.115	78.94
279.347	81.94
279.579	72.94
279.81	89.94
280.042	86.94
280.273	76.94
280.505	85.94
280.736	85.94
280.968	95.94
281.199	87.94
281.431	86.94
281.662	85.94
281.894	81.94
282.125	77.94
282.356	71.94
282.588	76.94
282.819	72.94
283.051	75.94
283.282	87.94
283.513	79.94
283.745	81.94
283.976	92.94
284.207	79.94
284.439	98.94
284.67	98.94
284.901	97.94
285.132	75.94
285.364	72.94
285.595	76.94
285.826	77.94
286.057	76.94
286.288	90.94
286.52	82.94
286.751	88.94
286.982	84.94
287.213	80.94
287.444	83.94
287.675	83.94
287.906	87.94
288.138	90.94
288.369	66.94
288.6	87.94
288.831	86.94
289.062	82.94
289.293	90.94
289.524	87.94
289.755	71.94
289.986	87.94
290.217	98.94
290.448	84.94
290.679	75.94
290.91	71.94
291.141	72.94
291.371	74.94
291.602	82.94
291.833	88.94
292.064	75.94
292.295	82.94
292.526	67.94
292.757	78.94
292.987	74.94
293.218	79.94
293.449	82.94
293.68	87.94
293.91	85.94
294.141	79.94
294.372	78.94
294.603	76.94
294.833	74.94
295.064	88.94
295.295	106.94
295.525	92.94
295.756	74.94
295.987	82.94
296.217	79.94
296.448	80.94
296.679	84.94
296.909	74.94
297.14	79.94
297.37	86.94
297.601	75.94
297.831	69.94
298.062	82.94
298.292	83.94
298.523	86.94
298.753	85.94
298.984	90.94
299.214	94.94
299.445	92.94
299.675	94.94
299.905	79.94
300.136	88.94
300.366	77.94
300.597	83.94
300.827	80.94
301.057	82.94
301.288	87.94
301.518	86.94
301.748	70.94
301.979	90.94
302.209	89.94
302.439	73.94
302.669	79.94
302.9	82.94
303.13	82.94
303.36	87.94
303.59	80.94
303.82	75.94
304.051	87.94
304.281	85.94
304.511	104.94
304.741	74.94
304.971	83.94
305.201	94.94
305.431	92.94
305.661	94.94
305.891	72.94
306.121	98.94
306.352	79.94
306.582	86.94
306.812	86.94
307.042	92.94
307.272	66.94
307.502	78.94
307.731	78.94
307.961	87.94
308.191	78.94
308.421	81.94
308.651	81.94
308.881	69.94
309.111	79.94
309.341	89.94
309.571	79.94
309.8	86.94
310.03	78.94
310.26	75.94
310.49	76.94
310.72	76.94
310.949	75.94
311.179	86.94
311.409	81.94
311.639	78.94
311.868	67.94
312.098	78.94
312.328	86.94
312.557	85.94
312.787	84.94
313.017	89.94
313.246	76.94
313.476	69.94
313.706	90.94
313.935	73.94
314.165	75.94
314.394	79.94
314.624	91.94
314.853	90.94
315.083	85.94
315.312	86.94
315.542	82.94
315.771	88.94
316.001	84.94
316.23	83.94
316.46	85.94
316.689	73.94
316.919	87.94
317.148	82.94
317.377	63.94
317.607	87.94
317.836	98.94
318.065	80.94
318.295	86.94
318.524	68.94
318.753	92.94
318.983	85.94
319.212	86.94
319.441	90.94
319.67	94.94
319.9	81.94
320.129	66.94
320.358	82.94
320.587	79.94
320.816	78.94
321.046	84.94
321.275	91.94
321.504	82.94
321.733	78.94
321.962	81.94
322.191	73.94
322.42	78.94
322.649	90.94
322.878	79.94
323.108	78.94
323.337	64.94
323.566	86.94
323.795	94.94
324.024	100.94
324.253	69.94
324.482	87.94
324.71	88.94
324.939	91.94
325.168	83.94
325.397	88.94
325.626	82.94
325.855	88.94
326.084	80.94
326.313	104.94
326.542	86.94
326.77	82.94
326.999	75.94
327.228	71.94
327.457	95.94
327.686	90.94
327.914	74.94
328.143	82.94
328.372	83.94
328.6	83.94
328.829	79.94
329.058	83.94
329.287	98.94
329.515	80.94
329.744	95.94
329.972	95.94
330.201	80.94
330.43	92.94
330.658	78.94
330.887	78.94
331.115	83.94
331.344	94.94
331.572	86.94
331.801	75.94
332.03	87.94
332.258	99.94
332.486	81.94
332.715	90.94
332.943	77.94
333.172	78.94
333.4	85.94
333.629	90.94
333.857	85.94
334.085	86.94
334.314	84.94
334.542	86.94
334.771	90.94
334.999	86.94
335.227	78.94
335.455	74.94
335.684	82.94
335.912	83.94
336.14	92.94
336.369	81.94
336.597	86.94
336.825	69.94
337.053	87.94
337.281	83.94
337.51	83.94
337.738	82.94
337.966	74.94
338.194	76.94
338.422	90.94
338.65	99.94
338.878	84.94
339.106	89.94
339.334	77.94
339.562	83.94
339.79	78.94
340.018	82.94
340.246	75.94
340.474	70.94
340.702	87.94
340.93	83.94
341.158	68.94
341.386	70.94
341.614	83.94
341.842	79.94
342.07	80.94
342.298	80.94
342.526	87.94
342.754	83.94
342.981	100.94
343.209	87.94
343.437	89.94
343.665	88.94
343.893	78.94
344.12	87.94
344.348	89.94
344.576	75.94
344.804	91.94
345.031	78.94
345.259	96.94
345.487	73.94
345.714	74.94
345.942	84.94
346.17	84.94
346.397	83.94
346.625	75.94
346.853	89.94
347.08	79.94
347.308	89.94
347.535	95.94
347.763	95.94
347.99	90.94
348.218	88.94
348.445	88.94
348.673	91.94
348.9	80.94
349.128	69.94
349.355	82.94
349.583	90.94
349.81	75.94
350.037	80.94
350.265	80.94
350.492	82.94
350.72	78.94
350.947	88.94
351.174	80.94
351.402	85.94
351.629	88.94
351.856	97.94
352.083	94.94
352.311	76.94
352.538	91.94
352.765	79.94
352.992	82.94
353.22	78.94
353.447	70.94
353.674	87.94
353.901	80.94
354.128	72.94
354.355	91.94
354.583	96.94
354.81	92.94
355.037	102.94
355.264	90.94
355.491	96.94
355.718	88.94
355.945	91.94
356.172	86.94
356.399	82.94
356.626	91.94
356.853	92.94
357.08	91.94
357.307	77.94
357.534	97.94
357.761	82.94
357.988	86.94
358.215	76.94
358.441	85.94
358.668	77.94
358.895	94.94
359.122	89.94
359.349	67.94
359.576	89.94
359.802	81.94
360.029	82.94
360.256	76.94
360.483	86.94
360.709	83.94
360.936	70.94
361.163	74.94
361.39	83.94
361.616	88.94
361.843	92.94
362.07	96.94
362.296	82.94
362.523	74.94
362.749	72.94
362.976	74.94
363.203	76.94
363.429	86.94
363.656	89.94
363.882	71.94
364.109	78.94
364.335	88.94
364.562	91.94
364.788	77.94
365.015	102.94
365.241	79.94
365.468	100.94
365.694	85.94
365.92	84.94
366.147	80.94
366.373	70.94
366.599	74.94
366.826	81.94
367.052	86.94
367.278	78.94
367.505	75.94
367.731	103.94
367.957	96.94
368.184	64.94
368.41	85.94
368.636	81.94
368.862	83.94
369.089	77.94
369.315	75.94
369.541	76.94
369.767	88.94
369.993	86.94
370.219	84.94
370.445	85.94
370.672	82.94
370.898	85.94
371.124	79.94
371.35	79.94
371.576	86.94
371.802	90.94
372.028	82.94
372.254	86.94
372.48	91.94
372.706	83.94
372.932	82.94
373.158	88.94
373.384	87.94
373.61	65.94
373.835	82.94
374.061	87.94
374.287	73.94
374.513	92.94
374.739	81.94
374.965	77.94
375.191	88.94
375.416	88.94
375.642	76.94
375.868	96.94
376.094	88.94
376.319	76.94
376.545	76.94
376.771	81.94
376.997	67.94
377.222	74.94
377.448	82.94
377.674	67.94
377.899	80.94
378.125	74.94
378.35	80.94
378.576	66.94
378.802	88.94
379.027	98.94
379.253	80.94
379.478	86.94
379.704	79.94
379.929	81.94
380.155	75.94
380.38	90.94
380.606	80.94
380.831	80.94
381.057	99.94
381.282	72.94
381.507	91.94
381.733	92.94
381.958	81.94
382.184	86.94
382.409	89.94
382.634	92.94
382.86	86.94
383.085	90.94
383.31	76.94
383.535	87.94
383.761	73.94
383.986	80.94
384.211	88.94
384.436	66.94
384.662	71.94
384.887	85.94
385.112	83.94
385.337	86.94
385.562	88.94
385.787	75.94
386.013	75.94
386.238	87.94
386.463	78.94
386.688	86.94
386.913	86.94
387.138	94.94
387.363	93.94
387.588	86.94
387.813	89.94
388.038	84.94
388.263	89.94
388.488	75.94
388.713	83.94
388.938	90.94
389.163	81.94
389.387	81.94
389.612	70.94
389.837	85.94
390.062	90.94
390.287	85.94
390.512	76.94
390.736	75.94
390.961	95.94
391.186	80.94
391.411	72.94
391.636	88.94
391.86	77.94
392.085	78.94
392.31	83.94
392.534	87.94
392.759	75.94
392.984	92.94
393.208	70.94
393.433	87.94
393.658	78.94
393.882	83.94
394.107	74.94
394.331	89.94
394.556	80.94
394.78	87.94
395.005	92.94
395.229	78.94
395.454	75.94
395.678	88.94
395.903	73.94
396.127	91.94
396.352	78.94
396.576	86.94
396.801	85.94
397.025	78.94
397.249	89.94
397.474	89.94
397.698	70.94
397.922	62.94
398.147	85.94
398.371	82.94
398.595	86.94
398.82	94.94
399.044	92.94
399.268	81.94
399.492	81.94
399.717	83.94
399.941	89.94
400.165	83.94
400.389	81.94
400.613	77.94
400.837	89.94
401.062	90.94
401.286	79.94
401.51	78.94
401.734	82.94
401.958	89.94
402.182	77.94
402.406	87.94
402.63	99.94
402.854	106.94
403.078	94.94
403.302	86.94
403.526	73.94
403.75	103.94
403.974	89.94
404.198	91.94
404.422	93.94
404.645	90.94
404.869	82.94
405.093	86.94
405.317	105.94
405.541	75.94
405.765	79.94
405.988	85.94
406.212	91.94
406.436	99.94
406.66	103.94
406.883	81.94
407.107	81.94
407.331	87.94
407.555	94.94
407.778	96.94
408.002	83.94
408.226	85.94
408.449	87.94
408.673	84.94
408.896	76.94
409.12	102.94
409.344	91.94
409.567	94.94
409.791	82.94
410.014	81.94
410.238	88.94
410.461	81.94
410.685	75.94
410.908	90.94
411.132	76.94
411.355	103.94
411.578	92.94
411.802	89.94
412.025	60.94
412.249	85.94
412.472	91.94
412.695	83.94
412.919	84.94
413.142	86.94
413.365	76.94
413.589	91.94
413.812	78.94
414.035	90.94
414.258	81.94
414.482	77.94
414.705	84.94
414.928	81.94
415.151	95.94
415.374	66.94
415.597	80.94
415.821	90.94
416.044	66.94
416.267	80.94
416.49	88.94
416.713	90.94
416.936	88.94
417.159	87.94
417.382	83.94
417.605	80.94
417.828	82.94
418.051	81.94
418.274	97.94
418.497	74.94
418.72	85.94
418.943	87.94
419.166	92.94
419.389	82.94
419.611	89.94
419.834	71.94
420.057	68.94
420.28	89.94
420.503	88.94
420.726	74.94
420.948	87.94
421.171	94.94
421.394	76.94
421.617	69.94
421.839	79.94
422.062	86.94
422.285	83.94
422.507	72.94
422.73	85.94
422.953	86.94
423.175	89.94
423.398	83.94
423.621	79.94
423.843	83.94
424.066	89.94
424.288	83.94
424.511	74.94
424.733	83.94
424.956	79.94
425.178	81.94
425.401	92.94
425.623	85.94
425.846	75.94
426.068	83.94
426.291	79.94
426.513	84.94
426.735	70.94
426.958	77.94
427.18	75.94
427.402	82.94
427.625	74.94
427.847	90.94
428.069	92.94
428.292	80.94
428.514	83.94
428.736	77.94
428.958	82.94
429.181	60.94
429.403	77.94
429.625	75.94
429.847	77.94
430.069	75.94
430.292	92.94
430.514	87.94
430.736	87.94
430.958	89.94
431.18	85.94
431.402	76.94
431.624	73.94
431.846	96.94
432.068	86.94
432.29	80.94
432.512	98.94
432.734	98.94
432.956	73.94
433.178	83.94
433.4	85.94
433.622	88.94
433.844	87.94
434.066	94.94
434.287	86.94
434.509	82.94
434.731	88.94
434.953	91.94
435.175	84.94
435.397	71.94
435.618	83.94
435.84	85.94
436.062	68.94
436.284	84.94
436.505	81.94
436.727	94.94
436.949	89.94
437.17	88.94
437.392	96.94
437.614	81.94
437.835	101.94
438.057	75.94
438.278	68.94
438.5	91.94
438.721	95.94
438.943	82.94
439.165	75.94
439.386	96.94
439.608	83.94
439.829	86.94
440.05	88.94
440.272	84.94
440.493	76.94
440.715	83.94
440.936	86.94
441.158	80.94
441.379	82.94
441.6	65.94
441.822	86.94
442.043	87.94
442.264	82.94
442.486	80.94
442.707	81.94
442.928	90.94
443.149	75.94
443.371	96.94
443.592	78.94
443.813	88.94
444.034	83.94
444.255	80.94
444.476	82.94
444.698	96.94
444.919	90.94
445.14	152.94
445.361	119.94
445.582	87.94
445.803	73.94
446.024	92.94
446.245	89.94
446.466	82.94
446.687	75.94
446.908	75.94
447.129	85.94
447.35	78.94
447.571	89.94
447.792	82.94
448.013	78.94
448.234	84.94
448.455	90.94
448.675	76.94
448.896	99.94
449.117	69.94
449.338	76.94
449.559	78.94
449.779	76.94
450	85.94
450.221	94.94
450.442	85.94
450.662	88.94
450.883	88.94
451.104	74.94
451.324	74.94
451.545	71.94
451.766	89.94
451.986	83.94
452.207	86.94
452.428	94.94
452.648	86.94
452.869	85.94
453.089	81.94
453.31	83.94
453.53	73.94
453.751	88.94
453.971	91.94
454.192	90.94
454.412	90.94
454.633	73.94
454.853	80.94
455.073	78.94
455.294	72.94
455.514	81.94
455.734	104.94
455.955	86.94
456.175	91.94
456.395	82.94
456.616	76.94
456.836	90.94
457.056	78.94
457.276	86.94
457.497	89.94
457.717	82.94
457.937	77.94
458.157	81.94
458.377	82.94
458.598	87.94
458.818	91.94
459.038	85.94
459.258	96.94
459.478	76.94
459.698	83.94
459.918	77.94
460.138	82.94
460.358	103.94
460.578	83.94
460.798	78.94
461.018	90.94
461.238	95.94
461.458	83.94
461.678	78.94
461.898	88.94
462.118	87.94
462.338	87.94
462.558	100.94
462.777	76.94
462.997	90.94
463.217	84.94
463.437	88.94
463.657	97.94
463.876	82.94
464.096	71.94
464.316	85.94
464.536	90.94
464.755	92.94
464.975	79.94
465.195	90.94
465.414	78.94
465.634	82.94
465.854	79.94
466.073	94.94
466.293	83.94
466.512	80.94
466.732	76.94
466.951	78.94
467.171	98.94
467.391	96.94
467.61	91.94
467.829	73.94
468.049	80.94
468.268	78.94
468.488	74.94
468.707	92.94
468.927	81.94
469.146	74.94
469.365	80.94
469.585	81.94
469.804	68.94
470.023	78.94
470.243	75.94
470.462	85.94
470.681	76.94
470.901	74.94
471.12	71.94
471.339	76.94
471.558	86.94
471.777	83.94
471.997	85.94
472.216	84.94
472.435	68.94
472.654	85.94
472.873	82.94
473.092	78.94
473.311	80.94
473.53	82.94
473.749	73.94
473.968	100.94
474.187	90.94
474.406	82.94
474.625	87.94
474.844	80.94
475.063	87.94
475.282	86.94
475.501	86.94
475.72	98.94
475.939	83.94
476.158	84.94
476.377	87.94
476.596	72.94
476.814	88.94
477.033	71.94
477.252	82.94
477.471	88.94
477.69	80.94
477.908	74.94
478.127	79.94
478.346	72.94
478.564	78.94
478.783	78.94
479.002	79.94
479.22	88.94
479.439	89.94
479.658	91.94
479.876	85.94
480.095	103.94
480.313	89.94
480.532	90.94
480.751	84.94
480.969	93.94
481.188	86.94
481.406	86.94
481.624	84.94
481.843	76.94
482.061	87.94
482.28	111.94
482.498	80.94
482.717	78.94
482.935	85.94
483.153	96.94
483.372	87.94
483.59	91.94
483.808	78.94
484.027	82.94
484.245	95.94
484.463	75.94
484.681	90.94
484.9	85.94
485.118	92.94
485.336	86.94
485.554	82.94
485.772	89.94
485.99	71.94
486.209	81.94
486.427	91.94
486.645	76.94
486.863	108.94
487.081	94.94
487.299	82.94
487.517	75.94
487.735	87.94
487.953	83.94
488.171	100.94
488.389	79.94
488.607	79.94
488.825	81.94
489.043	78.94
489.261	92.94
489.479	73.94
489.696	76.94
489.914	70.94
490.132	65.94
490.35	78.94
490.568	83.94
490.786	86.94
491.003	84.94
491.221	90.94
491.439	78.94
491.657	96.94
491.874	82.94
492.092	84.94
492.31	75.94
492.527	88.94
492.745	83.94
492.963	75.94
493.18	93.94
493.398	94.94
493.615	91.94
493.833	82.94
494.05	78.94
494.268	76.94
494.485	82.94
494.703	84.94
494.92	88.94
495.138	82.94
495.355	76.94
495.573	90.94
495.79	83.94
496.008	83.94
496.225	81.94
496.442	72.94
496.66	86.94
496.877	91.94
497.094	94.94
497.312	94.94
497.529	92.94
497.746	76.94
497.963	75.94
498.181	82.94
498.398	86.94
498.615	89.94
498.832	101.94
499.049	91.94
499.267	102.94
499.484	100.94
499.701	90.94
499.918	100.94
500.135	100.94
500.352	115.94
500.569	111.94
500.786	119.94
501.003	114.94
501.22	100.94
501.437	100.94
501.654	103.94
501.871	97.94
502.088	106.94
502.305	105.94
502.522	86.94
502.739	98.94
502.956	86.94
503.172	85.94
503.389	96.94
503.606	82.94
503.823	100.94
504.04	76.94
504.256	86.94
504.473	94.94
504.69	86.94
504.907	98.94
505.123	91.94
505.34	106.94
505.557	99.94
505.773	87.94
505.99	90.94
506.207	96.94
506.423	88.94
506.64	83.94
506.856	88.94
507.073	85.94
507.289	85.94
507.506	98.94
507.722	84.94
507.939	83.94
508.155	90.94
508.372	83.94
508.588	102.94
508.805	85.94
509.021	91.94
509.238	81.94
509.454	79.94
509.67	88.94
509.887	92.94
510.103	89.94
510.319	97.94
510.536	82.94
510.752	94.94
510.968	100.94
511.184	83.94
511.401	87.94
511.617	74.94
511.833	79.94
512.049	85.94
512.265	86.94
512.481	72.94
512.698	78.94
512.914	93.94
513.13	99.94
513.346	87.94
513.562	95.94
513.778	84.94
513.994	78.94
514.21	90.94
514.426	95.94
514.642	76.94
514.858	81.94
515.074	76.94
515.29	86.94
515.506	83.94
515.721	82.94
515.937	98.94
516.153	84.94
516.369	77.94
516.585	90.94
516.801	96.94
517.016	79.94
517.232	86.94
517.448	90.94
517.664	87.94
517.879	95.94
518.095	105.94
518.311	88.94
518.527	84.94
518.742	78.94
518.958	70.94
519.173	80.94
519.389	82.94
519.605	92.94
519.82	87.94
