Data from BG_HRD10591_008.txt Node
Date: Fri May 16 15:14:26 EDT 2025
User: Yrep
Spectrometer: HR+D1059
Trigger mode: 1
Integration Time (sec): 1.000000E-1
Scans to average: 1
Electric dark correction enabled: true
Nonlinearity correction enabled: false
Boxcar width: 0
XAxis mode: Wavelengths
Number of Pixels in Spectrum: 2048
>>>>>Begin Spectral Data<<<<<
223.165	-19
223.4	-19
223.635	-19
223.869	-15
224.104	-23
224.338	-5
224.573	-25
224.808	-13
225.042	-4
225.277	-12
225.511	-9
225.746	6
225.98	5
226.215	27
226.449	11
226.683	10
226.918	30
227.152	36
227.387	45
227.621	40
227.856	43
228.09	46
228.324	55
228.559	46
228.793	63
229.027	70
229.262	51
229.496	51
229.73	65
229.964	65
230.199	76
230.433	84
230.667	73
230.901	69
231.136	77
231.37	77
231.604	83
231.838	77
232.072	75
232.306	66
232.541	71
232.775	80
233.009	74
233.243	83
233.477	78
233.711	73
233.945	84
234.179	77
234.413	68
234.647	74
234.881	75
235.115	72
235.349	79
235.583	78
235.817	64
236.051	63
236.285	86
236.519	63
236.753	61
236.987	53
237.221	75
237.455	78
237.689	63
237.922	84
238.156	85
238.39	81
238.624	74
238.858	71
239.091	67
239.325	77
239.559	79
239.793	67
240.027	71
240.26	84
240.494	59
240.728	75
240.961	72
241.195	77
241.429	74
241.662	67
241.896	63
242.13	79
242.363	80
242.597	72
242.83	79
243.064	86
243.298	79
243.531	57
243.765	79
243.998	69
244.232	85
244.465	76
244.699	81
244.932	69
245.166	81
245.399	78
245.633	66
245.866	73
246.099	79
246.333	69
246.566	83
246.8	75
247.033	75
247.266	72
247.5	77
247.733	81
247.966	73
248.2	78
248.433	77
248.666	63
248.899	80
249.133	80
249.366	82
249.599	81
249.832	66
250.066	71
250.299	60
250.532	85
250.765	89
250.998	77
251.231	69
251.465	96
251.698	66
251.931	80
252.164	78
252.397	74
252.63	76
252.863	87
253.096	69
253.329	86
253.562	81
253.795	67
254.028	87
254.261	71
254.494	70
254.727	78
254.96	83
255.193	80
255.426	79
255.659	75
255.892	82
256.124	79
256.357	91
256.59	84
256.823	76
257.056	65
257.289	72
257.521	77
257.754	81
257.987	84
258.22	94
258.452	64
258.685	89
258.918	75
259.151	81
259.383	80
259.616	87
259.849	89
260.081	70
260.314	79
260.547	78
260.779	89
261.012	87
261.244	75
261.477	83
261.71	79
261.942	79
262.175	75
262.407	70
262.64	71
262.872	67
263.105	69
263.337	88
263.57	78
263.802	91
264.035	75
264.267	90
264.499	85
264.732	67
264.964	85
265.197	77
265.429	85
265.661	75
265.894	58
266.126	73
266.358	78
266.591	73
266.823	82
267.055	75
267.287	66
267.52	77
267.752	91
267.984	74
268.216	75
268.448	92
268.681	85
268.913	82
269.145	83
269.377	96
269.609	79
269.841	85
270.073	82
270.306	85
270.538	77
270.77	82
271.002	81
271.234	74
271.466	92
271.698	94
271.93	75
272.162	65
272.394	91
272.626	73
272.858	89
273.09	80
273.322	75
273.553	70
273.785	91
274.017	77
274.249	72
274.481	75
274.713	85
274.945	69
275.176	83
275.408	71
275.64	73
275.872	82
276.104	87
276.335	81
276.567	74
276.799	96
277.031	64
277.262	71
277.494	91
277.726	72
277.957	81
278.189	88
278.421	80
278.652	69
278.884	65
279.115	75
279.347	84
279.579	76
279.81	81
280.042	88
280.273	79
280.505	79
280.736	70
280.968	72
281.199	72
281.431	85
281.662	88
281.894	87
282.125	84
282.356	94
282.588	67
282.819	61
283.051	80
283.282	77
283.513	89
283.745	61
283.976	70
284.207	77
284.439	72
284.67	84
284.901	89
285.132	80
285.364	87
285.595	88
285.826	85
286.057	72
286.288	100
286.52	80
286.751	87
286.982	83
287.213	87
287.444	75
287.675	56
287.906	76
288.138	87
288.369	78
288.6	88
288.831	91
289.062	76
289.293	88
289.524	68
289.755	80
289.986	84
290.217	82
290.448	76
290.679	86
290.91	83
291.141	88
291.371	93
291.602	80
291.833	80
292.064	83
292.295	85
292.526	87
292.757	93
292.987	79
293.218	86
293.449	78
293.68	99
293.91	83
294.141	81
294.372	75
294.603	86
294.833	83
295.064	72
295.295	86
295.525	73
295.756	82
295.987	80
296.217	86
296.448	92
296.679	88
296.909	96
297.14	85
297.37	67
297.601	74
297.831	62
298.062	76
298.292	84
298.523	79
298.753	92
298.984	85
299.214	85
299.445	80
299.675	89
299.905	90
300.136	87
300.366	77
300.597	71
300.827	85
301.057	80
301.288	74
301.518	83
301.748	92
301.979	94
302.209	91
302.439	81
302.669	72
302.9	77
303.13	75
303.36	82
303.59	89
303.82	91
304.051	69
304.281	71
304.511	75
304.741	72
304.971	79
305.201	92
305.431	98
305.661	88
305.891	85
306.121	71
306.352	78
306.582	89
306.812	83
307.042	80
307.272	73
307.502	86
307.731	80
307.961	71
308.191	70
308.421	86
308.651	84
308.881	83
309.111	80
309.341	74
309.571	88
309.8	76
310.03	91
310.26	88
310.49	81
310.72	91
310.949	85
311.179	77
311.409	88
311.639	88
311.868	70
312.098	85
312.328	94
312.557	73
312.787	85
313.017	85
313.246	79
313.476	102
313.706	93
313.935	73
314.165	76
314.394	77
314.624	79
314.853	79
315.083	76
315.312	90
315.542	77
315.771	92
316.001	80
316.23	87
316.46	87
316.689	69
316.919	74
317.148	90
317.377	71
317.607	78
317.836	79
318.065	75
318.295	89
318.524	79
318.753	71
318.983	94
319.212	84
319.441	83
319.67	84
319.9	83
320.129	84
320.358	78
320.587	76
320.816	84
321.046	75
321.275	81
321.504	82
321.733	71
321.962	68
322.191	84
322.42	74
322.649	71
322.878	90
323.108	87
323.337	82
323.566	79
323.795	75
324.024	85
324.253	79
324.482	83
324.71	106
324.939	81
325.168	83
325.397	73
325.626	87
325.855	85
326.084	90
326.313	80
326.542	86
326.77	69
326.999	81
327.228	86
327.457	82
327.686	74
327.914	91
328.143	70
328.372	92
328.6	71
328.829	84
329.058	77
329.287	89
329.515	92
329.744	87
329.972	88
330.201	80
330.43	71
330.658	73
330.887	86
331.115	75
331.344	99
331.572	90
331.801	84
332.03	85
332.258	75
332.486	84
332.715	97
332.943	81
333.172	83
333.4	90
333.629	87
333.857	90
334.085	78
334.314	87
334.542	83
334.771	76
334.999	78
335.227	88
335.455	70
335.684	87
335.912	80
336.14	69
336.369	79
336.597	65
336.825	78
337.053	93
337.281	71
337.51	71
337.738	93
337.966	112
338.194	81
338.422	94
338.65	84
338.878	81
339.106	75
339.334	81
339.562	88
339.79	71
340.018	75
340.246	87
340.474	75
340.702	78
340.93	83
341.158	84
341.386	84
341.614	77
341.842	79
342.07	89
342.298	73
342.526	89
342.754	84
342.981	68
343.209	74
343.437	89
343.665	79
343.893	96
344.12	81
344.348	102
344.576	83
344.804	88
345.031	69
345.259	76
345.487	79
345.714	63
345.942	95
346.17	72
346.397	73
346.625	87
346.853	76
347.08	83
347.308	81
347.535	83
347.763	81
347.99	82
348.218	71
348.445	72
348.673	90
348.9	77
349.128	76
349.355	94
349.583	94
349.81	81
350.037	85
350.265	74
350.492	79
350.72	69
350.947	75
351.174	73
351.402	69
351.629	77
351.856	84
352.083	77
352.311	77
352.538	64
352.765	94
352.992	85
353.22	87
353.447	84
353.674	85
353.901	85
354.128	83
354.355	85
354.583	75
354.81	89
355.037	89
355.264	75
355.491	85
355.718	73
355.945	81
356.172	81
356.399	87
356.626	62
356.853	80
357.08	68
357.307	81
357.534	82
357.761	79
357.988	87
358.215	85
358.441	87
358.668	76
358.895	81
359.122	74
359.349	80
359.576	80
359.802	75
360.029	77
360.256	93
360.483	84
360.709	74
360.936	94
361.163	91
361.39	88
361.616	84
361.843	83
362.07	83
362.296	81
362.523	81
362.749	97
362.976	83
363.203	81
363.429	88
363.656	76
363.882	84
364.109	95
364.335	70
364.562	85
364.788	79
365.015	80
365.241	75
365.468	77
365.694	70
365.92	83
366.147	71
366.373	74
366.599	76
366.826	79
367.052	76
367.278	84
367.505	81
367.731	69
367.957	79
368.184	78
368.41	84
368.636	85
368.862	86
369.089	79
369.315	95
369.541	86
369.767	82
369.993	84
370.219	84
370.445	80
370.672	87
370.898	90
371.124	85
371.35	81
371.576	79
371.802	78
372.028	85
372.254	85
372.48	79
372.706	79
372.932	87
373.158	69
373.384	81
373.61	88
373.835	102
374.061	70
374.287	88
374.513	66
374.739	78
374.965	79
375.191	85
375.416	88
375.642	80
375.868	78
376.094	70
376.319	92
376.545	78
376.771	79
376.997	92
377.222	67
377.448	78
377.674	87
377.899	84
378.125	83
378.35	76
378.576	88
378.802	79
379.027	84
379.253	89
379.478	81
379.704	92
379.929	100
380.155	95
380.38	88
380.606	83
380.831	84
381.057	70
381.282	88
381.507	69
381.733	63
381.958	62
382.184	93
382.409	82
382.634	77
382.86	72
383.085	85
383.31	82
383.535	58
383.761	92
383.986	85
384.211	89
384.436	93
384.662	73
384.887	81
385.112	84
385.337	75
385.562	81
385.787	78
386.013	91
386.238	83
386.463	78
386.688	80
386.913	84
387.138	79
387.363	75
387.588	77
387.813	78
388.038	91
388.263	75
388.488	87
388.713	76
388.938	84
389.163	88
389.387	75
389.612	63
389.837	79
390.062	99
390.287	72
390.512	79
390.736	83
390.961	76
391.186	77
391.411	80
391.636	81
391.86	76
392.085	67
392.31	66
392.534	79
392.759	75
392.984	80
393.208	88
393.433	73
393.658	81
393.882	74
394.107	73
394.331	80
394.556	74
394.78	71
395.005	83
395.229	76
395.454	84
395.678	64
395.903	83
396.127	73
396.352	76
396.576	71
396.801	85
397.025	89
397.249	72
397.474	81
397.698	86
397.922	70
398.147	94
398.371	83
398.595	87
398.82	72
399.044	75
399.268	70
399.492	82
399.717	84
399.941	79
400.165	83
400.389	77
400.613	82
400.837	97
401.062	75
401.286	85
401.51	89
401.734	93
401.958	86
402.182	79
402.406	75
402.63	90
402.854	75
403.078	78
403.302	71
403.526	71
403.75	89
403.974	88
404.198	79
404.422	80
404.645	85
404.869	85
405.093	84
405.317	80
405.541	66
405.765	76
405.988	73
406.212	87
406.436	82
406.66	79
406.883	83
407.107	85
407.331	72
407.555	85
407.778	87
408.002	74
408.226	86
408.449	78
408.673	89
408.896	103
409.12	79
409.344	66
409.567	82
409.791	72
410.014	90
410.238	87
410.461	78
410.685	71
410.908	70
411.132	58
411.355	88
411.578	79
411.802	89
412.025	81
412.249	69
412.472	76
412.695	73
412.919	80
413.142	76
413.365	81
413.589	89
413.812	83
414.035	96
414.258	79
414.482	71
414.705	86
414.928	70
415.151	89
415.374	80
415.597	79
415.821	86
416.044	87
416.267	83
416.49	76
416.713	79
416.936	59
417.159	77
417.382	87
417.605	87
417.828	74
418.051	80
418.274	77
418.497	76
418.72	84
418.943	72
419.166	74
419.389	89
419.611	80
419.834	75
420.057	94
420.28	61
420.503	78
420.726	77
420.948	78
421.171	83
421.394	83
421.617	65
421.839	86
422.062	80
422.285	85
422.507	80
422.73	92
422.953	88
423.175	84
423.398	69
423.621	81
423.843	88
424.066	80
424.288	72
424.511	72
424.733	83
424.956	76
425.178	74
425.401	78
425.623	90
425.846	84
426.068	75
426.291	99
426.513	79
426.735	69
426.958	72
427.18	77
427.402	69
427.625	92
427.847	81
428.069	73
428.292	72
428.514	69
428.736	80
428.958	68
429.181	91
429.403	83
429.625	79
429.847	82
430.069	101
430.292	72
430.514	65
430.736	83
430.958	68
431.18	90
431.402	87
431.624	90
431.846	71
432.068	58
432.29	79
432.512	90
432.734	57
432.956	78
433.178	92
433.4	85
433.622	72
433.844	79
434.066	69
434.287	92
434.509	71
434.731	83
434.953	73
435.175	69
435.397	73
435.618	85
435.84	87
436.062	64
436.284	76
436.505	82
436.727	78
436.949	79
437.17	75
437.392	79
437.614	81
437.835	78
438.057	76
438.278	78
438.5	77
438.721	86
438.943	71
439.165	75
439.386	78
439.608	80
439.829	94
440.05	66
440.272	78
440.493	84
440.715	72
440.936	77
441.158	89
441.379	82
441.6	73
441.822	77
442.043	71
442.264	71
442.486	76
442.707	80
442.928	82
443.149	75
443.371	79
443.592	88
443.813	78
444.034	84
444.255	76
444.476	71
444.698	80
444.919	75
445.14	148
445.361	115
445.582	75
445.803	69
446.024	77
446.245	82
446.466	80
446.687	92
446.908	84
447.129	78
447.35	92
447.571	77
447.792	74
448.013	81
448.234	84
448.455	95
448.675	83
448.896	69
449.117	76
449.338	75
449.559	96
449.779	78
450	79
450.221	88
450.442	78
450.662	75
450.883	77
451.104	85
451.324	83
451.545	84
451.766	75
451.986	66
452.207	80
452.428	91
452.648	89
452.869	92
453.089	88
453.31	77
453.53	87
453.751	87
453.971	72
454.192	89
454.412	72
454.633	81
454.853	75
455.073	82
455.294	87
455.514	87
455.734	76
455.955	88
456.175	76
456.395	70
456.616	84
456.836	93
457.056	89
457.276	72
457.497	86
457.717	84
457.937	61
458.157	74
458.377	79
458.598	78
458.818	76
459.038	74
459.258	72
459.478	72
459.698	88
459.918	78
460.138	61
460.358	94
460.578	81
460.798	100
461.018	73
461.238	85
461.458	107
461.678	91
461.898	66
462.118	71
462.338	72
462.558	84
462.777	92
462.997	81
463.217	77
463.437	84
463.657	65
463.876	74
464.096	83
464.316	82
464.536	68
464.755	80
464.975	81
465.195	84
465.414	92
465.634	82
465.854	59
466.073	72
466.293	75
466.512	88
466.732	91
466.951	96
467.171	72
467.391	73
467.61	82
467.829	75
468.049	80
468.268	66
468.488	89
468.707	79
468.927	75
469.146	78
469.365	85
469.585	83
469.804	87
470.023	90
470.243	80
470.462	65
470.681	76
470.901	74
471.12	69
471.339	64
471.558	79
471.777	80
471.997	96
472.216	78
472.435	90
472.654	78
472.873	81
473.092	73
473.311	76
473.53	100
473.749	80
473.968	76
474.187	79
474.406	78
474.625	85
474.844	84
475.063	83
475.282	76
475.501	83
475.72	87
475.939	81
476.158	86
476.377	87
476.596	79
476.814	92
477.033	80
477.252	85
477.471	88
477.69	78
477.908	87
478.127	92
478.346	84
478.564	87
478.783	100
479.002	74
479.22	81
479.439	82
479.658	81
479.876	79
480.095	81
480.313	75
480.532	91
480.751	85
480.969	79
481.188	77
481.406	83
481.624	87
481.843	76
482.061	92
482.28	86
482.498	79
482.717	91
482.935	71
483.153	89
483.372	83
483.59	82
483.808	76
484.027	84
484.245	86
484.463	84
484.681	94
484.9	75
485.118	73
485.336	84
485.554	88
485.772	91
485.99	94
486.209	80
486.427	87
486.645	90
486.863	79
487.081	62
487.299	80
487.517	87
487.735	86
487.953	75
488.171	88
488.389	81
488.607	82
488.825	74
489.043	70
489.261	78
489.479	78
489.696	84
489.914	93
490.132	80
490.35	88
490.568	80
490.786	73
491.003	70
491.221	78
491.439	84
491.657	79
491.874	85
492.092	71
492.31	95
492.527	84
492.745	88
492.963	79
493.18	75
493.398	78
493.615	73
493.833	64
494.05	80
494.268	76
494.485	79
494.703	77
494.92	63
495.138	75
495.355	78
495.573	73
495.79	87
496.008	83
496.225	69
496.442	83
496.66	88
496.877	71
497.094	81
497.312	87
497.529	73
497.746	84
497.963	89
498.181	88
498.398	69
498.615	94
498.832	99
499.049	89
499.267	92
499.484	83
499.701	83
499.918	90
500.135	80
500.352	77
500.569	93
500.786	91
501.003	81
501.22	71
501.437	76
501.654	75
501.871	93
502.088	76
502.305	84
502.522	83
502.739	74
502.956	65
503.172	92
503.389	100
503.606	89
503.823	85
504.04	76
504.256	83
504.473	81
504.69	77
504.907	69
505.123	82
505.34	79
505.557	79
505.773	79
505.99	87
506.207	92
506.423	93
506.64	81
506.856	65
507.073	83
507.289	83
507.506	81
507.722	83
507.939	83
508.155	75
508.372	76
508.588	74
508.805	72
509.021	72
509.238	86
509.454	77
509.67	81
509.887	77
510.103	72
510.319	77
510.536	88
510.752	80
510.968	75
511.184	78
511.401	65
511.617	76
511.833	63
512.049	68
512.265	77
512.481	74
512.698	84
512.914	92
513.13	76
513.346	77
513.562	87
513.778	75
513.994	78
514.21	80
514.426	81
514.642	86
514.858	83
515.074	79
515.29	89
515.506	75
515.721	83
515.937	84
516.153	83
516.369	77
516.585	99
516.801	83
517.016	83
517.232	85
517.448	83
517.664	84
517.879	88
518.095	83
518.311	82
518.527	76
518.742	83
518.958	84
519.173	88
519.389	89
519.605	83
519.82	85
520.036	80
520.251	73
520.467	85
520.682	76
520.898	95
521.113	88
521.329	90
521.544	84
521.76	66
521.975	88
522.19	81
522.406	90
522.621	76
522.836	75
523.052	74
523.267	84
523.482	80
523.698	54
523.913	93
524.128	85
524.343	77
524.559	83
524.774	69
524.989	78
525.204	77
525.419	93
525.634	83
525.849	88
526.064	77
526.28	79
526.495	65
526.71	85
526.925	72
527.14	85
527.355	87
527.57	87
527.785	91
527.999	76
528.214	95
528.429	84
528.644	84
528.859	86
529.074	92
529.289	83
529.503	71
529.718	81
529.933	84
530.148	77
530.363	72
530.577	86
530.792	77
531.007	79
531.221	85
531.436	84
531.651	86
531.865	82
532.08	73
532.295	75
532.509	89
532.724	67
532.938	86
533.153	85
533.367	80
533.582	91
533.796	73
534.011	75
534.225	82
534.44	94
534.654	96
534.868	86
535.083	79
535.297	83
535.511	88
535.726	85
535.94	77
536.154	75
536.369	96
536.583	86
536.797	71
537.011	82
537.225	78
537.44	84
537.654	85
537.868	70
538.082	88
538.296	82
538.51	88
538.724	82
538.938	82
539.153	92
539.367	79
539.581	84
539.795	92
540.009	93
540.222	92
540.436	76
540.65	75
540.864	75
541.078	85
541.292	83
541.506	85
541.72	92
541.934	84
542.147	75
542.361	71
542.575	78
542.789	67
543.002	86
543.216	78
543.43	84
543.644	81
543.857	80
544.071	87
544.285	81
544.498	79
544.712	78
544.925	83
545.139	86
545.352	84
545.566	84
545.779	72
545.993	88
546.206	67
546.42	84
546.633	93
546.847	96
547.06	100
547.274	81
547.487	91
547.7	79
547.914	77
548.127	89
548.34	83
548.554	77
548.767	76
548.98	71
549.193	83
549.407	70
549.62	81
549.833	70
550.046	72
550.259	78
550.473	81
550.686	99
550.899	91
551.112	101
551.325	93
551.538	71
551.751	103
551.964	88
552.177	67
552.39	86
552.603	76
552.816	88
553.029	87
553.242	78
553.455	85
553.667	99
553.88	81
554.093	91
554.306	79
554.519	84
554.732	77
554.944	66
555.157	78
555.37	80
555.583	74
555.795	89
556.008	71
556.221	85
556.433	74
556.646	62
556.859	81
557.071	76
557.284	74
557.496	83
557.709	79
557.921	84
558.134	82
558.346	74
558.559	79
558.771	86
558.984	72
559.196	82
559.409	63
559.621	92
559.833	76
560.046	76
560.258	86
560.47	89
560.683	98
560.895	75
561.107	91
561.32	83
561.532	91
561.744	80
561.956	83
562.168	92
562.381	102
562.593	99
562.805	87
563.017	79
563.229	85
563.441	92
563.653	90
563.865	75
564.077	80
564.289	87
564.501	78
564.713	92
564.925	81
565.137	72
565.349	83
565.561	83
565.773	64
565.985	91
566.197	74
566.408	64
566.62	83
566.832	97
567.044	85
567.255	86
567.467	77
567.679	88
567.891	79
568.102	76
568.314	78
568.526	85
568.737	87
568.949	91
569.161	74
569.372	87
569.584	75
569.795	81
570.007	82
570.218	77
570.43	85
570.641	83
570.853	79
571.064	86
571.276	83
571.487	92
571.698	84
571.91	77
572.121	89
572.333	90
572.544	83
572.755	88
572.966	79
573.178	81
573.389	86
573.6	70
573.811	72
574.023	71
574.234	83
574.445	89
574.656	81
574.867	86
575.078	84
575.289	82
575.501	70
575.712	84
575.923	89
576.134	77
576.345	85
576.556	69
576.767	95
576.978	88
577.188	79
577.399	83
577.61	81
577.821	75
578.032	73
578.243	76
578.454	81
578.665	88
578.875	94
579.086	79
579.297	84
579.508	90
579.718	96
579.929	85
580.14	78
580.35	75
580.561	92
580.772	80
580.982	91
581.193	77
581.403	84
581.614	83
581.825	84
582.035	88
582.246	73
582.456	84
582.667	61
582.877	92
583.087	103
583.298	90
583.508	71
583.719	78
583.929	84
584.139	70
584.35	82
584.56	71
584.77	85
584.981	90
585.191	87
585.401	73
585.611	80
585.821	74
586.032	91
586.242	87
586.452	79
586.662	84
586.872	79
587.082	96
587.292	71
587.502	76
587.713	69
587.923	70
588.133	83
588.343	80
588.553	88
588.762	80
588.972	80
589.182	71
589.392	72
589.602	94
589.812	85
590.022	77
590.232	73
590.441	86
590.651	82
590.861	83
