Data from BG_HRD10591_105.txt Node
Date: Fri May 16 15:18:01 EDT 2025
User: Yrep
Spectrometer: HR+D1059
Trigger mode: 1
Integration Time (sec): 1.000000E-1
Scans to average: 1
Electric dark correction enabled: true
Nonlinearity correction enabled: false
Boxcar width: 0
XAxis mode: Wavelengths
Number of Pixels in Spectrum: 2048
>>>>>Begin Spectral Data<<<<<
223.165	-25.31
223.4	-25.31
223.635	-25.31
223.869	-20.31
224.104	-16.31
224.338	-19.31
224.573	1.69
224.808	-14.31
225.042	-1.31
225.277	-1.31
225.511	4.69
225.746	5.69
225.98	5.69
226.215	10.69
226.449	2.69
226.683	16.69
226.918	21.69
227.152	28.69
227.387	40.69
227.621	37.69
227.856	48.69
228.09	50.69
228.324	53.69
228.559	60.69
228.793	62.69
229.027	65.69
229.262	75.69
229.496	69.69
229.73	64.69
229.964	51.69
230.199	60.69
230.433	62.69
230.667	78.69
230.901	81.69
231.136	85.69
231.37	73.69
231.604	75.69
231.838	82.69
232.072	96.69
232.306	81.69
232.541	79.69
232.775	79.69
233.009	76.69
233.243	77.69
233.477	76.69
233.711	97.69
233.945	74.69
234.179	84.69
234.413	76.69
234.647	72.69
234.881	87.69
235.115	83.69
235.349	75.69
235.583	77.69
235.817	60.69
236.051	73.69
236.285	70.69
236.519	88.69
236.753	63.69
236.987	73.69
237.221	70.69
237.455	71.69
237.689	85.69
237.922	91.69
238.156	76.69
238.39	60.69
238.624	62.69
238.858	69.69
239.091	59.69
239.325	77.69
239.559	75.69
239.793	79.69
240.027	71.69
240.26	81.69
240.494	71.69
240.728	59.69
240.961	65.69
241.195	79.69
241.429	68.69
241.662	78.69
241.896	71.69
242.13	83.69
242.363	73.69
242.597	76.69
242.83	75.69
243.064	91.69
243.298	67.69
243.531	83.69
243.765	77.69
243.998	73.69
244.232	66.69
244.465	80.69
244.699	73.69
244.932	84.69
245.166	77.69
245.399	73.69
245.633	60.69
245.866	71.69
246.099	65.69
246.333	64.69
246.566	70.69
246.8	91.69
247.033	94.69
247.266	93.69
247.5	71.69
247.733	68.69
247.966	69.69
248.2	72.69
248.433	83.69
248.666	73.69
248.899	74.69
249.133	79.69
249.366	78.69
249.599	78.69
249.832	67.69
250.066	79.69
250.299	79.69
250.532	64.69
250.765	58.69
250.998	80.69
251.231	69.69
251.465	85.69
251.698	78.69
251.931	75.69
252.164	75.69
252.397	85.69
252.63	80.69
252.863	66.69
253.096	64.69
253.329	78.69
253.562	73.69
253.795	82.69
254.028	81.69
254.261	72.69
254.494	68.69
254.727	93.69
254.96	65.69
255.193	86.69
255.426	75.69
255.659	69.69
255.892	77.69
256.124	79.69
256.357	88.69
256.59	85.69
256.823	88.69
257.056	92.69
257.289	76.69
257.521	71.69
257.754	79.69
257.987	87.69
258.22	76.69
258.452	71.69
258.685	80.69
258.918	78.69
259.151	89.69
259.383	87.69
259.616	73.69
259.849	83.69
260.081	74.69
260.314	74.69
260.547	56.69
260.779	73.69
261.012	79.69
261.244	83.69
261.477	86.69
261.71	87.69
261.942	84.69
262.175	81.69
262.407	67.69
262.64	77.69
262.872	77.69
263.105	79.69
263.337	72.69
263.57	95.69
263.802	77.69
264.035	71.69
264.267	77.69
264.499	87.69
264.732	64.69
264.964	86.69
265.197	80.69
265.429	72.69
265.661	81.69
265.894	62.69
266.126	78.69
266.358	65.69
266.591	78.69
266.823	85.69
267.055	79.69
267.287	73.69
267.52	67.69
267.752	85.69
267.984	80.69
268.216	82.69
268.448	81.69
268.681	77.69
268.913	88.69
269.145	66.69
269.377	79.69
269.609	100.69
269.841	81.69
270.073	80.69
270.306	84.69
270.538	83.69
270.77	82.69
271.002	77.69
271.234	89.69
271.466	81.69
271.698	81.69
271.93	73.69
272.162	80.69
272.394	83.69
272.626	78.69
272.858	89.69
273.09	76.69
273.322	83.69
273.553	83.69
273.785	77.69
274.017	91.69
274.249	70.69
274.481	81.69
274.713	80.69
274.945	79.69
275.176	82.69
275.408	72.69
275.64	76.69
275.872	75.69
276.104	77.69
276.335	75.69
276.567	68.69
276.799	87.69
277.031	80.69
277.262	81.69
277.494	84.69
277.726	66.69
277.957	87.69
278.189	78.69
278.421	69.69
278.652	96.69
278.884	73.69
279.115	84.69
279.347	72.69
279.579	81.69
279.81	74.69
280.042	76.69
280.273	81.69
280.505	92.69
280.736	72.69
280.968	75.69
281.199	75.69
281.431	89.69
281.662	83.69
281.894	81.69
282.125	71.69
282.356	78.69
282.588	84.69
282.819	83.69
283.051	87.69
283.282	91.69
283.513	97.69
283.745	85.69
283.976	82.69
284.207	98.69
284.439	78.69
284.67	88.69
284.901	82.69
285.132	74.69
285.364	85.69
285.595	89.69
285.826	90.69
286.057	81.69
286.288	86.69
286.52	69.69
286.751	61.69
286.982	85.69
287.213	62.69
287.444	98.69
287.675	73.69
287.906	84.69
288.138	69.69
288.369	85.69
288.6	71.69
288.831	81.69
289.062	86.69
289.293	92.69
289.524	75.69
289.755	81.69
289.986	81.69
290.217	75.69
290.448	88.69
290.679	87.69
290.91	71.69
291.141	86.69
291.371	94.69
291.602	84.69
291.833	95.69
292.064	70.69
292.295	94.69
292.526	73.69
292.757	78.69
292.987	88.69
293.218	84.69
293.449	70.69
293.68	91.69
293.91	96.69
294.141	89.69
294.372	86.69
294.603	82.69
294.833	81.69
295.064	83.69
295.295	75.69
295.525	83.69
295.756	89.69
295.987	90.69
296.217	89.69
296.448	87.69
296.679	88.69
296.909	88.69
297.14	85.69
297.37	77.69
297.601	79.69
297.831	76.69
298.062	91.69
298.292	80.69
298.523	87.69
298.753	70.69
298.984	80.69
299.214	74.69
299.445	90.69
299.675	87.69
299.905	89.69
300.136	88.69
300.366	76.69
300.597	75.69
300.827	72.69
301.057	86.69
301.288	81.69
301.518	85.69
301.748	86.69
301.979	77.69
302.209	86.69
302.439	87.69
302.669	92.69
302.9	67.69
303.13	97.69
303.36	88.69
303.59	79.69
303.82	88.69
304.051	82.69
304.281	87.69
304.511	94.69
304.741	85.69
304.971	77.69
305.201	103.69
305.431	83.69
305.661	86.69
305.891	86.69
306.121	87.69
306.352	81.69
306.582	85.69
306.812	90.69
307.042	76.69
307.272	85.69
307.502	81.69
307.731	83.69
307.961	81.69
308.191	77.69
308.421	78.69
308.651	79.69
308.881	83.69
309.111	93.69
309.341	82.69
309.571	74.69
309.8	96.69
310.03	83.69
310.26	93.69
310.49	78.69
310.72	93.69
310.949	79.69
311.179	80.69
311.409	83.69
311.639	63.69
311.868	86.69
312.098	93.69
312.328	77.69
312.557	84.69
312.787	88.69
313.017	83.69
313.246	80.69
313.476	85.69
313.706	65.69
313.935	79.69
314.165	85.69
314.394	93.69
314.624	78.69
314.853	87.69
315.083	83.69
315.312	83.69
315.542	81.69
315.771	89.69
316.001	71.69
316.23	88.69
316.46	74.69
316.689	67.69
316.919	71.69
317.148	91.69
317.377	80.69
317.607	88.69
317.836	91.69
318.065	97.69
318.295	86.69
318.524	77.69
318.753	82.69
318.983	81.69
319.212	81.69
319.441	88.69
319.67	98.69
319.9	107.69
320.129	75.69
320.358	84.69
320.587	73.69
320.816	80.69
321.046	83.69
321.275	79.69
321.504	79.69
321.733	81.69
321.962	83.69
322.191	86.69
322.42	88.69
322.649	76.69
322.878	79.69
323.108	90.69
323.337	83.69
323.566	74.69
323.795	94.69
324.024	80.69
324.253	85.69
324.482	79.69
324.71	89.69
324.939	88.69
325.168	81.69
325.397	86.69
325.626	65.69
325.855	88.69
326.084	79.69
326.313	89.69
326.542	80.69
326.77	86.69
326.999	78.69
327.228	99.69
327.457	86.69
327.686	65.69
327.914	75.69
328.143	89.69
328.372	84.69
328.6	79.69
328.829	90.69
329.058	80.69
329.287	88.69
329.515	89.69
329.744	62.69
329.972	73.69
330.201	95.69
330.43	89.69
330.658	75.69
330.887	75.69
331.115	77.69
331.344	81.69
331.572	79.69
331.801	95.69
332.03	82.69
332.258	79.69
332.486	100.69
332.715	84.69
332.943	94.69
333.172	92.69
333.4	87.69
333.629	82.69
333.857	72.69
334.085	77.69
334.314	65.69
334.542	89.69
334.771	95.69
334.999	81.69
335.227	72.69
335.455	79.69
335.684	89.69
335.912	86.69
336.14	72.69
336.369	75.69
336.597	73.69
336.825	80.69
337.053	89.69
337.281	80.69
337.51	86.69
337.738	70.69
337.966	83.69
338.194	74.69
338.422	78.69
338.65	83.69
338.878	69.69
339.106	84.69
339.334	106.69
339.562	87.69
339.79	81.69
340.018	87.69
340.246	92.69
340.474	82.69
340.702	84.69
340.93	89.69
341.158	90.69
341.386	78.69
341.614	72.69
341.842	87.69
342.07	74.69
342.298	71.69
342.526	90.69
342.754	94.69
342.981	87.69
343.209	86.69
343.437	95.69
343.665	79.69
343.893	78.69
344.12	76.69
344.348	88.69
344.576	86.69
344.804	74.69
345.031	72.69
345.259	84.69
345.487	66.69
345.714	86.69
345.942	88.69
346.17	87.69
346.397	78.69
346.625	81.69
346.853	74.69
347.08	79.69
347.308	82.69
347.535	67.69
347.763	73.69
347.99	89.69
348.218	69.69
348.445	88.69
348.673	92.69
348.9	73.69
349.128	77.69
349.355	97.69
349.583	82.69
349.81	87.69
350.037	78.69
350.265	78.69
350.492	73.69
350.72	73.69
350.947	79.69
351.174	80.69
351.402	84.69
351.629	77.69
351.856	87.69
352.083	90.69
352.311	80.69
352.538	75.69
352.765	77.69
352.992	101.69
353.22	87.69
353.447	78.69
353.674	82.69
353.901	79.69
354.128	77.69
354.355	86.69
354.583	84.69
354.81	85.69
355.037	93.69
355.264	83.69
355.491	70.69
355.718	81.69
355.945	64.69
356.172	84.69
356.399	87.69
356.626	81.69
356.853	79.69
357.08	90.69
357.307	65.69
357.534	79.69
357.761	71.69
357.988	79.69
358.215	81.69
358.441	83.69
358.668	87.69
358.895	88.69
359.122	72.69
359.349	79.69
359.576	83.69
359.802	72.69
360.029	82.69
360.256	83.69
360.483	81.69
360.709	65.69
360.936	80.69
361.163	75.69
361.39	80.69
361.616	85.69
361.843	75.69
362.07	92.69
362.296	79.69
362.523	81.69
362.749	76.69
362.976	88.69
363.203	87.69
363.429	66.69
363.656	69.69
363.882	83.69
364.109	69.69
364.335	83.69
364.562	85.69
364.788	74.69
365.015	80.69
365.241	77.69
365.468	76.69
365.694	87.69
365.92	77.69
366.147	76.69
366.373	85.69
366.599	68.69
366.826	72.69
367.052	69.69
367.278	66.69
367.505	87.69
367.731	62.69
367.957	80.69
368.184	70.69
368.41	79.69
368.636	85.69
368.862	91.69
369.089	89.69
369.315	72.69
369.541	78.69
369.767	83.69
369.993	82.69
370.219	87.69
370.445	95.69
370.672	82.69
370.898	81.69
371.124	79.69
371.35	85.69
371.576	79.69
371.802	84.69
372.028	79.69
372.254	91.69
372.48	89.69
372.706	85.69
372.932	87.69
373.158	90.69
373.384	84.69
373.61	79.69
373.835	72.69
374.061	83.69
374.287	69.69
374.513	72.69
374.739	80.69
374.965	84.69
375.191	85.69
375.416	83.69
375.642	80.69
375.868	80.69
376.094	93.69
376.319	82.69
376.545	88.69
376.771	75.69
376.997	61.69
377.222	80.69
377.448	80.69
377.674	68.69
377.899	68.69
378.125	76.69
378.35	91.69
378.576	84.69
378.802	87.69
379.027	90.69
379.253	91.69
379.478	74.69
379.704	68.69
379.929	89.69
380.155	89.69
380.38	67.69
380.606	74.69
380.831	80.69
381.057	83.69
381.282	77.69
381.507	78.69
381.733	80.69
381.958	83.69
382.184	79.69
382.409	70.69
382.634	109.69
382.86	92.69
383.085	87.69
383.31	80.69
383.535	71.69
383.761	69.69
383.986	87.69
384.211	65.69
384.436	75.69
384.662	71.69
384.887	61.69
385.112	92.69
385.337	94.69
385.562	88.69
385.787	89.69
386.013	88.69
386.238	91.69
386.463	63.69
386.688	89.69
386.913	69.69
387.138	93.69
387.363	82.69
387.588	91.69
387.813	94.69
388.038	79.69
388.263	77.69
388.488	79.69
388.713	83.69
388.938	79.69
389.163	74.69
389.387	74.69
389.612	76.69
389.837	84.69
390.062	77.69
390.287	72.69
390.512	80.69
390.736	77.69
390.961	71.69
391.186	82.69
391.411	72.69
391.636	87.69
391.86	81.69
392.085	80.69
392.31	77.69
392.534	88.69
392.759	90.69
392.984	95.69
393.208	89.69
393.433	73.69
393.658	79.69
393.882	70.69
394.107	81.69
394.331	74.69
394.556	87.69
394.78	80.69
395.005	77.69
395.229	68.69
395.454	96.69
395.678	79.69
395.903	87.69
396.127	77.69
396.352	78.69
396.576	85.69
396.801	91.69
397.025	91.69
397.249	79.69
397.474	88.69
397.698	76.69
397.922	95.69
398.147	85.69
398.371	76.69
398.595	89.69
398.82	90.69
399.044	94.69
399.268	79.69
399.492	76.69
399.717	86.69
399.941	79.69
400.165	81.69
400.389	85.69
400.613	76.69
400.837	75.69
401.062	84.69
401.286	95.69
401.51	82.69
401.734	74.69
401.958	75.69
402.182	80.69
402.406	84.69
402.63	78.69
402.854	73.69
403.078	73.69
403.302	91.69
403.526	68.69
403.75	79.69
403.974	81.69
404.198	73.69
404.422	92.69
404.645	71.69
404.869	77.69
405.093	71.69
405.317	77.69
405.541	84.69
405.765	85.69
405.988	69.69
406.212	73.69
406.436	85.69
406.66	85.69
406.883	75.69
407.107	81.69
407.331	62.69
407.555	82.69
407.778	89.69
408.002	75.69
408.226	79.69
408.449	75.69
408.673	76.69
408.896	88.69
409.12	89.69
409.344	81.69
409.567	75.69
409.791	91.69
410.014	93.69
410.238	81.69
410.461	87.69
410.685	70.69
410.908	80.69
411.132	79.69
411.355	89.69
411.578	85.69
411.802	76.69
412.025	93.69
412.249	86.69
412.472	80.69
412.695	75.69
412.919	88.69
413.142	74.69
413.365	94.69
413.589	80.69
413.812	96.69
414.035	99.69
414.258	78.69
414.482	85.69
414.705	84.69
414.928	78.69
415.151	88.69
415.374	88.69
415.597	81.69
415.821	75.69
416.044	71.69
416.267	76.69
416.49	74.69
416.713	82.69
416.936	90.69
417.159	66.69
417.382	88.69
417.605	71.69
417.828	60.69
418.051	83.69
418.274	72.69
418.497	72.69
418.72	78.69
418.943	84.69
419.166	79.69
419.389	80.69
419.611	66.69
419.834	86.69
420.057	81.69
420.28	84.69
420.503	91.69
420.726	91.69
420.948	85.69
421.171	77.69
421.394	88.69
421.617	85.69
421.839	70.69
422.062	75.69
422.285	89.69
422.507	77.69
422.73	70.69
422.953	82.69
423.175	80.69
423.398	76.69
423.621	69.69
423.843	71.69
424.066	82.69
424.288	73.69
424.511	83.69
424.733	79.69
424.956	80.69
425.178	85.69
425.401	74.69
425.623	84.69
425.846	80.69
426.068	82.69
426.291	91.69
426.513	85.69
426.735	75.69
426.958	75.69
427.18	85.69
427.402	94.69
427.625	80.69
427.847	88.69
428.069	84.69
428.292	79.69
428.514	70.69
428.736	80.69
428.958	90.69
429.181	93.69
429.403	85.69
429.625	87.69
429.847	91.69
430.069	85.69
430.292	93.69
430.514	80.69
430.736	80.69
430.958	81.69
431.18	72.69
431.402	81.69
431.624	93.69
431.846	76.69
432.068	63.69
432.29	65.69
432.512	85.69
432.734	73.69
432.956	81.69
433.178	84.69
433.4	85.69
433.622	78.69
433.844	85.69
434.066	81.69
434.287	101.69
434.509	71.69
434.731	77.69
434.953	77.69
435.175	62.69
435.397	85.69
435.618	90.69
435.84	82.69
436.062	75.69
436.284	73.69
436.505	88.69
436.727	95.69
436.949	75.69
437.17	73.69
437.392	100.69
437.614	85.69
437.835	77.69
438.057	78.69
438.278	82.69
438.5	89.69
438.721	93.69
438.943	89.69
439.165	91.69
439.386	93.69
439.608	85.69
439.829	84.69
440.05	86.69
440.272	80.69
440.493	86.69
440.715	84.69
440.936	68.69
441.158	72.69
441.379	85.69
441.6	80.69
441.822	84.69
442.043	84.69
442.264	74.69
442.486	77.69
442.707	86.69
442.928	87.69
443.149	89.69
443.371	82.69
443.592	81.69
443.813	79.69
444.034	71.69
444.255	85.69
444.476	89.69
444.698	93.69
444.919	90.69
445.14	172.69
445.361	139.69
445.582	89.69
445.803	75.69
446.024	67.69
446.245	87.69
446.466	92.69
446.687	75.69
446.908	80.69
447.129	76.69
447.35	83.69
447.571	84.69
447.792	75.69
448.013	79.69
448.234	72.69
448.455	80.69
448.675	89.69
448.896	78.69
449.117	75.69
449.338	68.69
449.559	83.69
449.779	87.69
450	81.69
450.221	100.69
450.442	89.69
450.662	81.69
450.883	80.69
451.104	87.69
451.324	83.69
451.545	83.69
451.766	73.69
451.986	74.69
452.207	85.69
452.428	88.69
452.648	92.69
452.869	81.69
453.089	75.69
453.31	87.69
453.53	78.69
453.751	81.69
453.971	89.69
454.192	76.69
454.412	83.69
454.633	76.69
454.853	77.69
455.073	90.69
455.294	89.69
455.514	81.69
455.734	83.69
455.955	85.69
456.175	86.69
456.395	78.69
456.616	80.69
456.836	87.69
457.056	78.69
457.276	90.69
457.497	68.69
457.717	68.69
457.937	86.69
458.157	90.69
458.377	88.69
458.598	83.69
458.818	76.69
459.038	75.69
459.258	71.69
459.478	78.69
459.698	81.69
459.918	76.69
460.138	80.69
460.358	80.69
460.578	73.69
460.798	89.69
461.018	73.69
461.238	72.69
461.458	78.69
461.678	81.69
461.898	70.69
462.118	79.69
462.338	79.69
462.558	93.69
462.777	62.69
462.997	88.69
463.217	79.69
463.437	91.69
463.657	93.69
463.876	74.69
464.096	81.69
464.316	87.69
464.536	84.69
464.755	65.69
464.975	83.69
465.195	92.69
465.414	93.69
465.634	81.69
465.854	84.69
466.073	81.69
466.293	89.69
466.512	85.69
466.732	90.69
466.951	78.69
467.171	64.69
467.391	75.69
467.61	93.69
467.829	84.69
468.049	86.69
468.268	81.69
468.488	88.69
468.707	73.69
468.927	92.69
469.146	79.69
469.365	73.69
469.585	95.69
469.804	90.69
470.023	86.69
470.243	77.69
470.462	84.69
470.681	83.69
470.901	89.69
471.12	77.69
471.339	80.69
471.558	90.69
471.777	78.69
471.997	94.69
472.216	84.69
472.435	85.69
472.654	81.69
472.873	79.69
473.092	75.69
473.311	78.69
473.53	73.69
473.749	71.69
473.968	88.69
474.187	87.69
474.406	83.69
474.625	77.69
474.844	92.69
475.063	81.69
475.282	80.69
475.501	79.69
475.72	81.69
475.939	69.69
476.158	79.69
476.377	83.69
476.596	91.69
476.814	73.69
477.033	54.69
477.252	85.69
477.471	79.69
477.69	78.69
477.908	84.69
478.127	75.69
478.346	68.69
478.564	77.69
478.783	75.69
479.002	70.69
479.22	77.69
479.439	84.69
479.658	87.69
479.876	82.69
480.095	75.69
480.313	80.69
480.532	90.69
480.751	79.69
480.969	69.69
481.188	81.69
481.406	81.69
481.624	91.69
481.843	76.69
482.061	81.69
482.28	87.69
482.498	78.69
482.717	58.69
482.935	76.69
483.153	79.69
483.372	88.69
483.59	81.69
483.808	85.69
484.027	93.69
484.245	85.69
484.463	84.69
484.681	93.69
484.9	73.69
485.118	79.69
485.336	80.69
485.554	81.69
485.772	76.69
485.99	87.69
486.209	71.69
486.427	78.69
486.645	86.69
486.863	87.69
487.081	75.69
487.299	90.69
487.517	78.69
487.735	86.69
487.953	91.69
488.171	102.69
488.389	75.69
488.607	73.69
488.825	79.69
489.043	62.69
489.261	92.69
489.479	88.69
489.696	83.69
489.914	71.69
490.132	91.69
490.35	95.69
490.568	84.69
490.786	77.69
491.003	93.69
491.221	85.69
491.439	87.69
491.657	86.69
491.874	101.69
492.092	88.69
492.31	75.69
492.527	97.69
492.745	83.69
492.963	75.69
493.18	81.69
493.398	95.69
493.615	89.69
493.833	83.69
494.05	85.69
494.268	87.69
494.485	104.69
494.703	92.69
494.92	91.69
495.138	99.69
495.355	86.69
495.573	80.69
495.79	94.69
496.008	76.69
496.225	85.69
496.442	85.69
496.66	88.69
496.877	90.69
497.094	78.69
497.312	83.69
497.529	83.69
497.746	84.69
497.963	97.69
498.181	72.69
498.398	87.69
498.615	78.69
498.832	76.69
499.049	69.69
499.267	77.69
499.484	89.69
499.701	83.69
499.918	79.69
500.135	73.69
500.352	80.69
500.569	100.69
500.786	83.69
501.003	75.69
501.22	85.69
501.437	80.69
501.654	75.69
501.871	79.69
502.088	89.69
502.305	93.69
502.522	80.69
502.739	93.69
502.956	78.69
503.172	74.69
503.389	76.69
503.606	85.69
503.823	90.69
504.04	80.69
504.256	85.69
504.473	78.69
504.69	71.69
504.907	84.69
505.123	80.69
505.34	78.69
505.557	76.69
505.773	87.69
505.99	85.69
506.207	82.69
506.423	86.69
506.64	86.69
506.856	90.69
507.073	86.69
507.289	97.69
507.506	85.69
507.722	80.69
507.939	79.69
508.155	68.69
508.372	87.69
508.588	72.69
508.805	82.69
509.021	80.69
509.238	82.69
509.454	61.69
509.67	89.69
509.887	86.69
510.103	72.69
510.319	92.69
510.536	77.69
510.752	92.69
510.968	89.69
511.184	80.69
511.401	83.69
511.617	87.69
511.833	78.69
512.049	86.69
512.265	78.69
512.481	77.69
512.698	94.69
512.914	81.69
513.13	76.69
513.346	78.69
513.562	69.69
513.778	73.69
513.994	75.69
514.21	87.69
514.426	92.69
514.642	87.69
514.858	83.69
515.074	81.69
515.29	76.69
515.506	76.69
515.721	65.69
515.937	77.69
516.153	81.69
516.369	79.69
516.585	81.69
516.801	82.69
517.016	91.69
517.232	69.69
517.448	80.69
517.664	75.69
517.879	84.69
518.095	86.69
518.311	97.69
518.527	78.69
518.742	94.69
518.958	66.69
519.173	83.69
519.389	73.69
519.605	87.69
519.82	92.69
520.036	80.69
520.251	78.69
