Data from BG_HRD10591_040.txt Node
Date: Fri May 16 15:14:42 EDT 2025
User: Yrep
Spectrometer: HR+D1059
Trigger mode: 1
Integration Time (sec): 1.000000E-1
Scans to average: 1
Electric dark correction enabled: true
Nonlinearity correction enabled: false
Boxcar width: 0
XAxis mode: Wavelengths
Number of Pixels in Spectrum: 2048
>>>>>Begin Spectral Data<<<<<
223.165	-20.19
223.4	-20.19
223.635	-20.19
223.869	-32.19
224.104	-13.19
224.338	-3.19
224.573	-6.19
224.808	-10.19
225.042	-4.19
225.277	-1.19
225.511	-9.19
225.746	-11.19
225.98	6.81
226.215	10.81
226.449	12.81
226.683	26.81
226.918	27.81
227.152	25.81
227.387	47.81
227.621	40.81
227.856	46.81
228.09	45.81
228.324	45.81
228.559	53.81
228.793	57.81
229.027	68.81
229.262	66.81
229.496	57.81
229.73	52.81
229.964	76.81
230.199	71.81
230.433	59.81
230.667	75.81
230.901	78.81
231.136	74.81
231.37	67.81
231.604	80.81
231.838	69.81
232.072	79.81
232.306	67.81
232.541	68.81
232.775	83.81
233.009	82.81
233.243	84.81
233.477	76.81
233.711	76.81
233.945	87.81
234.179	79.81
234.413	81.81
234.647	78.81
234.881	87.81
235.115	74.81
235.349	79.81
235.583	79.81
235.817	83.81
236.051	76.81
236.285	74.81
236.519	72.81
236.753	85.81
236.987	48.81
237.221	60.81
237.455	70.81
237.689	83.81
237.922	68.81
238.156	64.81
238.39	72.81
238.624	77.81
238.858	69.81
239.091	72.81
239.325	64.81
239.559	74.81
239.793	76.81
240.027	68.81
240.26	76.81
240.494	68.81
240.728	72.81
240.961	71.81
241.195	74.81
241.429	78.81
241.662	81.81
241.896	76.81
242.13	82.81
242.363	86.81
242.597	71.81
242.83	75.81
243.064	75.81
243.298	80.81
243.531	75.81
243.765	71.81
243.998	73.81
244.232	91.81
244.465	87.81
244.699	87.81
244.932	73.81
245.166	70.81
245.399	71.81
245.633	96.81
245.866	72.81
246.099	85.81
246.333	72.81
246.566	72.81
246.8	75.81
247.033	80.81
247.266	75.81
247.5	71.81
247.733	88.81
247.966	83.81
248.2	93.81
248.433	64.81
248.666	68.81
248.899	82.81
249.133	84.81
249.366	78.81
249.599	71.81
249.832	81.81
250.066	73.81
250.299	84.81
250.532	75.81
250.765	82.81
250.998	81.81
251.231	78.81
251.465	76.81
251.698	82.81
251.931	74.81
252.164	58.81
252.397	78.81
252.63	91.81
252.863	74.81
253.096	77.81
253.329	74.81
253.562	68.81
253.795	74.81
254.028	78.81
254.261	77.81
254.494	68.81
254.727	84.81
254.96	87.81
255.193	77.81
255.426	83.81
255.659	85.81
255.892	91.81
256.124	83.81
256.357	91.81
256.59	84.81
256.823	72.81
257.056	72.81
257.289	75.81
257.521	78.81
257.754	71.81
257.987	68.81
258.22	82.81
258.452	78.81
258.685	86.81
258.918	79.81
259.151	70.81
259.383	85.81
259.616	89.81
259.849	78.81
260.081	78.81
260.314	84.81
260.547	90.81
260.779	91.81
261.012	75.81
261.244	76.81
261.477	80.81
261.71	99.81
261.942	88.81
262.175	88.81
262.407	88.81
262.64	87.81
262.872	72.81
263.105	86.81
263.337	87.81
263.57	69.81
263.802	88.81
264.035	80.81
264.267	91.81
264.499	86.81
264.732	87.81
264.964	82.81
265.197	80.81
265.429	78.81
265.661	67.81
265.894	80.81
266.126	89.81
266.358	78.81
266.591	79.81
266.823	90.81
267.055	80.81
267.287	75.81
267.52	80.81
267.752	83.81
267.984	76.81
268.216	66.81
268.448	92.81
268.681	78.81
268.913	78.81
269.145	87.81
269.377	74.81
269.609	83.81
269.841	84.81
270.073	75.81
270.306	79.81
270.538	74.81
270.77	96.81
271.002	76.81
271.234	90.81
271.466	90.81
271.698	79.81
271.93	90.81
272.162	85.81
272.394	84.81
272.626	74.81
272.858	78.81
273.09	67.81
273.322	83.81
273.553	78.81
273.785	82.81
274.017	100.81
274.249	92.81
274.481	80.81
274.713	76.81
274.945	96.81
275.176	87.81
275.408	93.81
275.64	75.81
275.872	84.81
276.104	82.81
276.335	80.81
276.567	84.81
276.799	99.81
277.031	75.81
277.262	76.81
277.494	65.81
277.726	95.81
277.957	70.81
278.189	90.81
278.421	80.81
278.652	91.81
278.884	80.81
279.115	76.81
279.347	93.81
279.579	86.81
279.81	84.81
280.042	83.81
280.273	80.81
280.505	77.81
280.736	83.81
280.968	87.81
281.199	84.81
281.431	81.81
281.662	66.81
281.894	83.81
282.125	94.81
282.356	79.81
282.588	82.81
282.819	89.81
283.051	78.81
283.282	92.81
283.513	78.81
283.745	98.81
283.976	94.81
284.207	72.81
284.439	77.81
284.67	99.81
284.901	94.81
285.132	81.81
285.364	85.81
285.595	77.81
285.826	88.81
286.057	106.81
286.288	81.81
286.52	98.81
286.751	68.81
286.982	104.81
287.213	78.81
287.444	75.81
287.675	83.81
287.906	97.81
288.138	75.81
288.369	79.81
288.6	82.81
288.831	87.81
289.062	71.81
289.293	74.81
289.524	79.81
289.755	87.81
289.986	72.81
290.217	86.81
290.448	84.81
290.679	78.81
290.91	91.81
291.141	77.81
291.371	91.81
291.602	88.81
291.833	80.81
292.064	78.81
292.295	85.81
292.526	71.81
292.757	89.81
292.987	85.81
293.218	85.81
293.449	84.81
293.68	73.81
293.91	81.81
294.141	64.81
294.372	67.81
294.603	100.81
294.833	83.81
295.064	68.81
295.295	74.81
295.525	90.81
295.756	88.81
295.987	88.81
296.217	78.81
296.448	84.81
296.679	77.81
296.909	100.81
297.14	82.81
297.37	64.81
297.601	87.81
297.831	82.81
298.062	84.81
298.292	76.81
298.523	75.81
298.753	79.81
298.984	84.81
299.214	84.81
299.445	91.81
299.675	87.81
299.905	98.81
300.136	90.81
300.366	70.81
300.597	80.81
300.827	76.81
301.057	98.81
301.288	70.81
301.518	79.81
301.748	81.81
301.979	88.81
302.209	72.81
302.439	77.81
302.669	72.81
302.9	89.81
303.13	74.81
303.36	88.81
303.59	86.81
303.82	74.81
304.051	80.81
304.281	82.81
304.511	82.81
304.741	90.81
304.971	87.81
305.201	86.81
305.431	82.81
305.661	94.81
305.891	77.81
306.121	82.81
306.352	91.81
306.582	88.81
306.812	86.81
307.042	91.81
307.272	75.81
307.502	86.81
307.731	86.81
307.961	85.81
308.191	84.81
308.421	82.81
308.651	74.81
308.881	72.81
309.111	85.81
309.341	94.81
309.571	86.81
309.8	77.81
310.03	96.81
310.26	91.81
310.49	87.81
310.72	77.81
310.949	76.81
311.179	84.81
311.409	81.81
311.639	83.81
311.868	71.81
312.098	86.81
312.328	98.81
312.557	102.81
312.787	78.81
313.017	86.81
313.246	82.81
313.476	68.81
313.706	83.81
313.935	84.81
314.165	102.81
314.394	71.81
314.624	79.81
314.853	79.81
315.083	78.81
315.312	68.81
315.542	88.81
315.771	99.81
316.001	64.81
316.23	82.81
316.46	93.81
316.689	77.81
316.919	83.81
317.148	82.81
317.377	88.81
317.607	93.81
317.836	81.81
318.065	86.81
318.295	78.81
318.524	86.81
318.753	85.81
318.983	101.81
319.212	86.81
319.441	73.81
319.67	75.81
319.9	74.81
320.129	89.81
320.358	78.81
320.587	81.81
320.816	95.81
321.046	88.81
321.275	73.81
321.504	82.81
321.733	77.81
321.962	74.81
322.191	102.81
322.42	90.81
322.649	84.81
322.878	84.81
323.108	81.81
323.337	94.81
323.566	85.81
323.795	94.81
324.024	80.81
324.253	99.81
324.482	68.81
324.71	80.81
324.939	85.81
325.168	89.81
325.397	75.81
325.626	70.81
325.855	79.81
326.084	66.81
326.313	88.81
326.542	79.81
326.77	85.81
326.999	95.81
327.228	77.81
327.457	78.81
327.686	90.81
327.914	92.81
328.143	78.81
328.372	74.81
328.6	70.81
328.829	73.81
329.058	84.81
329.287	91.81
329.515	102.81
329.744	87.81
329.972	78.81
330.201	80.81
330.43	88.81
330.658	87.81
330.887	90.81
331.115	87.81
331.344	81.81
331.572	75.81
331.801	90.81
332.03	78.81
332.258	78.81
332.486	93.81
332.715	87.81
332.943	79.81
333.172	76.81
333.4	66.81
333.629	77.81
333.857	82.81
334.085	95.81
334.314	79.81
334.542	84.81
334.771	80.81
334.999	90.81
335.227	83.81
335.455	92.81
335.684	84.81
335.912	85.81
336.14	87.81
336.369	83.81
336.597	76.81
336.825	82.81
337.053	84.81
337.281	90.81
337.51	84.81
337.738	92.81
337.966	81.81
338.194	91.81
338.422	84.81
338.65	83.81
338.878	92.81
339.106	76.81
339.334	89.81
339.562	82.81
339.79	88.81
340.018	70.81
340.246	91.81
340.474	82.81
340.702	79.81
340.93	80.81
341.158	83.81
341.386	97.81
341.614	84.81
341.842	85.81
342.07	91.81
342.298	92.81
342.526	79.81
342.754	80.81
342.981	90.81
343.209	76.81
343.437	87.81
343.665	78.81
343.893	77.81
344.12	72.81
344.348	89.81
344.576	76.81
344.804	82.81
345.031	88.81
345.259	74.81
345.487	84.81
345.714	74.81
345.942	72.81
346.17	82.81
346.397	85.81
346.625	69.81
346.853	96.81
347.08	93.81
347.308	83.81
347.535	86.81
347.763	81.81
347.99	85.81
348.218	83.81
348.445	78.81
348.673	79.81
348.9	87.81
349.128	83.81
349.355	71.81
349.583	90.81
349.81	81.81
350.037	83.81
350.265	92.81
350.492	82.81
350.72	75.81
350.947	91.81
351.174	81.81
351.402	82.81
351.629	75.81
351.856	66.81
352.083	74.81
352.311	76.81
352.538	83.81
352.765	66.81
352.992	80.81
353.22	70.81
353.447	77.81
353.674	88.81
353.901	94.81
354.128	84.81
354.355	104.81
354.583	80.81
354.81	88.81
355.037	90.81
355.264	84.81
355.491	79.81
355.718	83.81
355.945	75.81
356.172	83.81
356.399	68.81
356.626	88.81
356.853	73.81
357.08	86.81
357.307	78.81
357.534	88.81
357.761	75.81
357.988	100.81
358.215	76.81
358.441	84.81
358.668	78.81
358.895	79.81
359.122	75.81
359.349	56.81
359.576	79.81
359.802	84.81
360.029	75.81
360.256	75.81
360.483	82.81
360.709	90.81
360.936	90.81
361.163	79.81
361.39	75.81
361.616	74.81
361.843	78.81
362.07	75.81
362.296	72.81
362.523	83.81
362.749	77.81
362.976	78.81
363.203	68.81
363.429	89.81
363.656	73.81
363.882	82.81
364.109	87.81
364.335	64.81
364.562	80.81
364.788	83.81
365.015	85.81
365.241	78.81
365.468	84.81
365.694	88.81
365.92	83.81
366.147	74.81
366.373	83.81
366.599	80.81
366.826	76.81
367.052	88.81
367.278	83.81
367.505	83.81
367.731	75.81
367.957	88.81
368.184	76.81
368.41	76.81
368.636	78.81
368.862	84.81
369.089	96.81
369.315	85.81
369.541	96.81
369.767	99.81
369.993	70.81
370.219	80.81
370.445	80.81
370.672	83.81
370.898	91.81
371.124	84.81
371.35	73.81
371.576	74.81
371.802	85.81
372.028	84.81
372.254	86.81
372.48	92.81
372.706	75.81
372.932	90.81
373.158	75.81
373.384	96.81
373.61	81.81
373.835	78.81
374.061	94.81
374.287	87.81
374.513	78.81
374.739	90.81
374.965	71.81
375.191	86.81
375.416	78.81
375.642	91.81
375.868	76.81
376.094	80.81
376.319	98.81
376.545	68.81
376.771	84.81
376.997	83.81
377.222	84.81
377.448	79.81
377.674	82.81
377.899	82.81
378.125	77.81
378.35	79.81
378.576	85.81
378.802	94.81
379.027	65.81
379.253	78.81
379.478	78.81
379.704	72.81
379.929	79.81
380.155	83.81
380.38	77.81
380.606	89.81
380.831	85.81
381.057	95.81
381.282	103.81
381.507	93.81
381.733	95.81
381.958	86.81
382.184	86.81
382.409	71.81
382.634	82.81
382.86	70.81
383.085	74.81
383.31	88.81
383.535	75.81
383.761	94.81
383.986	74.81
384.211	70.81
384.436	78.81
384.662	84.81
384.887	86.81
385.112	75.81
385.337	84.81
385.562	82.81
385.787	84.81
386.013	81.81
386.238	79.81
386.463	75.81
386.688	101.81
386.913	84.81
387.138	76.81
387.363	78.81
387.588	67.81
387.813	78.81
388.038	79.81
388.263	72.81
388.488	100.81
388.713	83.81
388.938	66.81
389.163	82.81
389.387	90.81
389.612	78.81
389.837	87.81
390.062	81.81
390.287	94.81
390.512	80.81
390.736	79.81
390.961	75.81
391.186	83.81
391.411	85.81
391.636	72.81
391.86	70.81
392.085	75.81
392.31	83.81
392.534	83.81
392.759	87.81
392.984	89.81
393.208	62.81
393.433	71.81
393.658	88.81
393.882	74.81
394.107	76.81
394.331	75.81
394.556	69.81
394.78	71.81
395.005	83.81
395.229	83.81
395.454	79.81
395.678	82.81
395.903	87.81
396.127	90.81
396.352	76.81
396.576	87.81
396.801	84.81
397.025	78.81
397.249	78.81
397.474	76.81
397.698	72.81
397.922	78.81
398.147	84.81
398.371	98.81
398.595	79.81
398.82	79.81
399.044	73.81
399.268	79.81
399.492	80.81
399.717	80.81
399.941	79.81
400.165	62.81
400.389	89.81
400.613	86.81
400.837	73.81
401.062	63.81
401.286	59.81
401.51	86.81
401.734	76.81
401.958	85.81
402.182	78.81
402.406	90.81
402.63	92.81
402.854	89.81
403.078	78.81
403.302	78.81
403.526	85.81
403.75	65.81
403.974	82.81
404.198	76.81
404.422	75.81
404.645	83.81
404.869	87.81
405.093	72.81
405.317	86.81
405.541	82.81
405.765	86.81
405.988	94.81
406.212	99.81
406.436	78.81
406.66	74.81
406.883	83.81
407.107	85.81
407.331	74.81
407.555	81.81
407.778	72.81
408.002	77.81
408.226	85.81
408.449	99.81
408.673	82.81
408.896	91.81
409.12	82.81
409.344	80.81
409.567	74.81
409.791	78.81
410.014	84.81
410.238	86.81
410.461	83.81
410.685	76.81
410.908	87.81
411.132	72.81
411.355	75.81
411.578	89.81
411.802	75.81
412.025	65.81
412.249	70.81
412.472	84.81
412.695	70.81
412.919	79.81
413.142	78.81
413.365	67.81
413.589	82.81
413.812	82.81
414.035	80.81
414.258	78.81
414.482	85.81
414.705	83.81
414.928	77.81
415.151	83.81
415.374	79.81
415.597	91.81
415.821	71.81
416.044	86.81
416.267	91.81
416.49	83.81
416.713	87.81
416.936	68.81
417.159	82.81
417.382	81.81
417.605	68.81
417.828	79.81
418.051	76.81
418.274	74.81
418.497	87.81
418.72	70.81
418.943	73.81
419.166	75.81
419.389	90.81
419.611	83.81
419.834	72.81
420.057	86.81
420.28	84.81
420.503	82.81
420.726	72.81
420.948	88.81
421.171	89.81
421.394	56.81
421.617	92.81
421.839	79.81
422.062	78.81
422.285	67.81
422.507	77.81
422.73	82.81
422.953	79.81
423.175	74.81
423.398	84.81
423.621	87.81
423.843	86.81
424.066	77.81
424.288	76.81
424.511	76.81
424.733	83.81
424.956	83.81
425.178	75.81
425.401	79.81
425.623	72.81
425.846	74.81
426.068	72.81
426.291	85.81
426.513	76.81
426.735	79.81
426.958	80.81
427.18	72.81
427.402	75.81
427.625	64.81
427.847	71.81
428.069	82.81
428.292	86.81
428.514	79.81
428.736	71.81
428.958	74.81
429.181	85.81
429.403	76.81
429.625	78.81
429.847	82.81
430.069	72.81
430.292	88.81
430.514	79.81
430.736	68.81
430.958	75.81
431.18	80.81
431.402	70.81
431.624	74.81
431.846	83.81
432.068	64.81
432.29	89.81
432.512	91.81
432.734	79.81
432.956	77.81
433.178	80.81
433.4	82.81
433.622	61.81
433.844	92.81
434.066	76.81
434.287	81.81
434.509	82.81
434.731	62.81
434.953	75.81
435.175	64.81
435.397	79.81
435.618	83.81
435.84	88.81
436.062	85.81
436.284	78.81
436.505	81.81
436.727	83.81
436.949	87.81
437.17	73.81
437.392	78.81
437.614	72.81
437.835	68.81
438.057	74.81
438.278	76.81
438.5	87.81
438.721	78.81
438.943	61.81
439.165	68.81
439.386	82.81
439.608	74.81
439.829	99.81
440.05	79.81
440.272	88.81
440.493	83.81
440.715	70.81
440.936	86.81
441.158	72.81
441.379	79.81
441.6	86.81
441.822	79.81
442.043	85.81
442.264	83.81
442.486	82.81
442.707	87.81
442.928	53.81
443.149	87.81
443.371	60.81
443.592	63.81
443.813	83.81
444.034	68.81
444.255	74.81
444.476	92.81
444.698	68.81
444.919	73.81
445.14	165.81
445.361	121.81
445.582	76.81
445.803	86.81
446.024	78.81
446.245	85.81
446.466	80.81
446.687	76.81
446.908	84.81
447.129	79.81
447.35	73.81
447.571	77.81
447.792	73.81
448.013	71.81
448.234	72.81
448.455	68.81
448.675	67.81
448.896	70.81
449.117	91.81
449.338	70.81
449.559	90.81
449.779	85.81
450	77.81
450.221	89.81
450.442	74.81
450.662	80.81
450.883	74.81
451.104	81.81
451.324	74.81
451.545	80.81
451.766	85.81
451.986	79.81
452.207	84.81
452.428	82.81
452.648	84.81
452.869	93.81
453.089	79.81
453.31	79.81
453.53	87.81
453.751	87.81
453.971	76.81
454.192	83.81
454.412	69.81
454.633	93.81
454.853	77.81
455.073	80.81
455.294	78.81
455.514	75.81
455.734	71.81
455.955	86.81
456.175	91.81
456.395	82.81
456.616	73.81
456.836	78.81
457.056	79.81
457.276	78.81
457.497	73.81
457.717	91.81
457.937	88.81
458.157	74.81
458.377	77.81
458.598	80.81
458.818	77.81
459.038	83.81
459.258	76.81
459.478	85.81
459.698	78.81
459.918	83.81
460.138	67.81
460.358	70.81
460.578	76.81
460.798	72.81
461.018	78.81
461.238	76.81
461.458	98.81
461.678	61.81
461.898	78.81
462.118	87.81
462.338	74.81
462.558	71.81
462.777	91.81
462.997	75.81
463.217	76.81
463.437	79.81
463.657	82.81
463.876	75.81
464.096	78.81
464.316	76.81
464.536	84.81
464.755	77.81
464.975	82.81
465.195	75.81
465.414	82.81
465.634	77.81
465.854	77.81
466.073	77.81
466.293	87.81
466.512	71.81
466.732	75.81
466.951	88.81
467.171	86.81
467.391	85.81
467.61	92.81
467.829	90.81
468.049	85.81
468.268	80.81
468.488	82.81
468.707	66.81
468.927	78.81
469.146	74.81
469.365	79.81
469.585	86.81
469.804	78.81
470.023	78.81
470.243	81.81
470.462	78.81
470.681	88.81
470.901	80.81
471.12	90.81
471.339	95.81
471.558	77.81
471.777	77.81
471.997	87.81
472.216	70.81
472.435	70.81
472.654	62.81
472.873	73.81
473.092	81.81
473.311	79.81
473.53	81.81
473.749	82.81
473.968	90.81
474.187	76.81
474.406	90.81
474.625	81.81
474.844	86.81
475.063	91.81
475.282	77.81
475.501	76.81
475.72	80.81
475.939	76.81
476.158	78.81
476.377	77.81
476.596	79.81
476.814	87.81
477.033	79.81
477.252	82.81
477.471	79.81
477.69	82.81
477.908	78.81
478.127	72.81
478.346	79.81
478.564	84.81
478.783	71.81
479.002	77.81
479.22	85.81
479.439	80.81
479.658	76.81
479.876	77.81
480.095	62.81
480.313	72.81
480.532	81.81
480.751	85.81
480.969	89.81
481.188	74.81
481.406	72.81
481.624	77.81
481.843	87.81
482.061	75.81
482.28	84.81
482.498	82.81
482.717	65.81
482.935	77.81
483.153	74.81
483.372	86.81
483.59	68.81
483.808	63.81
484.027	82.81
484.245	104.81
484.463	63.81
484.681	88.81
484.9	77.81
485.118	98.81
485.336	85.81
485.554	73.81
485.772	80.81
485.99	73.81
486.209	86.81
486.427	82.81
486.645	92.81
486.863	70.81
487.081	95.81
487.299	87.81
487.517	79.81
487.735	88.81
487.953	90.81
488.171	89.81
488.389	83.81
488.607	82.81
488.825	78.81
489.043	78.81
489.261	70.81
489.479	76.81
489.696	91.81
489.914	75.81
490.132	84.81
490.35	86.81
490.568	78.81
490.786	87.81
491.003	78.81
491.221	65.81
491.439	80.81
491.657	95.81
491.874	83.81
492.092	77.81
492.31	79.81
492.527	87.81
492.745	75.81
492.963	84.81
493.18	84.81
493.398	94.81
493.615	77.81
493.833	76.81
494.05	98.81
494.268	98.81
494.485	90.81
494.703	78.81
494.92	83.81
495.138	83.81
495.355	80.81
495.573	94.81
495.79	78.81
496.008	87.81
496.225	76.81
496.442	79.81
496.66	91.81
496.877	86.81
497.094	80.81
497.312	88.81
497.529	75.81
497.746	83.81
497.963	89.81
498.181	89.81
498.398	75.81
498.615	68.81
498.832	86.81
499.049	92.81
499.267	85.81
499.484	80.81
499.701	80.81
499.918	78.81
500.135	93.81
500.352	79.81
500.569	75.81
500.786	86.81
501.003	72.81
501.22	79.81
501.437	86.81
501.654	99.81
501.871	70.81
502.088	78.81
502.305	76.81
502.522	75.81
502.739	100.81
502.956	72.81
503.172	95.81
503.389	77.81
503.606	86.81
503.823	103.81
504.04	93.81
504.256	100.81
504.473	82.81
504.69	85.81
504.907	77.81
505.123	82.81
505.34	76.81
505.557	89.81
505.773	90.81
505.99	86.81
506.207	82.81
506.423	75.81
506.64	75.81
506.856	91.81
507.073	76.81
507.289	92.81
507.506	76.81
507.722	68.81
507.939	84.81
508.155	81.81
508.372	80.81
508.588	93.81
508.805	81.81
509.021	84.81
509.238	72.81
509.454	74.81
509.67	85.81
509.887	77.81
510.103	82.81
510.319	79.81
510.536	76.81
510.752	69.81
510.968	82.81
511.184	87.81
511.401	76.81
511.617	66.81
511.833	73.81
512.049	83.81
512.265	90.81
512.481	93.81
512.698	85.81
512.914	79.81
513.13	72.81
513.346	87.81
513.562	69.81
513.778	88.81
513.994	90.81
514.21	69.81
514.426	69.81
514.642	83.81
514.858	83.81
515.074	87.81
515.29	80.81
515.506	89.81
515.721	89.81
515.937	93.81
516.153	85.81
516.369	96.81
516.585	70.81
516.801	66.81
517.016	89.81
517.232	72.81
517.448	83.81
517.664	83.81
517.879	83.81
518.095	85.81
518.311	87.81
518.527	99.81
518.742	84.81
518.958	74.81
519.173	86.81
519.389	78.81
519.605	75.81
519.82	75.81
520.036	67.81
