Data from BG_HRD10591_046.txt Node
Date: Fri May 16 15:14:45 EDT 2025
User: Yrep
Spectrometer: HR+D1059
Trigger mode: 1
Integration Time (sec): 1.000000E-1
Scans to average: 1
Electric dark correction enabled: true
Nonlinearity correction enabled: false
Boxcar width: 0
XAxis mode: Wavelengths
Number of Pixels in Spectrum: 2048
>>>>>Begin Spectral Data<<<<<
223.165	-8.94
223.4	-8.94
223.635	-8.94
223.869	-11.94
224.104	-17.94
224.338	-22.94
224.573	-15.94
224.808	-16.94
225.042	-9.94
225.277	-14.94
225.511	-5.94
225.746	9.06
225.98	6.06
226.215	36.06
226.449	19.06
226.683	11.06
226.918	22.06
227.152	22.06
227.387	39.06
227.621	40.06
227.856	55.06
228.09	60.06
228.324	49.06
228.559	56.06
228.793	56.06
229.027	62.06
229.262	78.06
229.496	69.06
229.73	74.06
229.964	89.06
230.199	78.06
230.433	78.06
230.667	90.06
230.901	74.06
231.136	91.06
231.37	71.06
231.604	89.06
231.838	81.06
232.072	80.06
232.306	77.06
232.541	78.06
232.775	82.06
233.009	66.06
233.243	94.06
233.477	89.06
233.711	82.06
233.945	90.06
234.179	78.06
234.413	78.06
234.647	65.06
234.881	82.06
235.115	72.06
235.349	78.06
235.583	99.06
235.817	66.06
236.051	54.06
236.285	88.06
236.519	75.06
236.753	65.06
236.987	79.06
237.221	71.06
237.455	79.06
237.689	68.06
237.922	75.06
238.156	79.06
238.39	76.06
238.624	80.06
238.858	68.06
239.091	79.06
239.325	77.06
239.559	84.06
239.793	74.06
240.027	89.06
240.26	75.06
240.494	79.06
240.728	82.06
240.961	79.06
241.195	68.06
241.429	91.06
241.662	78.06
241.896	76.06
242.13	73.06
242.363	74.06
242.597	75.06
242.83	84.06
243.064	55.06
243.298	69.06
243.531	77.06
243.765	68.06
243.998	79.06
244.232	69.06
244.465	94.06
244.699	79.06
244.932	80.06
245.166	81.06
245.399	84.06
245.633	85.06
245.866	87.06
246.099	83.06
246.333	80.06
246.566	86.06
246.8	78.06
247.033	90.06
247.266	73.06
247.5	73.06
247.733	75.06
247.966	88.06
248.2	86.06
248.433	72.06
248.666	78.06
248.899	78.06
249.133	69.06
249.366	83.06
249.599	74.06
249.832	85.06
250.066	87.06
250.299	68.06
250.532	86.06
250.765	83.06
250.998	79.06
251.231	79.06
251.465	84.06
251.698	79.06
251.931	75.06
252.164	83.06
252.397	90.06
252.63	87.06
252.863	77.06
253.096	78.06
253.329	79.06
253.562	72.06
253.795	84.06
254.028	79.06
254.261	66.06
254.494	68.06
254.727	81.06
254.96	92.06
255.193	84.06
255.426	83.06
255.659	72.06
255.892	92.06
256.124	75.06
256.357	84.06
256.59	83.06
256.823	77.06
257.056	73.06
257.289	71.06
257.521	82.06
257.754	69.06
257.987	83.06
258.22	69.06
258.452	85.06
258.685	85.06
258.918	81.06
259.151	80.06
259.383	89.06
259.616	91.06
259.849	93.06
260.081	87.06
260.314	79.06
260.547	80.06
260.779	84.06
261.012	69.06
261.244	92.06
261.477	75.06
261.71	79.06
261.942	77.06
262.175	88.06
262.407	91.06
262.64	85.06
262.872	89.06
263.105	87.06
263.337	96.06
263.57	78.06
263.802	93.06
264.035	77.06
264.267	79.06
264.499	92.06
264.732	95.06
264.964	74.06
265.197	91.06
265.429	92.06
265.661	71.06
265.894	88.06
266.126	87.06
266.358	80.06
266.591	87.06
266.823	88.06
267.055	68.06
267.287	84.06
267.52	70.06
267.752	89.06
267.984	75.06
268.216	79.06
268.448	91.06
268.681	84.06
268.913	76.06
269.145	84.06
269.377	84.06
269.609	96.06
269.841	83.06
270.073	77.06
270.306	81.06
270.538	86.06
270.77	79.06
271.002	87.06
271.234	92.06
271.466	93.06
271.698	84.06
271.93	95.06
272.162	84.06
272.394	80.06
272.626	71.06
272.858	65.06
273.09	95.06
273.322	75.06
273.553	93.06
273.785	83.06
274.017	76.06
274.249	88.06
274.481	83.06
274.713	75.06
274.945	87.06
275.176	85.06
275.408	85.06
275.64	76.06
275.872	74.06
276.104	95.06
276.335	92.06
276.567	82.06
276.799	90.06
277.031	81.06
277.262	84.06
277.494	79.06
277.726	97.06
277.957	82.06
278.189	82.06
278.421	91.06
278.652	84.06
278.884	80.06
279.115	90.06
279.347	99.06
279.579	77.06
279.81	87.06
280.042	89.06
280.273	76.06
280.505	83.06
280.736	92.06
280.968	85.06
281.199	85.06
281.431	93.06
281.662	89.06
281.894	94.06
282.125	73.06
282.356	92.06
282.588	105.06
282.819	83.06
283.051	93.06
283.282	104.06
283.513	105.06
283.745	94.06
283.976	73.06
284.207	91.06
284.439	83.06
284.67	81.06
284.901	78.06
285.132	76.06
285.364	81.06
285.595	74.06
285.826	88.06
286.057	76.06
286.288	83.06
286.52	86.06
286.751	83.06
286.982	79.06
287.213	80.06
287.444	105.06
287.675	81.06
287.906	99.06
288.138	91.06
288.369	84.06
288.6	80.06
288.831	77.06
289.062	87.06
289.293	90.06
289.524	87.06
289.755	92.06
289.986	80.06
290.217	76.06
290.448	85.06
290.679	85.06
290.91	96.06
291.141	94.06
291.371	84.06
291.602	94.06
291.833	77.06
292.064	78.06
292.295	79.06
292.526	95.06
292.757	75.06
292.987	94.06
293.218	86.06
293.449	78.06
293.68	80.06
293.91	102.06
294.141	93.06
294.372	86.06
294.603	78.06
294.833	80.06
295.064	76.06
295.295	88.06
295.525	83.06
295.756	79.06
295.987	89.06
296.217	83.06
296.448	81.06
296.679	88.06
296.909	77.06
297.14	84.06
297.37	99.06
297.601	85.06
297.831	85.06
298.062	87.06
298.292	92.06
298.523	93.06
298.753	94.06
298.984	77.06
299.214	106.06
299.445	82.06
299.675	79.06
299.905	97.06
300.136	80.06
300.366	71.06
300.597	102.06
300.827	107.06
301.057	86.06
301.288	91.06
301.518	80.06
301.748	83.06
301.979	81.06
302.209	85.06
302.439	88.06
302.669	76.06
302.9	82.06
303.13	87.06
303.36	86.06
303.59	91.06
303.82	97.06
304.051	87.06
304.281	86.06
304.511	87.06
304.741	75.06
304.971	88.06
305.201	83.06
305.431	86.06
305.661	80.06
305.891	81.06
306.121	76.06
306.352	83.06
306.582	89.06
306.812	83.06
307.042	92.06
307.272	89.06
307.502	85.06
307.731	93.06
307.961	102.06
308.191	91.06
308.421	99.06
308.651	90.06
308.881	94.06
309.111	77.06
309.341	81.06
309.571	103.06
309.8	73.06
310.03	94.06
310.26	83.06
310.49	91.06
310.72	86.06
310.949	77.06
311.179	99.06
311.409	77.06
311.639	93.06
311.868	97.06
312.098	83.06
312.328	79.06
312.557	81.06
312.787	78.06
313.017	92.06
313.246	83.06
313.476	92.06
313.706	84.06
313.935	100.06
314.165	93.06
314.394	77.06
314.624	91.06
314.853	102.06
315.083	77.06
315.312	89.06
315.542	90.06
315.771	92.06
316.001	85.06
316.23	88.06
316.46	99.06
316.689	95.06
316.919	81.06
317.148	92.06
317.377	92.06
317.607	95.06
317.836	100.06
318.065	77.06
318.295	87.06
318.524	88.06
318.753	77.06
318.983	84.06
319.212	96.06
319.441	97.06
319.67	91.06
319.9	91.06
320.129	82.06
320.358	82.06
320.587	76.06
320.816	88.06
321.046	95.06
321.275	84.06
321.504	95.06
321.733	83.06
321.962	94.06
322.191	102.06
322.42	77.06
322.649	90.06
322.878	100.06
323.108	88.06
323.337	79.06
323.566	101.06
323.795	87.06
324.024	80.06
324.253	87.06
324.482	88.06
324.71	95.06
324.939	88.06
325.168	96.06
325.397	83.06
325.626	103.06
325.855	89.06
326.084	82.06
326.313	82.06
326.542	96.06
326.77	83.06
326.999	95.06
327.228	92.06
327.457	85.06
327.686	92.06
327.914	85.06
328.143	89.06
328.372	90.06
328.6	90.06
328.829	70.06
329.058	85.06
329.287	90.06
329.515	80.06
329.744	95.06
329.972	95.06
330.201	97.06
330.43	99.06
330.658	94.06
330.887	86.06
331.115	91.06
331.344	81.06
331.572	94.06
331.801	99.06
332.03	94.06
332.258	81.06
332.486	81.06
332.715	78.06
332.943	89.06
333.172	96.06
333.4	91.06
333.629	91.06
333.857	87.06
334.085	94.06
334.314	99.06
334.542	90.06
334.771	98.06
334.999	85.06
335.227	91.06
335.455	97.06
335.684	89.06
335.912	87.06
336.14	93.06
336.369	99.06
336.597	90.06
336.825	106.06
337.053	85.06
337.281	98.06
337.51	91.06
337.738	83.06
337.966	84.06
338.194	85.06
338.422	76.06
338.65	84.06
338.878	83.06
339.106	90.06
339.334	95.06
339.562	82.06
339.79	79.06
340.018	90.06
340.246	91.06
340.474	81.06
340.702	99.06
340.93	88.06
341.158	94.06
341.386	87.06
341.614	74.06
341.842	77.06
342.07	86.06
342.298	95.06
342.526	94.06
342.754	102.06
342.981	89.06
343.209	81.06
343.437	87.06
343.665	93.06
343.893	83.06
344.12	89.06
344.348	88.06
344.576	80.06
344.804	92.06
345.031	98.06
345.259	79.06
345.487	92.06
345.714	92.06
345.942	95.06
346.17	89.06
346.397	96.06
346.625	88.06
346.853	85.06
347.08	104.06
347.308	83.06
347.535	83.06
347.763	89.06
347.99	92.06
348.218	96.06
348.445	100.06
348.673	83.06
348.9	95.06
349.128	85.06
349.355	79.06
349.583	80.06
349.81	95.06
350.037	89.06
350.265	95.06
350.492	95.06
350.72	84.06
350.947	84.06
351.174	92.06
351.402	102.06
351.629	88.06
351.856	80.06
352.083	78.06
352.311	92.06
352.538	79.06
352.765	92.06
352.992	92.06
353.22	68.06
353.447	79.06
353.674	91.06
353.901	107.06
354.128	101.06
354.355	89.06
354.583	100.06
354.81	76.06
355.037	106.06
355.264	88.06
355.491	93.06
355.718	67.06
355.945	77.06
356.172	85.06
356.399	97.06
356.626	88.06
356.853	87.06
357.08	95.06
357.307	71.06
357.534	83.06
357.761	84.06
357.988	92.06
358.215	82.06
358.441	84.06
358.668	103.06
358.895	97.06
359.122	89.06
359.349	74.06
359.576	86.06
359.802	75.06
360.029	96.06
360.256	92.06
360.483	82.06
360.709	93.06
360.936	89.06
361.163	96.06
361.39	94.06
361.616	77.06
361.843	107.06
362.07	96.06
362.296	96.06
362.523	88.06
362.749	79.06
362.976	88.06
363.203	86.06
363.429	85.06
363.656	90.06
363.882	79.06
364.109	90.06
364.335	84.06
364.562	73.06
364.788	89.06
365.015	90.06
365.241	85.06
365.468	75.06
365.694	91.06
365.92	76.06
366.147	89.06
366.373	94.06
366.599	82.06
366.826	88.06
367.052	88.06
367.278	83.06
367.505	91.06
367.731	74.06
367.957	80.06
368.184	79.06
368.41	96.06
368.636	83.06
368.862	76.06
369.089	98.06
369.315	83.06
369.541	94.06
369.767	91.06
369.993	88.06
370.219	75.06
370.445	80.06
370.672	87.06
370.898	90.06
371.124	93.06
371.35	93.06
371.576	87.06
371.802	79.06
372.028	84.06
372.254	90.06
372.48	85.06
372.706	80.06
372.932	95.06
373.158	76.06
373.384	80.06
373.61	77.06
373.835	79.06
374.061	89.06
374.287	83.06
374.513	81.06
374.739	96.06
374.965	90.06
375.191	90.06
375.416	91.06
375.642	93.06
375.868	83.06
376.094	81.06
376.319	89.06
376.545	82.06
376.771	105.06
376.997	91.06
377.222	87.06
377.448	95.06
377.674	95.06
377.899	79.06
378.125	81.06
378.35	86.06
378.576	97.06
378.802	87.06
379.027	90.06
379.253	92.06
379.478	85.06
379.704	96.06
379.929	69.06
380.155	78.06
380.38	90.06
380.606	69.06
380.831	87.06
381.057	97.06
381.282	82.06
381.507	97.06
381.733	84.06
381.958	88.06
382.184	92.06
382.409	78.06
382.634	100.06
382.86	102.06
383.085	93.06
383.31	86.06
383.535	90.06
383.761	87.06
383.986	89.06
384.211	73.06
384.436	80.06
384.662	92.06
384.887	90.06
385.112	85.06
385.337	87.06
385.562	76.06
385.787	85.06
386.013	101.06
386.238	101.06
386.463	94.06
386.688	87.06
386.913	80.06
387.138	86.06
387.363	86.06
387.588	99.06
387.813	96.06
388.038	93.06
388.263	79.06
388.488	101.06
388.713	89.06
388.938	92.06
389.163	85.06
389.387	93.06
389.612	95.06
389.837	80.06
390.062	87.06
390.287	93.06
390.512	92.06
390.736	81.06
390.961	107.06
391.186	78.06
391.411	93.06
391.636	71.06
391.86	79.06
392.085	79.06
392.31	90.06
392.534	96.06
392.759	91.06
392.984	88.06
393.208	100.06
393.433	93.06
393.658	81.06
393.882	79.06
394.107	83.06
394.331	85.06
394.556	85.06
394.78	94.06
395.005	81.06
395.229	87.06
395.454	92.06
395.678	97.06
395.903	93.06
396.127	99.06
396.352	93.06
396.576	84.06
396.801	90.06
397.025	99.06
397.249	91.06
397.474	84.06
397.698	85.06
397.922	83.06
398.147	87.06
398.371	70.06
398.595	78.06
398.82	99.06
399.044	91.06
399.268	89.06
399.492	96.06
399.717	101.06
399.941	86.06
400.165	92.06
400.389	93.06
400.613	87.06
400.837	75.06
401.062	101.06
401.286	93.06
401.51	96.06
401.734	87.06
401.958	105.06
402.182	89.06
402.406	100.06
402.63	94.06
402.854	83.06
403.078	96.06
403.302	89.06
403.526	107.06
403.75	103.06
403.974	108.06
404.198	87.06
404.422	87.06
404.645	91.06
404.869	86.06
405.093	82.06
405.317	100.06
405.541	90.06
405.765	84.06
405.988	99.06
406.212	97.06
406.436	90.06
406.66	86.06
406.883	101.06
407.107	109.06
407.331	93.06
407.555	83.06
407.778	91.06
408.002	81.06
408.226	86.06
408.449	77.06
408.673	75.06
408.896	91.06
409.12	97.06
409.344	82.06
409.567	86.06
409.791	88.06
410.014	85.06
410.238	99.06
410.461	79.06
410.685	85.06
410.908	87.06
411.132	86.06
411.355	87.06
411.578	94.06
411.802	76.06
412.025	94.06
412.249	101.06
412.472	92.06
412.695	90.06
412.919	101.06
413.142	117.06
413.365	108.06
413.589	88.06
413.812	71.06
414.035	73.06
414.258	99.06
414.482	99.06
414.705	86.06
414.928	95.06
415.151	85.06
415.374	75.06
415.597	89.06
415.821	91.06
416.044	97.06
416.267	86.06
416.49	86.06
416.713	89.06
416.936	85.06
417.159	96.06
417.382	99.06
417.605	89.06
417.828	95.06
418.051	96.06
418.274	96.06
418.497	81.06
418.72	99.06
418.943	85.06
419.166	100.06
419.389	80.06
419.611	85.06
419.834	80.06
420.057	72.06
420.28	101.06
420.503	101.06
420.726	86.06
420.948	83.06
421.171	108.06
421.394	101.06
421.617	88.06
421.839	80.06
422.062	92.06
422.285	94.06
422.507	82.06
422.73	83.06
422.953	96.06
423.175	74.06
423.398	87.06
423.621	74.06
423.843	90.06
424.066	94.06
424.288	78.06
424.511	100.06
424.733	93.06
424.956	85.06
425.178	97.06
425.401	85.06
425.623	95.06
425.846	97.06
426.068	97.06
426.291	88.06
426.513	88.06
426.735	90.06
426.958	99.06
427.18	90.06
427.402	84.06
427.625	72.06
427.847	75.06
428.069	87.06
428.292	90.06
428.514	105.06
428.736	89.06
428.958	88.06
429.181	96.06
429.403	97.06
429.625	86.06
429.847	90.06
430.069	95.06
430.292	104.06
430.514	88.06
430.736	89.06
430.958	94.06
431.18	92.06
431.402	93.06
431.624	80.06
431.846	96.06
432.068	71.06
432.29	81.06
432.512	96.06
432.734	98.06
432.956	87.06
433.178	101.06
433.4	92.06
433.622	103.06
433.844	80.06
434.066	81.06
434.287	94.06
434.509	76.06
434.731	68.06
434.953	94.06
435.175	88.06
435.397	96.06
435.618	76.06
435.84	102.06
436.062	91.06
436.284	83.06
436.505	81.06
436.727	96.06
436.949	86.06
437.17	77.06
437.392	96.06
437.614	99.06
437.835	87.06
438.057	101.06
438.278	101.06
438.5	90.06
438.721	101.06
438.943	105.06
439.165	75.06
439.386	88.06
439.608	83.06
439.829	94.06
440.05	89.06
440.272	92.06
440.493	87.06
440.715	91.06
440.936	83.06
441.158	105.06
441.379	83.06
441.6	105.06
441.822	87.06
442.043	88.06
442.264	98.06
442.486	63.06
442.707	92.06
442.928	81.06
443.149	89.06
443.371	104.06
443.592	86.06
443.813	89.06
444.034	92.06
444.255	91.06
444.476	80.06
444.698	80.06
444.919	78.06
445.14	169.06
445.361	120.06
445.582	94.06
445.803	87.06
446.024	90.06
446.245	88.06
446.466	83.06
446.687	86.06
446.908	86.06
447.129	97.06
447.35	101.06
447.571	82.06
447.792	79.06
448.013	79.06
448.234	93.06
448.455	87.06
448.675	87.06
448.896	85.06
449.117	89.06
449.338	104.06
449.559	89.06
449.779	87.06
450	93.06
450.221	105.06
450.442	97.06
450.662	94.06
450.883	81.06
451.104	91.06
451.324	78.06
451.545	85.06
451.766	95.06
451.986	84.06
452.207	79.06
452.428	90.06
452.648	95.06
452.869	91.06
453.089	82.06
453.31	94.06
453.53	94.06
453.751	95.06
453.971	92.06
454.192	105.06
454.412	76.06
454.633	88.06
454.853	75.06
455.073	74.06
455.294	94.06
455.514	86.06
455.734	96.06
455.955	107.06
456.175	84.06
456.395	88.06
456.616	89.06
456.836	105.06
457.056	87.06
457.276	70.06
457.497	75.06
457.717	90.06
457.937	83.06
458.157	74.06
458.377	76.06
458.598	72.06
458.818	84.06
459.038	77.06
459.258	78.06
459.478	88.06
459.698	90.06
459.918	94.06
460.138	102.06
460.358	92.06
460.578	98.06
460.798	94.06
461.018	91.06
461.238	90.06
461.458	86.06
461.678	91.06
461.898	93.06
462.118	107.06
462.338	91.06
462.558	107.06
462.777	97.06
462.997	84.06
463.217	95.06
463.437	103.06
463.657	80.06
463.876	87.06
464.096	103.06
464.316	103.06
464.536	83.06
464.755	92.06
464.975	72.06
465.195	87.06
465.414	81.06
465.634	99.06
465.854	81.06
466.073	94.06
466.293	101.06
466.512	83.06
466.732	86.06
466.951	88.06
467.171	89.06
467.391	80.06
467.61	86.06
467.829	80.06
468.049	79.06
468.268	71.06
468.488	88.06
468.707	100.06
468.927	85.06
469.146	105.06
469.365	93.06
469.585	99.06
469.804	78.06
470.023	86.06
470.243	82.06
470.462	97.06
470.681	75.06
470.901	96.06
471.12	82.06
471.339	83.06
471.558	78.06
471.777	92.06
471.997	79.06
472.216	85.06
472.435	73.06
472.654	74.06
472.873	83.06
473.092	86.06
473.311	88.06
473.53	86.06
473.749	87.06
473.968	89.06
474.187	102.06
474.406	87.06
474.625	75.06
474.844	94.06
475.063	82.06
475.282	88.06
475.501	86.06
475.72	97.06
475.939	88.06
476.158	91.06
476.377	82.06
476.596	94.06
476.814	90.06
477.033	88.06
477.252	80.06
477.471	89.06
477.69	90.06
477.908	109.06
478.127	94.06
478.346	81.06
478.564	87.06
478.783	90.06
479.002	88.06
479.22	97.06
479.439	84.06
479.658	93.06
479.876	86.06
480.095	81.06
480.313	85.06
480.532	98.06
480.751	97.06
480.969	96.06
481.188	92.06
481.406	96.06
481.624	94.06
481.843	89.06
482.061	79.06
482.28	78.06
482.498	84.06
482.717	92.06
482.935	92.06
483.153	92.06
483.372	85.06
483.59	92.06
483.808	92.06
484.027	99.06
484.245	84.06
484.463	107.06
484.681	85.06
484.9	92.06
485.118	84.06
485.336	85.06
485.554	90.06
485.772	89.06
485.99	92.06
486.209	99.06
486.427	95.06
486.645	79.06
486.863	89.06
487.081	90.06
487.299	85.06
487.517	93.06
487.735	92.06
487.953	93.06
488.171	86.06
488.389	98.06
488.607	104.06
488.825	99.06
489.043	111.06
489.261	105.06
489.479	108.06
489.696	93.06
489.914	93.06
490.132	87.06
490.35	90.06
490.568	87.06
490.786	87.06
491.003	94.06
491.221	71.06
491.439	92.06
491.657	93.06
491.874	91.06
492.092	89.06
492.31	94.06
492.527	103.06
492.745	87.06
492.963	98.06
493.18	104.06
493.398	102.06
493.615	100.06
493.833	91.06
494.05	110.06
494.268	99.06
494.485	99.06
494.703	104.06
494.92	101.06
495.138	84.06
495.355	83.06
495.573	99.06
495.79	108.06
496.008	99.06
496.225	94.06
496.442	95.06
496.66	110.06
496.877	97.06
497.094	94.06
497.312	93.06
497.529	92.06
497.746	95.06
497.963	101.06
498.181	85.06
498.398	80.06
498.615	92.06
498.832	105.06
499.049	99.06
499.267	107.06
499.484	105.06
499.701	112.06
499.918	106.06
500.135	110.06
500.352	113.06
500.569	114.06
500.786	109.06
501.003	109.06
501.22	108.06
501.437	111.06
501.654	118.06
501.871	83.06
502.088	100.06
502.305	110.06
502.522	106.06
502.739	93.06
502.956	95.06
503.172	102.06
503.389	110.06
503.606	86.06
503.823	81.06
504.04	81.06
504.256	97.06
504.473	85.06
504.69	82.06
504.907	102.06
505.123	86.06
505.34	91.06
505.557	87.06
505.773	94.06
505.99	84.06
506.207	81.06
506.423	88.06
506.64	97.06
506.856	96.06
507.073	96.06
507.289	91.06
507.506	88.06
507.722	80.06
507.939	88.06
508.155	96.06
508.372	92.06
508.588	96.06
508.805	101.06
509.021	77.06
509.238	85.06
509.454	78.06
509.67	94.06
509.887	95.06
510.103	105.06
510.319	100.06
510.536	88.06
510.752	101.06
510.968	100.06
511.184	88.06
511.401	80.06
511.617	78.06
511.833	85.06
512.049	90.06
512.265	85.06
512.481	86.06
512.698	93.06
512.914	89.06
513.13	93.06
513.346	88.06
513.562	93.06
513.778	85.06
513.994	76.06
514.21	94.06
514.426	93.06
514.642	96.06
514.858	93.06
515.074	79.06
515.29	95.06
515.506	93.06
515.721	95.06
515.937	96.06
516.153	88.06
516.369	107.06
516.585	89.06
516.801	81.06
517.016	88.06
517.232	90.06
517.448	91.06
517.664	107.06
517.879	95.06
518.095	101.06
518.311	101.06
518.527	92.06
