Data from BG_HRD10591_044.txt Node
Date: Fri May 16 15:14:44 EDT 2025
User: Yrep
Spectrometer: HR+D1059
Trigger mode: 1
Integration Time (sec): 1.000000E-1
Scans to average: 1
Electric dark correction enabled: true
Nonlinearity correction enabled: false
Boxcar width: 0
XAxis mode: Wavelengths
Number of Pixels in Spectrum: 2048
>>>>>Begin Spectral Data<<<<<
223.165	-6.81
223.4	-6.81
223.635	-6.81
223.869	-23.81
224.104	-15.81
224.338	-16.81
224.573	-12.81
224.808	-9.81
225.042	-4.81
225.277	-10.81
225.511	-2.81
225.746	0.19
225.98	-0.81
226.215	1.19
226.449	5.19
226.683	25.19
226.918	33.19
227.152	40.19
227.387	44.19
227.621	39.19
227.856	56.19
228.09	42.19
228.324	59.19
228.559	55.19
228.793	53.19
229.027	56.19
229.262	62.19
229.496	75.19
229.73	75.19
229.964	79.19
230.199	80.19
230.433	76.19
230.667	82.19
230.901	69.19
231.136	86.19
231.37	73.19
231.604	87.19
231.838	79.19
232.072	85.19
232.306	69.19
232.541	87.19
232.775	94.19
233.009	80.19
233.243	93.19
233.477	77.19
233.711	84.19
233.945	79.19
234.179	78.19
234.413	83.19
234.647	79.19
234.881	72.19
235.115	74.19
235.349	83.19
235.583	85.19
235.817	83.19
236.051	83.19
236.285	77.19
236.519	74.19
236.753	85.19
236.987	77.19
237.221	64.19
237.455	78.19
237.689	65.19
237.922	83.19
238.156	84.19
238.39	65.19
238.624	70.19
238.858	86.19
239.091	74.19
239.325	78.19
239.559	76.19
239.793	83.19
240.027	89.19
240.26	75.19
240.494	85.19
240.728	85.19
240.961	83.19
241.195	80.19
241.429	64.19
241.662	75.19
241.896	75.19
242.13	76.19
242.363	82.19
242.597	88.19
242.83	81.19
243.064	85.19
243.298	71.19
243.531	84.19
243.765	81.19
243.998	75.19
244.232	75.19
244.465	91.19
244.699	97.19
244.932	73.19
245.166	75.19
245.399	83.19
245.633	61.19
245.866	72.19
246.099	85.19
246.333	84.19
246.566	75.19
246.8	80.19
247.033	89.19
247.266	76.19
247.5	66.19
247.733	85.19
247.966	77.19
248.2	77.19
248.433	71.19
248.666	85.19
248.899	79.19
249.133	89.19
249.366	94.19
249.599	79.19
249.832	70.19
250.066	90.19
250.299	70.19
250.532	80.19
250.765	84.19
250.998	73.19
251.231	69.19
251.465	79.19
251.698	77.19
251.931	77.19
252.164	71.19
252.397	94.19
252.63	86.19
252.863	90.19
253.096	82.19
253.329	75.19
253.562	80.19
253.795	73.19
254.028	78.19
254.261	72.19
254.494	77.19
254.727	78.19
254.96	62.19
255.193	81.19
255.426	81.19
255.659	77.19
255.892	79.19
256.124	85.19
256.357	94.19
256.59	71.19
256.823	86.19
257.056	64.19
257.289	72.19
257.521	71.19
257.754	75.19
257.987	78.19
258.22	87.19
258.452	73.19
258.685	80.19
258.918	87.19
259.151	89.19
259.383	87.19
259.616	72.19
259.849	102.19
260.081	86.19
260.314	78.19
260.547	79.19
260.779	86.19
261.012	86.19
261.244	82.19
261.477	79.19
261.71	85.19
261.942	73.19
262.175	83.19
262.407	86.19
262.64	83.19
262.872	91.19
263.105	83.19
263.337	79.19
263.57	91.19
263.802	83.19
264.035	76.19
264.267	73.19
264.499	79.19
264.732	71.19
264.964	88.19
265.197	79.19
265.429	82.19
265.661	85.19
265.894	87.19
266.126	86.19
266.358	95.19
266.591	78.19
266.823	98.19
267.055	87.19
267.287	85.19
267.52	86.19
267.752	81.19
267.984	87.19
268.216	77.19
268.448	82.19
268.681	83.19
268.913	85.19
269.145	80.19
269.377	70.19
269.609	80.19
269.841	95.19
270.073	73.19
270.306	74.19
270.538	90.19
270.77	91.19
271.002	82.19
271.234	102.19
271.466	80.19
271.698	84.19
271.93	88.19
272.162	78.19
272.394	96.19
272.626	69.19
272.858	75.19
273.09	85.19
273.322	84.19
273.553	90.19
273.785	90.19
274.017	91.19
274.249	88.19
274.481	83.19
274.713	88.19
274.945	79.19
275.176	85.19
275.408	85.19
275.64	84.19
275.872	86.19
276.104	88.19
276.335	78.19
276.567	76.19
276.799	77.19
277.031	85.19
277.262	86.19
277.494	74.19
277.726	78.19
277.957	75.19
278.189	82.19
278.421	82.19
278.652	85.19
278.884	79.19
279.115	78.19
279.347	87.19
279.579	79.19
279.81	82.19
280.042	104.19
280.273	88.19
280.505	74.19
280.736	64.19
280.968	86.19
281.199	85.19
281.431	81.19
281.662	96.19
281.894	87.19
282.125	80.19
282.356	98.19
282.588	73.19
282.819	93.19
283.051	86.19
283.282	81.19
283.513	81.19
283.745	88.19
283.976	101.19
284.207	80.19
284.439	90.19
284.67	93.19
284.901	77.19
285.132	92.19
285.364	81.19
285.595	95.19
285.826	95.19
286.057	83.19
286.288	80.19
286.52	80.19
286.751	89.19
286.982	84.19
287.213	89.19
287.444	95.19
287.675	86.19
287.906	73.19
288.138	86.19
288.369	104.19
288.6	97.19
288.831	70.19
289.062	79.19
289.293	80.19
289.524	75.19
289.755	82.19
289.986	90.19
290.217	88.19
290.448	59.19
290.679	78.19
290.91	87.19
291.141	78.19
291.371	89.19
291.602	80.19
291.833	87.19
292.064	96.19
292.295	87.19
292.526	74.19
292.757	86.19
292.987	88.19
293.218	76.19
293.449	82.19
293.68	92.19
293.91	81.19
294.141	93.19
294.372	78.19
294.603	70.19
294.833	80.19
295.064	92.19
295.295	89.19
295.525	82.19
295.756	76.19
295.987	82.19
296.217	65.19
296.448	86.19
296.679	87.19
296.909	88.19
297.14	82.19
297.37	77.19
297.601	81.19
297.831	73.19
298.062	82.19
298.292	94.19
298.523	86.19
298.753	108.19
298.984	80.19
299.214	89.19
299.445	81.19
299.675	78.19
299.905	88.19
300.136	82.19
300.366	88.19
300.597	87.19
300.827	90.19
301.057	94.19
301.288	90.19
301.518	85.19
301.748	82.19
301.979	81.19
302.209	81.19
302.439	79.19
302.669	103.19
302.9	84.19
303.13	75.19
303.36	93.19
303.59	89.19
303.82	90.19
304.051	98.19
304.281	94.19
304.511	84.19
304.741	82.19
304.971	82.19
305.201	92.19
305.431	94.19
305.661	101.19
305.891	93.19
306.121	106.19
306.352	87.19
306.582	84.19
306.812	71.19
307.042	78.19
307.272	85.19
307.502	90.19
307.731	97.19
307.961	85.19
308.191	81.19
308.421	87.19
308.651	94.19
308.881	93.19
309.111	86.19
309.341	91.19
309.571	90.19
309.8	96.19
310.03	85.19
310.26	96.19
310.49	82.19
310.72	93.19
310.949	83.19
311.179	81.19
311.409	89.19
311.639	80.19
311.868	85.19
312.098	95.19
312.328	91.19
312.557	82.19
312.787	95.19
313.017	85.19
313.246	90.19
313.476	99.19
313.706	79.19
313.935	93.19
314.165	74.19
314.394	81.19
314.624	81.19
314.853	90.19
315.083	82.19
315.312	89.19
315.542	70.19
315.771	81.19
316.001	89.19
316.23	85.19
316.46	87.19
316.689	86.19
316.919	81.19
317.148	82.19
317.377	94.19
317.607	91.19
317.836	98.19
318.065	87.19
318.295	85.19
318.524	74.19
318.753	89.19
318.983	90.19
319.212	100.19
319.441	89.19
319.67	76.19
319.9	79.19
320.129	90.19
320.358	103.19
320.587	87.19
320.816	93.19
321.046	81.19
321.275	89.19
321.504	80.19
321.733	75.19
321.962	87.19
322.191	90.19
322.42	84.19
322.649	89.19
322.878	89.19
323.108	78.19
323.337	71.19
323.566	89.19
323.795	80.19
324.024	76.19
324.253	96.19
324.482	76.19
324.71	84.19
324.939	85.19
325.168	81.19
325.397	82.19
325.626	82.19
325.855	88.19
326.084	85.19
326.313	81.19
326.542	93.19
326.77	91.19
326.999	93.19
327.228	99.19
327.457	87.19
327.686	84.19
327.914	92.19
328.143	83.19
328.372	85.19
328.6	85.19
328.829	88.19
329.058	103.19
329.287	87.19
329.515	77.19
329.744	90.19
329.972	85.19
330.201	78.19
330.43	85.19
330.658	97.19
330.887	70.19
331.115	91.19
331.344	80.19
331.572	75.19
331.801	77.19
332.03	89.19
332.258	91.19
332.486	89.19
332.715	91.19
332.943	87.19
333.172	81.19
333.4	82.19
333.629	81.19
333.857	77.19
334.085	87.19
334.314	86.19
334.542	82.19
334.771	92.19
334.999	94.19
335.227	98.19
335.455	86.19
335.684	80.19
335.912	82.19
336.14	80.19
336.369	94.19
336.597	82.19
336.825	86.19
337.053	84.19
337.281	81.19
337.51	87.19
337.738	86.19
337.966	91.19
338.194	66.19
338.422	84.19
338.65	94.19
338.878	99.19
339.106	85.19
339.334	90.19
339.562	76.19
339.79	79.19
340.018	78.19
340.246	82.19
340.474	85.19
340.702	91.19
340.93	90.19
341.158	80.19
341.386	85.19
341.614	89.19
341.842	92.19
342.07	80.19
342.298	93.19
342.526	79.19
342.754	93.19
342.981	94.19
343.209	78.19
343.437	91.19
343.665	92.19
343.893	93.19
344.12	87.19
344.348	85.19
344.576	80.19
344.804	76.19
345.031	75.19
345.259	105.19
345.487	98.19
345.714	95.19
345.942	72.19
346.17	89.19
346.397	78.19
346.625	88.19
346.853	88.19
347.08	83.19
347.308	99.19
347.535	92.19
347.763	87.19
347.99	95.19
348.218	90.19
348.445	101.19
348.673	88.19
348.9	80.19
349.128	83.19
349.355	90.19
349.583	87.19
349.81	86.19
350.037	64.19
350.265	75.19
350.492	79.19
350.72	103.19
350.947	87.19
351.174	93.19
351.402	88.19
351.629	74.19
351.856	94.19
352.083	78.19
352.311	88.19
352.538	79.19
352.765	90.19
352.992	92.19
353.22	91.19
353.447	87.19
353.674	102.19
353.901	91.19
354.128	87.19
354.355	87.19
354.583	95.19
354.81	87.19
355.037	85.19
355.264	97.19
355.491	88.19
355.718	95.19
355.945	77.19
356.172	79.19
356.399	73.19
356.626	87.19
356.853	95.19
357.08	97.19
357.307	87.19
357.534	86.19
357.761	75.19
357.988	76.19
358.215	95.19
358.441	86.19
358.668	80.19
358.895	88.19
359.122	92.19
359.349	90.19
359.576	72.19
359.802	68.19
360.029	74.19
360.256	79.19
360.483	86.19
360.709	87.19
360.936	88.19
361.163	88.19
361.39	97.19
361.616	81.19
361.843	96.19
362.07	81.19
362.296	94.19
362.523	97.19
362.749	88.19
362.976	82.19
363.203	86.19
363.429	102.19
363.656	95.19
363.882	93.19
364.109	90.19
364.335	94.19
364.562	79.19
364.788	96.19
365.015	96.19
365.241	94.19
365.468	102.19
365.694	87.19
365.92	89.19
366.147	81.19
366.373	75.19
366.599	101.19
366.826	90.19
367.052	89.19
367.278	95.19
367.505	91.19
367.731	92.19
367.957	79.19
368.184	77.19
368.41	78.19
368.636	90.19
368.862	85.19
369.089	102.19
369.315	77.19
369.541	90.19
369.767	83.19
369.993	100.19
370.219	83.19
370.445	78.19
370.672	74.19
370.898	73.19
371.124	86.19
371.35	94.19
371.576	103.19
371.802	109.19
372.028	77.19
372.254	80.19
372.48	87.19
372.706	93.19
372.932	90.19
373.158	93.19
373.384	90.19
373.61	85.19
373.835	93.19
374.061	91.19
374.287	84.19
374.513	83.19
374.739	77.19
374.965	76.19
375.191	90.19
375.416	81.19
375.642	80.19
375.868	82.19
376.094	81.19
376.319	94.19
376.545	86.19
376.771	99.19
376.997	96.19
377.222	93.19
377.448	89.19
377.674	86.19
377.899	85.19
378.125	77.19
378.35	81.19
378.576	81.19
378.802	72.19
379.027	88.19
379.253	86.19
379.478	69.19
379.704	79.19
379.929	83.19
380.155	84.19
380.38	83.19
380.606	79.19
380.831	92.19
381.057	96.19
381.282	88.19
381.507	68.19
381.733	98.19
381.958	85.19
382.184	73.19
382.409	82.19
382.634	81.19
382.86	72.19
383.085	83.19
383.31	82.19
383.535	91.19
383.761	101.19
383.986	89.19
384.211	81.19
384.436	91.19
384.662	84.19
384.887	99.19
385.112	99.19
385.337	89.19
385.562	87.19
385.787	85.19
386.013	81.19
386.238	82.19
386.463	80.19
386.688	102.19
386.913	75.19
387.138	83.19
387.363	84.19
387.588	97.19
387.813	77.19
388.038	82.19
388.263	78.19
388.488	85.19
388.713	87.19
388.938	83.19
389.163	97.19
389.387	94.19
389.612	85.19
389.837	84.19
390.062	103.19
390.287	71.19
390.512	69.19
390.736	90.19
390.961	88.19
391.186	72.19
391.411	87.19
391.636	79.19
391.86	83.19
392.085	94.19
392.31	87.19
392.534	77.19
392.759	84.19
392.984	79.19
393.208	81.19
393.433	88.19
393.658	83.19
393.882	82.19
394.107	76.19
394.331	92.19
394.556	77.19
394.78	98.19
395.005	88.19
395.229	82.19
395.454	98.19
395.678	87.19
395.903	90.19
396.127	79.19
396.352	96.19
396.576	78.19
396.801	85.19
397.025	89.19
397.249	86.19
397.474	78.19
397.698	77.19
397.922	91.19
398.147	77.19
398.371	77.19
398.595	67.19
398.82	87.19
399.044	74.19
399.268	78.19
399.492	74.19
399.717	86.19
399.941	97.19
400.165	90.19
400.389	70.19
400.613	87.19
400.837	89.19
401.062	93.19
401.286	85.19
401.51	78.19
401.734	79.19
401.958	73.19
402.182	96.19
402.406	72.19
402.63	89.19
402.854	86.19
403.078	91.19
403.302	86.19
403.526	87.19
403.75	78.19
403.974	101.19
404.198	80.19
404.422	86.19
404.645	77.19
404.869	73.19
405.093	87.19
405.317	89.19
405.541	107.19
405.765	96.19
405.988	69.19
406.212	82.19
406.436	81.19
406.66	89.19
406.883	80.19
407.107	85.19
407.331	63.19
407.555	86.19
407.778	71.19
408.002	60.19
408.226	94.19
408.449	76.19
408.673	89.19
408.896	85.19
409.12	83.19
409.344	96.19
409.567	81.19
409.791	65.19
410.014	75.19
410.238	71.19
410.461	75.19
410.685	74.19
410.908	86.19
411.132	97.19
411.355	78.19
411.578	89.19
411.802	81.19
412.025	77.19
412.249	99.19
412.472	82.19
412.695	75.19
412.919	92.19
413.142	76.19
413.365	86.19
413.589	82.19
413.812	85.19
414.035	103.19
414.258	76.19
414.482	81.19
414.705	86.19
414.928	87.19
415.151	92.19
415.374	66.19
415.597	81.19
415.821	96.19
416.044	76.19
416.267	88.19
416.49	89.19
416.713	85.19
416.936	68.19
417.159	81.19
417.382	91.19
417.605	81.19
417.828	86.19
418.051	67.19
418.274	80.19
418.497	86.19
418.72	91.19
418.943	97.19
419.166	105.19
419.389	71.19
419.611	85.19
419.834	82.19
420.057	80.19
420.28	81.19
420.503	84.19
420.726	84.19
420.948	87.19
421.171	83.19
421.394	77.19
421.617	83.19
421.839	81.19
422.062	82.19
422.285	79.19
422.507	74.19
422.73	83.19
422.953	81.19
423.175	89.19
423.398	66.19
423.621	95.19
423.843	91.19
424.066	79.19
424.288	79.19
424.511	75.19
424.733	84.19
424.956	79.19
425.178	93.19
425.401	90.19
425.623	77.19
425.846	79.19
426.068	63.19
426.291	73.19
426.513	89.19
426.735	80.19
426.958	91.19
427.18	85.19
427.402	81.19
427.625	93.19
427.847	76.19
428.069	90.19
428.292	79.19
428.514	81.19
428.736	83.19
428.958	83.19
429.181	88.19
429.403	99.19
429.625	96.19
429.847	92.19
430.069	71.19
430.292	96.19
430.514	83.19
430.736	102.19
430.958	87.19
431.18	93.19
431.402	87.19
431.624	84.19
431.846	87.19
432.068	94.19
432.29	97.19
432.512	95.19
432.734	75.19
432.956	79.19
433.178	81.19
433.4	90.19
433.622	72.19
433.844	79.19
434.066	95.19
434.287	91.19
434.509	80.19
434.731	77.19
434.953	74.19
435.175	79.19
435.397	71.19
435.618	84.19
435.84	89.19
436.062	68.19
436.284	87.19
436.505	76.19
436.727	76.19
436.949	84.19
437.17	72.19
437.392	91.19
437.614	86.19
437.835	89.19
438.057	89.19
438.278	83.19
438.5	67.19
438.721	73.19
438.943	86.19
439.165	85.19
439.386	89.19
439.608	97.19
439.829	91.19
440.05	82.19
440.272	75.19
440.493	73.19
440.715	91.19
440.936	79.19
441.158	76.19
441.379	73.19
441.6	81.19
441.822	91.19
442.043	77.19
442.264	77.19
442.486	70.19
442.707	76.19
442.928	72.19
443.149	90.19
443.371	84.19
443.592	82.19
443.813	74.19
444.034	85.19
444.255	89.19
444.476	79.19
444.698	85.19
444.919	73.19
445.14	167.19
445.361	121.19
445.582	103.19
445.803	76.19
446.024	74.19
446.245	87.19
446.466	93.19
446.687	89.19
446.908	78.19
447.129	89.19
447.35	78.19
447.571	71.19
447.792	88.19
448.013	70.19
448.234	87.19
448.455	78.19
448.675	89.19
448.896	80.19
449.117	84.19
449.338	91.19
449.559	75.19
449.779	80.19
450	82.19
450.221	80.19
450.442	86.19
450.662	82.19
450.883	82.19
451.104	99.19
451.324	73.19
451.545	81.19
451.766	86.19
451.986	78.19
452.207	87.19
452.428	79.19
452.648	95.19
452.869	71.19
453.089	102.19
453.31	91.19
453.53	92.19
453.751	87.19
453.971	87.19
454.192	84.19
454.412	77.19
454.633	88.19
454.853	93.19
455.073	102.19
455.294	94.19
455.514	77.19
455.734	73.19
455.955	85.19
456.175	80.19
456.395	87.19
456.616	85.19
456.836	79.19
457.056	72.19
457.276	81.19
457.497	70.19
457.717	82.19
457.937	83.19
458.157	84.19
458.377	69.19
458.598	68.19
458.818	83.19
459.038	91.19
459.258	79.19
459.478	73.19
459.698	91.19
459.918	82.19
460.138	84.19
460.358	85.19
460.578	83.19
460.798	86.19
461.018	80.19
461.238	67.19
461.458	86.19
461.678	73.19
461.898	85.19
462.118	83.19
462.338	79.19
462.558	76.19
462.777	71.19
462.997	89.19
463.217	67.19
463.437	65.19
463.657	81.19
463.876	77.19
464.096	85.19
464.316	79.19
464.536	90.19
464.755	67.19
464.975	83.19
465.195	90.19
465.414	81.19
465.634	88.19
465.854	73.19
466.073	73.19
466.293	92.19
466.512	82.19
466.732	95.19
466.951	92.19
467.171	91.19
467.391	72.19
467.61	75.19
467.829	78.19
468.049	68.19
468.268	95.19
468.488	77.19
468.707	79.19
468.927	87.19
469.146	97.19
469.365	88.19
469.585	79.19
469.804	91.19
470.023	85.19
470.243	82.19
470.462	87.19
470.681	87.19
470.901	87.19
471.12	85.19
471.339	76.19
471.558	71.19
471.777	81.19
471.997	75.19
472.216	94.19
472.435	88.19
472.654	70.19
472.873	82.19
473.092	97.19
473.311	87.19
473.53	87.19
473.749	74.19
473.968	83.19
474.187	88.19
474.406	92.19
474.625	82.19
474.844	95.19
475.063	89.19
475.282	75.19
475.501	86.19
475.72	102.19
475.939	72.19
476.158	74.19
476.377	71.19
476.596	86.19
476.814	73.19
477.033	75.19
477.252	76.19
477.471	87.19
477.69	75.19
477.908	93.19
478.127	86.19
478.346	77.19
478.564	73.19
478.783	79.19
479.002	73.19
479.22	80.19
479.439	71.19
479.658	77.19
479.876	90.19
480.095	84.19
480.313	90.19
480.532	69.19
480.751	85.19
480.969	85.19
481.188	82.19
481.406	82.19
481.624	75.19
481.843	89.19
482.061	65.19
482.28	72.19
482.498	95.19
482.717	81.19
482.935	81.19
483.153	87.19
483.372	83.19
483.59	99.19
483.808	85.19
484.027	82.19
484.245	85.19
484.463	93.19
484.681	80.19
484.9	78.19
485.118	78.19
485.336	71.19
485.554	94.19
485.772	91.19
485.99	83.19
486.209	88.19
486.427	78.19
486.645	75.19
486.863	94.19
487.081	81.19
487.299	84.19
487.517	83.19
487.735	92.19
487.953	65.19
488.171	79.19
488.389	78.19
488.607	86.19
488.825	79.19
489.043	86.19
489.261	75.19
489.479	78.19
489.696	80.19
489.914	77.19
490.132	92.19
490.35	74.19
490.568	71.19
490.786	81.19
491.003	80.19
491.221	71.19
491.439	86.19
491.657	73.19
491.874	93.19
492.092	85.19
492.31	97.19
492.527	63.19
492.745	80.19
492.963	81.19
493.18	66.19
493.398	88.19
493.615	92.19
493.833	74.19
494.05	76.19
494.268	78.19
494.485	79.19
494.703	78.19
494.92	80.19
495.138	75.19
495.355	81.19
495.573	82.19
495.79	70.19
496.008	85.19
496.225	91.19
496.442	90.19
496.66	91.19
496.877	86.19
497.094	91.19
497.312	85.19
497.529	85.19
497.746	89.19
497.963	75.19
498.181	76.19
498.398	79.19
498.615	94.19
498.832	84.19
499.049	89.19
499.267	79.19
499.484	85.19
499.701	86.19
499.918	86.19
500.135	74.19
500.352	78.19
500.569	89.19
500.786	87.19
501.003	77.19
501.22	86.19
501.437	91.19
501.654	84.19
501.871	80.19
502.088	79.19
502.305	86.19
502.522	86.19
502.739	86.19
502.956	86.19
503.172	75.19
503.389	89.19
503.606	93.19
503.823	87.19
504.04	85.19
504.256	81.19
504.473	86.19
504.69	89.19
504.907	94.19
505.123	88.19
505.34	81.19
505.557	78.19
505.773	74.19
505.99	89.19
506.207	67.19
506.423	91.19
506.64	86.19
506.856	93.19
507.073	93.19
507.289	79.19
507.506	86.19
507.722	82.19
507.939	93.19
508.155	85.19
508.372	84.19
508.588	82.19
508.805	80.19
509.021	81.19
509.238	77.19
509.454	84.19
509.67	92.19
509.887	81.19
510.103	72.19
510.319	78.19
510.536	103.19
510.752	94.19
510.968	89.19
511.184	104.19
511.401	85.19
511.617	75.19
511.833	76.19
512.049	83.19
512.265	80.19
512.481	92.19
512.698	92.19
512.914	79.19
513.13	70.19
513.346	78.19
513.562	85.19
513.778	85.19
513.994	85.19
514.21	84.19
514.426	81.19
514.642	74.19
514.858	87.19
515.074	92.19
515.29	91.19
515.506	80.19
515.721	79.19
515.937	79.19
516.153	82.19
516.369	80.19
516.585	72.19
516.801	82.19
517.016	88.19
517.232	77.19
517.448	90.19
517.664	86.19
517.879	78.19
518.095	86.19
518.311	86.19
518.527	74.19
518.742	76.19
518.958	88.19
519.173	74.19
519.389	74.19
519.605	86.19
519.82	73.19
