Data from BG_HRD10591_020.txt Node
Date: Fri May 16 15:14:32 EDT 2025
User: Yrep
Spectrometer: HR+D1059
Trigger mode: 1
Integration Time (sec): 1.000000E-1
Scans to average: 1
Electric dark correction enabled: true
Nonlinearity correction enabled: false
Boxcar width: 0
XAxis mode: Wavelengths
Number of Pixels in Spectrum: 2048
>>>>>Begin Spectral Data<<<<<
223.165	-19.31
223.4	-19.31
223.635	-19.31
223.869	-23.31
224.104	-20.31
224.338	-9.31
224.573	-20.31
224.808	-25.31
225.042	-5.31
225.277	-19.31
225.511	0.69
225.746	-6.31
225.98	15.69
226.215	8.69
226.449	16.69
226.683	26.69
226.918	42.69
227.152	37.69
227.387	29.69
227.621	50.69
227.856	43.69
228.09	40.69
228.324	53.69
228.559	66.69
228.793	47.69
229.027	52.69
229.262	61.69
229.496	86.69
229.73	78.69
229.964	64.69
230.199	66.69
230.433	86.69
230.667	70.69
230.901	87.69
231.136	90.69
231.37	73.69
231.604	62.69
231.838	86.69
232.072	87.69
232.306	80.69
232.541	72.69
232.775	76.69
233.009	81.69
233.243	74.69
233.477	84.69
233.711	84.69
233.945	89.69
234.179	87.69
234.413	77.69
234.647	76.69
234.881	79.69
235.115	74.69
235.349	73.69
235.583	70.69
235.817	78.69
236.051	72.69
236.285	91.69
236.519	74.69
236.753	85.69
236.987	74.69
237.221	60.69
237.455	81.69
237.689	58.69
237.922	85.69
238.156	74.69
238.39	75.69
238.624	76.69
238.858	83.69
239.091	70.69
239.325	78.69
239.559	79.69
239.793	73.69
240.027	72.69
240.26	77.69
240.494	70.69
240.728	65.69
240.961	82.69
241.195	79.69
241.429	68.69
241.662	63.69
241.896	76.69
242.13	69.69
242.363	70.69
242.597	65.69
242.83	73.69
243.064	76.69
243.298	76.69
243.531	76.69
243.765	87.69
243.998	77.69
244.232	80.69
244.465	77.69
244.699	59.69
244.932	79.69
245.166	69.69
245.399	72.69
245.633	69.69
245.866	76.69
246.099	80.69
246.333	69.69
246.566	59.69
246.8	85.69
247.033	74.69
247.266	72.69
247.5	71.69
247.733	88.69
247.966	73.69
248.2	67.69
248.433	69.69
248.666	77.69
248.899	73.69
249.133	79.69
249.366	90.69
249.599	79.69
249.832	72.69
250.066	76.69
250.299	76.69
250.532	80.69
250.765	76.69
250.998	65.69
251.231	84.69
251.465	100.69
251.698	76.69
251.931	84.69
252.164	62.69
252.397	82.69
252.63	86.69
252.863	77.69
253.096	85.69
253.329	87.69
253.562	86.69
253.795	75.69
254.028	74.69
254.261	71.69
254.494	62.69
254.727	79.69
254.96	74.69
255.193	73.69
255.426	87.69
255.659	69.69
255.892	88.69
256.124	85.69
256.357	78.69
256.59	99.69
256.823	93.69
257.056	66.69
257.289	71.69
257.521	77.69
257.754	87.69
257.987	84.69
258.22	79.69
258.452	79.69
258.685	90.69
258.918	82.69
259.151	79.69
259.383	81.69
259.616	68.69
259.849	74.69
260.081	88.69
260.314	70.69
260.547	84.69
260.779	79.69
261.012	85.69
261.244	68.69
261.477	74.69
261.71	91.69
261.942	92.69
262.175	90.69
262.407	78.69
262.64	87.69
262.872	83.69
263.105	76.69
263.337	87.69
263.57	89.69
263.802	85.69
264.035	78.69
264.267	74.69
264.499	71.69
264.732	79.69
264.964	72.69
265.197	100.69
265.429	86.69
265.661	73.69
265.894	85.69
266.126	84.69
266.358	82.69
266.591	83.69
266.823	88.69
267.055	85.69
267.287	83.69
267.52	77.69
267.752	99.69
267.984	88.69
268.216	75.69
268.448	69.69
268.681	78.69
268.913	86.69
269.145	79.69
269.377	93.69
269.609	79.69
269.841	74.69
270.073	82.69
270.306	76.69
270.538	78.69
270.77	87.69
271.002	87.69
271.234	93.69
271.466	90.69
271.698	80.69
271.93	91.69
272.162	83.69
272.394	82.69
272.626	76.69
272.858	91.69
273.09	91.69
273.322	96.69
273.553	104.69
273.785	85.69
274.017	93.69
274.249	92.69
274.481	81.69
274.713	78.69
274.945	79.69
275.176	58.69
275.408	88.69
275.64	91.69
275.872	88.69
276.104	75.69
276.335	86.69
276.567	64.69
276.799	79.69
277.031	77.69
277.262	80.69
277.494	95.69
277.726	78.69
277.957	90.69
278.189	85.69
278.421	83.69
278.652	79.69
278.884	92.69
279.115	81.69
279.347	88.69
279.579	71.69
279.81	85.69
280.042	79.69
280.273	94.69
280.505	89.69
280.736	92.69
280.968	82.69
281.199	75.69
281.431	76.69
281.662	78.69
281.894	87.69
282.125	86.69
282.356	81.69
282.588	88.69
282.819	70.69
283.051	73.69
283.282	84.69
283.513	94.69
283.745	88.69
283.976	81.69
284.207	89.69
284.439	85.69
284.67	77.69
284.901	73.69
285.132	69.69
285.364	75.69
285.595	80.69
285.826	87.69
286.057	99.69
286.288	79.69
286.52	82.69
286.751	73.69
286.982	86.69
287.213	86.69
287.444	91.69
287.675	95.69
287.906	81.69
288.138	90.69
288.369	86.69
288.6	95.69
288.831	93.69
289.062	92.69
289.293	77.69
289.524	88.69
289.755	98.69
289.986	83.69
290.217	88.69
290.448	78.69
290.679	89.69
290.91	84.69
291.141	83.69
291.371	86.69
291.602	83.69
291.833	83.69
292.064	70.69
292.295	101.69
292.526	79.69
292.757	80.69
292.987	74.69
293.218	90.69
293.449	84.69
293.68	86.69
293.91	72.69
294.141	90.69
294.372	82.69
294.603	94.69
294.833	80.69
295.064	75.69
295.295	87.69
295.525	88.69
295.756	74.69
295.987	94.69
296.217	87.69
296.448	86.69
296.679	83.69
296.909	76.69
297.14	100.69
297.37	82.69
297.601	110.69
297.831	88.69
298.062	93.69
298.292	102.69
298.523	75.69
298.753	96.69
298.984	83.69
299.214	68.69
299.445	84.69
299.675	85.69
299.905	79.69
300.136	82.69
300.366	83.69
300.597	84.69
300.827	86.69
301.057	98.69
301.288	80.69
301.518	68.69
301.748	69.69
301.979	96.69
302.209	82.69
302.439	92.69
302.669	95.69
302.9	91.69
303.13	93.69
303.36	86.69
303.59	83.69
303.82	80.69
304.051	84.69
304.281	68.69
304.511	73.69
304.741	83.69
304.971	82.69
305.201	93.69
305.431	88.69
305.661	82.69
305.891	85.69
306.121	103.69
306.352	77.69
306.582	81.69
306.812	100.69
307.042	78.69
307.272	74.69
307.502	88.69
307.731	82.69
307.961	98.69
308.191	88.69
308.421	90.69
308.651	93.69
308.881	94.69
309.111	77.69
309.341	92.69
309.571	95.69
309.8	88.69
310.03	89.69
310.26	85.69
310.49	88.69
310.72	87.69
310.949	84.69
311.179	87.69
311.409	78.69
311.639	89.69
311.868	89.69
312.098	92.69
312.328	85.69
312.557	91.69
312.787	85.69
313.017	81.69
313.246	88.69
313.476	90.69
313.706	89.69
313.935	87.69
314.165	83.69
314.394	92.69
314.624	94.69
314.853	99.69
315.083	85.69
315.312	87.69
315.542	64.69
315.771	83.69
316.001	81.69
316.23	105.69
316.46	90.69
316.689	103.69
316.919	88.69
317.148	84.69
317.377	82.69
317.607	88.69
317.836	88.69
318.065	90.69
318.295	71.69
318.524	91.69
318.753	91.69
318.983	77.69
319.212	86.69
319.441	74.69
319.67	80.69
319.9	83.69
320.129	92.69
320.358	88.69
320.587	93.69
320.816	74.69
321.046	94.69
321.275	104.69
321.504	86.69
321.733	95.69
321.962	98.69
322.191	75.69
322.42	72.69
322.649	68.69
322.878	99.69
323.108	87.69
323.337	80.69
323.566	89.69
323.795	86.69
324.024	95.69
324.253	77.69
324.482	98.69
324.71	99.69
324.939	90.69
325.168	82.69
325.397	77.69
325.626	100.69
325.855	88.69
326.084	93.69
326.313	96.69
326.542	79.69
326.77	79.69
326.999	92.69
327.228	84.69
327.457	84.69
327.686	99.69
327.914	90.69
328.143	94.69
328.372	87.69
328.6	73.69
328.829	100.69
329.058	86.69
329.287	86.69
329.515	82.69
329.744	92.69
329.972	86.69
330.201	92.69
330.43	84.69
330.658	86.69
330.887	82.69
331.115	82.69
331.344	89.69
331.572	72.69
331.801	77.69
332.03	88.69
332.258	79.69
332.486	88.69
332.715	88.69
332.943	87.69
333.172	88.69
333.4	75.69
333.629	89.69
333.857	96.69
334.085	79.69
334.314	94.69
334.542	78.69
334.771	94.69
334.999	91.69
335.227	97.69
335.455	78.69
335.684	81.69
335.912	74.69
336.14	90.69
336.369	71.69
336.597	86.69
336.825	75.69
337.053	90.69
337.281	87.69
337.51	82.69
337.738	91.69
337.966	72.69
338.194	99.69
338.422	75.69
338.65	95.69
338.878	94.69
339.106	92.69
339.334	98.69
339.562	89.69
339.79	89.69
340.018	91.69
340.246	94.69
340.474	91.69
340.702	94.69
340.93	89.69
341.158	73.69
341.386	101.69
341.614	79.69
341.842	105.69
342.07	96.69
342.298	86.69
342.526	86.69
342.754	101.69
342.981	93.69
343.209	80.69
343.437	100.69
343.665	93.69
343.893	79.69
344.12	74.69
344.348	85.69
344.576	79.69
344.804	86.69
345.031	93.69
345.259	83.69
345.487	102.69
345.714	89.69
345.942	88.69
346.17	84.69
346.397	89.69
346.625	98.69
346.853	86.69
347.08	86.69
347.308	88.69
347.535	88.69
347.763	82.69
347.99	93.69
348.218	82.69
348.445	81.69
348.673	93.69
348.9	89.69
349.128	99.69
349.355	91.69
349.583	80.69
349.81	64.69
350.037	83.69
350.265	82.69
350.492	80.69
350.72	88.69
350.947	80.69
351.174	75.69
351.402	80.69
351.629	95.69
351.856	90.69
352.083	87.69
352.311	84.69
352.538	85.69
352.765	87.69
352.992	88.69
353.22	99.69
353.447	86.69
353.674	86.69
353.901	93.69
354.128	84.69
354.355	76.69
354.583	97.69
354.81	84.69
355.037	95.69
355.264	74.69
355.491	88.69
355.718	85.69
355.945	74.69
356.172	97.69
356.399	93.69
356.626	78.69
356.853	78.69
357.08	84.69
357.307	100.69
357.534	87.69
357.761	92.69
357.988	94.69
358.215	93.69
358.441	80.69
358.668	84.69
358.895	84.69
359.122	100.69
359.349	91.69
359.576	90.69
359.802	90.69
360.029	92.69
360.256	95.69
360.483	98.69
360.709	84.69
360.936	86.69
361.163	94.69
361.39	94.69
361.616	85.69
361.843	79.69
362.07	84.69
362.296	90.69
362.523	85.69
362.749	90.69
362.976	95.69
363.203	107.69
363.429	79.69
363.656	87.69
363.882	76.69
364.109	84.69
364.335	84.69
364.562	90.69
364.788	83.69
365.015	91.69
365.241	94.69
365.468	85.69
365.694	89.69
365.92	84.69
366.147	89.69
366.373	83.69
366.599	95.69
366.826	84.69
367.052	89.69
367.278	89.69
367.505	77.69
367.731	79.69
367.957	71.69
368.184	88.69
368.41	87.69
368.636	89.69
368.862	90.69
369.089	73.69
369.315	87.69
369.541	98.69
369.767	80.69
369.993	95.69
370.219	88.69
370.445	84.69
370.672	99.69
370.898	89.69
371.124	82.69
371.35	98.69
371.576	81.69
371.802	90.69
372.028	72.69
372.254	73.69
372.48	87.69
372.706	85.69
372.932	82.69
373.158	81.69
373.384	88.69
373.61	91.69
373.835	87.69
374.061	92.69
374.287	79.69
374.513	78.69
374.739	78.69
374.965	81.69
375.191	78.69
375.416	86.69
375.642	86.69
375.868	83.69
376.094	78.69
376.319	76.69
376.545	82.69
376.771	85.69
376.997	84.69
377.222	74.69
377.448	71.69
377.674	78.69
377.899	88.69
378.125	98.69
378.35	102.69
378.576	80.69
378.802	85.69
379.027	89.69
379.253	94.69
379.478	85.69
379.704	84.69
379.929	87.69
380.155	61.69
380.38	85.69
380.606	76.69
380.831	64.69
381.057	83.69
381.282	83.69
381.507	89.69
381.733	79.69
381.958	61.69
382.184	84.69
382.409	82.69
382.634	84.69
382.86	86.69
383.085	94.69
383.31	94.69
383.535	86.69
383.761	83.69
383.986	85.69
384.211	84.69
384.436	82.69
384.662	88.69
384.887	80.69
385.112	70.69
385.337	90.69
385.562	100.69
385.787	93.69
386.013	98.69
386.238	85.69
386.463	85.69
386.688	94.69
386.913	74.69
387.138	81.69
387.363	86.69
387.588	93.69
387.813	95.69
388.038	91.69
388.263	74.69
388.488	89.69
388.713	93.69
388.938	88.69
389.163	88.69
389.387	84.69
389.612	84.69
389.837	81.69
390.062	92.69
390.287	87.69
390.512	99.69
390.736	92.69
390.961	77.69
391.186	87.69
391.411	87.69
391.636	85.69
391.86	84.69
392.085	74.69
392.31	80.69
392.534	91.69
392.759	102.69
392.984	88.69
393.208	99.69
393.433	76.69
393.658	82.69
393.882	74.69
394.107	93.69
394.331	92.69
394.556	82.69
394.78	84.69
395.005	70.69
395.229	75.69
395.454	89.69
395.678	87.69
395.903	91.69
396.127	91.69
396.352	95.69
396.576	89.69
396.801	83.69
397.025	75.69
397.249	84.69
397.474	88.69
397.698	90.69
397.922	89.69
398.147	87.69
398.371	89.69
398.595	84.69
398.82	102.69
399.044	89.69
399.268	95.69
399.492	92.69
399.717	89.69
399.941	91.69
400.165	83.69
400.389	85.69
400.613	88.69
400.837	105.69
401.062	87.69
401.286	88.69
401.51	84.69
401.734	83.69
401.958	102.69
402.182	86.69
402.406	81.69
402.63	86.69
402.854	96.69
403.078	91.69
403.302	79.69
403.526	86.69
403.75	86.69
403.974	93.69
404.198	86.69
404.422	91.69
404.645	84.69
404.869	78.69
405.093	109.69
405.317	77.69
405.541	99.69
405.765	98.69
405.988	91.69
406.212	89.69
406.436	91.69
406.66	94.69
406.883	99.69
407.107	106.69
407.331	92.69
407.555	86.69
407.778	88.69
408.002	97.69
408.226	92.69
408.449	87.69
408.673	84.69
408.896	82.69
409.12	95.69
409.344	78.69
409.567	83.69
409.791	95.69
410.014	96.69
410.238	89.69
410.461	86.69
410.685	78.69
410.908	79.69
411.132	96.69
411.355	88.69
411.578	97.69
411.802	98.69
412.025	68.69
412.249	91.69
412.472	80.69
412.695	82.69
412.919	86.69
413.142	94.69
413.365	85.69
413.589	77.69
413.812	77.69
414.035	103.69
414.258	85.69
414.482	78.69
414.705	101.69
414.928	86.69
415.151	87.69
415.374	82.69
415.597	74.69
415.821	78.69
416.044	86.69
416.267	95.69
416.49	98.69
416.713	89.69
416.936	88.69
417.159	82.69
417.382	93.69
417.605	102.69
417.828	103.69
418.051	68.69
418.274	90.69
418.497	87.69
418.72	82.69
418.943	87.69
419.166	101.69
419.389	92.69
419.611	72.69
419.834	91.69
420.057	90.69
420.28	83.69
420.503	86.69
420.726	82.69
420.948	83.69
421.171	100.69
421.394	95.69
421.617	103.69
421.839	86.69
422.062	98.69
422.285	93.69
422.507	79.69
422.73	76.69
422.953	96.69
423.175	95.69
423.398	95.69
423.621	95.69
423.843	87.69
424.066	85.69
424.288	80.69
424.511	88.69
424.733	95.69
424.956	82.69
425.178	80.69
425.401	84.69
425.623	89.69
425.846	86.69
426.068	96.69
426.291	82.69
426.513	99.69
426.735	87.69
426.958	89.69
427.18	101.69
427.402	93.69
427.625	92.69
427.847	91.69
428.069	86.69
428.292	89.69
428.514	82.69
428.736	78.69
428.958	80.69
429.181	100.69
429.403	88.69
429.625	69.69
429.847	81.69
430.069	76.69
430.292	91.69
430.514	71.69
430.736	81.69
430.958	83.69
431.18	91.69
431.402	92.69
431.624	86.69
431.846	98.69
432.068	86.69
432.29	86.69
432.512	95.69
432.734	85.69
432.956	85.69
433.178	94.69
433.4	94.69
433.622	76.69
433.844	86.69
434.066	71.69
434.287	87.69
434.509	98.69
434.731	85.69
434.953	98.69
435.175	86.69
435.397	94.69
435.618	89.69
435.84	82.69
436.062	87.69
436.284	83.69
436.505	88.69
436.727	94.69
436.949	87.69
437.17	94.69
437.392	87.69
437.614	96.69
437.835	80.69
438.057	86.69
438.278	90.69
438.5	80.69
438.721	91.69
438.943	96.69
439.165	90.69
439.386	75.69
439.608	92.69
439.829	100.69
440.05	79.69
440.272	93.69
440.493	105.69
440.715	107.69
440.936	88.69
441.158	87.69
441.379	79.69
441.6	91.69
441.822	93.69
442.043	96.69
442.264	81.69
442.486	98.69
442.707	80.69
442.928	82.69
443.149	87.69
443.371	78.69
443.592	86.69
443.813	85.69
444.034	103.69
444.255	90.69
444.476	88.69
444.698	89.69
444.919	87.69
445.14	150.69
445.361	127.69
445.582	84.69
445.803	76.69
446.024	86.69
446.245	103.69
446.466	93.69
446.687	86.69
446.908	93.69
447.129	90.69
447.35	88.69
447.571	89.69
447.792	98.69
448.013	87.69
448.234	84.69
448.455	78.69
448.675	78.69
448.896	70.69
449.117	70.69
449.338	79.69
449.559	75.69
449.779	84.69
450	76.69
450.221	91.69
450.442	78.69
450.662	87.69
450.883	89.69
451.104	79.69
451.324	87.69
451.545	86.69
451.766	103.69
451.986	97.69
452.207	84.69
452.428	92.69
452.648	95.69
452.869	86.69
453.089	84.69
453.31	86.69
453.53	99.69
453.751	94.69
453.971	77.69
454.192	90.69
454.412	96.69
454.633	88.69
454.853	82.69
455.073	91.69
455.294	86.69
455.514	72.69
455.734	77.69
455.955	78.69
456.175	85.69
456.395	93.69
456.616	106.69
456.836	84.69
457.056	92.69
457.276	89.69
457.497	94.69
457.717	74.69
457.937	98.69
458.157	84.69
458.377	92.69
458.598	84.69
458.818	82.69
459.038	74.69
459.258	95.69
459.478	93.69
459.698	81.69
459.918	100.69
460.138	83.69
460.358	86.69
460.578	94.69
460.798	86.69
461.018	95.69
461.238	100.69
461.458	86.69
461.678	88.69
461.898	86.69
462.118	79.69
462.338	80.69
462.558	106.69
462.777	87.69
462.997	94.69
463.217	90.69
463.437	81.69
463.657	101.69
463.876	94.69
464.096	92.69
464.316	77.69
464.536	74.69
464.755	83.69
464.975	98.69
465.195	87.69
465.414	84.69
465.634	83.69
465.854	79.69
466.073	86.69
466.293	83.69
466.512	78.69
466.732	84.69
466.951	82.69
467.171	86.69
467.391	95.69
467.61	75.69
467.829	91.69
468.049	82.69
468.268	90.69
468.488	86.69
468.707	91.69
468.927	86.69
469.146	77.69
469.365	76.69
469.585	79.69
469.804	88.69
470.023	86.69
470.243	91.69
470.462	95.69
470.681	88.69
470.901	82.69
471.12	95.69
471.339	76.69
471.558	90.69
471.777	87.69
471.997	82.69
472.216	104.69
472.435	76.69
472.654	83.69
472.873	94.69
473.092	98.69
473.311	92.69
473.53	90.69
473.749	81.69
473.968	86.69
474.187	90.69
474.406	87.69
474.625	85.69
474.844	94.69
475.063	99.69
475.282	91.69
475.501	92.69
475.72	90.69
475.939	98.69
476.158	94.69
476.377	84.69
476.596	87.69
476.814	90.69
477.033	87.69
477.252	77.69
477.471	95.69
477.69	94.69
477.908	88.69
478.127	79.69
478.346	93.69
478.564	95.69
478.783	109.69
479.002	88.69
479.22	90.69
479.439	82.69
479.658	102.69
479.876	88.69
480.095	88.69
480.313	79.69
480.532	89.69
480.751	91.69
480.969	86.69
481.188	96.69
481.406	88.69
481.624	86.69
481.843	83.69
482.061	85.69
482.28	99.69
482.498	86.69
482.717	84.69
482.935	90.69
483.153	64.69
483.372	85.69
483.59	89.69
483.808	98.69
484.027	84.69
484.245	90.69
484.463	85.69
484.681	81.69
484.9	81.69
485.118	86.69
485.336	100.69
485.554	83.69
485.772	91.69
485.99	83.69
486.209	96.69
486.427	90.69
486.645	94.69
486.863	83.69
487.081	97.69
487.299	94.69
487.517	91.69
487.735	87.69
487.953	76.69
488.171	85.69
488.389	90.69
488.607	93.69
488.825	83.69
489.043	97.69
489.261	88.69
489.479	91.69
489.696	98.69
489.914	80.69
490.132	74.69
490.35	113.69
490.568	89.69
490.786	91.69
491.003	88.69
491.221	90.69
491.439	100.69
491.657	86.69
491.874	95.69
492.092	93.69
492.31	82.69
492.527	90.69
492.745	88.69
492.963	82.69
493.18	96.69
493.398	80.69
493.615	91.69
493.833	82.69
494.05	90.69
494.268	82.69
494.485	87.69
494.703	83.69
494.92	90.69
495.138	88.69
495.355	99.69
495.573	108.69
495.79	86.69
496.008	85.69
496.225	84.69
496.442	78.69
496.66	87.69
496.877	86.69
497.094	101.69
497.312	93.69
497.529	102.69
497.746	95.69
497.963	84.69
498.181	91.69
498.398	87.69
498.615	98.69
498.832	88.69
499.049	94.69
499.267	92.69
499.484	89.69
499.701	103.69
499.918	117.69
500.135	110.69
500.352	87.69
500.569	107.69
500.786	106.69
501.003	109.69
501.22	102.69
501.437	114.69
501.654	84.69
501.871	95.69
502.088	104.69
502.305	89.69
502.522	99.69
502.739	102.69
502.956	92.69
503.172	96.69
503.389	100.69
503.606	100.69
503.823	79.69
504.04	98.69
504.256	98.69
504.473	86.69
504.69	96.69
504.907	94.69
505.123	88.69
505.34	89.69
505.557	89.69
505.773	100.69
505.99	94.69
506.207	82.69
506.423	74.69
506.64	72.69
506.856	91.69
507.073	86.69
507.289	92.69
507.506	106.69
507.722	85.69
507.939	80.69
508.155	88.69
508.372	93.69
508.588	89.69
508.805	106.69
509.021	89.69
509.238	84.69
509.454	90.69
509.67	87.69
509.887	81.69
510.103	83.69
510.319	85.69
510.536	79.69
510.752	75.69
510.968	84.69
511.184	85.69
511.401	83.69
511.617	78.69
511.833	83.69
512.049	94.69
512.265	86.69
512.481	93.69
512.698	91.69
512.914	92.69
513.13	82.69
513.346	82.69
513.562	93.69
513.778	87.69
513.994	99.69
514.21	96.69
514.426	86.69
514.642	96.69
514.858	99.69
515.074	91.69
515.29	81.69
515.506	85.69
515.721	90.69
515.937	101.69
516.153	85.69
516.369	95.69
516.585	90.69
516.801	95.69
517.016	88.69
517.232	87.69
517.448	89.69
517.664	87.69
517.879	89.69
518.095	90.69
518.311	89.69
518.527	90.69
518.742	91.69
518.958	84.69
519.173	78.69
519.389	94.69
