Data from BG_HRD10591_089.txt Node
Date: Fri May 16 15:15:07 EDT 2025
User: Yrep
Spectrometer: HR+D1059
Trigger mode: 1
Integration Time (sec): 1.000000E-1
Scans to average: 1
Electric dark correction enabled: true
Nonlinearity correction enabled: false
Boxcar width: 0
XAxis mode: Wavelengths
Number of Pixels in Spectrum: 2048
>>>>>Begin Spectral Data<<<<<
223.165	-28.69
223.4	-28.69
223.635	-28.69
223.869	-16.69
224.104	-7.69
224.338	-22.69
224.573	-11.69
224.808	-3.69
225.042	-16.69
225.277	-9.69
225.511	-8.69
225.746	-0.69
225.98	2.31
226.215	13.31
226.449	7.31
226.683	23.31
226.918	36.31
227.152	44.31
227.387	36.31
227.621	36.31
227.856	34.31
228.09	28.31
228.324	49.31
228.559	55.31
228.793	48.31
229.027	71.31
229.262	73.31
229.496	65.31
229.73	51.31
229.964	59.31
230.199	70.31
230.433	65.31
230.667	63.31
230.901	83.31
231.136	81.31
231.37	68.31
231.604	71.31
231.838	61.31
232.072	71.31
232.306	82.31
232.541	73.31
232.775	79.31
233.009	77.31
233.243	61.31
233.477	81.31
233.711	79.31
233.945	77.31
234.179	80.31
234.413	78.31
234.647	73.31
234.881	76.31
235.115	69.31
235.349	78.31
235.583	74.31
235.817	90.31
236.051	82.31
236.285	86.31
236.519	63.31
236.753	74.31
236.987	81.31
237.221	88.31
237.455	81.31
237.689	89.31
237.922	78.31
238.156	71.31
238.39	58.31
238.624	63.31
238.858	76.31
239.091	54.31
239.325	67.31
239.559	80.31
239.793	71.31
240.027	79.31
240.26	81.31
240.494	78.31
240.728	70.31
240.961	54.31
241.195	69.31
241.429	66.31
241.662	64.31
241.896	67.31
242.13	88.31
242.363	72.31
242.597	68.31
242.83	71.31
243.064	72.31
243.298	69.31
243.531	89.31
243.765	71.31
243.998	73.31
244.232	82.31
244.465	65.31
244.699	64.31
244.932	74.31
245.166	66.31
245.399	73.31
245.633	71.31
245.866	70.31
246.099	67.31
246.333	74.31
246.566	80.31
246.8	75.31
247.033	77.31
247.266	79.31
247.5	73.31
247.733	75.31
247.966	92.31
248.2	73.31
248.433	83.31
248.666	78.31
248.899	63.31
249.133	93.31
249.366	81.31
249.599	75.31
249.832	83.31
250.066	93.31
250.299	59.31
250.532	71.31
250.765	78.31
250.998	74.31
251.231	74.31
251.465	86.31
251.698	66.31
251.931	81.31
252.164	59.31
252.397	72.31
252.63	70.31
252.863	74.31
253.096	85.31
253.329	85.31
253.562	81.31
253.795	74.31
254.028	72.31
254.261	66.31
254.494	86.31
254.727	78.31
254.96	77.31
255.193	86.31
255.426	71.31
255.659	79.31
255.892	81.31
256.124	73.31
256.357	80.31
256.59	69.31
256.823	64.31
257.056	87.31
257.289	77.31
257.521	81.31
257.754	78.31
257.987	74.31
258.22	80.31
258.452	84.31
258.685	55.31
258.918	76.31
259.151	73.31
259.383	84.31
259.616	78.31
259.849	89.31
260.081	64.31
260.314	88.31
260.547	81.31
260.779	86.31
261.012	69.31
261.244	70.31
261.477	85.31
261.71	84.31
261.942	68.31
262.175	73.31
262.407	65.31
262.64	81.31
262.872	84.31
263.105	85.31
263.337	79.31
263.57	69.31
263.802	71.31
264.035	82.31
264.267	69.31
264.499	70.31
264.732	81.31
264.964	82.31
265.197	65.31
265.429	82.31
265.661	97.31
265.894	84.31
266.126	99.31
266.358	88.31
266.591	81.31
266.823	85.31
267.055	80.31
267.287	67.31
267.52	84.31
267.752	85.31
267.984	87.31
268.216	90.31
268.448	68.31
268.681	76.31
268.913	75.31
269.145	79.31
269.377	91.31
269.609	87.31
269.841	70.31
270.073	80.31
270.306	81.31
270.538	86.31
270.77	79.31
271.002	93.31
271.234	82.31
271.466	82.31
271.698	78.31
271.93	78.31
272.162	78.31
272.394	77.31
272.626	80.31
272.858	84.31
273.09	82.31
273.322	63.31
273.553	76.31
273.785	84.31
274.017	86.31
274.249	76.31
274.481	98.31
274.713	81.31
274.945	61.31
275.176	84.31
275.408	94.31
275.64	84.31
275.872	80.31
276.104	90.31
276.335	83.31
276.567	87.31
276.799	91.31
277.031	75.31
277.262	75.31
277.494	87.31
277.726	84.31
277.957	73.31
278.189	87.31
278.421	79.31
278.652	75.31
278.884	85.31
279.115	85.31
279.347	76.31
279.579	84.31
279.81	69.31
280.042	75.31
280.273	70.31
280.505	88.31
280.736	77.31
280.968	80.31
281.199	74.31
281.431	88.31
281.662	78.31
281.894	87.31
282.125	86.31
282.356	85.31
282.588	77.31
282.819	78.31
283.051	80.31
283.282	94.31
283.513	89.31
283.745	99.31
283.976	84.31
284.207	87.31
284.439	93.31
284.67	75.31
284.901	84.31
285.132	89.31
285.364	77.31
285.595	85.31
285.826	92.31
286.057	88.31
286.288	91.31
286.52	76.31
286.751	77.31
286.982	86.31
287.213	78.31
287.444	71.31
287.675	90.31
287.906	84.31
288.138	93.31
288.369	76.31
288.6	78.31
288.831	90.31
289.062	90.31
289.293	76.31
289.524	80.31
289.755	85.31
289.986	84.31
290.217	88.31
290.448	70.31
290.679	77.31
290.91	78.31
291.141	71.31
291.371	75.31
291.602	79.31
291.833	71.31
292.064	80.31
292.295	98.31
292.526	99.31
292.757	86.31
292.987	90.31
293.218	90.31
293.449	83.31
293.68	99.31
293.91	84.31
294.141	97.31
294.372	71.31
294.603	89.31
294.833	92.31
295.064	86.31
295.295	81.31
295.525	84.31
295.756	86.31
295.987	74.31
296.217	92.31
296.448	85.31
296.679	76.31
296.909	89.31
297.14	84.31
297.37	81.31
297.601	81.31
297.831	91.31
298.062	87.31
298.292	84.31
298.523	85.31
298.753	82.31
298.984	92.31
299.214	71.31
299.445	73.31
299.675	91.31
299.905	74.31
300.136	92.31
300.366	82.31
300.597	89.31
300.827	68.31
301.057	85.31
301.288	82.31
301.518	98.31
301.748	90.31
301.979	93.31
302.209	87.31
302.439	88.31
302.669	87.31
302.9	101.31
303.13	78.31
303.36	92.31
303.59	89.31
303.82	91.31
304.051	89.31
304.281	72.31
304.511	86.31
304.741	81.31
304.971	87.31
305.201	85.31
305.431	74.31
305.661	72.31
305.891	83.31
306.121	91.31
306.352	81.31
306.582	86.31
306.812	85.31
307.042	94.31
307.272	91.31
307.502	81.31
307.731	83.31
307.961	92.31
308.191	89.31
308.421	87.31
308.651	86.31
308.881	78.31
309.111	85.31
309.341	85.31
309.571	82.31
309.8	77.31
310.03	80.31
310.26	91.31
310.49	72.31
310.72	75.31
310.949	91.31
311.179	94.31
311.409	80.31
311.639	81.31
311.868	83.31
312.098	91.31
312.328	83.31
312.557	91.31
312.787	88.31
313.017	75.31
313.246	87.31
313.476	104.31
313.706	87.31
313.935	81.31
314.165	84.31
314.394	81.31
314.624	89.31
314.853	82.31
315.083	84.31
315.312	89.31
315.542	90.31
315.771	69.31
316.001	92.31
316.23	87.31
316.46	74.31
316.689	102.31
316.919	85.31
317.148	77.31
317.377	77.31
317.607	90.31
317.836	79.31
318.065	81.31
318.295	97.31
318.524	76.31
318.753	94.31
318.983	83.31
319.212	89.31
319.441	77.31
319.67	93.31
319.9	96.31
320.129	89.31
320.358	99.31
320.587	81.31
320.816	93.31
321.046	89.31
321.275	84.31
321.504	77.31
321.733	97.31
321.962	86.31
322.191	89.31
322.42	75.31
322.649	83.31
322.878	87.31
323.108	100.31
323.337	92.31
323.566	104.31
323.795	85.31
324.024	81.31
324.253	76.31
324.482	87.31
324.71	93.31
324.939	82.31
325.168	105.31
325.397	98.31
325.626	79.31
325.855	87.31
326.084	86.31
326.313	91.31
326.542	76.31
326.77	87.31
326.999	76.31
327.228	82.31
327.457	75.31
327.686	95.31
327.914	104.31
328.143	84.31
328.372	82.31
328.6	93.31
328.829	87.31
329.058	98.31
329.287	89.31
329.515	87.31
329.744	83.31
329.972	73.31
330.201	71.31
330.43	108.31
330.658	82.31
330.887	90.31
331.115	84.31
331.344	81.31
331.572	87.31
331.801	90.31
332.03	92.31
332.258	85.31
332.486	79.31
332.715	87.31
332.943	85.31
333.172	87.31
333.4	90.31
333.629	82.31
333.857	79.31
334.085	81.31
334.314	88.31
334.542	88.31
334.771	97.31
334.999	94.31
335.227	84.31
335.455	91.31
335.684	91.31
335.912	72.31
336.14	89.31
336.369	72.31
336.597	91.31
336.825	100.31
337.053	87.31
337.281	92.31
337.51	90.31
337.738	94.31
337.966	85.31
338.194	78.31
338.422	87.31
338.65	82.31
338.878	85.31
339.106	87.31
339.334	77.31
339.562	74.31
339.79	90.31
340.018	93.31
340.246	78.31
340.474	88.31
340.702	77.31
340.93	66.31
341.158	85.31
341.386	83.31
341.614	89.31
341.842	104.31
342.07	76.31
342.298	83.31
342.526	93.31
342.754	98.31
342.981	91.31
343.209	94.31
343.437	109.31
343.665	81.31
343.893	79.31
344.12	103.31
344.348	82.31
344.576	87.31
344.804	58.31
345.031	77.31
345.259	81.31
345.487	105.31
345.714	81.31
345.942	73.31
346.17	77.31
346.397	95.31
346.625	91.31
346.853	74.31
347.08	86.31
347.308	79.31
347.535	86.31
347.763	89.31
347.99	95.31
348.218	88.31
348.445	87.31
348.673	87.31
348.9	84.31
349.128	97.31
349.355	75.31
349.583	86.31
349.81	83.31
350.037	78.31
350.265	83.31
350.492	83.31
350.72	79.31
350.947	85.31
351.174	85.31
351.402	89.31
351.629	88.31
351.856	85.31
352.083	81.31
352.311	86.31
352.538	88.31
352.765	89.31
352.992	77.31
353.22	86.31
353.447	98.31
353.674	83.31
353.901	93.31
354.128	79.31
354.355	82.31
354.583	92.31
354.81	83.31
355.037	88.31
355.264	93.31
355.491	100.31
355.718	98.31
355.945	85.31
356.172	93.31
356.399	79.31
356.626	82.31
356.853	84.31
357.08	88.31
357.307	90.31
357.534	82.31
357.761	91.31
357.988	87.31
358.215	81.31
358.441	69.31
358.668	92.31
358.895	75.31
359.122	102.31
359.349	89.31
359.576	78.31
359.802	70.31
360.029	84.31
360.256	85.31
360.483	78.31
360.709	78.31
360.936	94.31
361.163	87.31
361.39	77.31
361.616	80.31
361.843	77.31
362.07	80.31
362.296	82.31
362.523	80.31
362.749	68.31
362.976	86.31
363.203	93.31
363.429	81.31
363.656	85.31
363.882	87.31
364.109	94.31
364.335	100.31
364.562	76.31
364.788	82.31
365.015	87.31
365.241	82.31
365.468	81.31
365.694	79.31
365.92	81.31
366.147	85.31
366.373	79.31
366.599	84.31
366.826	75.31
367.052	79.31
367.278	87.31
367.505	77.31
367.731	99.31
367.957	89.31
368.184	81.31
368.41	78.31
368.636	94.31
368.862	94.31
369.089	74.31
369.315	84.31
369.541	74.31
369.767	73.31
369.993	87.31
370.219	93.31
370.445	104.31
370.672	83.31
370.898	88.31
371.124	89.31
371.35	87.31
371.576	93.31
371.802	74.31
372.028	102.31
372.254	82.31
372.48	75.31
372.706	86.31
372.932	82.31
373.158	81.31
373.384	79.31
373.61	77.31
373.835	70.31
374.061	79.31
374.287	71.31
374.513	70.31
374.739	85.31
374.965	77.31
375.191	86.31
375.416	86.31
375.642	100.31
375.868	95.31
376.094	87.31
376.319	62.31
376.545	74.31
376.771	88.31
376.997	77.31
377.222	84.31
377.448	86.31
377.674	78.31
377.899	85.31
378.125	88.31
378.35	89.31
378.576	79.31
378.802	90.31
379.027	95.31
379.253	79.31
379.478	87.31
379.704	99.31
379.929	82.31
380.155	73.31
380.38	81.31
380.606	79.31
380.831	84.31
381.057	80.31
381.282	91.31
381.507	87.31
381.733	93.31
381.958	83.31
382.184	77.31
382.409	88.31
382.634	92.31
382.86	86.31
383.085	90.31
383.31	81.31
383.535	87.31
383.761	75.31
383.986	103.31
384.211	101.31
384.436	92.31
384.662	83.31
384.887	86.31
385.112	75.31
385.337	87.31
385.562	77.31
385.787	82.31
386.013	78.31
386.238	87.31
386.463	98.31
386.688	80.31
386.913	83.31
387.138	75.31
387.363	91.31
387.588	95.31
387.813	91.31
388.038	103.31
388.263	97.31
388.488	91.31
388.713	101.31
388.938	90.31
389.163	87.31
389.387	105.31
389.612	86.31
389.837	77.31
390.062	91.31
390.287	84.31
390.512	83.31
390.736	84.31
390.961	84.31
391.186	86.31
391.411	100.31
391.636	72.31
391.86	77.31
392.085	78.31
392.31	81.31
392.534	68.31
392.759	76.31
392.984	87.31
393.208	94.31
393.433	93.31
393.658	84.31
393.882	80.31
394.107	72.31
394.331	78.31
394.556	81.31
394.78	79.31
395.005	90.31
395.229	78.31
395.454	79.31
395.678	75.31
395.903	74.31
396.127	85.31
396.352	85.31
396.576	84.31
396.801	77.31
397.025	89.31
397.249	88.31
397.474	90.31
397.698	89.31
397.922	92.31
398.147	95.31
398.371	91.31
398.595	73.31
398.82	71.31
399.044	85.31
399.268	82.31
399.492	99.31
399.717	96.31
399.941	91.31
400.165	99.31
400.389	89.31
400.613	88.31
400.837	114.31
401.062	84.31
401.286	87.31
401.51	93.31
401.734	87.31
401.958	78.31
402.182	88.31
402.406	83.31
402.63	86.31
402.854	77.31
403.078	93.31
403.302	78.31
403.526	84.31
403.75	97.31
403.974	89.31
404.198	95.31
404.422	82.31
404.645	86.31
404.869	76.31
405.093	88.31
405.317	102.31
405.541	99.31
405.765	86.31
405.988	93.31
406.212	105.31
406.436	82.31
406.66	97.31
406.883	100.31
407.107	72.31
407.331	87.31
407.555	86.31
407.778	90.31
408.002	89.31
408.226	87.31
408.449	93.31
408.673	81.31
408.896	75.31
409.12	75.31
409.344	81.31
409.567	105.31
409.791	74.31
410.014	99.31
410.238	101.31
410.461	94.31
410.685	91.31
410.908	96.31
411.132	84.31
411.355	74.31
411.578	91.31
411.802	95.31
412.025	106.31
412.249	91.31
412.472	113.31
412.695	79.31
412.919	77.31
413.142	70.31
413.365	94.31
413.589	100.31
413.812	87.31
414.035	93.31
414.258	98.31
414.482	97.31
414.705	94.31
414.928	93.31
415.151	70.31
415.374	77.31
415.597	85.31
415.821	93.31
416.044	98.31
416.267	84.31
416.49	87.31
416.713	90.31
416.936	81.31
417.159	94.31
417.382	83.31
417.605	86.31
417.828	89.31
418.051	89.31
418.274	87.31
418.497	87.31
418.72	75.31
418.943	91.31
419.166	83.31
419.389	68.31
419.611	101.31
419.834	83.31
420.057	75.31
420.28	97.31
420.503	92.31
420.726	89.31
420.948	77.31
421.171	76.31
421.394	94.31
421.617	98.31
421.839	97.31
422.062	97.31
422.285	92.31
422.507	82.31
422.73	79.31
422.953	78.31
423.175	83.31
423.398	81.31
423.621	85.31
423.843	88.31
424.066	87.31
424.288	84.31
424.511	76.31
424.733	92.31
424.956	88.31
425.178	75.31
425.401	81.31
425.623	69.31
425.846	84.31
426.068	85.31
426.291	93.31
426.513	85.31
426.735	82.31
426.958	86.31
427.18	85.31
427.402	88.31
427.625	85.31
427.847	76.31
428.069	81.31
428.292	88.31
428.514	92.31
428.736	89.31
428.958	86.31
429.181	81.31
429.403	88.31
429.625	86.31
429.847	93.31
430.069	86.31
430.292	74.31
430.514	76.31
430.736	99.31
430.958	79.31
431.18	89.31
431.402	85.31
431.624	95.31
431.846	82.31
432.068	92.31
432.29	75.31
432.512	85.31
432.734	68.31
432.956	84.31
433.178	74.31
433.4	89.31
433.622	89.31
433.844	85.31
434.066	94.31
434.287	83.31
434.509	82.31
434.731	92.31
434.953	86.31
435.175	90.31
435.397	89.31
435.618	89.31
435.84	81.31
436.062	95.31
436.284	92.31
436.505	86.31
436.727	81.31
436.949	74.31
437.17	85.31
437.392	94.31
437.614	89.31
437.835	104.31
438.057	73.31
438.278	87.31
438.5	100.31
438.721	85.31
438.943	82.31
439.165	79.31
439.386	91.31
439.608	90.31
439.829	68.31
440.05	85.31
440.272	87.31
440.493	95.31
440.715	79.31
440.936	95.31
441.158	91.31
441.379	76.31
441.6	95.31
441.822	82.31
442.043	86.31
442.264	89.31
442.486	90.31
442.707	94.31
442.928	99.31
443.149	94.31
443.371	73.31
443.592	85.31
443.813	94.31
444.034	79.31
444.255	77.31
444.476	65.31
444.698	99.31
444.919	85.31
445.14	142.31
445.361	120.31
445.582	70.31
445.803	98.31
446.024	79.31
446.245	90.31
446.466	76.31
446.687	81.31
446.908	84.31
447.129	79.31
447.35	86.31
447.571	94.31
447.792	77.31
448.013	85.31
448.234	86.31
448.455	83.31
448.675	88.31
448.896	95.31
449.117	91.31
449.338	86.31
449.559	103.31
449.779	90.31
450	92.31
450.221	78.31
450.442	82.31
450.662	77.31
450.883	80.31
451.104	69.31
451.324	94.31
451.545	88.31
451.766	89.31
451.986	87.31
452.207	81.31
452.428	82.31
452.648	93.31
452.869	91.31
453.089	77.31
453.31	85.31
453.53	92.31
453.751	83.31
453.971	83.31
454.192	92.31
454.412	95.31
454.633	91.31
454.853	75.31
455.073	86.31
455.294	90.31
455.514	95.31
455.734	83.31
455.955	75.31
456.175	89.31
456.395	76.31
456.616	78.31
456.836	82.31
457.056	78.31
457.276	81.31
457.497	85.31
457.717	89.31
457.937	85.31
458.157	78.31
458.377	71.31
458.598	83.31
458.818	76.31
459.038	90.31
459.258	88.31
459.478	77.31
459.698	73.31
459.918	74.31
460.138	81.31
460.358	78.31
460.578	80.31
460.798	80.31
461.018	97.31
461.238	92.31
461.458	112.31
461.678	93.31
461.898	82.31
462.118	78.31
462.338	92.31
462.558	100.31
462.777	89.31
462.997	100.31
463.217	103.31
463.437	97.31
463.657	82.31
463.876	88.31
464.096	91.31
464.316	89.31
464.536	83.31
464.755	81.31
464.975	97.31
465.195	90.31
465.414	69.31
465.634	80.31
465.854	90.31
466.073	86.31
466.293	75.31
466.512	76.31
466.732	81.31
466.951	66.31
467.171	82.31
467.391	78.31
467.61	81.31
467.829	88.31
468.049	94.31
468.268	85.31
468.488	70.31
468.707	69.31
468.927	98.31
469.146	85.31
469.365	82.31
469.585	82.31
469.804	104.31
470.023	89.31
470.243	74.31
470.462	69.31
470.681	99.31
470.901	88.31
471.12	96.31
471.339	94.31
471.558	77.31
471.777	79.31
471.997	83.31
472.216	80.31
472.435	85.31
472.654	92.31
472.873	80.31
473.092	97.31
473.311	88.31
473.53	85.31
473.749	72.31
473.968	98.31
474.187	86.31
474.406	80.31
474.625	98.31
474.844	102.31
475.063	91.31
475.282	75.31
475.501	70.31
475.72	102.31
475.939	85.31
476.158	78.31
476.377	85.31
476.596	85.31
476.814	98.31
477.033	86.31
477.252	79.31
477.471	77.31
477.69	87.31
477.908	83.31
478.127	87.31
478.346	85.31
478.564	87.31
478.783	67.31
479.002	85.31
479.22	94.31
479.439	90.31
479.658	83.31
479.876	93.31
480.095	90.31
480.313	83.31
480.532	82.31
480.751	108.31
480.969	89.31
481.188	92.31
481.406	90.31
481.624	81.31
481.843	76.31
482.061	79.31
482.28	82.31
482.498	96.31
482.717	86.31
482.935	101.31
483.153	84.31
483.372	77.31
483.59	77.31
483.808	60.31
484.027	97.31
484.245	76.31
484.463	78.31
484.681	95.31
484.9	79.31
485.118	84.31
485.336	92.31
485.554	90.31
485.772	98.31
485.99	89.31
486.209	94.31
486.427	92.31
486.645	92.31
486.863	80.31
487.081	87.31
487.299	104.31
487.517	75.31
487.735	86.31
487.953	87.31
488.171	98.31
488.389	88.31
488.607	81.31
488.825	91.31
489.043	89.31
489.261	85.31
489.479	85.31
489.696	82.31
489.914	97.31
490.132	83.31
490.35	77.31
490.568	83.31
490.786	82.31
491.003	97.31
491.221	101.31
491.439	79.31
491.657	89.31
491.874	80.31
492.092	75.31
492.31	78.31
492.527	65.31
492.745	82.31
492.963	79.31
493.18	93.31
493.398	89.31
493.615	89.31
493.833	72.31
494.05	85.31
494.268	86.31
494.485	90.31
494.703	98.31
494.92	91.31
495.138	84.31
495.355	76.31
495.573	94.31
495.79	98.31
496.008	81.31
496.225	95.31
496.442	85.31
496.66	106.31
496.877	99.31
497.094	84.31
497.312	79.31
497.529	90.31
497.746	91.31
497.963	90.31
498.181	77.31
498.398	86.31
498.615	98.31
498.832	103.31
499.049	110.31
499.267	102.31
499.484	109.31
499.701	86.31
499.918	94.31
500.135	123.31
500.352	119.31
500.569	110.31
500.786	102.31
501.003	116.31
501.22	113.31
501.437	93.31
501.654	109.31
501.871	89.31
502.088	100.31
502.305	91.31
502.522	89.31
502.739	100.31
502.956	90.31
503.172	101.31
503.389	81.31
503.606	99.31
503.823	88.31
504.04	92.31
504.256	92.31
504.473	101.31
504.69	92.31
504.907	83.31
505.123	85.31
505.34	87.31
505.557	90.31
505.773	79.31
505.99	73.31
506.207	98.31
506.423	94.31
506.64	89.31
506.856	89.31
507.073	98.31
507.289	76.31
507.506	97.31
507.722	95.31
507.939	79.31
508.155	92.31
508.372	80.31
508.588	103.31
508.805	88.31
509.021	88.31
509.238	88.31
509.454	88.31
509.67	89.31
509.887	94.31
510.103	81.31
510.319	82.31
510.536	85.31
510.752	86.31
510.968	95.31
511.184	86.31
511.401	100.31
511.617	97.31
511.833	98.31
512.049	78.31
512.265	94.31
512.481	77.31
512.698	82.31
512.914	91.31
513.13	95.31
513.346	93.31
513.562	90.31
513.778	91.31
513.994	92.31
514.21	90.31
514.426	84.31
514.642	94.31
514.858	84.31
515.074	95.31
515.29	77.31
515.506	82.31
515.721	83.31
515.937	90.31
516.153	82.31
516.369	74.31
516.585	83.31
516.801	79.31
517.016	75.31
517.232	87.31
517.448	90.31
517.664	90.31
517.879	99.31
518.095	90.31
518.311	92.31
518.527	105.31
518.742	95.31
518.958	88.31
519.173	78.31
519.389	77.31
