Data from BG_HRD10591_035.txt Node
Date: Fri May 16 15:14:40 EDT 2025
User: Yrep
Spectrometer: HR+D1059
Trigger mode: 1
Integration Time (sec): 1.000000E-1
Scans to average: 1
Electric dark correction enabled: true
Nonlinearity correction enabled: false
Boxcar width: 0
XAxis mode: Wavelengths
Number of Pixels in Spectrum: 2048
>>>>>Begin Spectral Data<<<<<
223.165	-2.25
223.4	-2.25
223.635	-2.25
223.869	-10.25
224.104	-17.25
224.338	-18.25
224.573	-18.25
224.808	-16.25
225.042	-4.25
225.277	-12.25
225.511	2.75
225.746	-4.25
225.98	22.75
226.215	3.75
226.449	3.75
226.683	22.75
226.918	12.75
227.152	34.75
227.387	39.75
227.621	35.75
227.856	38.75
228.09	49.75
228.324	31.75
228.559	69.75
228.793	53.75
229.027	50.75
229.262	55.75
229.496	64.75
229.73	61.75
229.964	76.75
230.199	66.75
230.433	52.75
230.667	74.75
230.901	78.75
231.136	73.75
231.37	94.75
231.604	79.75
231.838	81.75
232.072	77.75
232.306	82.75
232.541	71.75
232.775	72.75
233.009	69.75
233.243	65.75
233.477	82.75
233.711	77.75
233.945	72.75
234.179	83.75
234.413	73.75
234.647	81.75
234.881	85.75
235.115	74.75
235.349	71.75
235.583	72.75
235.817	73.75
236.051	85.75
236.285	77.75
236.519	79.75
236.753	70.75
236.987	59.75
237.221	75.75
237.455	89.75
237.689	73.75
237.922	75.75
238.156	70.75
238.39	76.75
238.624	71.75
238.858	75.75
239.091	77.75
239.325	61.75
239.559	82.75
239.793	74.75
240.027	89.75
240.26	74.75
240.494	83.75
240.728	72.75
240.961	69.75
241.195	68.75
241.429	81.75
241.662	83.75
241.896	78.75
242.13	74.75
242.363	71.75
242.597	67.75
242.83	75.75
243.064	71.75
243.298	62.75
243.531	65.75
243.765	73.75
243.998	74.75
244.232	85.75
244.465	86.75
244.699	74.75
244.932	69.75
245.166	85.75
245.399	67.75
245.633	86.75
245.866	70.75
246.099	80.75
246.333	75.75
246.566	73.75
246.8	74.75
247.033	82.75
247.266	63.75
247.5	79.75
247.733	77.75
247.966	89.75
248.2	80.75
248.433	77.75
248.666	77.75
248.899	80.75
249.133	77.75
249.366	68.75
249.599	87.75
249.832	88.75
250.066	87.75
250.299	83.75
250.532	85.75
250.765	60.75
250.998	78.75
251.231	81.75
251.465	69.75
251.698	91.75
251.931	89.75
252.164	72.75
252.397	75.75
252.63	83.75
252.863	86.75
253.096	90.75
253.329	78.75
253.562	75.75
253.795	78.75
254.028	90.75
254.261	83.75
254.494	66.75
254.727	78.75
254.96	84.75
255.193	81.75
255.426	94.75
255.659	74.75
255.892	82.75
256.124	65.75
256.357	69.75
256.59	87.75
256.823	72.75
257.056	75.75
257.289	81.75
257.521	82.75
257.754	89.75
257.987	77.75
258.22	82.75
258.452	83.75
258.685	87.75
258.918	86.75
259.151	79.75
259.383	64.75
259.616	69.75
259.849	73.75
260.081	92.75
260.314	79.75
260.547	77.75
260.779	75.75
261.012	80.75
261.244	90.75
261.477	88.75
261.71	87.75
261.942	75.75
262.175	88.75
262.407	79.75
262.64	82.75
262.872	90.75
263.105	79.75
263.337	82.75
263.57	65.75
263.802	83.75
264.035	78.75
264.267	73.75
264.499	72.75
264.732	76.75
264.964	85.75
265.197	84.75
265.429	83.75
265.661	78.75
265.894	94.75
266.126	78.75
266.358	77.75
266.591	84.75
266.823	87.75
267.055	73.75
267.287	67.75
267.52	69.75
267.752	85.75
267.984	95.75
268.216	78.75
268.448	72.75
268.681	86.75
268.913	88.75
269.145	97.75
269.377	99.75
269.609	87.75
269.841	74.75
270.073	73.75
270.306	73.75
270.538	94.75
270.77	75.75
271.002	75.75
271.234	79.75
271.466	90.75
271.698	89.75
271.93	80.75
272.162	87.75
272.394	97.75
272.626	75.75
272.858	80.75
273.09	79.75
273.322	85.75
273.553	85.75
273.785	77.75
274.017	79.75
274.249	82.75
274.481	76.75
274.713	78.75
274.945	78.75
275.176	82.75
275.408	99.75
275.64	89.75
275.872	73.75
276.104	81.75
276.335	81.75
276.567	85.75
276.799	83.75
277.031	74.75
277.262	91.75
277.494	93.75
277.726	79.75
277.957	74.75
278.189	82.75
278.421	76.75
278.652	73.75
278.884	76.75
279.115	75.75
279.347	79.75
279.579	64.75
279.81	69.75
280.042	92.75
280.273	69.75
280.505	91.75
280.736	94.75
280.968	94.75
281.199	79.75
281.431	90.75
281.662	85.75
281.894	82.75
282.125	97.75
282.356	74.75
282.588	71.75
282.819	83.75
283.051	82.75
283.282	94.75
283.513	90.75
283.745	72.75
283.976	94.75
284.207	81.75
284.439	74.75
284.67	89.75
284.901	79.75
285.132	86.75
285.364	83.75
285.595	97.75
285.826	90.75
286.057	91.75
286.288	77.75
286.52	82.75
286.751	93.75
286.982	77.75
287.213	80.75
287.444	80.75
287.675	92.75
287.906	74.75
288.138	94.75
288.369	86.75
288.6	87.75
288.831	83.75
289.062	85.75
289.293	86.75
289.524	87.75
289.755	64.75
289.986	92.75
290.217	88.75
290.448	99.75
290.679	86.75
290.91	99.75
291.141	78.75
291.371	78.75
291.602	98.75
291.833	98.75
292.064	80.75
292.295	83.75
292.526	101.75
292.757	86.75
292.987	87.75
293.218	84.75
293.449	88.75
293.68	91.75
293.91	92.75
294.141	97.75
294.372	77.75
294.603	90.75
294.833	81.75
295.064	88.75
295.295	75.75
295.525	80.75
295.756	93.75
295.987	77.75
296.217	86.75
296.448	87.75
296.679	79.75
296.909	89.75
297.14	85.75
297.37	86.75
297.601	74.75
297.831	84.75
298.062	86.75
298.292	102.75
298.523	91.75
298.753	85.75
298.984	77.75
299.214	78.75
299.445	75.75
299.675	105.75
299.905	94.75
300.136	98.75
300.366	90.75
300.597	85.75
300.827	93.75
301.057	82.75
301.288	74.75
301.518	86.75
301.748	79.75
301.979	92.75
302.209	94.75
302.439	82.75
302.669	87.75
302.9	85.75
303.13	76.75
303.36	85.75
303.59	97.75
303.82	93.75
304.051	91.75
304.281	88.75
304.511	83.75
304.741	85.75
304.971	85.75
305.201	83.75
305.431	84.75
305.661	78.75
305.891	81.75
306.121	90.75
306.352	80.75
306.582	83.75
306.812	74.75
307.042	88.75
307.272	87.75
307.502	77.75
307.731	99.75
307.961	85.75
308.191	81.75
308.421	87.75
308.651	71.75
308.881	72.75
309.111	85.75
309.341	80.75
309.571	90.75
309.8	93.75
310.03	78.75
310.26	95.75
310.49	74.75
310.72	79.75
310.949	83.75
311.179	86.75
311.409	85.75
311.639	79.75
311.868	87.75
312.098	85.75
312.328	90.75
312.557	91.75
312.787	94.75
313.017	88.75
313.246	93.75
313.476	77.75
313.706	95.75
313.935	75.75
314.165	100.75
314.394	84.75
314.624	77.75
314.853	76.75
315.083	82.75
315.312	84.75
315.542	90.75
315.771	94.75
316.001	94.75
316.23	82.75
316.46	98.75
316.689	81.75
316.919	73.75
317.148	69.75
317.377	82.75
317.607	93.75
317.836	81.75
318.065	93.75
318.295	87.75
318.524	86.75
318.753	90.75
318.983	90.75
319.212	82.75
319.441	71.75
319.67	74.75
319.9	78.75
320.129	84.75
320.358	78.75
320.587	90.75
320.816	86.75
321.046	77.75
321.275	88.75
321.504	77.75
321.733	80.75
321.962	76.75
322.191	102.75
322.42	83.75
322.649	81.75
322.878	82.75
323.108	84.75
323.337	80.75
323.566	78.75
323.795	90.75
324.024	87.75
324.253	67.75
324.482	98.75
324.71	85.75
324.939	84.75
325.168	81.75
325.397	89.75
325.626	97.75
325.855	85.75
326.084	83.75
326.313	95.75
326.542	102.75
326.77	78.75
326.999	71.75
327.228	84.75
327.457	86.75
327.686	88.75
327.914	82.75
328.143	78.75
328.372	90.75
328.6	85.75
328.829	90.75
329.058	91.75
329.287	95.75
329.515	88.75
329.744	87.75
329.972	89.75
330.201	87.75
330.43	97.75
330.658	88.75
330.887	89.75
331.115	83.75
331.344	93.75
331.572	90.75
331.801	88.75
332.03	92.75
332.258	104.75
332.486	89.75
332.715	102.75
332.943	89.75
333.172	90.75
333.4	104.75
333.629	67.75
333.857	86.75
334.085	85.75
334.314	87.75
334.542	82.75
334.771	90.75
334.999	84.75
335.227	85.75
335.455	92.75
335.684	92.75
335.912	104.75
336.14	86.75
336.369	92.75
336.597	87.75
336.825	91.75
337.053	86.75
337.281	83.75
337.51	78.75
337.738	81.75
337.966	83.75
338.194	95.75
338.422	88.75
338.65	98.75
338.878	84.75
339.106	91.75
339.334	77.75
339.562	77.75
339.79	92.75
340.018	83.75
340.246	82.75
340.474	101.75
340.702	85.75
340.93	98.75
341.158	88.75
341.386	97.75
341.614	100.75
341.842	85.75
342.07	97.75
342.298	96.75
342.526	87.75
342.754	92.75
342.981	108.75
343.209	69.75
343.437	92.75
343.665	85.75
343.893	99.75
344.12	102.75
344.348	86.75
344.576	90.75
344.804	92.75
345.031	85.75
345.259	94.75
345.487	78.75
345.714	81.75
345.942	90.75
346.17	82.75
346.397	99.75
346.625	81.75
346.853	84.75
347.08	89.75
347.308	104.75
347.535	86.75
347.763	83.75
347.99	73.75
348.218	75.75
348.445	79.75
348.673	89.75
348.9	65.75
349.128	83.75
349.355	80.75
349.583	84.75
349.81	80.75
350.037	89.75
350.265	98.75
350.492	86.75
350.72	89.75
350.947	89.75
351.174	97.75
351.402	78.75
351.629	78.75
351.856	89.75
352.083	90.75
352.311	91.75
352.538	98.75
352.765	88.75
352.992	81.75
353.22	85.75
353.447	93.75
353.674	89.75
353.901	82.75
354.128	98.75
354.355	83.75
354.583	90.75
354.81	111.75
355.037	95.75
355.264	89.75
355.491	82.75
355.718	90.75
355.945	89.75
356.172	73.75
356.399	99.75
356.626	88.75
356.853	97.75
357.08	87.75
357.307	88.75
357.534	81.75
357.761	77.75
357.988	77.75
358.215	90.75
358.441	91.75
358.668	97.75
358.895	91.75
359.122	84.75
359.349	74.75
359.576	91.75
359.802	70.75
360.029	73.75
360.256	81.75
360.483	89.75
360.709	71.75
360.936	100.75
361.163	87.75
361.39	92.75
361.616	80.75
361.843	90.75
362.07	82.75
362.296	87.75
362.523	80.75
362.749	92.75
362.976	75.75
363.203	97.75
363.429	85.75
363.656	77.75
363.882	70.75
364.109	80.75
364.335	88.75
364.562	73.75
364.788	87.75
365.015	96.75
365.241	82.75
365.468	92.75
365.694	69.75
365.92	99.75
366.147	86.75
366.373	87.75
366.599	86.75
366.826	71.75
367.052	82.75
367.278	79.75
367.505	98.75
367.731	89.75
367.957	67.75
368.184	72.75
368.41	86.75
368.636	85.75
368.862	70.75
369.089	83.75
369.315	92.75
369.541	78.75
369.767	100.75
369.993	83.75
370.219	90.75
370.445	78.75
370.672	93.75
370.898	83.75
371.124	82.75
371.35	92.75
371.576	84.75
371.802	85.75
372.028	92.75
372.254	81.75
372.48	81.75
372.706	78.75
372.932	85.75
373.158	78.75
373.384	77.75
373.61	87.75
373.835	77.75
374.061	86.75
374.287	81.75
374.513	76.75
374.739	86.75
374.965	90.75
375.191	92.75
375.416	86.75
375.642	90.75
375.868	89.75
376.094	83.75
376.319	89.75
376.545	87.75
376.771	92.75
376.997	85.75
377.222	88.75
377.448	79.75
377.674	74.75
377.899	92.75
378.125	95.75
378.35	88.75
378.576	97.75
378.802	85.75
379.027	83.75
379.253	86.75
379.478	103.75
379.704	87.75
379.929	80.75
380.155	87.75
380.38	83.75
380.606	99.75
380.831	79.75
381.057	87.75
381.282	87.75
381.507	85.75
381.733	94.75
381.958	82.75
382.184	76.75
382.409	89.75
382.634	93.75
382.86	85.75
383.085	91.75
383.31	90.75
383.535	105.75
383.761	89.75
383.986	84.75
384.211	99.75
384.436	81.75
384.662	84.75
384.887	85.75
385.112	74.75
385.337	73.75
385.562	93.75
385.787	85.75
386.013	78.75
386.238	93.75
386.463	95.75
386.688	97.75
386.913	100.75
387.138	96.75
387.363	105.75
387.588	79.75
387.813	92.75
388.038	90.75
388.263	87.75
388.488	97.75
388.713	97.75
388.938	94.75
389.163	77.75
389.387	94.75
389.612	86.75
389.837	67.75
390.062	78.75
390.287	87.75
390.512	89.75
390.736	81.75
390.961	79.75
391.186	87.75
391.411	85.75
391.636	81.75
391.86	81.75
392.085	90.75
392.31	93.75
392.534	94.75
392.759	91.75
392.984	86.75
393.208	89.75
393.433	82.75
393.658	97.75
393.882	74.75
394.107	81.75
394.331	80.75
394.556	82.75
394.78	88.75
395.005	78.75
395.229	93.75
395.454	83.75
395.678	95.75
395.903	94.75
396.127	80.75
396.352	87.75
396.576	85.75
396.801	79.75
397.025	83.75
397.249	78.75
397.474	90.75
397.698	91.75
397.922	92.75
398.147	94.75
398.371	83.75
398.595	92.75
398.82	76.75
399.044	89.75
399.268	80.75
399.492	82.75
399.717	103.75
399.941	94.75
400.165	79.75
400.389	91.75
400.613	90.75
400.837	82.75
401.062	86.75
401.286	110.75
401.51	90.75
401.734	83.75
401.958	93.75
402.182	88.75
402.406	86.75
402.63	88.75
402.854	87.75
403.078	93.75
403.302	89.75
403.526	97.75
403.75	97.75
403.974	78.75
404.198	92.75
404.422	90.75
404.645	92.75
404.869	85.75
405.093	85.75
405.317	83.75
405.541	80.75
405.765	101.75
405.988	94.75
406.212	83.75
406.436	94.75
406.66	94.75
406.883	87.75
407.107	80.75
407.331	78.75
407.555	86.75
407.778	90.75
408.002	91.75
408.226	83.75
408.449	90.75
408.673	99.75
408.896	88.75
409.12	91.75
409.344	86.75
409.567	84.75
409.791	91.75
410.014	89.75
410.238	91.75
410.461	94.75
410.685	91.75
410.908	95.75
411.132	84.75
411.355	89.75
411.578	85.75
411.802	89.75
412.025	75.75
412.249	97.75
412.472	75.75
412.695	87.75
412.919	89.75
413.142	84.75
413.365	86.75
413.589	82.75
413.812	82.75
414.035	99.75
414.258	81.75
414.482	88.75
414.705	83.75
414.928	105.75
415.151	102.75
415.374	93.75
415.597	88.75
415.821	93.75
416.044	88.75
416.267	98.75
416.49	81.75
416.713	97.75
416.936	102.75
417.159	87.75
417.382	83.75
417.605	62.75
417.828	93.75
418.051	81.75
418.274	87.75
418.497	97.75
418.72	92.75
418.943	92.75
419.166	106.75
419.389	87.75
419.611	90.75
419.834	81.75
420.057	83.75
420.28	90.75
420.503	90.75
420.726	88.75
420.948	98.75
421.171	97.75
421.394	79.75
421.617	87.75
421.839	74.75
422.062	106.75
422.285	95.75
422.507	94.75
422.73	91.75
422.953	84.75
423.175	90.75
423.398	87.75
423.621	81.75
423.843	93.75
424.066	92.75
424.288	93.75
424.511	92.75
424.733	98.75
424.956	87.75
425.178	79.75
425.401	95.75
425.623	93.75
425.846	92.75
426.068	93.75
426.291	80.75
426.513	79.75
426.735	98.75
426.958	93.75
427.18	81.75
427.402	97.75
427.625	87.75
427.847	95.75
428.069	83.75
428.292	81.75
428.514	83.75
428.736	92.75
428.958	80.75
429.181	91.75
429.403	88.75
429.625	89.75
429.847	85.75
430.069	92.75
430.292	84.75
430.514	90.75
430.736	83.75
430.958	97.75
431.18	73.75
431.402	89.75
431.624	83.75
431.846	89.75
432.068	81.75
432.29	94.75
432.512	86.75
432.734	91.75
432.956	83.75
433.178	88.75
433.4	89.75
433.622	90.75
433.844	83.75
434.066	84.75
434.287	83.75
434.509	74.75
434.731	87.75
434.953	90.75
435.175	85.75
435.397	69.75
435.618	82.75
435.84	70.75
436.062	97.75
436.284	99.75
436.505	90.75
436.727	92.75
436.949	92.75
437.17	86.75
437.392	88.75
437.614	86.75
437.835	78.75
438.057	91.75
438.278	79.75
438.5	93.75
438.721	98.75
438.943	94.75
439.165	97.75
439.386	94.75
439.608	92.75
439.829	86.75
440.05	89.75
440.272	87.75
440.493	98.75
440.715	78.75
440.936	85.75
441.158	85.75
441.379	86.75
441.6	95.75
441.822	83.75
442.043	91.75
442.264	77.75
442.486	88.75
442.707	95.75
442.928	84.75
443.149	94.75
443.371	85.75
443.592	80.75
443.813	87.75
444.034	86.75
444.255	85.75
444.476	90.75
444.698	83.75
444.919	85.75
445.14	167.75
445.361	125.75
445.582	91.75
445.803	105.75
446.024	84.75
446.245	90.75
446.466	90.75
446.687	87.75
446.908	84.75
447.129	90.75
447.35	78.75
447.571	88.75
447.792	89.75
448.013	91.75
448.234	90.75
448.455	81.75
448.675	80.75
448.896	85.75
449.117	100.75
449.338	105.75
449.559	79.75
449.779	88.75
450	85.75
450.221	96.75
450.442	85.75
450.662	79.75
450.883	100.75
451.104	89.75
451.324	91.75
451.545	86.75
451.766	71.75
451.986	84.75
452.207	91.75
452.428	75.75
452.648	84.75
452.869	81.75
453.089	81.75
453.31	83.75
453.53	83.75
453.751	76.75
453.971	83.75
454.192	87.75
454.412	77.75
454.633	90.75
454.853	78.75
455.073	78.75
455.294	79.75
455.514	91.75
455.734	92.75
455.955	87.75
456.175	77.75
456.395	88.75
456.616	93.75
456.836	74.75
457.056	79.75
457.276	79.75
457.497	87.75
457.717	97.75
457.937	86.75
458.157	85.75
458.377	71.75
458.598	92.75
458.818	78.75
459.038	85.75
459.258	87.75
459.478	81.75
459.698	87.75
459.918	108.75
460.138	83.75
460.358	95.75
460.578	83.75
460.798	98.75
461.018	82.75
461.238	90.75
461.458	78.75
461.678	83.75
461.898	93.75
462.118	90.75
462.338	82.75
462.558	107.75
462.777	91.75
462.997	83.75
463.217	98.75
463.437	85.75
463.657	91.75
463.876	90.75
464.096	98.75
464.316	94.75
464.536	95.75
464.755	97.75
464.975	89.75
465.195	89.75
465.414	94.75
465.634	98.75
465.854	93.75
466.073	95.75
466.293	79.75
466.512	89.75
466.732	80.75
466.951	75.75
467.171	85.75
467.391	86.75
467.61	90.75
467.829	81.75
468.049	94.75
468.268	82.75
468.488	95.75
468.707	88.75
468.927	78.75
469.146	74.75
469.365	94.75
469.585	91.75
469.804	92.75
470.023	93.75
470.243	77.75
470.462	77.75
470.681	92.75
470.901	82.75
471.12	84.75
471.339	101.75
471.558	86.75
471.777	77.75
471.997	86.75
472.216	88.75
472.435	97.75
472.654	92.75
472.873	80.75
473.092	75.75
473.311	83.75
473.53	86.75
473.749	88.75
473.968	83.75
474.187	78.75
474.406	90.75
474.625	87.75
474.844	95.75
475.063	72.75
475.282	99.75
475.501	97.75
475.72	79.75
475.939	89.75
476.158	81.75
476.377	72.75
476.596	83.75
476.814	87.75
477.033	95.75
477.252	88.75
477.471	87.75
477.69	95.75
477.908	73.75
478.127	100.75
478.346	98.75
478.564	73.75
478.783	83.75
479.002	79.75
479.22	97.75
479.439	85.75
479.658	81.75
479.876	87.75
480.095	85.75
480.313	95.75
480.532	85.75
480.751	88.75
480.969	89.75
481.188	103.75
481.406	101.75
481.624	97.75
481.843	81.75
482.061	84.75
482.28	105.75
482.498	90.75
482.717	88.75
482.935	89.75
483.153	98.75
483.372	73.75
483.59	85.75
483.808	92.75
484.027	88.75
484.245	89.75
484.463	78.75
484.681	105.75
484.9	94.75
485.118	104.75
485.336	97.75
485.554	91.75
485.772	94.75
485.99	104.75
486.209	104.75
486.427	86.75
486.645	86.75
486.863	87.75
487.081	77.75
487.299	90.75
487.517	88.75
487.735	95.75
487.953	97.75
488.171	77.75
488.389	94.75
488.607	81.75
488.825	75.75
489.043	90.75
489.261	98.75
489.479	95.75
489.696	105.75
489.914	77.75
490.132	81.75
490.35	97.75
490.568	84.75
490.786	100.75
491.003	87.75
491.221	95.75
491.439	78.75
491.657	85.75
491.874	104.75
492.092	94.75
492.31	90.75
492.527	93.75
492.745	79.75
492.963	95.75
493.18	99.75
493.398	97.75
493.615	88.75
493.833	97.75
494.05	57.75
494.268	75.75
494.485	93.75
494.703	89.75
494.92	107.75
495.138	113.75
495.355	71.75
495.573	94.75
495.79	83.75
496.008	74.75
496.225	83.75
496.442	87.75
496.66	79.75
496.877	82.75
497.094	89.75
497.312	77.75
497.529	86.75
497.746	92.75
497.963	86.75
498.181	85.75
498.398	81.75
498.615	96.75
498.832	92.75
499.049	95.75
499.267	97.75
499.484	105.75
499.701	110.75
499.918	102.75
500.135	120.75
500.352	109.75
500.569	114.75
500.786	105.75
501.003	115.75
501.22	91.75
501.437	99.75
501.654	107.75
501.871	99.75
502.088	93.75
502.305	90.75
502.522	84.75
502.739	91.75
502.956	85.75
503.172	87.75
503.389	83.75
503.606	97.75
503.823	80.75
504.04	78.75
504.256	101.75
504.473	86.75
504.69	89.75
504.907	95.75
505.123	86.75
505.34	94.75
505.557	93.75
505.773	95.75
505.99	93.75
506.207	84.75
506.423	88.75
506.64	104.75
506.856	87.75
507.073	82.75
507.289	91.75
507.506	90.75
507.722	86.75
507.939	101.75
508.155	97.75
508.372	91.75
508.588	70.75
508.805	89.75
509.021	97.75
509.238	85.75
509.454	84.75
509.67	93.75
509.887	85.75
510.103	89.75
510.319	90.75
510.536	84.75
510.752	87.75
510.968	94.75
511.184	79.75
511.401	79.75
511.617	84.75
511.833	75.75
512.049	89.75
512.265	97.75
512.481	101.75
512.698	76.75
512.914	81.75
513.13	82.75
513.346	99.75
513.562	88.75
513.778	93.75
513.994	98.75
514.21	89.75
514.426	86.75
514.642	99.75
514.858	69.75
515.074	83.75
515.29	86.75
515.506	100.75
515.721	87.75
515.937	79.75
516.153	89.75
516.369	95.75
516.585	84.75
516.801	101.75
517.016	92.75
517.232	101.75
517.448	89.75
517.664	97.75
517.879	99.75
518.095	85.75
518.311	86.75
518.527	93.75
518.742	77.75
518.958	72.75
519.173	99.75
519.389	86.75
