Data from BG_HRD10591_072.txt Node
Date: Fri May 16 15:14:58 EDT 2025
User: Yrep
Spectrometer: HR+D1059
Trigger mode: 1
Integration Time (sec): 1.000000E-1
Scans to average: 1
Electric dark correction enabled: true
Nonlinearity correction enabled: false
Boxcar width: 0
XAxis mode: Wavelengths
Number of Pixels in Spectrum: 2048
>>>>>Begin Spectral Data<<<<<
223.165	-35.25
223.4	-35.25
223.635	-35.25
223.869	-18.25
224.104	-4.25
224.338	-14.25
224.573	-5.25
224.808	-13.25
225.042	-17.25
225.277	3.75
225.511	5.75
225.746	8.75
225.98	2.75
226.215	0.75
226.449	16.75
226.683	13.75
226.918	28.75
227.152	26.75
227.387	34.75
227.621	43.75
227.856	40.75
228.09	36.75
228.324	40.75
228.559	68.75
228.793	67.75
229.027	65.75
229.262	56.75
229.496	68.75
229.73	62.75
229.964	75.75
230.199	80.75
230.433	48.75
230.667	70.75
230.901	85.75
231.136	79.75
231.37	94.75
231.604	82.75
231.838	76.75
232.072	79.75
232.306	83.75
232.541	85.75
232.775	83.75
233.009	75.75
233.243	87.75
233.477	80.75
233.711	74.75
233.945	81.75
234.179	65.75
234.413	82.75
234.647	74.75
234.881	90.75
235.115	83.75
235.349	69.75
235.583	68.75
235.817	78.75
236.051	79.75
236.285	85.75
236.519	62.75
236.753	71.75
236.987	80.75
237.221	63.75
237.455	77.75
237.689	69.75
237.922	75.75
238.156	72.75
238.39	71.75
238.624	69.75
238.858	79.75
239.091	63.75
239.325	72.75
239.559	81.75
239.793	66.75
240.027	83.75
240.26	62.75
240.494	66.75
240.728	68.75
240.961	79.75
241.195	72.75
241.429	69.75
241.662	67.75
241.896	79.75
242.13	75.75
242.363	72.75
242.597	75.75
242.83	84.75
243.064	69.75
243.298	74.75
243.531	61.75
243.765	72.75
243.998	90.75
244.232	69.75
244.465	69.75
244.699	67.75
244.932	79.75
245.166	85.75
245.399	82.75
245.633	84.75
245.866	72.75
246.099	74.75
246.333	83.75
246.566	75.75
246.8	71.75
247.033	83.75
247.266	77.75
247.5	67.75
247.733	74.75
247.966	73.75
248.2	80.75
248.433	82.75
248.666	83.75
248.899	61.75
249.133	73.75
249.366	86.75
249.599	73.75
249.832	72.75
250.066	90.75
250.299	78.75
250.532	84.75
250.765	88.75
250.998	76.75
251.231	77.75
251.465	68.75
251.698	76.75
251.931	79.75
252.164	98.75
252.397	93.75
252.63	78.75
252.863	79.75
253.096	83.75
253.329	90.75
253.562	80.75
253.795	78.75
254.028	83.75
254.261	75.75
254.494	77.75
254.727	63.75
254.96	92.75
255.193	79.75
255.426	74.75
255.659	79.75
255.892	86.75
256.124	73.75
256.357	83.75
256.59	73.75
256.823	82.75
257.056	83.75
257.289	65.75
257.521	72.75
257.754	86.75
257.987	63.75
258.22	69.75
258.452	91.75
258.685	57.75
258.918	73.75
259.151	84.75
259.383	71.75
259.616	75.75
259.849	90.75
260.081	86.75
260.314	86.75
260.547	86.75
260.779	89.75
261.012	75.75
261.244	71.75
261.477	76.75
261.71	69.75
261.942	84.75
262.175	89.75
262.407	78.75
262.64	86.75
262.872	88.75
263.105	90.75
263.337	84.75
263.57	79.75
263.802	84.75
264.035	86.75
264.267	81.75
264.499	82.75
264.732	74.75
264.964	78.75
265.197	77.75
265.429	91.75
265.661	92.75
265.894	94.75
266.126	67.75
266.358	74.75
266.591	87.75
266.823	71.75
267.055	85.75
267.287	83.75
267.52	82.75
267.752	75.75
267.984	80.75
268.216	67.75
268.448	89.75
268.681	70.75
268.913	89.75
269.145	81.75
269.377	87.75
269.609	74.75
269.841	75.75
270.073	69.75
270.306	76.75
270.538	79.75
270.77	84.75
271.002	82.75
271.234	79.75
271.466	86.75
271.698	82.75
271.93	75.75
272.162	76.75
272.394	83.75
272.626	83.75
272.858	77.75
273.09	69.75
273.322	82.75
273.553	81.75
273.785	73.75
274.017	73.75
274.249	72.75
274.481	79.75
274.713	95.75
274.945	77.75
275.176	89.75
275.408	83.75
275.64	88.75
275.872	71.75
276.104	87.75
276.335	84.75
276.567	76.75
276.799	71.75
277.031	93.75
277.262	86.75
277.494	86.75
277.726	82.75
277.957	93.75
278.189	77.75
278.421	78.75
278.652	87.75
278.884	75.75
279.115	83.75
279.347	88.75
279.579	91.75
279.81	72.75
280.042	82.75
280.273	91.75
280.505	88.75
280.736	70.75
280.968	94.75
281.199	89.75
281.431	83.75
281.662	84.75
281.894	79.75
282.125	83.75
282.356	89.75
282.588	76.75
282.819	98.75
283.051	81.75
283.282	73.75
283.513	75.75
283.745	75.75
283.976	82.75
284.207	89.75
284.439	91.75
284.67	80.75
284.901	105.75
285.132	72.75
285.364	81.75
285.595	89.75
285.826	89.75
286.057	78.75
286.288	65.75
286.52	81.75
286.751	95.75
286.982	78.75
287.213	74.75
287.444	82.75
287.675	80.75
287.906	81.75
288.138	85.75
288.369	87.75
288.6	75.75
288.831	76.75
289.062	96.75
289.293	89.75
289.524	89.75
289.755	91.75
289.986	86.75
290.217	92.75
290.448	72.75
290.679	83.75
290.91	72.75
291.141	87.75
291.371	76.75
291.602	78.75
291.833	101.75
292.064	80.75
292.295	76.75
292.526	92.75
292.757	97.75
292.987	88.75
293.218	84.75
293.449	88.75
293.68	85.75
293.91	85.75
294.141	82.75
294.372	81.75
294.603	83.75
294.833	89.75
295.064	83.75
295.295	100.75
295.525	87.75
295.756	84.75
295.987	88.75
296.217	88.75
296.448	88.75
296.679	84.75
296.909	89.75
297.14	110.75
297.37	97.75
297.601	92.75
297.831	84.75
298.062	88.75
298.292	74.75
298.523	89.75
298.753	74.75
298.984	86.75
299.214	76.75
299.445	87.75
299.675	85.75
299.905	84.75
300.136	85.75
300.366	85.75
300.597	88.75
300.827	80.75
301.057	85.75
301.288	87.75
301.518	79.75
301.748	90.75
301.979	100.75
302.209	94.75
302.439	97.75
302.669	75.75
302.9	93.75
303.13	89.75
303.36	84.75
303.59	69.75
303.82	78.75
304.051	88.75
304.281	77.75
304.511	84.75
304.741	94.75
304.971	77.75
305.201	77.75
305.431	78.75
305.661	80.75
305.891	86.75
306.121	86.75
306.352	94.75
306.582	98.75
306.812	71.75
307.042	92.75
307.272	74.75
307.502	76.75
307.731	84.75
307.961	101.75
308.191	74.75
308.421	73.75
308.651	84.75
308.881	73.75
309.111	79.75
309.341	90.75
309.571	95.75
309.8	97.75
310.03	89.75
310.26	82.75
310.49	95.75
310.72	75.75
310.949	81.75
311.179	80.75
311.409	89.75
311.639	84.75
311.868	92.75
312.098	89.75
312.328	85.75
312.557	70.75
312.787	79.75
313.017	77.75
313.246	92.75
313.476	88.75
313.706	85.75
313.935	86.75
314.165	70.75
314.394	85.75
314.624	72.75
314.853	87.75
315.083	91.75
315.312	102.75
315.542	79.75
315.771	82.75
316.001	72.75
316.23	79.75
316.46	90.75
316.689	82.75
316.919	100.75
317.148	85.75
317.377	78.75
317.607	92.75
317.836	87.75
318.065	81.75
318.295	77.75
318.524	94.75
318.753	98.75
318.983	87.75
319.212	85.75
319.441	86.75
319.67	92.75
319.9	82.75
320.129	85.75
320.358	91.75
320.587	88.75
320.816	89.75
321.046	78.75
321.275	83.75
321.504	98.75
321.733	89.75
321.962	83.75
322.191	93.75
322.42	84.75
322.649	82.75
322.878	81.75
323.108	82.75
323.337	84.75
323.566	74.75
323.795	70.75
324.024	86.75
324.253	99.75
324.482	84.75
324.71	82.75
324.939	92.75
325.168	75.75
325.397	98.75
325.626	90.75
325.855	90.75
326.084	89.75
326.313	86.75
326.542	92.75
326.77	85.75
326.999	82.75
327.228	89.75
327.457	93.75
327.686	102.75
327.914	88.75
328.143	79.75
328.372	83.75
328.6	77.75
328.829	75.75
329.058	84.75
329.287	89.75
329.515	76.75
329.744	94.75
329.972	72.75
330.201	87.75
330.43	86.75
330.658	92.75
330.887	76.75
331.115	90.75
331.344	80.75
331.572	75.75
331.801	86.75
332.03	84.75
332.258	87.75
332.486	83.75
332.715	81.75
332.943	77.75
333.172	77.75
333.4	99.75
333.629	97.75
333.857	76.75
334.085	93.75
334.314	88.75
334.542	91.75
334.771	78.75
334.999	74.75
335.227	82.75
335.455	95.75
335.684	86.75
335.912	86.75
336.14	103.75
336.369	84.75
336.597	91.75
336.825	92.75
337.053	85.75
337.281	83.75
337.51	81.75
337.738	87.75
337.966	84.75
338.194	97.75
338.422	87.75
338.65	81.75
338.878	70.75
339.106	77.75
339.334	73.75
339.562	66.75
339.79	89.75
340.018	84.75
340.246	87.75
340.474	85.75
340.702	94.75
340.93	85.75
341.158	81.75
341.386	96.75
341.614	81.75
341.842	78.75
342.07	79.75
342.298	84.75
342.526	77.75
342.754	92.75
342.981	79.75
343.209	75.75
343.437	95.75
343.665	87.75
343.893	74.75
344.12	94.75
344.348	82.75
344.576	88.75
344.804	84.75
345.031	85.75
345.259	79.75
345.487	98.75
345.714	84.75
345.942	79.75
346.17	87.75
346.397	89.75
346.625	75.75
346.853	95.75
347.08	66.75
347.308	93.75
347.535	76.75
347.763	90.75
347.99	88.75
348.218	103.75
348.445	83.75
348.673	85.75
348.9	87.75
349.128	80.75
349.355	92.75
349.583	78.75
349.81	93.75
350.037	88.75
350.265	85.75
350.492	80.75
350.72	84.75
350.947	82.75
351.174	91.75
351.402	81.75
351.629	90.75
351.856	74.75
352.083	89.75
352.311	85.75
352.538	82.75
352.765	89.75
352.992	90.75
353.22	90.75
353.447	85.75
353.674	88.75
353.901	99.75
354.128	85.75
354.355	89.75
354.583	77.75
354.81	92.75
355.037	85.75
355.264	85.75
355.491	92.75
355.718	75.75
355.945	89.75
356.172	86.75
356.399	94.75
356.626	87.75
356.853	73.75
357.08	97.75
357.307	76.75
357.534	78.75
357.761	86.75
357.988	88.75
358.215	95.75
358.441	95.75
358.668	72.75
358.895	78.75
359.122	84.75
359.349	88.75
359.576	74.75
359.802	73.75
360.029	90.75
360.256	78.75
360.483	105.75
360.709	83.75
360.936	92.75
361.163	88.75
361.39	92.75
361.616	74.75
361.843	92.75
362.07	92.75
362.296	92.75
362.523	74.75
362.749	85.75
362.976	80.75
363.203	93.75
363.429	90.75
363.656	82.75
363.882	78.75
364.109	81.75
364.335	91.75
364.562	87.75
364.788	85.75
365.015	81.75
365.241	66.75
365.468	82.75
365.694	88.75
365.92	83.75
366.147	85.75
366.373	88.75
366.599	82.75
366.826	87.75
367.052	78.75
367.278	93.75
367.505	76.75
367.731	103.75
367.957	96.75
368.184	85.75
368.41	97.75
368.636	83.75
368.862	84.75
369.089	83.75
369.315	82.75
369.541	88.75
369.767	75.75
369.993	85.75
370.219	89.75
370.445	82.75
370.672	73.75
370.898	83.75
371.124	85.75
371.35	90.75
371.576	86.75
371.802	86.75
372.028	101.75
372.254	87.75
372.48	78.75
372.706	89.75
372.932	82.75
373.158	88.75
373.384	106.75
373.61	85.75
373.835	79.75
374.061	92.75
374.287	85.75
374.513	89.75
374.739	81.75
374.965	82.75
375.191	88.75
375.416	95.75
375.642	106.75
375.868	74.75
376.094	87.75
376.319	77.75
376.545	79.75
376.771	81.75
376.997	97.75
377.222	67.75
377.448	88.75
377.674	89.75
377.899	77.75
378.125	87.75
378.35	87.75
378.576	87.75
378.802	76.75
379.027	83.75
379.253	91.75
379.478	84.75
379.704	85.75
379.929	77.75
380.155	82.75
380.38	80.75
380.606	84.75
380.831	88.75
381.057	82.75
381.282	82.75
381.507	103.75
381.733	90.75
381.958	86.75
382.184	88.75
382.409	73.75
382.634	76.75
382.86	90.75
383.085	82.75
383.31	88.75
383.535	90.75
383.761	90.75
383.986	74.75
384.211	79.75
384.436	76.75
384.662	90.75
384.887	93.75
385.112	79.75
385.337	67.75
385.562	78.75
385.787	97.75
386.013	73.75
386.238	82.75
386.463	83.75
386.688	83.75
386.913	81.75
387.138	87.75
387.363	100.75
387.588	91.75
387.813	71.75
388.038	90.75
388.263	80.75
388.488	85.75
388.713	94.75
388.938	81.75
389.163	84.75
389.387	85.75
389.612	79.75
389.837	97.75
390.062	63.75
390.287	90.75
390.512	85.75
390.736	85.75
390.961	72.75
391.186	83.75
391.411	81.75
391.636	93.75
391.86	92.75
392.085	107.75
392.31	84.75
392.534	91.75
392.759	95.75
392.984	89.75
393.208	100.75
393.433	101.75
393.658	85.75
393.882	92.75
394.107	83.75
394.331	91.75
394.556	90.75
394.78	98.75
395.005	87.75
395.229	76.75
395.454	93.75
395.678	80.75
395.903	82.75
396.127	82.75
396.352	79.75
396.576	87.75
396.801	77.75
397.025	90.75
397.249	86.75
397.474	87.75
397.698	85.75
397.922	73.75
398.147	88.75
398.371	102.75
398.595	93.75
398.82	84.75
399.044	88.75
399.268	84.75
399.492	82.75
399.717	87.75
399.941	83.75
400.165	103.75
400.389	77.75
400.613	94.75
400.837	95.75
401.062	82.75
401.286	82.75
401.51	85.75
401.734	76.75
401.958	87.75
402.182	83.75
402.406	85.75
402.63	87.75
402.854	91.75
403.078	80.75
403.302	90.75
403.526	76.75
403.75	86.75
403.974	74.75
404.198	85.75
404.422	85.75
404.645	89.75
404.869	87.75
405.093	103.75
405.317	90.75
405.541	95.75
405.765	80.75
405.988	102.75
406.212	85.75
406.436	89.75
406.66	97.75
406.883	78.75
407.107	93.75
407.331	74.75
407.555	77.75
407.778	90.75
408.002	86.75
408.226	91.75
408.449	93.75
408.673	99.75
408.896	91.75
409.12	89.75
409.344	86.75
409.567	99.75
409.791	95.75
410.014	95.75
410.238	81.75
410.461	90.75
410.685	93.75
410.908	102.75
411.132	75.75
411.355	79.75
411.578	86.75
411.802	109.75
412.025	81.75
412.249	87.75
412.472	84.75
412.695	81.75
412.919	82.75
413.142	101.75
413.365	96.75
413.589	77.75
413.812	77.75
414.035	84.75
414.258	99.75
414.482	90.75
414.705	90.75
414.928	98.75
415.151	67.75
415.374	87.75
415.597	88.75
415.821	92.75
416.044	77.75
416.267	79.75
416.49	97.75
416.713	92.75
416.936	91.75
417.159	84.75
417.382	76.75
417.605	87.75
417.828	90.75
418.051	85.75
418.274	88.75
418.497	88.75
418.72	82.75
418.943	85.75
419.166	89.75
419.389	90.75
419.611	73.75
419.834	92.75
420.057	89.75
420.28	75.75
420.503	94.75
420.726	90.75
420.948	99.75
421.171	79.75
421.394	91.75
421.617	87.75
421.839	92.75
422.062	98.75
422.285	95.75
422.507	82.75
422.73	86.75
422.953	83.75
423.175	90.75
423.398	78.75
423.621	85.75
423.843	97.75
424.066	100.75
424.288	104.75
424.511	94.75
424.733	77.75
424.956	93.75
425.178	95.75
425.401	87.75
425.623	97.75
425.846	73.75
426.068	72.75
426.291	78.75
426.513	83.75
426.735	91.75
426.958	95.75
427.18	89.75
427.402	88.75
427.625	82.75
427.847	76.75
428.069	78.75
428.292	83.75
428.514	83.75
428.736	80.75
428.958	95.75
429.181	86.75
429.403	82.75
429.625	75.75
429.847	73.75
430.069	93.75
430.292	85.75
430.514	92.75
430.736	89.75
430.958	101.75
431.18	74.75
431.402	86.75
431.624	80.75
431.846	88.75
432.068	113.75
432.29	85.75
432.512	89.75
432.734	86.75
432.956	88.75
433.178	98.75
433.4	75.75
433.622	89.75
433.844	89.75
434.066	89.75
434.287	80.75
434.509	92.75
434.731	86.75
434.953	89.75
435.175	87.75
435.397	95.75
435.618	89.75
435.84	84.75
436.062	92.75
436.284	88.75
436.505	87.75
436.727	79.75
436.949	83.75
437.17	80.75
437.392	78.75
437.614	92.75
437.835	78.75
438.057	77.75
438.278	94.75
438.5	87.75
438.721	81.75
438.943	82.75
439.165	80.75
439.386	70.75
439.608	96.75
439.829	86.75
440.05	94.75
440.272	76.75
440.493	95.75
440.715	87.75
440.936	92.75
441.158	90.75
441.379	91.75
441.6	90.75
441.822	87.75
442.043	82.75
442.264	83.75
442.486	95.75
442.707	84.75
442.928	82.75
443.149	87.75
443.371	88.75
443.592	93.75
443.813	92.75
444.034	90.75
444.255	83.75
444.476	85.75
444.698	90.75
444.919	81.75
445.14	181.75
445.361	133.75
445.582	92.75
445.803	88.75
446.024	79.75
446.245	88.75
446.466	83.75
446.687	83.75
446.908	91.75
447.129	92.75
447.35	70.75
447.571	87.75
447.792	87.75
448.013	87.75
448.234	80.75
448.455	82.75
448.675	88.75
448.896	78.75
449.117	90.75
449.338	90.75
449.559	78.75
449.779	91.75
450	103.75
450.221	99.75
450.442	90.75
450.662	71.75
450.883	97.75
451.104	98.75
451.324	78.75
451.545	91.75
451.766	78.75
451.986	80.75
452.207	90.75
452.428	89.75
452.648	79.75
452.869	71.75
453.089	85.75
453.31	84.75
453.53	86.75
453.751	88.75
453.971	75.75
454.192	79.75
454.412	87.75
454.633	83.75
454.853	78.75
455.073	69.75
455.294	98.75
455.514	91.75
455.734	86.75
455.955	93.75
456.175	94.75
456.395	84.75
456.616	79.75
456.836	74.75
457.056	87.75
457.276	98.75
457.497	90.75
457.717	78.75
457.937	79.75
458.157	85.75
458.377	82.75
458.598	89.75
458.818	88.75
459.038	87.75
459.258	75.75
459.478	101.75
459.698	89.75
459.918	85.75
460.138	86.75
460.358	86.75
460.578	88.75
460.798	74.75
461.018	86.75
461.238	78.75
461.458	91.75
461.678	84.75
461.898	89.75
462.118	77.75
462.338	90.75
462.558	90.75
462.777	99.75
462.997	104.75
463.217	95.75
463.437	91.75
463.657	102.75
463.876	98.75
464.096	92.75
464.316	105.75
464.536	93.75
464.755	90.75
464.975	77.75
465.195	87.75
465.414	86.75
465.634	81.75
465.854	86.75
466.073	74.75
466.293	83.75
466.512	82.75
466.732	85.75
466.951	82.75
467.171	102.75
467.391	86.75
467.61	92.75
467.829	86.75
468.049	67.75
468.268	86.75
468.488	73.75
468.707	89.75
468.927	85.75
469.146	82.75
469.365	88.75
469.585	74.75
469.804	71.75
470.023	77.75
470.243	94.75
470.462	90.75
470.681	91.75
470.901	101.75
471.12	69.75
471.339	79.75
471.558	92.75
471.777	81.75
471.997	87.75
472.216	91.75
472.435	91.75
472.654	88.75
472.873	76.75
473.092	91.75
473.311	84.75
473.53	79.75
473.749	73.75
473.968	87.75
474.187	89.75
474.406	75.75
474.625	86.75
474.844	88.75
475.063	78.75
475.282	76.75
475.501	86.75
475.72	92.75
475.939	87.75
476.158	85.75
476.377	80.75
476.596	81.75
476.814	94.75
477.033	92.75
477.252	86.75
477.471	69.75
477.69	79.75
477.908	90.75
478.127	99.75
478.346	89.75
478.564	97.75
478.783	95.75
479.002	88.75
479.22	88.75
479.439	100.75
479.658	89.75
479.876	75.75
480.095	88.75
480.313	86.75
480.532	89.75
480.751	97.75
480.969	84.75
481.188	78.75
481.406	90.75
481.624	91.75
481.843	101.75
482.061	99.75
482.28	89.75
482.498	78.75
482.717	79.75
482.935	74.75
483.153	82.75
483.372	85.75
483.59	78.75
483.808	89.75
484.027	101.75
484.245	89.75
484.463	89.75
484.681	86.75
484.9	90.75
485.118	102.75
485.336	89.75
485.554	88.75
485.772	82.75
485.99	86.75
486.209	89.75
486.427	83.75
486.645	97.75
486.863	83.75
487.081	81.75
487.299	88.75
487.517	101.75
487.735	103.75
487.953	90.75
488.171	76.75
488.389	82.75
488.607	84.75
488.825	92.75
489.043	86.75
489.261	79.75
489.479	106.75
489.696	82.75
489.914	78.75
490.132	89.75
490.35	100.75
490.568	81.75
490.786	98.75
491.003	81.75
491.221	94.75
491.439	88.75
491.657	81.75
491.874	83.75
492.092	97.75
492.31	91.75
492.527	94.75
492.745	87.75
492.963	87.75
493.18	80.75
493.398	90.75
493.615	81.75
493.833	87.75
494.05	82.75
494.268	80.75
494.485	90.75
494.703	86.75
494.92	97.75
495.138	86.75
495.355	107.75
495.573	93.75
495.79	84.75
496.008	91.75
496.225	84.75
496.442	89.75
496.66	109.75
496.877	77.75
497.094	94.75
497.312	83.75
497.529	99.75
497.746	105.75
497.963	95.75
498.181	96.75
498.398	93.75
498.615	84.75
498.832	99.75
499.049	95.75
499.267	102.75
499.484	105.75
499.701	97.75
499.918	110.75
500.135	108.75
500.352	110.75
500.569	119.75
500.786	116.75
501.003	101.75
501.22	99.75
501.437	97.75
501.654	109.75
501.871	98.75
502.088	103.75
502.305	84.75
502.522	102.75
502.739	101.75
502.956	94.75
503.172	102.75
503.389	90.75
503.606	91.75
503.823	88.75
504.04	93.75
504.256	82.75
504.473	93.75
504.69	81.75
504.907	91.75
505.123	102.75
505.34	93.75
505.557	91.75
505.773	94.75
505.99	87.75
506.207	88.75
506.423	93.75
506.64	85.75
506.856	91.75
507.073	93.75
507.289	97.75
507.506	97.75
507.722	96.75
507.939	86.75
508.155	84.75
508.372	95.75
508.588	81.75
508.805	89.75
509.021	85.75
509.238	77.75
509.454	88.75
509.67	78.75
509.887	92.75
510.103	78.75
510.319	83.75
510.536	84.75
510.752	82.75
510.968	92.75
511.184	89.75
511.401	93.75
511.617	82.75
511.833	72.75
512.049	81.75
512.265	88.75
512.481	87.75
512.698	94.75
512.914	86.75
513.13	88.75
513.346	74.75
513.562	83.75
513.778	80.75
513.994	85.75
514.21	90.75
514.426	101.75
514.642	77.75
514.858	86.75
515.074	92.75
515.29	94.75
515.506	88.75
515.721	97.75
515.937	90.75
516.153	78.75
516.369	92.75
516.585	92.75
516.801	84.75
517.016	97.75
517.232	79.75
517.448	81.75
517.664	106.75
517.879	111.75
518.095	100.75
518.311	92.75
518.527	104.75
518.742	87.75
518.958	81.75
519.173	89.75
519.389	101.75
