Data from BG_HRD10591_059.txt Node
Date: Fri May 16 15:14:52 EDT 2025
User: Yrep
Spectrometer: HR+D1059
Trigger mode: 1
Integration Time (sec): 1.000000E-1
Scans to average: 1
Electric dark correction enabled: true
Nonlinearity correction enabled: false
Boxcar width: 0
XAxis mode: Wavelengths
Number of Pixels in Spectrum: 2048
>>>>>Begin Spectral Data<<<<<
223.165	-11.56
223.4	-11.56
223.635	-11.56
223.869	-21.56
224.104	-22.56
224.338	-13.56
224.573	-5.56
224.808	-17.56
225.042	-2.56
225.277	1.44
225.511	-0.56
225.746	6.44
225.98	6.44
226.215	-1.56
226.449	24.44
226.683	15.44
226.918	19.44
227.152	23.44
227.387	39.44
227.621	44.44
227.856	47.44
228.09	40.44
228.324	50.44
228.559	50.44
228.793	71.44
229.027	71.44
229.262	57.44
229.496	68.44
229.73	70.44
229.964	67.44
230.199	73.44
230.433	72.44
230.667	72.44
230.901	65.44
231.136	73.44
231.37	82.44
231.604	85.44
231.838	83.44
232.072	77.44
232.306	82.44
232.541	87.44
232.775	77.44
233.009	77.44
233.243	79.44
233.477	80.44
233.711	84.44
233.945	82.44
234.179	81.44
234.413	82.44
234.647	82.44
234.881	76.44
235.115	78.44
235.349	62.44
235.583	83.44
235.817	72.44
236.051	68.44
236.285	66.44
236.519	81.44
236.753	65.44
236.987	79.44
237.221	60.44
237.455	72.44
237.689	75.44
237.922	82.44
238.156	74.44
238.39	64.44
238.624	71.44
238.858	71.44
239.091	82.44
239.325	79.44
239.559	80.44
239.793	73.44
240.027	76.44
240.26	75.44
240.494	71.44
240.728	72.44
240.961	68.44
241.195	66.44
241.429	82.44
241.662	69.44
241.896	71.44
242.13	80.44
242.363	72.44
242.597	80.44
242.83	78.44
243.064	74.44
243.298	93.44
243.531	71.44
243.765	89.44
243.998	75.44
244.232	76.44
244.465	78.44
244.699	79.44
244.932	84.44
245.166	80.44
245.399	72.44
245.633	75.44
245.866	63.44
246.099	87.44
246.333	77.44
246.566	64.44
246.8	84.44
247.033	76.44
247.266	87.44
247.5	77.44
247.733	77.44
247.966	82.44
248.2	86.44
248.433	81.44
248.666	78.44
248.899	83.44
249.133	81.44
249.366	75.44
249.599	87.44
249.832	80.44
250.066	80.44
250.299	80.44
250.532	80.44
250.765	80.44
250.998	78.44
251.231	77.44
251.465	93.44
251.698	69.44
251.931	83.44
252.164	84.44
252.397	94.44
252.63	88.44
252.863	57.44
253.096	92.44
253.329	78.44
253.562	60.44
253.795	90.44
254.028	75.44
254.261	81.44
254.494	76.44
254.727	80.44
254.96	73.44
255.193	73.44
255.426	86.44
255.659	95.44
255.892	90.44
256.124	79.44
256.357	73.44
256.59	82.44
256.823	71.44
257.056	80.44
257.289	62.44
257.521	82.44
257.754	70.44
257.987	79.44
258.22	91.44
258.452	98.44
258.685	74.44
258.918	84.44
259.151	95.44
259.383	91.44
259.616	78.44
259.849	72.44
260.081	74.44
260.314	79.44
260.547	86.44
260.779	84.44
261.012	77.44
261.244	80.44
261.477	95.44
261.71	84.44
261.942	80.44
262.175	76.44
262.407	79.44
262.64	75.44
262.872	83.44
263.105	78.44
263.337	87.44
263.57	84.44
263.802	79.44
264.035	95.44
264.267	85.44
264.499	73.44
264.732	95.44
264.964	87.44
265.197	70.44
265.429	75.44
265.661	83.44
265.894	83.44
266.126	80.44
266.358	74.44
266.591	68.44
266.823	87.44
267.055	91.44
267.287	85.44
267.52	63.44
267.752	78.44
267.984	82.44
268.216	78.44
268.448	88.44
268.681	85.44
268.913	96.44
269.145	82.44
269.377	92.44
269.609	84.44
269.841	76.44
270.073	83.44
270.306	87.44
270.538	91.44
270.77	83.44
271.002	76.44
271.234	80.44
271.466	76.44
271.698	86.44
271.93	86.44
272.162	83.44
272.394	83.44
272.626	84.44
272.858	78.44
273.09	98.44
273.322	83.44
273.553	89.44
273.785	98.44
274.017	82.44
274.249	74.44
274.481	99.44
274.713	83.44
274.945	77.44
275.176	86.44
275.408	90.44
275.64	87.44
275.872	71.44
276.104	67.44
276.335	77.44
276.567	76.44
276.799	91.44
277.031	82.44
277.262	89.44
277.494	80.44
277.726	88.44
277.957	77.44
278.189	88.44
278.421	78.44
278.652	88.44
278.884	85.44
279.115	98.44
279.347	79.44
279.579	82.44
279.81	95.44
280.042	88.44
280.273	90.44
280.505	94.44
280.736	71.44
280.968	85.44
281.199	79.44
281.431	90.44
281.662	84.44
281.894	86.44
282.125	72.44
282.356	84.44
282.588	85.44
282.819	82.44
283.051	88.44
283.282	92.44
283.513	96.44
283.745	85.44
283.976	91.44
284.207	83.44
284.439	72.44
284.67	88.44
284.901	75.44
285.132	100.44
285.364	84.44
285.595	99.44
285.826	76.44
286.057	84.44
286.288	74.44
286.52	79.44
286.751	98.44
286.982	93.44
287.213	97.44
287.444	89.44
287.675	89.44
287.906	91.44
288.138	94.44
288.369	77.44
288.6	83.44
288.831	82.44
289.062	83.44
289.293	83.44
289.524	93.44
289.755	83.44
289.986	92.44
290.217	84.44
290.448	90.44
290.679	103.44
290.91	77.44
291.141	94.44
291.371	99.44
291.602	92.44
291.833	90.44
292.064	101.44
292.295	91.44
292.526	88.44
292.757	81.44
292.987	78.44
293.218	88.44
293.449	88.44
293.68	95.44
293.91	77.44
294.141	98.44
294.372	86.44
294.603	70.44
294.833	73.44
295.064	79.44
295.295	78.44
295.525	87.44
295.756	101.44
295.987	86.44
296.217	87.44
296.448	82.44
296.679	75.44
296.909	89.44
297.14	93.44
297.37	83.44
297.601	85.44
297.831	80.44
298.062	85.44
298.292	93.44
298.523	103.44
298.753	83.44
298.984	79.44
299.214	98.44
299.445	90.44
299.675	88.44
299.905	86.44
300.136	77.44
300.366	86.44
300.597	87.44
300.827	77.44
301.057	88.44
301.288	82.44
301.518	98.44
301.748	79.44
301.979	95.44
302.209	87.44
302.439	89.44
302.669	93.44
302.9	76.44
303.13	90.44
303.36	79.44
303.59	95.44
303.82	102.44
304.051	92.44
304.281	96.44
304.511	103.44
304.741	88.44
304.971	74.44
305.201	96.44
305.431	90.44
305.661	86.44
305.891	86.44
306.121	93.44
306.352	109.44
306.582	98.44
306.812	79.44
307.042	82.44
307.272	85.44
307.502	82.44
307.731	94.44
307.961	75.44
308.191	74.44
308.421	93.44
308.651	68.44
308.881	103.44
309.111	98.44
309.341	89.44
309.571	98.44
309.8	96.44
310.03	82.44
310.26	91.44
310.49	87.44
310.72	85.44
310.949	75.44
311.179	87.44
311.409	75.44
311.639	86.44
311.868	91.44
312.098	73.44
312.328	101.44
312.557	84.44
312.787	70.44
313.017	81.44
313.246	100.44
313.476	76.44
313.706	95.44
313.935	92.44
314.165	87.44
314.394	73.44
314.624	98.44
314.853	78.44
315.083	94.44
315.312	102.44
315.542	82.44
315.771	89.44
316.001	106.44
316.23	80.44
316.46	98.44
316.689	67.44
316.919	86.44
317.148	82.44
317.377	87.44
317.607	81.44
317.836	91.44
318.065	95.44
318.295	76.44
318.524	88.44
318.753	82.44
318.983	77.44
319.212	94.44
319.441	108.44
319.67	102.44
319.9	77.44
320.129	79.44
320.358	101.44
320.587	91.44
320.816	91.44
321.046	82.44
321.275	85.44
321.504	78.44
321.733	87.44
321.962	98.44
322.191	86.44
322.42	81.44
322.649	91.44
322.878	89.44
323.108	86.44
323.337	88.44
323.566	87.44
323.795	89.44
324.024	80.44
324.253	94.44
324.482	93.44
324.71	79.44
324.939	80.44
325.168	86.44
325.397	79.44
325.626	91.44
325.855	99.44
326.084	97.44
326.313	87.44
326.542	88.44
326.77	90.44
326.999	89.44
327.228	83.44
327.457	75.44
327.686	90.44
327.914	89.44
328.143	93.44
328.372	88.44
328.6	75.44
328.829	83.44
329.058	96.44
329.287	85.44
329.515	82.44
329.744	92.44
329.972	94.44
330.201	74.44
330.43	95.44
330.658	94.44
330.887	91.44
331.115	93.44
331.344	91.44
331.572	100.44
331.801	97.44
332.03	94.44
332.258	88.44
332.486	84.44
332.715	88.44
332.943	87.44
333.172	80.44
333.4	104.44
333.629	99.44
333.857	80.44
334.085	83.44
334.314	78.44
334.542	100.44
334.771	104.44
334.999	90.44
335.227	89.44
335.455	78.44
335.684	79.44
335.912	93.44
336.14	93.44
336.369	86.44
336.597	83.44
336.825	87.44
337.053	76.44
337.281	91.44
337.51	83.44
337.738	84.44
337.966	94.44
338.194	100.44
338.422	91.44
338.65	93.44
338.878	62.44
339.106	83.44
339.334	98.44
339.562	95.44
339.79	90.44
340.018	82.44
340.246	73.44
340.474	84.44
340.702	92.44
340.93	79.44
341.158	83.44
341.386	89.44
341.614	84.44
341.842	80.44
342.07	101.44
342.298	78.44
342.526	78.44
342.754	82.44
342.981	74.44
343.209	88.44
343.437	86.44
343.665	76.44
343.893	80.44
344.12	85.44
344.348	93.44
344.576	77.44
344.804	74.44
345.031	83.44
345.259	83.44
345.487	84.44
345.714	83.44
345.942	88.44
346.17	90.44
346.397	88.44
346.625	85.44
346.853	80.44
347.08	80.44
347.308	79.44
347.535	87.44
347.763	87.44
347.99	89.44
348.218	93.44
348.445	83.44
348.673	76.44
348.9	95.44
349.128	101.44
349.355	93.44
349.583	78.44
349.81	81.44
350.037	90.44
350.265	69.44
350.492	99.44
350.72	92.44
350.947	83.44
351.174	78.44
351.402	79.44
351.629	76.44
351.856	86.44
352.083	84.44
352.311	99.44
352.538	94.44
352.765	63.44
352.992	91.44
353.22	83.44
353.447	90.44
353.674	79.44
353.901	100.44
354.128	90.44
354.355	72.44
354.583	82.44
354.81	89.44
355.037	90.44
355.264	84.44
355.491	89.44
355.718	87.44
355.945	90.44
356.172	93.44
356.399	79.44
356.626	76.44
356.853	93.44
357.08	87.44
357.307	98.44
357.534	90.44
357.761	84.44
357.988	70.44
358.215	95.44
358.441	88.44
358.668	81.44
358.895	103.44
359.122	83.44
359.349	82.44
359.576	80.44
359.802	92.44
360.029	88.44
360.256	86.44
360.483	80.44
360.709	96.44
360.936	89.44
361.163	94.44
361.39	74.44
361.616	83.44
361.843	93.44
362.07	99.44
362.296	76.44
362.523	88.44
362.749	95.44
362.976	76.44
363.203	94.44
363.429	85.44
363.656	79.44
363.882	89.44
364.109	89.44
364.335	91.44
364.562	92.44
364.788	84.44
365.015	76.44
365.241	77.44
365.468	91.44
365.694	72.44
365.92	98.44
366.147	92.44
366.373	90.44
366.599	87.44
366.826	86.44
367.052	92.44
367.278	86.44
367.505	95.44
367.731	105.44
367.957	76.44
368.184	88.44
368.41	91.44
368.636	86.44
368.862	95.44
369.089	86.44
369.315	82.44
369.541	100.44
369.767	74.44
369.993	78.44
370.219	81.44
370.445	85.44
370.672	86.44
370.898	84.44
371.124	79.44
371.35	86.44
371.576	83.44
371.802	103.44
372.028	83.44
372.254	82.44
372.48	85.44
372.706	87.44
372.932	100.44
373.158	84.44
373.384	92.44
373.61	89.44
373.835	92.44
374.061	76.44
374.287	86.44
374.513	86.44
374.739	95.44
374.965	91.44
375.191	83.44
375.416	95.44
375.642	90.44
375.868	87.44
376.094	86.44
376.319	90.44
376.545	88.44
376.771	86.44
376.997	87.44
377.222	94.44
377.448	101.44
377.674	104.44
377.899	99.44
378.125	90.44
378.35	90.44
378.576	96.44
378.802	92.44
379.027	94.44
379.253	91.44
379.478	79.44
379.704	89.44
379.929	80.44
380.155	77.44
380.38	90.44
380.606	91.44
380.831	99.44
381.057	84.44
381.282	83.44
381.507	84.44
381.733	99.44
381.958	79.44
382.184	80.44
382.409	84.44
382.634	82.44
382.86	91.44
383.085	76.44
383.31	108.44
383.535	78.44
383.761	82.44
383.986	90.44
384.211	83.44
384.436	95.44
384.662	84.44
384.887	90.44
385.112	83.44
385.337	91.44
385.562	84.44
385.787	91.44
386.013	104.44
386.238	88.44
386.463	95.44
386.688	92.44
386.913	73.44
387.138	86.44
387.363	79.44
387.588	86.44
387.813	86.44
388.038	86.44
388.263	82.44
388.488	91.44
388.713	88.44
388.938	83.44
389.163	84.44
389.387	83.44
389.612	91.44
389.837	88.44
390.062	85.44
390.287	78.44
390.512	85.44
390.736	94.44
390.961	88.44
391.186	87.44
391.411	100.44
391.636	78.44
391.86	78.44
392.085	89.44
392.31	79.44
392.534	88.44
392.759	84.44
392.984	83.44
393.208	89.44
393.433	92.44
393.658	92.44
393.882	84.44
394.107	95.44
394.331	93.44
394.556	91.44
394.78	91.44
395.005	89.44
395.229	79.44
395.454	91.44
395.678	108.44
395.903	86.44
396.127	83.44
396.352	104.44
396.576	88.44
396.801	83.44
397.025	93.44
397.249	84.44
397.474	84.44
397.698	86.44
397.922	90.44
398.147	106.44
398.371	104.44
398.595	94.44
398.82	84.44
399.044	93.44
399.268	99.44
399.492	102.44
399.717	101.44
399.941	78.44
400.165	88.44
400.389	66.44
400.613	103.44
400.837	97.44
401.062	92.44
401.286	98.44
401.51	100.44
401.734	85.44
401.958	84.44
402.182	81.44
402.406	99.44
402.63	93.44
402.854	96.44
403.078	90.44
403.302	81.44
403.526	94.44
403.75	90.44
403.974	87.44
404.198	100.44
404.422	95.44
404.645	88.44
404.869	91.44
405.093	109.44
405.317	81.44
405.541	86.44
405.765	92.44
405.988	78.44
406.212	94.44
406.436	101.44
406.66	82.44
406.883	87.44
407.107	101.44
407.331	91.44
407.555	84.44
407.778	89.44
408.002	86.44
408.226	94.44
408.449	111.44
408.673	90.44
408.896	88.44
409.12	101.44
409.344	83.44
409.567	90.44
409.791	104.44
410.014	90.44
410.238	91.44
410.461	85.44
410.685	89.44
410.908	85.44
411.132	92.44
411.355	87.44
411.578	96.44
411.802	90.44
412.025	94.44
412.249	93.44
412.472	91.44
412.695	70.44
412.919	84.44
413.142	92.44
413.365	82.44
413.589	91.44
413.812	90.44
414.035	90.44
414.258	99.44
414.482	89.44
414.705	96.44
414.928	92.44
415.151	92.44
415.374	83.44
415.597	81.44
415.821	80.44
416.044	98.44
416.267	92.44
416.49	87.44
416.713	80.44
416.936	95.44
417.159	84.44
417.382	90.44
417.605	90.44
417.828	93.44
418.051	86.44
418.274	102.44
418.497	82.44
418.72	88.44
418.943	98.44
419.166	95.44
419.389	78.44
419.611	95.44
419.834	78.44
420.057	84.44
420.28	82.44
420.503	89.44
420.726	73.44
420.948	89.44
421.171	103.44
421.394	88.44
421.617	89.44
421.839	88.44
422.062	89.44
422.285	86.44
422.507	78.44
422.73	94.44
422.953	87.44
423.175	90.44
423.398	80.44
423.621	95.44
423.843	94.44
424.066	89.44
424.288	88.44
424.511	92.44
424.733	76.44
424.956	90.44
425.178	91.44
425.401	89.44
425.623	87.44
425.846	89.44
426.068	94.44
426.291	84.44
426.513	99.44
426.735	82.44
426.958	83.44
427.18	89.44
427.402	101.44
427.625	93.44
427.847	102.44
428.069	79.44
428.292	93.44
428.514	103.44
428.736	93.44
428.958	91.44
429.181	98.44
429.403	84.44
429.625	99.44
429.847	82.44
430.069	82.44
430.292	86.44
430.514	77.44
430.736	98.44
430.958	90.44
431.18	95.44
431.402	92.44
431.624	93.44
431.846	87.44
432.068	72.44
432.29	99.44
432.512	86.44
432.734	78.44
432.956	93.44
433.178	92.44
433.4	83.44
433.622	94.44
433.844	102.44
434.066	85.44
434.287	92.44
434.509	95.44
434.731	87.44
434.953	87.44
435.175	95.44
435.397	113.44
435.618	85.44
435.84	89.44
436.062	91.44
436.284	102.44
436.505	104.44
436.727	80.44
436.949	77.44
437.17	87.44
437.392	83.44
437.614	73.44
437.835	73.44
438.057	89.44
438.278	75.44
438.5	87.44
438.721	85.44
438.943	80.44
439.165	95.44
439.386	89.44
439.608	85.44
439.829	77.44
440.05	74.44
440.272	98.44
440.493	104.44
440.715	90.44
440.936	78.44
441.158	80.44
441.379	99.44
441.6	91.44
441.822	82.44
442.043	90.44
442.264	82.44
442.486	96.44
442.707	90.44
442.928	96.44
443.149	87.44
443.371	77.44
443.592	88.44
443.813	106.44
444.034	90.44
444.255	103.44
444.476	90.44
444.698	103.44
444.919	94.44
445.14	192.44
445.361	134.44
445.582	106.44
445.803	86.44
446.024	87.44
446.245	92.44
446.466	87.44
446.687	82.44
446.908	86.44
447.129	94.44
447.35	86.44
447.571	103.44
447.792	106.44
448.013	89.44
448.234	88.44
448.455	81.44
448.675	87.44
448.896	77.44
449.117	87.44
449.338	93.44
449.559	79.44
449.779	71.44
450	89.44
450.221	74.44
450.442	92.44
450.662	92.44
450.883	76.44
451.104	94.44
451.324	92.44
451.545	78.44
451.766	102.44
451.986	78.44
452.207	100.44
452.428	94.44
452.648	98.44
452.869	74.44
453.089	85.44
453.31	93.44
453.53	78.44
453.751	99.44
453.971	90.44
454.192	83.44
454.412	84.44
454.633	76.44
454.853	83.44
455.073	87.44
455.294	84.44
455.514	77.44
455.734	93.44
455.955	88.44
456.175	104.44
456.395	88.44
456.616	90.44
456.836	74.44
457.056	83.44
457.276	92.44
457.497	99.44
457.717	84.44
457.937	86.44
458.157	78.44
458.377	82.44
458.598	76.44
458.818	85.44
459.038	88.44
459.258	80.44
459.478	91.44
459.698	87.44
459.918	88.44
460.138	91.44
460.358	93.44
460.578	86.44
460.798	95.44
461.018	92.44
461.238	84.44
461.458	107.44
461.678	88.44
461.898	96.44
462.118	82.44
462.338	107.44
462.558	94.44
462.777	91.44
462.997	87.44
463.217	90.44
463.437	94.44
463.657	99.44
463.876	91.44
464.096	93.44
464.316	108.44
464.536	82.44
464.755	94.44
464.975	101.44
465.195	86.44
465.414	86.44
465.634	85.44
465.854	83.44
466.073	92.44
466.293	97.44
466.512	82.44
466.732	94.44
466.951	79.44
467.171	84.44
467.391	78.44
467.61	92.44
467.829	86.44
468.049	111.44
468.268	70.44
468.488	91.44
468.707	90.44
468.927	82.44
469.146	76.44
469.365	83.44
469.585	70.44
469.804	90.44
470.023	82.44
470.243	99.44
470.462	104.44
470.681	103.44
470.901	77.44
471.12	92.44
471.339	93.44
471.558	93.44
471.777	83.44
471.997	92.44
472.216	95.44
472.435	93.44
472.654	88.44
472.873	87.44
473.092	89.44
473.311	94.44
473.53	96.44
473.749	95.44
473.968	104.44
474.187	82.44
474.406	92.44
474.625	98.44
474.844	92.44
475.063	94.44
475.282	88.44
475.501	79.44
475.72	94.44
475.939	80.44
476.158	87.44
476.377	98.44
476.596	94.44
476.814	76.44
477.033	91.44
477.252	94.44
477.471	98.44
477.69	90.44
477.908	94.44
478.127	82.44
478.346	101.44
478.564	83.44
478.783	94.44
479.002	91.44
479.22	84.44
479.439	82.44
479.658	67.44
479.876	96.44
480.095	98.44
480.313	94.44
480.532	96.44
480.751	75.44
480.969	80.44
481.188	84.44
481.406	95.44
481.624	78.44
481.843	99.44
482.061	76.44
482.28	94.44
482.498	91.44
482.717	76.44
482.935	87.44
483.153	91.44
483.372	94.44
483.59	108.44
483.808	88.44
484.027	98.44
484.245	86.44
484.463	85.44
484.681	88.44
484.9	108.44
485.118	101.44
485.336	89.44
485.554	100.44
485.772	86.44
485.99	73.44
486.209	84.44
486.427	79.44
486.645	96.44
486.863	77.44
487.081	103.44
487.299	75.44
487.517	91.44
487.735	94.44
487.953	74.44
488.171	89.44
488.389	96.44
488.607	94.44
488.825	90.44
489.043	98.44
489.261	108.44
489.479	80.44
489.696	71.44
489.914	79.44
490.132	88.44
490.35	92.44
490.568	100.44
490.786	103.44
491.003	91.44
491.221	86.44
491.439	93.44
491.657	93.44
491.874	76.44
492.092	96.44
492.31	100.44
492.527	88.44
492.745	84.44
492.963	96.44
493.18	94.44
493.398	78.44
493.615	93.44
493.833	94.44
494.05	89.44
494.268	85.44
494.485	86.44
494.703	100.44
494.92	108.44
495.138	98.44
495.355	95.44
495.573	90.44
495.79	78.44
496.008	91.44
496.225	98.44
496.442	94.44
496.66	89.44
496.877	78.44
497.094	99.44
497.312	86.44
497.529	78.44
497.746	98.44
497.963	88.44
498.181	97.44
498.398	89.44
498.615	87.44
498.832	84.44
499.049	99.44
499.267	100.44
499.484	107.44
499.701	112.44
499.918	113.44
500.135	112.44
500.352	125.44
500.569	106.44
500.786	114.44
501.003	100.44
501.22	107.44
501.437	99.44
501.654	101.44
501.871	113.44
502.088	104.44
502.305	110.44
502.522	95.44
502.739	86.44
502.956	84.44
503.172	95.44
503.389	105.44
503.606	80.44
503.823	93.44
504.04	85.44
504.256	108.44
504.473	87.44
504.69	91.44
504.907	109.44
505.123	83.44
505.34	98.44
505.557	103.44
505.773	100.44
505.99	91.44
506.207	91.44
506.423	85.44
506.64	103.44
506.856	93.44
507.073	76.44
507.289	91.44
507.506	96.44
507.722	83.44
507.939	110.44
508.155	104.44
508.372	89.44
508.588	84.44
508.805	98.44
509.021	93.44
509.238	86.44
509.454	102.44
509.67	93.44
509.887	82.44
510.103	91.44
510.319	93.44
510.536	94.44
510.752	82.44
510.968	93.44
511.184	90.44
511.401	109.44
511.617	93.44
511.833	97.44
512.049	90.44
512.265	99.44
512.481	75.44
512.698	83.44
512.914	98.44
513.13	92.44
513.346	85.44
513.562	102.44
513.778	102.44
513.994	89.44
514.21	89.44
514.426	100.44
514.642	100.44
514.858	82.44
515.074	91.44
515.29	91.44
515.506	98.44
515.721	86.44
515.937	82.44
516.153	83.44
516.369	83.44
516.585	89.44
516.801	87.44
517.016	97.44
517.232	99.44
517.448	93.44
517.664	90.44
517.879	94.44
518.095	91.44
518.311	88.44
518.527	94.44
518.742	89.44
