Data from BG_HRD10591_085.txt Node
Date: Fri May 16 15:15:05 EDT 2025
User: Yrep
Spectrometer: HR+D1059
Trigger mode: 1
Integration Time (sec): 1.000000E-1
Scans to average: 1
Electric dark correction enabled: true
Nonlinearity correction enabled: false
Boxcar width: 0
XAxis mode: Wavelengths
Number of Pixels in Spectrum: 2048
>>>>>Begin Spectral Data<<<<<
223.165	-36.56
223.4	-36.56
223.635	-36.56
223.869	-20.56
224.104	-15.56
224.338	-17.56
224.573	-4.56
224.808	-19.56
225.042	-17.56
225.277	4.44
225.511	4.44
225.746	-3.56
225.98	3.44
226.215	20.44
226.449	21.44
226.683	12.44
226.918	30.44
227.152	38.44
227.387	30.44
227.621	41.44
227.856	49.44
228.09	34.44
228.324	46.44
228.559	58.44
228.793	54.44
229.027	67.44
229.262	54.44
229.496	59.44
229.73	63.44
229.964	81.44
230.199	77.44
230.433	71.44
230.667	84.44
230.901	70.44
231.136	75.44
231.37	89.44
231.604	88.44
231.838	79.44
232.072	65.44
232.306	71.44
232.541	75.44
232.775	70.44
233.009	73.44
233.243	81.44
233.477	81.44
233.711	75.44
233.945	76.44
234.179	85.44
234.413	97.44
234.647	77.44
234.881	71.44
235.115	75.44
235.349	75.44
235.583	76.44
235.817	84.44
236.051	71.44
236.285	70.44
236.519	66.44
236.753	66.44
236.987	72.44
237.221	94.44
237.455	75.44
237.689	78.44
237.922	64.44
238.156	57.44
238.39	73.44
238.624	89.44
238.858	75.44
239.091	76.44
239.325	77.44
239.559	68.44
239.793	69.44
240.027	85.44
240.26	72.44
240.494	63.44
240.728	69.44
240.961	73.44
241.195	78.44
241.429	74.44
241.662	69.44
241.896	80.44
242.13	82.44
242.363	85.44
242.597	75.44
242.83	82.44
243.064	78.44
243.298	84.44
243.531	68.44
243.765	85.44
243.998	87.44
244.232	81.44
244.465	73.44
244.699	66.44
244.932	67.44
245.166	79.44
245.399	66.44
245.633	73.44
245.866	84.44
246.099	74.44
246.333	81.44
246.566	75.44
246.8	77.44
247.033	75.44
247.266	76.44
247.5	60.44
247.733	79.44
247.966	83.44
248.2	95.44
248.433	58.44
248.666	76.44
248.899	86.44
249.133	73.44
249.366	67.44
249.599	66.44
249.832	57.44
250.066	81.44
250.299	79.44
250.532	65.44
250.765	66.44
250.998	76.44
251.231	98.44
251.465	69.44
251.698	81.44
251.931	77.44
252.164	72.44
252.397	79.44
252.63	79.44
252.863	70.44
253.096	73.44
253.329	77.44
253.562	92.44
253.795	90.44
254.028	70.44
254.261	86.44
254.494	70.44
254.727	67.44
254.96	69.44
255.193	73.44
255.426	77.44
255.659	68.44
255.892	85.44
256.124	65.44
256.357	66.44
256.59	83.44
256.823	84.44
257.056	91.44
257.289	69.44
257.521	67.44
257.754	74.44
257.987	81.44
258.22	79.44
258.452	83.44
258.685	75.44
258.918	68.44
259.151	75.44
259.383	70.44
259.616	71.44
259.849	76.44
260.081	69.44
260.314	72.44
260.547	75.44
260.779	74.44
261.012	78.44
261.244	69.44
261.477	85.44
261.71	75.44
261.942	84.44
262.175	75.44
262.407	91.44
262.64	77.44
262.872	85.44
263.105	72.44
263.337	84.44
263.57	68.44
263.802	77.44
264.035	72.44
264.267	86.44
264.499	72.44
264.732	86.44
264.964	73.44
265.197	77.44
265.429	82.44
265.661	67.44
265.894	81.44
266.126	86.44
266.358	82.44
266.591	67.44
266.823	86.44
267.055	86.44
267.287	74.44
267.52	63.44
267.752	75.44
267.984	69.44
268.216	79.44
268.448	83.44
268.681	81.44
268.913	83.44
269.145	83.44
269.377	77.44
269.609	77.44
269.841	81.44
270.073	84.44
270.306	79.44
270.538	86.44
270.77	76.44
271.002	89.44
271.234	73.44
271.466	79.44
271.698	85.44
271.93	68.44
272.162	76.44
272.394	84.44
272.626	89.44
272.858	86.44
273.09	79.44
273.322	82.44
273.553	82.44
273.785	87.44
274.017	76.44
274.249	81.44
274.481	76.44
274.713	95.44
274.945	88.44
275.176	87.44
275.408	90.44
275.64	74.44
275.872	85.44
276.104	88.44
276.335	77.44
276.567	78.44
276.799	75.44
277.031	86.44
277.262	85.44
277.494	76.44
277.726	85.44
277.957	76.44
278.189	88.44
278.421	72.44
278.652	80.44
278.884	83.44
279.115	74.44
279.347	81.44
279.579	85.44
279.81	81.44
280.042	63.44
280.273	78.44
280.505	74.44
280.736	76.44
280.968	83.44
281.199	91.44
281.431	82.44
281.662	82.44
281.894	74.44
282.125	76.44
282.356	77.44
282.588	85.44
282.819	85.44
283.051	76.44
283.282	69.44
283.513	84.44
283.745	89.44
283.976	75.44
284.207	80.44
284.439	77.44
284.67	83.44
284.901	91.44
285.132	90.44
285.364	81.44
285.595	80.44
285.826	92.44
286.057	79.44
286.288	70.44
286.52	86.44
286.751	91.44
286.982	83.44
287.213	79.44
287.444	81.44
287.675	67.44
287.906	91.44
288.138	75.44
288.369	76.44
288.6	74.44
288.831	84.44
289.062	81.44
289.293	86.44
289.524	81.44
289.755	81.44
289.986	89.44
290.217	75.44
290.448	71.44
290.679	79.44
290.91	84.44
291.141	81.44
291.371	94.44
291.602	77.44
291.833	93.44
292.064	85.44
292.295	82.44
292.526	83.44
292.757	87.44
292.987	75.44
293.218	80.44
293.449	77.44
293.68	87.44
293.91	71.44
294.141	77.44
294.372	64.44
294.603	64.44
294.833	77.44
295.064	93.44
295.295	61.44
295.525	86.44
295.756	83.44
295.987	87.44
296.217	83.44
296.448	67.44
296.679	81.44
296.909	88.44
297.14	86.44
297.37	90.44
297.601	83.44
297.831	75.44
298.062	69.44
298.292	78.44
298.523	75.44
298.753	68.44
298.984	68.44
299.214	71.44
299.445	88.44
299.675	69.44
299.905	80.44
300.136	81.44
300.366	73.44
300.597	78.44
300.827	78.44
301.057	89.44
301.288	79.44
301.518	69.44
301.748	81.44
301.979	92.44
302.209	68.44
302.439	72.44
302.669	77.44
302.9	73.44
303.13	79.44
303.36	75.44
303.59	83.44
303.82	88.44
304.051	82.44
304.281	69.44
304.511	89.44
304.741	86.44
304.971	72.44
305.201	95.44
305.431	84.44
305.661	85.44
305.891	88.44
306.121	100.44
306.352	73.44
306.582	83.44
306.812	81.44
307.042	86.44
307.272	69.44
307.502	103.44
307.731	93.44
307.961	73.44
308.191	73.44
308.421	63.44
308.651	76.44
308.881	89.44
309.111	88.44
309.341	76.44
309.571	76.44
309.8	88.44
310.03	84.44
310.26	74.44
310.49	67.44
310.72	83.44
310.949	79.44
311.179	89.44
311.409	78.44
311.639	97.44
311.868	99.44
312.098	91.44
312.328	67.44
312.557	71.44
312.787	75.44
313.017	77.44
313.246	78.44
313.476	83.44
313.706	92.44
313.935	83.44
314.165	94.44
314.394	94.44
314.624	86.44
314.853	86.44
315.083	79.44
315.312	86.44
315.542	73.44
315.771	94.44
316.001	83.44
316.23	101.44
316.46	80.44
316.689	67.44
316.919	81.44
317.148	98.44
317.377	88.44
317.607	75.44
317.836	83.44
318.065	91.44
318.295	71.44
318.524	69.44
318.753	78.44
318.983	84.44
319.212	76.44
319.441	93.44
319.67	87.44
319.9	89.44
320.129	82.44
320.358	81.44
320.587	73.44
320.816	78.44
321.046	85.44
321.275	85.44
321.504	77.44
321.733	79.44
321.962	75.44
322.191	79.44
322.42	67.44
322.649	80.44
322.878	81.44
323.108	78.44
323.337	77.44
323.566	91.44
323.795	82.44
324.024	80.44
324.253	76.44
324.482	73.44
324.71	64.44
324.939	84.44
325.168	83.44
325.397	85.44
325.626	81.44
325.855	83.44
326.084	94.44
326.313	85.44
326.542	71.44
326.77	84.44
326.999	82.44
327.228	73.44
327.457	74.44
327.686	81.44
327.914	87.44
328.143	85.44
328.372	85.44
328.6	81.44
328.829	93.44
329.058	66.44
329.287	82.44
329.515	89.44
329.744	86.44
329.972	73.44
330.201	70.44
330.43	80.44
330.658	86.44
330.887	86.44
331.115	87.44
331.344	79.44
331.572	82.44
331.801	79.44
332.03	86.44
332.258	78.44
332.486	78.44
332.715	83.44
332.943	77.44
333.172	73.44
333.4	87.44
333.629	83.44
333.857	72.44
334.085	73.44
334.314	86.44
334.542	80.44
334.771	92.44
334.999	77.44
335.227	90.44
335.455	93.44
335.684	93.44
335.912	93.44
336.14	77.44
336.369	87.44
336.597	75.44
336.825	75.44
337.053	97.44
337.281	83.44
337.51	67.44
337.738	89.44
337.966	83.44
338.194	81.44
338.422	83.44
338.65	69.44
338.878	79.44
339.106	93.44
339.334	86.44
339.562	78.44
339.79	70.44
340.018	85.44
340.246	78.44
340.474	81.44
340.702	75.44
340.93	74.44
341.158	71.44
341.386	98.44
341.614	80.44
341.842	77.44
342.07	87.44
342.298	84.44
342.526	86.44
342.754	81.44
342.981	106.44
343.209	99.44
343.437	86.44
343.665	61.44
343.893	74.44
344.12	97.44
344.348	82.44
344.576	72.44
344.804	79.44
345.031	69.44
345.259	84.44
345.487	73.44
345.714	81.44
345.942	82.44
346.17	89.44
346.397	74.44
346.625	71.44
346.853	94.44
347.08	85.44
347.308	81.44
347.535	64.44
347.763	80.44
347.99	90.44
348.218	84.44
348.445	75.44
348.673	75.44
348.9	85.44
349.128	79.44
349.355	79.44
349.583	87.44
349.81	84.44
350.037	89.44
350.265	76.44
350.492	69.44
350.72	71.44
350.947	92.44
351.174	66.44
351.402	78.44
351.629	94.44
351.856	93.44
352.083	68.44
352.311	86.44
352.538	81.44
352.765	79.44
352.992	90.44
353.22	80.44
353.447	73.44
353.674	82.44
353.901	83.44
354.128	97.44
354.355	75.44
354.583	81.44
354.81	82.44
355.037	73.44
355.264	75.44
355.491	78.44
355.718	89.44
355.945	78.44
356.172	74.44
356.399	85.44
356.626	69.44
356.853	74.44
357.08	87.44
357.307	86.44
357.534	71.44
357.761	73.44
357.988	87.44
358.215	87.44
358.441	87.44
358.668	85.44
358.895	77.44
359.122	80.44
359.349	68.44
359.576	81.44
359.802	76.44
360.029	70.44
360.256	95.44
360.483	80.44
360.709	91.44
360.936	89.44
361.163	76.44
361.39	76.44
361.616	66.44
361.843	71.44
362.07	85.44
362.296	83.44
362.523	81.44
362.749	93.44
362.976	83.44
363.203	81.44
363.429	77.44
363.656	89.44
363.882	90.44
364.109	78.44
364.335	76.44
364.562	80.44
364.788	83.44
365.015	83.44
365.241	82.44
365.468	86.44
365.694	78.44
365.92	84.44
366.147	79.44
366.373	84.44
366.599	67.44
366.826	74.44
367.052	83.44
367.278	76.44
367.505	87.44
367.731	92.44
367.957	85.44
368.184	88.44
368.41	80.44
368.636	81.44
368.862	77.44
369.089	85.44
369.315	68.44
369.541	86.44
369.767	87.44
369.993	93.44
370.219	75.44
370.445	71.44
370.672	89.44
370.898	76.44
371.124	77.44
371.35	68.44
371.576	73.44
371.802	71.44
372.028	82.44
372.254	80.44
372.48	73.44
372.706	80.44
372.932	74.44
373.158	73.44
373.384	74.44
373.61	90.44
373.835	80.44
374.061	72.44
374.287	97.44
374.513	90.44
374.739	86.44
374.965	74.44
375.191	65.44
375.416	79.44
375.642	78.44
375.868	77.44
376.094	81.44
376.319	87.44
376.545	68.44
376.771	57.44
376.997	84.44
377.222	77.44
377.448	78.44
377.674	77.44
377.899	68.44
378.125	78.44
378.35	78.44
378.576	78.44
378.802	82.44
379.027	68.44
379.253	76.44
379.478	74.44
379.704	77.44
379.929	76.44
380.155	68.44
380.38	97.44
380.606	83.44
380.831	74.44
381.057	93.44
381.282	80.44
381.507	75.44
381.733	68.44
381.958	81.44
382.184	81.44
382.409	89.44
382.634	82.44
382.86	64.44
383.085	87.44
383.31	68.44
383.535	77.44
383.761	84.44
383.986	66.44
384.211	79.44
384.436	84.44
384.662	59.44
384.887	76.44
385.112	71.44
385.337	85.44
385.562	84.44
385.787	77.44
386.013	79.44
386.238	75.44
386.463	84.44
386.688	93.44
386.913	74.44
387.138	85.44
387.363	75.44
387.588	65.44
387.813	94.44
388.038	84.44
388.263	84.44
388.488	93.44
388.713	75.44
388.938	69.44
389.163	79.44
389.387	71.44
389.612	81.44
389.837	74.44
390.062	88.44
390.287	80.44
390.512	81.44
390.736	76.44
390.961	74.44
391.186	87.44
391.411	79.44
391.636	68.44
391.86	83.44
392.085	69.44
392.31	75.44
392.534	90.44
392.759	74.44
392.984	70.44
393.208	82.44
393.433	79.44
393.658	82.44
393.882	69.44
394.107	69.44
394.331	86.44
394.556	85.44
394.78	77.44
395.005	74.44
395.229	81.44
395.454	84.44
395.678	66.44
395.903	78.44
396.127	83.44
396.352	81.44
396.576	88.44
396.801	74.44
397.025	78.44
397.249	77.44
397.474	77.44
397.698	83.44
397.922	81.44
398.147	81.44
398.371	78.44
398.595	85.44
398.82	93.44
399.044	78.44
399.268	78.44
399.492	70.44
399.717	80.44
399.941	73.44
400.165	83.44
400.389	81.44
400.613	80.44
400.837	74.44
401.062	68.44
401.286	73.44
401.51	66.44
401.734	87.44
401.958	78.44
402.182	84.44
402.406	84.44
402.63	79.44
402.854	67.44
403.078	77.44
403.302	67.44
403.526	81.44
403.75	82.44
403.974	79.44
404.198	88.44
404.422	80.44
404.645	71.44
404.869	67.44
405.093	84.44
405.317	83.44
405.541	79.44
405.765	79.44
405.988	90.44
406.212	86.44
406.436	83.44
406.66	81.44
406.883	71.44
407.107	75.44
407.331	82.44
407.555	82.44
407.778	67.44
408.002	83.44
408.226	71.44
408.449	78.44
408.673	65.44
408.896	81.44
409.12	68.44
409.344	68.44
409.567	76.44
409.791	78.44
410.014	74.44
410.238	78.44
410.461	88.44
410.685	87.44
410.908	77.44
411.132	71.44
411.355	69.44
411.578	76.44
411.802	78.44
412.025	77.44
412.249	81.44
412.472	66.44
412.695	74.44
412.919	71.44
413.142	72.44
413.365	67.44
413.589	67.44
413.812	74.44
414.035	77.44
414.258	70.44
414.482	71.44
414.705	78.44
414.928	67.44
415.151	70.44
415.374	76.44
415.597	91.44
415.821	81.44
416.044	83.44
416.267	88.44
416.49	91.44
416.713	78.44
416.936	74.44
417.159	70.44
417.382	81.44
417.605	74.44
417.828	74.44
418.051	80.44
418.274	84.44
418.497	77.44
418.72	64.44
418.943	69.44
419.166	67.44
419.389	79.44
419.611	84.44
419.834	80.44
420.057	64.44
420.28	76.44
420.503	84.44
420.726	101.44
420.948	76.44
421.171	82.44
421.394	73.44
421.617	91.44
421.839	79.44
422.062	81.44
422.285	79.44
422.507	65.44
422.73	75.44
422.953	72.44
423.175	94.44
423.398	79.44
423.621	77.44
423.843	74.44
424.066	70.44
424.288	85.44
424.511	77.44
424.733	87.44
424.956	93.44
425.178	71.44
425.401	74.44
425.623	91.44
425.846	60.44
426.068	76.44
426.291	75.44
426.513	76.44
426.735	64.44
426.958	74.44
427.18	73.44
427.402	73.44
427.625	69.44
427.847	77.44
428.069	72.44
428.292	67.44
428.514	78.44
428.736	71.44
428.958	86.44
429.181	86.44
429.403	87.44
429.625	76.44
429.847	66.44
430.069	73.44
430.292	75.44
430.514	86.44
430.736	69.44
430.958	82.44
431.18	81.44
431.402	69.44
431.624	84.44
431.846	78.44
432.068	76.44
432.29	81.44
432.512	87.44
432.734	73.44
432.956	82.44
433.178	74.44
433.4	81.44
433.622	72.44
433.844	76.44
434.066	67.44
434.287	82.44
434.509	79.44
434.731	73.44
434.953	91.44
435.175	88.44
435.397	76.44
435.618	72.44
435.84	78.44
436.062	77.44
436.284	85.44
436.505	76.44
436.727	75.44
436.949	83.44
437.17	74.44
437.392	85.44
437.614	85.44
437.835	85.44
438.057	84.44
438.278	89.44
438.5	88.44
438.721	82.44
438.943	81.44
439.165	60.44
439.386	83.44
439.608	89.44
439.829	70.44
440.05	98.44
440.272	71.44
440.493	73.44
440.715	89.44
440.936	72.44
441.158	80.44
441.379	63.44
441.6	68.44
441.822	77.44
442.043	70.44
442.264	86.44
442.486	75.44
442.707	75.44
442.928	68.44
443.149	63.44
443.371	71.44
443.592	81.44
443.813	77.44
444.034	68.44
444.255	78.44
444.476	80.44
444.698	68.44
444.919	76.44
445.14	130.44
445.361	103.44
445.582	73.44
445.803	81.44
446.024	75.44
446.245	83.44
446.466	81.44
446.687	82.44
446.908	84.44
447.129	85.44
447.35	79.44
447.571	72.44
447.792	86.44
448.013	83.44
448.234	76.44
448.455	79.44
448.675	52.44
448.896	76.44
449.117	86.44
449.338	77.44
449.559	81.44
449.779	84.44
450	70.44
450.221	92.44
450.442	80.44
450.662	64.44
450.883	65.44
451.104	76.44
451.324	86.44
451.545	78.44
451.766	58.44
451.986	67.44
452.207	72.44
452.428	73.44
452.648	77.44
452.869	78.44
453.089	79.44
453.31	73.44
453.53	66.44
453.751	77.44
453.971	64.44
454.192	75.44
454.412	89.44
454.633	66.44
454.853	85.44
455.073	81.44
455.294	83.44
455.514	76.44
455.734	81.44
455.955	75.44
456.175	71.44
456.395	93.44
456.616	83.44
456.836	75.44
457.056	69.44
457.276	70.44
457.497	80.44
457.717	70.44
457.937	62.44
458.157	71.44
458.377	80.44
458.598	69.44
458.818	76.44
459.038	86.44
459.258	75.44
459.478	79.44
459.698	88.44
459.918	68.44
460.138	84.44
460.358	83.44
460.578	68.44
460.798	77.44
461.018	77.44
461.238	87.44
461.458	73.44
461.678	72.44
461.898	81.44
462.118	79.44
462.338	97.44
462.558	79.44
462.777	89.44
462.997	81.44
463.217	70.44
463.437	80.44
463.657	64.44
463.876	89.44
464.096	57.44
464.316	81.44
464.536	86.44
464.755	75.44
464.975	64.44
465.195	81.44
465.414	83.44
465.634	78.44
465.854	79.44
466.073	88.44
466.293	74.44
466.512	85.44
466.732	73.44
466.951	86.44
467.171	81.44
467.391	92.44
467.61	84.44
467.829	59.44
468.049	78.44
468.268	75.44
468.488	59.44
468.707	82.44
468.927	71.44
469.146	77.44
469.365	83.44
469.585	76.44
469.804	92.44
470.023	87.44
470.243	78.44
470.462	67.44
470.681	79.44
470.901	74.44
471.12	82.44
471.339	87.44
471.558	92.44
471.777	81.44
471.997	84.44
472.216	70.44
472.435	81.44
472.654	89.44
472.873	80.44
473.092	73.44
473.311	71.44
473.53	74.44
473.749	83.44
473.968	89.44
474.187	79.44
474.406	86.44
474.625	95.44
474.844	92.44
475.063	89.44
475.282	66.44
475.501	74.44
475.72	80.44
475.939	75.44
476.158	65.44
476.377	88.44
476.596	77.44
476.814	79.44
477.033	73.44
477.252	84.44
477.471	78.44
477.69	77.44
477.908	78.44
478.127	81.44
478.346	76.44
478.564	85.44
478.783	84.44
479.002	84.44
479.22	85.44
479.439	69.44
479.658	71.44
479.876	54.44
480.095	87.44
480.313	79.44
480.532	83.44
480.751	88.44
480.969	92.44
481.188	85.44
481.406	90.44
481.624	73.44
481.843	66.44
482.061	77.44
482.28	75.44
482.498	83.44
482.717	69.44
482.935	79.44
483.153	81.44
483.372	78.44
483.59	89.44
483.808	76.44
484.027	69.44
484.245	75.44
484.463	77.44
484.681	79.44
484.9	81.44
485.118	76.44
485.336	81.44
485.554	81.44
485.772	84.44
485.99	81.44
486.209	90.44
486.427	86.44
486.645	69.44
486.863	71.44
487.081	88.44
487.299	71.44
487.517	72.44
487.735	77.44
487.953	83.44
488.171	69.44
488.389	85.44
488.607	85.44
488.825	80.44
489.043	71.44
489.261	75.44
489.479	85.44
489.696	80.44
489.914	63.44
490.132	82.44
490.35	69.44
490.568	81.44
490.786	84.44
491.003	83.44
491.221	76.44
491.439	71.44
491.657	68.44
491.874	79.44
492.092	70.44
492.31	79.44
492.527	79.44
492.745	75.44
492.963	58.44
493.18	76.44
493.398	73.44
493.615	78.44
493.833	79.44
494.05	76.44
494.268	72.44
494.485	78.44
494.703	89.44
494.92	76.44
495.138	83.44
495.355	83.44
495.573	78.44
495.79	84.44
496.008	78.44
496.225	70.44
496.442	74.44
496.66	74.44
496.877	69.44
497.094	74.44
497.312	78.44
497.529	68.44
497.746	65.44
497.963	78.44
498.181	74.44
498.398	80.44
498.615	86.44
498.832	78.44
499.049	67.44
499.267	76.44
499.484	84.44
499.701	83.44
499.918	73.44
500.135	75.44
500.352	77.44
500.569	78.44
500.786	79.44
501.003	92.44
501.22	69.44
501.437	66.44
501.654	78.44
501.871	85.44
502.088	72.44
502.305	71.44
502.522	81.44
502.739	81.44
502.956	71.44
503.172	93.44
503.389	80.44
503.606	72.44
503.823	86.44
504.04	97.44
504.256	71.44
504.473	77.44
504.69	85.44
504.907	89.44
505.123	81.44
505.34	78.44
505.557	89.44
505.773	85.44
505.99	87.44
506.207	71.44
506.423	89.44
506.64	81.44
506.856	75.44
507.073	77.44
507.289	78.44
507.506	79.44
507.722	76.44
507.939	84.44
508.155	70.44
508.372	94.44
508.588	86.44
508.805	68.44
509.021	69.44
509.238	74.44
509.454	80.44
509.67	83.44
509.887	88.44
510.103	87.44
510.319	78.44
510.536	79.44
510.752	79.44
510.968	90.44
511.184	71.44
511.401	73.44
511.617	77.44
511.833	73.44
512.049	80.44
512.265	73.44
512.481	83.44
512.698	60.44
512.914	94.44
513.13	84.44
513.346	81.44
513.562	84.44
513.778	73.44
513.994	83.44
514.21	97.44
514.426	80.44
514.642	76.44
514.858	98.44
515.074	82.44
515.29	73.44
515.506	87.44
515.721	87.44
515.937	70.44
516.153	81.44
516.369	82.44
516.585	90.44
516.801	73.44
517.016	86.44
517.232	82.44
517.448	85.44
517.664	67.44
517.879	86.44
518.095	81.44
518.311	77.44
518.527	73.44
518.742	75.44
518.958	77.44
519.173	84.44
519.389	67.44
519.605	80.44
519.82	78.44
520.036	75.44
520.251	81.44
