Data from BG_HRD10591_053.txt Node
Date: Fri May 16 15:14:49 EDT 2025
User: Yrep
Spectrometer: HR+D1059
Trigger mode: 1
Integration Time (sec): 1.000000E-1
Scans to average: 1
Electric dark correction enabled: true
Nonlinearity correction enabled: false
Boxcar width: 0
XAxis mode: Wavelengths
Number of Pixels in Spectrum: 2048
>>>>>Begin Spectral Data<<<<<
223.165	-21
223.4	-21
223.635	-21
223.869	-20
224.104	-16
224.338	-5
224.573	-16
224.808	-24
225.042	-6
225.277	-11
225.511	2
225.746	-3
225.98	5
226.215	11
226.449	21
226.683	13
226.918	34
227.152	36
227.387	27
227.621	39
227.856	51
228.09	37
228.324	55
228.559	69
228.793	65
229.027	62
229.262	57
229.496	56
229.73	80
229.964	69
230.199	82
230.433	78
230.667	86
230.901	89
231.136	64
231.37	82
231.604	88
231.838	89
232.072	99
232.306	84
232.541	77
232.775	82
233.009	88
233.243	77
233.477	80
233.711	84
233.945	78
234.179	90
234.413	83
234.647	80
234.881	75
235.115	86
235.349	73
235.583	76
235.817	81
236.051	83
236.285	72
236.519	67
236.753	64
236.987	82
237.221	63
237.455	59
237.689	74
237.922	75
238.156	78
238.39	79
238.624	75
238.858	62
239.091	74
239.325	71
239.559	82
239.793	76
240.027	75
240.26	82
240.494	83
240.728	72
240.961	58
241.195	77
241.429	75
241.662	66
241.896	64
242.13	74
242.363	78
242.597	78
242.83	76
243.064	81
243.298	89
243.531	70
243.765	78
243.998	87
244.232	86
244.465	76
244.699	71
244.932	91
245.166	70
245.399	77
245.633	87
245.866	78
246.099	78
246.333	74
246.566	75
246.8	70
247.033	82
247.266	80
247.5	85
247.733	93
247.966	87
248.2	77
248.433	77
248.666	69
248.899	73
249.133	75
249.366	76
249.599	85
249.832	85
250.066	89
250.299	68
250.532	71
250.765	72
250.998	76
251.231	86
251.465	86
251.698	76
251.931	73
252.164	74
252.397	79
252.63	72
252.863	85
253.096	81
253.329	91
253.562	82
253.795	77
254.028	75
254.261	82
254.494	80
254.727	76
254.96	85
255.193	92
255.426	88
255.659	78
255.892	89
256.124	72
256.357	86
256.59	84
256.823	82
257.056	82
257.289	89
257.521	77
257.754	86
257.987	87
258.22	85
258.452	79
258.685	66
258.918	93
259.151	83
259.383	66
259.616	89
259.849	91
260.081	80
260.314	85
260.547	82
260.779	81
261.012	74
261.244	76
261.477	76
261.71	88
261.942	73
262.175	71
262.407	78
262.64	74
262.872	84
263.105	84
263.337	80
263.57	82
263.802	92
264.035	74
264.267	81
264.499	87
264.732	67
264.964	84
265.197	85
265.429	75
265.661	78
265.894	81
266.126	77
266.358	74
266.591	84
266.823	77
267.055	84
267.287	76
267.52	76
267.752	75
267.984	81
268.216	85
268.448	80
268.681	82
268.913	94
269.145	85
269.377	87
269.609	78
269.841	91
270.073	86
270.306	86
270.538	68
270.77	74
271.002	79
271.234	86
271.466	95
271.698	77
271.93	93
272.162	89
272.394	79
272.626	72
272.858	90
273.09	87
273.322	78
273.553	79
273.785	73
274.017	77
274.249	88
274.481	90
274.713	85
274.945	92
275.176	76
275.408	78
275.64	94
275.872	87
276.104	85
276.335	85
276.567	66
276.799	80
277.031	85
277.262	76
277.494	93
277.726	78
277.957	82
278.189	90
278.421	89
278.652	79
278.884	92
279.115	92
279.347	83
279.579	71
279.81	74
280.042	86
280.273	89
280.505	91
280.736	85
280.968	69
281.199	76
281.431	84
281.662	73
281.894	90
282.125	87
282.356	81
282.588	73
282.819	72
283.051	73
283.282	78
283.513	85
283.745	83
283.976	91
284.207	88
284.439	93
284.67	86
284.901	87
285.132	73
285.364	84
285.595	81
285.826	79
286.057	86
286.288	75
286.52	83
286.751	79
286.982	82
287.213	79
287.444	85
287.675	91
287.906	79
288.138	85
288.369	83
288.6	81
288.831	87
289.062	86
289.293	89
289.524	87
289.755	69
289.986	82
290.217	90
290.448	86
290.679	98
290.91	98
291.141	88
291.371	72
291.602	93
291.833	89
292.064	78
292.295	68
292.526	80
292.757	83
292.987	91
293.218	70
293.449	79
293.68	84
293.91	89
294.141	103
294.372	83
294.603	80
294.833	77
295.064	85
295.295	92
295.525	79
295.756	87
295.987	87
296.217	72
296.448	85
296.679	94
296.909	82
297.14	97
297.37	90
297.601	71
297.831	74
298.062	85
298.292	95
298.523	80
298.753	83
298.984	86
299.214	69
299.445	90
299.675	85
299.905	86
300.136	96
300.366	84
300.597	85
300.827	92
301.057	88
301.288	81
301.518	99
301.748	80
301.979	103
302.209	79
302.439	93
302.669	85
302.9	91
303.13	93
303.36	84
303.59	95
303.82	99
304.051	90
304.281	91
304.511	93
304.741	91
304.971	99
305.201	85
305.431	81
305.661	89
305.891	90
306.121	89
306.352	81
306.582	97
306.812	91
307.042	88
307.272	88
307.502	82
307.731	73
307.961	78
308.191	95
308.421	86
308.651	93
308.881	82
309.111	89
309.341	96
309.571	79
309.8	83
310.03	86
310.26	92
310.49	90
310.72	77
310.949	89
311.179	71
311.409	70
311.639	88
311.868	91
312.098	92
312.328	93
312.557	97
312.787	92
313.017	76
313.246	85
313.476	81
313.706	85
313.935	95
314.165	81
314.394	86
314.624	86
314.853	82
315.083	80
315.312	88
315.542	69
315.771	80
316.001	81
316.23	90
316.46	86
316.689	90
316.919	90
317.148	86
317.377	92
317.607	86
317.836	93
318.065	88
318.295	90
318.524	101
318.753	94
318.983	85
319.212	102
319.441	79
319.67	82
319.9	75
320.129	68
320.358	77
320.587	82
320.816	87
321.046	101
321.275	90
321.504	75
321.733	77
321.962	90
322.191	81
322.42	81
322.649	91
322.878	77
323.108	94
323.337	68
323.566	93
323.795	88
324.024	95
324.253	74
324.482	83
324.71	82
324.939	77
325.168	78
325.397	83
325.626	86
325.855	84
326.084	82
326.313	101
326.542	93
326.77	87
326.999	81
327.228	94
327.457	90
327.686	75
327.914	107
328.143	93
328.372	85
328.6	86
328.829	91
329.058	86
329.287	76
329.515	81
329.744	94
329.972	93
330.201	93
330.43	79
330.658	105
330.887	87
331.115	89
331.344	97
331.572	103
331.801	87
332.03	90
332.258	87
332.486	88
332.715	87
332.943	89
333.172	77
333.4	84
333.629	99
333.857	91
334.085	102
334.314	93
334.542	83
334.771	81
334.999	86
335.227	84
335.455	92
335.684	79
335.912	85
336.14	94
336.369	93
336.597	102
336.825	72
337.053	87
337.281	104
337.51	71
337.738	82
337.966	77
338.194	82
338.422	91
338.65	90
338.878	100
339.106	94
339.334	90
339.562	90
339.79	90
340.018	86
340.246	84
340.474	82
340.702	84
340.93	89
341.158	97
341.386	90
341.614	86
341.842	95
342.07	81
342.298	83
342.526	92
342.754	101
342.981	89
343.209	77
343.437	111
343.665	83
343.893	85
344.12	87
344.348	101
344.576	91
344.804	87
345.031	81
345.259	83
345.487	82
345.714	94
345.942	69
346.17	78
346.397	99
346.625	86
346.853	90
347.08	83
347.308	101
347.535	89
347.763	92
347.99	74
348.218	81
348.445	84
348.673	92
348.9	71
349.128	94
349.355	72
349.583	87
349.81	76
350.037	72
350.265	86
350.492	71
350.72	76
350.947	89
351.174	92
351.402	74
351.629	94
351.856	88
352.083	95
352.311	89
352.538	81
352.765	102
352.992	86
353.22	76
353.447	77
353.674	92
353.901	79
354.128	91
354.355	73
354.583	85
354.81	81
355.037	71
355.264	93
355.491	86
355.718	85
355.945	78
356.172	94
356.399	90
356.626	85
356.853	91
357.08	92
357.307	84
357.534	89
357.761	82
357.988	90
358.215	94
358.441	74
358.668	79
358.895	97
359.122	84
359.349	88
359.576	97
359.802	86
360.029	71
360.256	81
360.483	94
360.709	94
360.936	75
361.163	81
361.39	81
361.616	84
361.843	87
362.07	86
362.296	90
362.523	89
362.749	68
362.976	93
363.203	86
363.429	93
363.656	93
363.882	89
364.109	95
364.335	86
364.562	86
364.788	83
365.015	103
365.241	90
365.468	77
365.694	85
365.92	84
366.147	103
366.373	94
366.599	71
366.826	94
367.052	85
367.278	101
367.505	90
367.731	89
367.957	89
368.184	73
368.41	69
368.636	89
368.862	86
369.089	98
369.315	87
369.541	92
369.767	75
369.993	81
370.219	92
370.445	82
370.672	87
370.898	89
371.124	79
371.35	73
371.576	94
371.802	81
372.028	84
372.254	89
372.48	93
372.706	77
372.932	99
373.158	101
373.384	101
373.61	81
373.835	92
374.061	84
374.287	86
374.513	81
374.739	93
374.965	88
375.191	91
375.416	86
375.642	93
375.868	99
376.094	84
376.319	86
376.545	71
376.771	76
376.997	86
377.222	99
377.448	99
377.674	86
377.899	76
378.125	92
378.35	81
378.576	95
378.802	82
379.027	74
379.253	78
379.478	84
379.704	96
379.929	95
380.155	88
380.38	82
380.606	92
380.831	90
381.057	80
381.282	85
381.507	70
381.733	86
381.958	84
382.184	105
382.409	86
382.634	86
382.86	87
383.085	86
383.31	76
383.535	92
383.761	83
383.986	81
384.211	88
384.436	78
384.662	87
384.887	86
385.112	102
385.337	100
385.562	89
385.787	82
386.013	79
386.238	85
386.463	87
386.688	100
386.913	74
387.138	83
387.363	102
387.588	84
387.813	104
388.038	85
388.263	101
388.488	102
388.713	96
388.938	75
389.163	81
389.387	93
389.612	70
389.837	91
390.062	85
390.287	85
390.512	84
390.736	86
390.961	84
391.186	92
391.411	99
391.636	99
391.86	81
392.085	90
392.31	90
392.534	77
392.759	84
392.984	71
393.208	93
393.433	93
393.658	81
393.882	85
394.107	91
394.331	91
394.556	87
394.78	89
395.005	82
395.229	77
395.454	65
395.678	94
395.903	81
396.127	80
396.352	86
396.576	101
396.801	87
397.025	87
397.249	94
397.474	84
397.698	89
397.922	86
398.147	86
398.371	103
398.595	87
398.82	86
399.044	83
399.268	93
399.492	89
399.717	88
399.941	92
400.165	86
400.389	91
400.613	89
400.837	81
401.062	91
401.286	85
401.51	95
401.734	93
401.958	94
402.182	88
402.406	82
402.63	94
402.854	69
403.078	82
403.302	94
403.526	83
403.75	96
403.974	82
404.198	75
404.422	90
404.645	91
404.869	89
405.093	75
405.317	79
405.541	82
405.765	89
405.988	91
406.212	89
406.436	82
406.66	101
406.883	82
407.107	110
407.331	88
407.555	89
407.778	81
408.002	82
408.226	91
408.449	85
408.673	87
408.896	87
409.12	71
409.344	91
409.567	107
409.791	92
410.014	94
410.238	90
410.461	98
410.685	78
410.908	81
411.132	81
411.355	77
411.578	91
411.802	77
412.025	81
412.249	83
412.472	93
412.695	81
412.919	84
413.142	91
413.365	91
413.589	80
413.812	84
414.035	98
414.258	93
414.482	84
414.705	95
414.928	85
415.151	94
415.374	81
415.597	95
415.821	74
416.044	89
416.267	85
416.49	91
416.713	89
416.936	94
417.159	87
417.382	79
417.605	71
417.828	84
418.051	78
418.274	91
418.497	90
418.72	77
418.943	94
419.166	91
419.389	90
419.611	81
419.834	100
420.057	105
420.28	90
420.503	67
420.726	89
420.948	97
421.171	95
421.394	101
421.617	97
421.839	92
422.062	85
422.285	77
422.507	104
422.73	77
422.953	74
423.175	97
423.398	72
423.621	91
423.843	81
424.066	103
424.288	95
424.511	92
424.733	92
424.956	79
425.178	85
425.401	85
425.623	84
425.846	105
426.068	92
426.291	91
426.513	81
426.735	76
426.958	74
427.18	79
427.402	83
427.625	83
427.847	73
428.069	84
428.292	98
428.514	89
428.736	82
428.958	83
429.181	92
429.403	88
429.625	90
429.847	86
430.069	79
430.292	81
430.514	84
430.736	78
430.958	86
431.18	86
431.402	105
431.624	94
431.846	87
432.068	88
432.29	88
432.512	89
432.734	94
432.956	86
433.178	92
433.4	83
433.622	87
433.844	87
434.066	81
434.287	81
434.509	85
434.731	99
434.953	80
435.175	89
435.397	90
435.618	74
435.84	76
436.062	90
436.284	85
436.505	90
436.727	81
436.949	90
437.17	93
437.392	108
437.614	94
437.835	89
438.057	87
438.278	83
438.5	75
438.721	89
438.943	92
439.165	80
439.386	88
439.608	75
439.829	85
440.05	91
440.272	81
440.493	92
440.715	87
440.936	79
441.158	101
441.379	88
441.6	89
441.822	92
442.043	83
442.264	71
442.486	84
442.707	79
442.928	99
443.149	76
443.371	84
443.592	101
443.813	87
444.034	74
444.255	81
444.476	89
444.698	94
444.919	89
445.14	158
445.361	117
445.582	97
445.803	86
446.024	77
446.245	81
446.466	79
446.687	86
446.908	109
447.129	101
447.35	90
447.571	97
447.792	77
448.013	94
448.234	88
448.455	100
448.675	93
448.896	86
449.117	81
449.338	92
449.559	72
449.779	87
450	94
450.221	88
450.442	74
450.662	82
450.883	98
451.104	91
451.324	93
451.545	87
451.766	71
451.986	77
452.207	92
452.428	80
452.648	102
452.869	89
453.089	99
453.31	98
453.53	87
453.751	81
453.971	98
454.192	75
454.412	82
454.633	95
454.853	79
455.073	85
455.294	93
455.514	78
455.734	78
455.955	88
456.175	76
456.395	98
456.616	94
456.836	83
457.056	74
457.276	71
457.497	78
457.717	83
457.937	89
458.157	78
458.377	92
458.598	87
458.818	85
459.038	82
459.258	87
459.478	78
459.698	86
459.918	97
460.138	99
460.358	90
460.578	93
460.798	87
461.018	89
461.238	77
461.458	82
461.678	78
461.898	102
462.118	87
462.338	94
462.558	98
462.777	91
462.997	94
463.217	83
463.437	90
463.657	97
463.876	93
464.096	75
464.316	86
464.536	92
464.755	87
464.975	87
465.195	93
465.414	88
465.634	83
465.854	83
466.073	89
466.293	82
466.512	85
466.732	89
466.951	102
467.171	77
467.391	85
467.61	94
467.829	81
468.049	85
468.268	73
468.488	92
468.707	89
468.927	92
469.146	87
469.365	93
469.585	85
469.804	92
470.023	79
470.243	95
470.462	87
470.681	91
470.901	83
471.12	83
471.339	101
471.558	86
471.777	92
471.997	93
472.216	84
472.435	87
472.654	78
472.873	93
473.092	86
473.311	91
473.53	87
473.749	83
473.968	99
474.187	87
474.406	91
474.625	78
474.844	80
475.063	76
475.282	87
475.501	92
475.72	81
475.939	84
476.158	98
476.377	89
476.596	77
476.814	92
477.033	79
477.252	87
477.471	74
477.69	81
477.908	86
478.127	98
478.346	86
478.564	97
478.783	90
479.002	86
479.22	103
479.439	89
479.658	90
479.876	82
480.095	84
480.313	101
480.532	79
480.751	85
480.969	73
481.188	83
481.406	87
481.624	95
481.843	89
482.061	93
482.28	97
482.498	90
482.717	91
482.935	78
483.153	82
483.372	70
483.59	79
483.808	98
484.027	92
484.245	88
484.463	90
484.681	92
484.9	91
485.118	78
485.336	90
485.554	90
485.772	97
485.99	95
486.209	78
486.427	92
486.645	99
486.863	82
487.081	101
487.299	97
487.517	67
487.735	84
487.953	91
488.171	97
488.389	93
488.607	87
488.825	69
489.043	98
489.261	94
489.479	89
489.696	94
489.914	100
490.132	80
490.35	105
490.568	86
490.786	84
491.003	87
491.221	95
491.439	94
491.657	88
491.874	83
492.092	102
492.31	90
492.527	85
492.745	82
492.963	73
493.18	88
493.398	104
493.615	89
493.833	81
494.05	82
494.268	82
494.485	87
494.703	94
494.92	101
495.138	104
495.355	81
495.573	71
495.79	95
496.008	88
496.225	91
496.442	97
496.66	74
496.877	95
497.094	97
497.312	83
497.529	71
497.746	99
497.963	90
498.181	86
498.398	83
498.615	89
498.832	101
499.049	84
499.267	92
499.484	88
499.701	102
499.918	103
500.135	106
500.352	110
500.569	104
500.786	92
501.003	107
501.22	106
501.437	92
501.654	85
501.871	95
502.088	93
502.305	98
502.522	95
502.739	101
502.956	102
503.172	75
503.389	94
503.606	88
503.823	83
504.04	94
504.256	88
504.473	86
504.69	88
504.907	91
505.123	94
505.34	97
505.557	86
505.773	74
505.99	76
506.207	85
506.423	74
506.64	85
506.856	88
507.073	102
507.289	85
507.506	90
507.722	93
507.939	94
508.155	78
508.372	86
508.588	90
508.805	84
509.021	101
509.238	81
509.454	86
509.67	78
509.887	90
510.103	94
510.319	85
510.536	81
510.752	94
510.968	95
511.184	93
511.401	85
511.617	99
511.833	94
512.049	109
512.265	83
512.481	92
512.698	100
512.914	85
513.13	93
513.346	94
513.562	97
513.778	73
513.994	97
514.21	92
514.426	81
514.642	94
514.858	99
515.074	85
515.29	93
515.506	82
515.721	85
515.937	87
516.153	94
516.369	97
516.585	85
516.801	81
517.016	100
517.232	102
517.448	94
517.664	90
517.879	81
518.095	82
518.311	78
518.527	73
518.742	76
518.958	81
519.173	92
519.389	96
519.605	77
519.82	89
520.036	89
520.251	90
520.467	100
520.682	81
520.898	90
521.113	89
521.329	101
521.544	95
521.76	89
521.975	90
522.19	94
522.406	81
522.621	79
522.836	85
523.052	94
523.267	85
523.482	94
523.698	84
523.913	102
524.128	89
524.343	81
524.559	87
524.774	79
524.989	87
525.204	83
525.419	78
525.634	87
525.849	94
526.064	90
526.28	97
526.495	81
526.71	77
526.925	86
527.14	92
527.355	91
527.57	81
527.785	106
527.999	81
528.214	93
528.429	85
528.644	90
528.859	91
529.074	87
529.289	76
529.503	89
529.718	99
529.933	101
530.148	93
530.363	93
530.577	93
530.792	88
531.007	76
531.221	81
531.436	88
531.651	90
531.865	108
532.08	86
532.295	92
532.509	97
532.724	95
532.938	79
533.153	77
533.367	92
533.582	89
533.796	84
534.011	88
534.225	91
534.44	94
534.654	81
534.868	82
535.083	88
535.297	96
535.511	84
535.726	89
535.94	94
536.154	91
536.369	95
536.583	78
536.797	93
537.011	75
537.225	84
537.44	85
537.654	102
537.868	89
538.082	72
538.296	86
538.51	82
538.724	86
538.938	90
539.153	90
539.367	90
539.581	86
539.795	85
540.009	102
540.222	108
540.436	99
540.65	98
540.864	75
541.078	88
541.292	101
541.506	90
541.72	93
541.934	95
542.147	92
542.361	88
542.575	88
542.789	87
543.002	82
543.216	87
543.43	77
543.644	72
543.857	86
544.071	79
544.285	91
544.498	81
544.712	84
544.925	80
545.139	94
545.352	77
545.566	85
545.779	99
545.993	83
546.206	86
546.42	76
546.633	97
546.847	85
547.06	90
547.274	98
547.487	83
547.7	83
547.914	97
548.127	83
548.34	88
548.554	78
548.767	77
548.98	84
549.193	88
549.407	86
549.62	93
549.833	94
550.046	103
550.259	84
550.473	89
550.686	98
550.899	94
551.112	83
551.325	82
551.538	81
551.751	96
551.964	92
552.177	87
552.39	81
552.603	94
552.816	82
553.029	82
553.242	101
553.455	110
553.667	94
553.88	89
554.093	79
554.306	85
554.519	97
554.732	105
554.944	97
555.157	79
555.37	83
555.583	82
555.795	90
556.008	102
556.221	93
556.433	71
556.646	98
556.859	87
557.071	79
557.284	83
557.496	93
557.709	85
557.921	87
558.134	77
558.346	86
558.559	88
558.771	86
558.984	86
559.196	99
559.409	94
559.621	90
559.833	79
560.046	86
560.258	87
560.47	97
560.683	90
560.895	99
561.107	101
561.32	89
561.532	73
561.744	87
561.956	83
562.168	85
562.381	84
562.593	90
562.805	86
563.017	86
563.229	94
563.441	93
563.653	83
563.865	84
564.077	77
564.289	91
564.501	81
564.713	83
564.925	80
565.137	79
565.349	83
565.561	79
565.773	88
565.985	91
566.197	89
566.408	81
566.62	75
566.832	95
567.044	90
567.255	100
567.467	108
567.679	98
567.891	92
568.102	99
568.314	99
568.526	82
568.737	111
568.949	100
569.161	78
569.372	84
569.584	85
569.795	94
570.007	84
570.218	93
570.43	83
570.641	85
570.853	75
571.064	80
571.276	86
571.487	87
571.698	87
571.91	83
572.121	91
572.333	101
572.544	82
572.755	85
572.966	97
573.178	91
573.389	89
573.6	87
573.811	92
574.023	96
574.234	77
574.445	73
574.656	83
574.867	78
575.078	85
575.289	76
575.501	71
575.712	81
575.923	89
576.134	88
576.345	86
576.556	83
576.767	106
576.978	74
577.188	77
577.399	102
577.61	100
577.821	97
578.032	86
578.243	92
578.454	73
578.665	74
578.875	91
579.086	89
579.297	88
579.508	74
579.718	97
579.929	83
580.14	75
580.35	97
580.561	87
580.772	94
580.982	95
581.193	90
581.403	85
581.614	95
581.825	86
582.035	76
582.246	88
582.456	87
582.667	74
582.877	90
583.087	75
583.298	82
583.508	80
583.719	90
583.929	76
584.139	87
584.35	79
584.56	92
584.77	88
584.981	74
585.191	87
585.401	79
585.611	92
585.821	84
586.032	77
586.242	91
586.452	83
586.662	85
586.872	102
587.082	78
587.292	71
587.502	79
587.713	82
587.923	88
588.133	72
588.343	74
588.553	97
588.762	90
588.972	101
589.182	85
589.392	81
