Data from BG_HRD10591_093.txt Node
Date: Fri May 16 15:15:09 EDT 2025
User: Yrep
Spectrometer: HR+D1059
Trigger mode: 1
Integration Time (sec): 1.000000E-1
Scans to average: 1
Electric dark correction enabled: true
Nonlinearity correction enabled: false
Boxcar width: 0
XAxis mode: Wavelengths
Number of Pixels in Spectrum: 2048
>>>>>Begin Spectral Data<<<<<
223.165	-11.88
223.4	-11.88
223.635	-11.88
223.869	-34.88
224.104	-20.88
224.338	-18.88
224.573	-13.88
224.808	-4.88
225.042	-8.88
225.277	-5.88
225.511	-9.88
225.746	19.12
225.98	8.12
226.215	8.12
226.449	22.12
226.683	15.12
226.918	20.12
227.152	37.12
227.387	41.12
227.621	29.12
227.856	42.12
228.09	44.12
228.324	49.12
228.559	66.12
228.793	56.12
229.027	67.12
229.262	76.12
229.496	60.12
229.73	76.12
229.964	72.12
230.199	73.12
230.433	76.12
230.667	89.12
230.901	70.12
231.136	68.12
231.37	96.12
231.604	82.12
231.838	82.12
232.072	86.12
232.306	65.12
232.541	95.12
232.775	77.12
233.009	86.12
233.243	79.12
233.477	86.12
233.711	78.12
233.945	98.12
234.179	83.12
234.413	82.12
234.647	67.12
234.881	86.12
235.115	82.12
235.349	87.12
235.583	81.12
235.817	62.12
236.051	73.12
236.285	80.12
236.519	76.12
236.753	68.12
236.987	77.12
237.221	63.12
237.455	86.12
237.689	79.12
237.922	63.12
238.156	83.12
238.39	85.12
238.624	85.12
238.858	75.12
239.091	89.12
239.325	84.12
239.559	77.12
239.793	78.12
240.027	92.12
240.26	86.12
240.494	76.12
240.728	71.12
240.961	69.12
241.195	63.12
241.429	78.12
241.662	89.12
241.896	74.12
242.13	67.12
242.363	74.12
242.597	86.12
242.83	79.12
243.064	92.12
243.298	73.12
243.531	82.12
243.765	70.12
243.998	70.12
244.232	77.12
244.465	86.12
244.699	72.12
244.932	80.12
245.166	86.12
245.399	81.12
245.633	75.12
245.866	78.12
246.099	73.12
246.333	70.12
246.566	61.12
246.8	98.12
247.033	74.12
247.266	74.12
247.5	55.12
247.733	92.12
247.966	73.12
248.2	83.12
248.433	85.12
248.666	83.12
248.899	65.12
249.133	74.12
249.366	67.12
249.599	86.12
249.832	80.12
250.066	68.12
250.299	78.12
250.532	77.12
250.765	85.12
250.998	76.12
251.231	86.12
251.465	83.12
251.698	68.12
251.931	70.12
252.164	76.12
252.397	87.12
252.63	86.12
252.863	72.12
253.096	74.12
253.329	66.12
253.562	83.12
253.795	88.12
254.028	92.12
254.261	84.12
254.494	81.12
254.727	94.12
254.96	92.12
255.193	82.12
255.426	72.12
255.659	86.12
255.892	86.12
256.124	85.12
256.357	89.12
256.59	74.12
256.823	87.12
257.056	78.12
257.289	66.12
257.521	88.12
257.754	86.12
257.987	88.12
258.22	95.12
258.452	67.12
258.685	85.12
258.918	80.12
259.151	72.12
259.383	94.12
259.616	72.12
259.849	86.12
260.081	72.12
260.314	64.12
260.547	68.12
260.779	86.12
261.012	84.12
261.244	85.12
261.477	87.12
261.71	88.12
261.942	75.12
262.175	84.12
262.407	81.12
262.64	96.12
262.872	82.12
263.105	80.12
263.337	76.12
263.57	92.12
263.802	91.12
264.035	83.12
264.267	82.12
264.499	87.12
264.732	77.12
264.964	86.12
265.197	87.12
265.429	68.12
265.661	76.12
265.894	75.12
266.126	79.12
266.358	84.12
266.591	94.12
266.823	83.12
267.055	86.12
267.287	84.12
267.52	74.12
267.752	83.12
267.984	86.12
268.216	77.12
268.448	77.12
268.681	83.12
268.913	96.12
269.145	84.12
269.377	76.12
269.609	85.12
269.841	95.12
270.073	91.12
270.306	93.12
270.538	90.12
270.77	90.12
271.002	94.12
271.234	71.12
271.466	71.12
271.698	73.12
271.93	80.12
272.162	79.12
272.394	87.12
272.626	82.12
272.858	84.12
273.09	95.12
273.322	84.12
273.553	80.12
273.785	86.12
274.017	75.12
274.249	86.12
274.481	84.12
274.713	88.12
274.945	100.12
275.176	80.12
275.408	90.12
275.64	74.12
275.872	80.12
276.104	91.12
276.335	82.12
276.567	85.12
276.799	79.12
277.031	82.12
277.262	78.12
277.494	86.12
277.726	81.12
277.957	74.12
278.189	88.12
278.421	78.12
278.652	86.12
278.884	91.12
279.115	99.12
279.347	89.12
279.579	78.12
279.81	89.12
280.042	79.12
280.273	87.12
280.505	79.12
280.736	91.12
280.968	93.12
281.199	82.12
281.431	94.12
281.662	94.12
281.894	80.12
282.125	85.12
282.356	92.12
282.588	96.12
282.819	76.12
283.051	84.12
283.282	96.12
283.513	81.12
283.745	95.12
283.976	88.12
284.207	78.12
284.439	68.12
284.67	76.12
284.901	94.12
285.132	76.12
285.364	98.12
285.595	80.12
285.826	67.12
286.057	85.12
286.288	100.12
286.52	78.12
286.751	70.12
286.982	83.12
287.213	100.12
287.444	75.12
287.675	86.12
287.906	78.12
288.138	95.12
288.369	82.12
288.6	82.12
288.831	94.12
289.062	94.12
289.293	82.12
289.524	82.12
289.755	83.12
289.986	79.12
290.217	88.12
290.448	79.12
290.679	89.12
290.91	86.12
291.141	83.12
291.371	82.12
291.602	92.12
291.833	92.12
292.064	77.12
292.295	75.12
292.526	92.12
292.757	91.12
292.987	70.12
293.218	91.12
293.449	85.12
293.68	84.12
293.91	95.12
294.141	86.12
294.372	80.12
294.603	82.12
294.833	78.12
295.064	85.12
295.295	91.12
295.525	90.12
295.756	91.12
295.987	82.12
296.217	90.12
296.448	99.12
296.679	88.12
296.909	93.12
297.14	86.12
297.37	94.12
297.601	96.12
297.831	82.12
298.062	80.12
298.292	87.12
298.523	89.12
298.753	78.12
298.984	82.12
299.214	89.12
299.445	90.12
299.675	91.12
299.905	94.12
300.136	78.12
300.366	86.12
300.597	78.12
300.827	83.12
301.057	98.12
301.288	98.12
301.518	89.12
301.748	82.12
301.979	96.12
302.209	99.12
302.439	76.12
302.669	90.12
302.9	79.12
303.13	89.12
303.36	100.12
303.59	83.12
303.82	90.12
304.051	85.12
304.281	92.12
304.511	102.12
304.741	84.12
304.971	83.12
305.201	90.12
305.431	72.12
305.661	94.12
305.891	77.12
306.121	82.12
306.352	86.12
306.582	76.12
306.812	84.12
307.042	95.12
307.272	96.12
307.502	77.12
307.731	71.12
307.961	95.12
308.191	76.12
308.421	89.12
308.651	88.12
308.881	87.12
309.111	86.12
309.341	82.12
309.571	81.12
309.8	89.12
310.03	106.12
310.26	104.12
310.49	92.12
310.72	90.12
310.949	75.12
311.179	92.12
311.409	90.12
311.639	87.12
311.868	93.12
312.098	80.12
312.328	82.12
312.557	97.12
312.787	95.12
313.017	88.12
313.246	102.12
313.476	93.12
313.706	93.12
313.935	96.12
314.165	86.12
314.394	80.12
314.624	84.12
314.853	100.12
315.083	98.12
315.312	95.12
315.542	94.12
315.771	74.12
316.001	95.12
316.23	88.12
316.46	91.12
316.689	90.12
316.919	90.12
317.148	93.12
317.377	92.12
317.607	97.12
317.836	91.12
318.065	84.12
318.295	71.12
318.524	78.12
318.753	96.12
318.983	103.12
319.212	78.12
319.441	86.12
319.67	84.12
319.9	86.12
320.129	91.12
320.358	74.12
320.587	84.12
320.816	80.12
321.046	99.12
321.275	95.12
321.504	80.12
321.733	84.12
321.962	92.12
322.191	93.12
322.42	83.12
322.649	78.12
322.878	78.12
323.108	83.12
323.337	83.12
323.566	93.12
323.795	75.12
324.024	82.12
324.253	80.12
324.482	74.12
324.71	82.12
324.939	90.12
325.168	74.12
325.397	93.12
325.626	93.12
325.855	94.12
326.084	91.12
326.313	98.12
326.542	93.12
326.77	102.12
326.999	74.12
327.228	85.12
327.457	77.12
327.686	90.12
327.914	77.12
328.143	92.12
328.372	102.12
328.6	92.12
328.829	86.12
329.058	99.12
329.287	64.12
329.515	104.12
329.744	105.12
329.972	95.12
330.201	99.12
330.43	85.12
330.658	76.12
330.887	89.12
331.115	91.12
331.344	92.12
331.572	79.12
331.801	90.12
332.03	83.12
332.258	100.12
332.486	101.12
332.715	94.12
332.943	68.12
333.172	95.12
333.4	94.12
333.629	87.12
333.857	77.12
334.085	106.12
334.314	89.12
334.542	80.12
334.771	92.12
334.999	85.12
335.227	92.12
335.455	84.12
335.684	83.12
335.912	85.12
336.14	86.12
336.369	89.12
336.597	84.12
336.825	93.12
337.053	80.12
337.281	77.12
337.51	87.12
337.738	94.12
337.966	90.12
338.194	87.12
338.422	77.12
338.65	81.12
338.878	87.12
339.106	86.12
339.334	98.12
339.562	79.12
339.79	94.12
340.018	75.12
340.246	97.12
340.474	86.12
340.702	91.12
340.93	98.12
341.158	86.12
341.386	79.12
341.614	84.12
341.842	87.12
342.07	93.12
342.298	95.12
342.526	91.12
342.754	85.12
342.981	94.12
343.209	93.12
343.437	106.12
343.665	86.12
343.893	84.12
344.12	87.12
344.348	88.12
344.576	81.12
344.804	84.12
345.031	81.12
345.259	77.12
345.487	92.12
345.714	89.12
345.942	93.12
346.17	85.12
346.397	86.12
346.625	81.12
346.853	87.12
347.08	95.12
347.308	87.12
347.535	89.12
347.763	89.12
347.99	90.12
348.218	82.12
348.445	88.12
348.673	91.12
348.9	88.12
349.128	87.12
349.355	85.12
349.583	88.12
349.81	98.12
350.037	94.12
350.265	98.12
350.492	104.12
350.72	101.12
350.947	91.12
351.174	98.12
351.402	93.12
351.629	97.12
351.856	80.12
352.083	78.12
352.311	91.12
352.538	96.12
352.765	86.12
352.992	96.12
353.22	102.12
353.447	77.12
353.674	87.12
353.901	112.12
354.128	88.12
354.355	90.12
354.583	85.12
354.81	76.12
355.037	102.12
355.264	86.12
355.491	91.12
355.718	89.12
355.945	91.12
356.172	91.12
356.399	83.12
356.626	98.12
356.853	91.12
357.08	89.12
357.307	87.12
357.534	86.12
357.761	91.12
357.988	112.12
358.215	91.12
358.441	72.12
358.668	80.12
358.895	91.12
359.122	86.12
359.349	92.12
359.576	77.12
359.802	86.12
360.029	84.12
360.256	73.12
360.483	80.12
360.709	91.12
360.936	80.12
361.163	91.12
361.39	91.12
361.616	83.12
361.843	83.12
362.07	94.12
362.296	88.12
362.523	72.12
362.749	96.12
362.976	97.12
363.203	82.12
363.429	79.12
363.656	82.12
363.882	78.12
364.109	77.12
364.335	92.12
364.562	94.12
364.788	90.12
365.015	89.12
365.241	97.12
365.468	91.12
365.694	80.12
365.92	96.12
366.147	91.12
366.373	94.12
366.599	95.12
366.826	95.12
367.052	99.12
367.278	81.12
367.505	87.12
367.731	101.12
367.957	78.12
368.184	95.12
368.41	87.12
368.636	82.12
368.862	90.12
369.089	97.12
369.315	82.12
369.541	72.12
369.767	95.12
369.993	103.12
370.219	84.12
370.445	100.12
370.672	95.12
370.898	95.12
371.124	99.12
371.35	78.12
371.576	79.12
371.802	84.12
372.028	93.12
372.254	91.12
372.48	91.12
372.706	73.12
372.932	89.12
373.158	107.12
373.384	86.12
373.61	85.12
373.835	88.12
374.061	102.12
374.287	77.12
374.513	94.12
374.739	83.12
374.965	88.12
375.191	86.12
375.416	73.12
375.642	98.12
375.868	98.12
376.094	94.12
376.319	101.12
376.545	86.12
376.771	87.12
376.997	83.12
377.222	82.12
377.448	83.12
377.674	98.12
377.899	87.12
378.125	88.12
378.35	88.12
378.576	106.12
378.802	90.12
379.027	82.12
379.253	86.12
379.478	85.12
379.704	89.12
379.929	74.12
380.155	92.12
380.38	85.12
380.606	93.12
380.831	80.12
381.057	89.12
381.282	87.12
381.507	84.12
381.733	89.12
381.958	86.12
382.184	82.12
382.409	88.12
382.634	84.12
382.86	86.12
383.085	84.12
383.31	86.12
383.535	82.12
383.761	85.12
383.986	97.12
384.211	91.12
384.436	95.12
384.662	82.12
384.887	95.12
385.112	98.12
385.337	74.12
385.562	70.12
385.787	102.12
386.013	88.12
386.238	89.12
386.463	87.12
386.688	93.12
386.913	88.12
387.138	90.12
387.363	84.12
387.588	98.12
387.813	89.12
388.038	96.12
388.263	92.12
388.488	86.12
388.713	94.12
388.938	77.12
389.163	86.12
389.387	89.12
389.612	84.12
389.837	79.12
390.062	86.12
390.287	79.12
390.512	103.12
390.736	83.12
390.961	72.12
391.186	91.12
391.411	112.12
391.636	95.12
391.86	70.12
392.085	84.12
392.31	85.12
392.534	90.12
392.759	100.12
392.984	96.12
393.208	87.12
393.433	83.12
393.658	91.12
393.882	90.12
394.107	79.12
394.331	98.12
394.556	78.12
394.78	94.12
395.005	94.12
395.229	99.12
395.454	91.12
395.678	86.12
395.903	90.12
396.127	92.12
396.352	88.12
396.576	101.12
396.801	80.12
397.025	82.12
397.249	102.12
397.474	91.12
397.698	93.12
397.922	84.12
398.147	91.12
398.371	91.12
398.595	80.12
398.82	93.12
399.044	76.12
399.268	82.12
399.492	96.12
399.717	94.12
399.941	86.12
400.165	89.12
400.389	93.12
400.613	88.12
400.837	95.12
401.062	88.12
401.286	86.12
401.51	88.12
401.734	82.12
401.958	85.12
402.182	93.12
402.406	83.12
402.63	73.12
402.854	96.12
403.078	91.12
403.302	80.12
403.526	82.12
403.75	83.12
403.974	107.12
404.198	105.12
404.422	87.12
404.645	89.12
404.869	93.12
405.093	96.12
405.317	71.12
405.541	93.12
405.765	83.12
405.988	91.12
406.212	87.12
406.436	88.12
406.66	83.12
406.883	86.12
407.107	102.12
407.331	93.12
407.555	106.12
407.778	88.12
408.002	82.12
408.226	89.12
408.449	78.12
408.673	85.12
408.896	91.12
409.12	82.12
409.344	90.12
409.567	98.12
409.791	84.12
410.014	93.12
410.238	84.12
410.461	80.12
410.685	93.12
410.908	92.12
411.132	94.12
411.355	93.12
411.578	96.12
411.802	84.12
412.025	76.12
412.249	92.12
412.472	86.12
412.695	102.12
412.919	83.12
413.142	95.12
413.365	99.12
413.589	87.12
413.812	76.12
414.035	94.12
414.258	92.12
414.482	90.12
414.705	83.12
414.928	88.12
415.151	88.12
415.374	80.12
415.597	96.12
415.821	98.12
416.044	92.12
416.267	96.12
416.49	80.12
416.713	102.12
416.936	106.12
417.159	78.12
417.382	91.12
417.605	86.12
417.828	95.12
418.051	84.12
418.274	94.12
418.497	91.12
418.72	87.12
418.943	78.12
419.166	87.12
419.389	97.12
419.611	86.12
419.834	87.12
420.057	87.12
420.28	93.12
420.503	89.12
420.726	80.12
420.948	93.12
421.171	85.12
421.394	75.12
421.617	81.12
421.839	88.12
422.062	88.12
422.285	91.12
422.507	87.12
422.73	96.12
422.953	83.12
423.175	104.12
423.398	86.12
423.621	90.12
423.843	89.12
424.066	87.12
424.288	80.12
424.511	91.12
424.733	92.12
424.956	94.12
425.178	88.12
425.401	103.12
425.623	89.12
425.846	96.12
426.068	87.12
426.291	77.12
426.513	82.12
426.735	76.12
426.958	94.12
427.18	93.12
427.402	84.12
427.625	81.12
427.847	76.12
428.069	95.12
428.292	71.12
428.514	99.12
428.736	82.12
428.958	89.12
429.181	82.12
429.403	89.12
429.625	85.12
429.847	79.12
430.069	84.12
430.292	87.12
430.514	87.12
430.736	69.12
430.958	92.12
431.18	83.12
431.402	89.12
431.624	105.12
431.846	84.12
432.068	76.12
432.29	82.12
432.512	85.12
432.734	92.12
432.956	79.12
433.178	90.12
433.4	86.12
433.622	86.12
433.844	90.12
434.066	86.12
434.287	92.12
434.509	98.12
434.731	87.12
434.953	90.12
435.175	102.12
435.397	84.12
435.618	98.12
435.84	94.12
436.062	91.12
436.284	82.12
436.505	85.12
436.727	91.12
436.949	86.12
437.17	91.12
437.392	89.12
437.614	90.12
437.835	86.12
438.057	94.12
438.278	85.12
438.5	83.12
438.721	78.12
438.943	81.12
439.165	96.12
439.386	82.12
439.608	100.12
439.829	88.12
440.05	106.12
440.272	80.12
440.493	86.12
440.715	82.12
440.936	94.12
441.158	86.12
441.379	79.12
441.6	77.12
441.822	101.12
442.043	93.12
442.264	81.12
442.486	92.12
442.707	82.12
442.928	75.12
443.149	88.12
443.371	84.12
443.592	88.12
443.813	93.12
444.034	87.12
444.255	103.12
444.476	98.12
444.698	104.12
444.919	109.12
445.14	181.12
445.361	133.12
445.582	88.12
445.803	97.12
446.024	98.12
446.245	89.12
446.466	92.12
446.687	88.12
446.908	98.12
447.129	94.12
447.35	104.12
447.571	100.12
447.792	92.12
448.013	88.12
448.234	85.12
448.455	84.12
448.675	88.12
448.896	91.12
449.117	78.12
449.338	83.12
449.559	99.12
449.779	93.12
450	86.12
450.221	83.12
450.442	73.12
450.662	84.12
450.883	93.12
451.104	83.12
451.324	83.12
451.545	91.12
451.766	100.12
451.986	94.12
452.207	95.12
452.428	77.12
452.648	94.12
452.869	83.12
453.089	102.12
453.31	82.12
453.53	87.12
453.751	84.12
453.971	90.12
454.192	86.12
454.412	82.12
454.633	90.12
454.853	87.12
455.073	67.12
455.294	86.12
455.514	100.12
455.734	90.12
455.955	76.12
456.175	85.12
456.395	82.12
456.616	91.12
456.836	78.12
457.056	86.12
457.276	82.12
457.497	84.12
457.717	81.12
457.937	91.12
458.157	96.12
458.377	94.12
458.598	79.12
458.818	87.12
459.038	104.12
459.258	79.12
459.478	90.12
459.698	80.12
459.918	99.12
460.138	82.12
460.358	92.12
460.578	84.12
460.798	86.12
461.018	89.12
461.238	84.12
461.458	82.12
461.678	84.12
461.898	80.12
462.118	83.12
462.338	100.12
462.558	96.12
462.777	86.12
462.997	96.12
463.217	91.12
463.437	100.12
463.657	98.12
463.876	92.12
464.096	89.12
464.316	81.12
464.536	85.12
464.755	85.12
464.975	77.12
465.195	92.12
465.414	77.12
465.634	84.12
465.854	102.12
466.073	87.12
466.293	91.12
466.512	76.12
466.732	99.12
466.951	75.12
467.171	76.12
467.391	92.12
467.61	76.12
467.829	89.12
468.049	95.12
468.268	89.12
468.488	88.12
468.707	83.12
468.927	82.12
469.146	82.12
469.365	104.12
469.585	74.12
469.804	96.12
470.023	82.12
470.243	105.12
470.462	71.12
470.681	94.12
470.901	82.12
471.12	82.12
471.339	74.12
471.558	91.12
471.777	101.12
471.997	95.12
472.216	106.12
472.435	84.12
472.654	78.12
472.873	79.12
473.092	93.12
473.311	92.12
473.53	108.12
473.749	88.12
473.968	87.12
474.187	100.12
474.406	107.12
474.625	99.12
474.844	91.12
475.063	81.12
475.282	77.12
475.501	80.12
475.72	77.12
475.939	95.12
476.158	79.12
476.377	72.12
476.596	92.12
476.814	90.12
477.033	102.12
477.252	86.12
477.471	91.12
477.69	91.12
477.908	102.12
478.127	100.12
478.346	79.12
478.564	89.12
478.783	83.12
479.002	81.12
479.22	93.12
479.439	91.12
479.658	85.12
479.876	84.12
480.095	75.12
480.313	96.12
480.532	85.12
480.751	70.12
480.969	59.12
481.188	88.12
481.406	93.12
481.624	102.12
481.843	85.12
482.061	93.12
482.28	87.12
482.498	105.12
482.717	87.12
482.935	95.12
483.153	90.12
483.372	93.12
483.59	85.12
483.808	94.12
484.027	92.12
484.245	105.12
484.463	104.12
484.681	106.12
484.9	95.12
485.118	103.12
485.336	78.12
485.554	86.12
485.772	88.12
485.99	86.12
486.209	95.12
486.427	82.12
486.645	96.12
486.863	91.12
487.081	103.12
487.299	91.12
487.517	74.12
487.735	79.12
487.953	99.12
488.171	103.12
488.389	94.12
488.607	92.12
488.825	94.12
489.043	91.12
489.261	86.12
489.479	94.12
489.696	88.12
489.914	91.12
490.132	100.12
490.35	78.12
490.568	88.12
490.786	105.12
491.003	98.12
491.221	89.12
491.439	88.12
491.657	101.12
491.874	100.12
492.092	92.12
492.31	81.12
492.527	101.12
492.745	112.12
492.963	84.12
493.18	102.12
493.398	91.12
493.615	88.12
493.833	88.12
494.05	85.12
494.268	92.12
494.485	86.12
494.703	90.12
494.92	84.12
495.138	90.12
495.355	98.12
495.573	91.12
495.79	80.12
496.008	98.12
496.225	88.12
496.442	84.12
496.66	88.12
496.877	89.12
497.094	100.12
497.312	99.12
497.529	87.12
497.746	90.12
497.963	82.12
498.181	107.12
498.398	90.12
498.615	102.12
498.832	100.12
499.049	106.12
499.267	101.12
499.484	100.12
499.701	104.12
499.918	106.12
500.135	118.12
500.352	117.12
500.569	118.12
500.786	110.12
501.003	109.12
501.22	110.12
501.437	100.12
501.654	90.12
501.871	102.12
502.088	102.12
502.305	91.12
502.522	92.12
502.739	104.12
502.956	105.12
503.172	89.12
503.389	106.12
503.606	93.12
503.823	93.12
504.04	102.12
504.256	104.12
504.473	92.12
504.69	77.12
504.907	94.12
505.123	101.12
505.34	86.12
505.557	78.12
505.773	82.12
505.99	92.12
506.207	102.12
506.423	93.12
506.64	96.12
506.856	96.12
507.073	91.12
507.289	87.12
507.506	85.12
507.722	87.12
507.939	72.12
508.155	87.12
508.372	91.12
508.588	100.12
508.805	92.12
509.021	90.12
509.238	80.12
509.454	84.12
509.67	104.12
509.887	88.12
510.103	76.12
510.319	86.12
510.536	98.12
510.752	69.12
510.968	84.12
511.184	90.12
511.401	81.12
511.617	94.12
511.833	92.12
512.049	80.12
512.265	94.12
512.481	90.12
512.698	92.12
512.914	72.12
513.13	83.12
513.346	94.12
513.562	94.12
513.778	103.12
513.994	93.12
514.21	90.12
514.426	84.12
514.642	98.12
514.858	91.12
515.074	88.12
515.29	95.12
515.506	87.12
515.721	91.12
515.937	92.12
516.153	79.12
516.369	94.12
516.585	82.12
516.801	84.12
517.016	85.12
517.232	103.12
517.448	105.12
517.664	88.12
517.879	94.12
518.095	95.12
518.311	100.12
518.527	93.12
518.742	92.12
