Data from BG_HRD10591_031.txt Node
Date: Fri May 16 15:14:38 EDT 2025
User: Yrep
Spectrometer: HR+D1059
Trigger mode: 1
Integration Time (sec): 1.000000E-1
Scans to average: 1
Electric dark correction enabled: true
Nonlinearity correction enabled: false
Boxcar width: 0
XAxis mode: Wavelengths
Number of Pixels in Spectrum: 2048
>>>>>Begin Spectral Data<<<<<
223.165	-20.56
223.4	-20.56
223.635	-20.56
223.869	-22.56
224.104	-6.56
224.338	-24.56
224.573	-16.56
224.808	-18.56
225.042	-15.56
225.277	-8.56
225.511	6.44
225.746	4.44
225.98	18.44
226.215	4.44
226.449	25.44
226.683	26.44
226.918	28.44
227.152	19.44
227.387	40.44
227.621	37.44
227.856	40.44
228.09	47.44
228.324	45.44
228.559	48.44
228.793	49.44
229.027	65.44
229.262	53.44
229.496	72.44
229.73	65.44
229.964	72.44
230.199	72.44
230.433	76.44
230.667	88.44
230.901	90.44
231.136	87.44
231.37	82.44
231.604	93.44
231.838	78.44
232.072	88.44
232.306	86.44
232.541	82.44
232.775	64.44
233.009	78.44
233.243	92.44
233.477	93.44
233.711	77.44
233.945	90.44
234.179	80.44
234.413	68.44
234.647	81.44
234.881	85.44
235.115	82.44
235.349	85.44
235.583	77.44
235.817	79.44
236.051	67.44
236.285	88.44
236.519	90.44
236.753	78.44
236.987	85.44
237.221	90.44
237.455	83.44
237.689	77.44
237.922	68.44
238.156	80.44
238.39	84.44
238.624	75.44
238.858	77.44
239.091	94.44
239.325	84.44
239.559	74.44
239.793	65.44
240.027	70.44
240.26	80.44
240.494	107.44
240.728	92.44
240.961	74.44
241.195	73.44
241.429	66.44
241.662	72.44
241.896	64.44
242.13	70.44
242.363	75.44
242.597	81.44
242.83	82.44
243.064	88.44
243.298	76.44
243.531	72.44
243.765	76.44
243.998	78.44
244.232	64.44
244.465	89.44
244.699	87.44
244.932	85.44
245.166	81.44
245.399	78.44
245.633	71.44
245.866	82.44
246.099	80.44
246.333	82.44
246.566	80.44
246.8	73.44
247.033	78.44
247.266	73.44
247.5	80.44
247.733	88.44
247.966	88.44
248.2	80.44
248.433	60.44
248.666	73.44
248.899	83.44
249.133	83.44
249.366	73.44
249.599	82.44
249.832	79.44
250.066	85.44
250.299	92.44
250.532	84.44
250.765	73.44
250.998	87.44
251.231	69.44
251.465	76.44
251.698	74.44
251.931	74.44
252.164	92.44
252.397	79.44
252.63	90.44
252.863	81.44
253.096	85.44
253.329	87.44
253.562	81.44
253.795	86.44
254.028	76.44
254.261	85.44
254.494	82.44
254.727	77.44
254.96	96.44
255.193	80.44
255.426	78.44
255.659	84.44
255.892	77.44
256.124	72.44
256.357	73.44
256.59	80.44
256.823	69.44
257.056	86.44
257.289	76.44
257.521	80.44
257.754	77.44
257.987	76.44
258.22	81.44
258.452	81.44
258.685	88.44
258.918	85.44
259.151	75.44
259.383	70.44
259.616	84.44
259.849	73.44
260.081	85.44
260.314	79.44
260.547	79.44
260.779	77.44
261.012	66.44
261.244	82.44
261.477	93.44
261.71	88.44
261.942	80.44
262.175	80.44
262.407	77.44
262.64	86.44
262.872	64.44
263.105	91.44
263.337	79.44
263.57	80.44
263.802	84.44
264.035	90.44
264.267	102.44
264.499	88.44
264.732	96.44
264.964	83.44
265.197	80.44
265.429	95.44
265.661	84.44
265.894	78.44
266.126	87.44
266.358	82.44
266.591	74.44
266.823	80.44
267.055	81.44
267.287	87.44
267.52	88.44
267.752	87.44
267.984	73.44
268.216	82.44
268.448	92.44
268.681	80.44
268.913	85.44
269.145	88.44
269.377	80.44
269.609	87.44
269.841	81.44
270.073	78.44
270.306	88.44
270.538	82.44
270.77	105.44
271.002	96.44
271.234	100.44
271.466	86.44
271.698	87.44
271.93	78.44
272.162	80.44
272.394	82.44
272.626	81.44
272.858	80.44
273.09	107.44
273.322	94.44
273.553	81.44
273.785	77.44
274.017	95.44
274.249	92.44
274.481	69.44
274.713	90.44
274.945	72.44
275.176	77.44
275.408	100.44
275.64	83.44
275.872	73.44
276.104	86.44
276.335	86.44
276.567	91.44
276.799	89.44
277.031	78.44
277.262	76.44
277.494	79.44
277.726	89.44
277.957	84.44
278.189	77.44
278.421	96.44
278.652	78.44
278.884	85.44
279.115	69.44
279.347	79.44
279.579	74.44
279.81	87.44
280.042	81.44
280.273	92.44
280.505	90.44
280.736	87.44
280.968	86.44
281.199	69.44
281.431	87.44
281.662	80.44
281.894	77.44
282.125	66.44
282.356	80.44
282.588	81.44
282.819	88.44
283.051	75.44
283.282	77.44
283.513	69.44
283.745	85.44
283.976	96.44
284.207	77.44
284.439	97.44
284.67	83.44
284.901	97.44
285.132	76.44
285.364	76.44
285.595	85.44
285.826	89.44
286.057	80.44
286.288	79.44
286.52	87.44
286.751	86.44
286.982	91.44
287.213	85.44
287.444	81.44
287.675	71.44
287.906	84.44
288.138	96.44
288.369	69.44
288.6	76.44
288.831	85.44
289.062	73.44
289.293	85.44
289.524	96.44
289.755	80.44
289.986	77.44
290.217	88.44
290.448	80.44
290.679	86.44
290.91	93.44
291.141	92.44
291.371	92.44
291.602	88.44
291.833	70.44
292.064	87.44
292.295	92.44
292.526	86.44
292.757	86.44
292.987	79.44
293.218	66.44
293.449	91.44
293.68	99.44
293.91	92.44
294.141	90.44
294.372	98.44
294.603	78.44
294.833	93.44
295.064	84.44
295.295	80.44
295.525	90.44
295.756	88.44
295.987	90.44
296.217	88.44
296.448	87.44
296.679	82.44
296.909	93.44
297.14	87.44
297.37	90.44
297.601	84.44
297.831	88.44
298.062	93.44
298.292	91.44
298.523	89.44
298.753	87.44
298.984	90.44
299.214	82.44
299.445	77.44
299.675	102.44
299.905	90.44
300.136	102.44
300.366	103.44
300.597	88.44
300.827	72.44
301.057	80.44
301.288	85.44
301.518	78.44
301.748	90.44
301.979	94.44
302.209	86.44
302.439	90.44
302.669	76.44
302.9	74.44
303.13	83.44
303.36	84.44
303.59	86.44
303.82	82.44
304.051	80.44
304.281	77.44
304.511	100.44
304.741	94.44
304.971	75.44
305.201	93.44
305.431	84.44
305.661	66.44
305.891	91.44
306.121	80.44
306.352	96.44
306.582	98.44
306.812	76.44
307.042	68.44
307.272	83.44
307.502	90.44
307.731	89.44
307.961	89.44
308.191	98.44
308.421	88.44
308.651	75.44
308.881	85.44
309.111	70.44
309.341	74.44
309.571	78.44
309.8	84.44
310.03	77.44
310.26	79.44
310.49	92.44
310.72	89.44
310.949	83.44
311.179	78.44
311.409	77.44
311.639	84.44
311.868	77.44
312.098	76.44
312.328	81.44
312.557	76.44
312.787	88.44
313.017	95.44
313.246	77.44
313.476	84.44
313.706	88.44
313.935	90.44
314.165	83.44
314.394	82.44
314.624	80.44
314.853	84.44
315.083	91.44
315.312	74.44
315.542	74.44
315.771	73.44
316.001	87.44
316.23	86.44
316.46	86.44
316.689	80.44
316.919	85.44
317.148	101.44
317.377	84.44
317.607	89.44
317.836	73.44
318.065	82.44
318.295	87.44
318.524	79.44
318.753	79.44
318.983	86.44
319.212	90.44
319.441	85.44
319.67	92.44
319.9	80.44
320.129	87.44
320.358	101.44
320.587	94.44
320.816	90.44
321.046	72.44
321.275	92.44
321.504	82.44
321.733	94.44
321.962	90.44
322.191	101.44
322.42	85.44
322.649	85.44
322.878	92.44
323.108	83.44
323.337	76.44
323.566	86.44
323.795	87.44
324.024	87.44
324.253	75.44
324.482	85.44
324.71	78.44
324.939	86.44
325.168	89.44
325.397	86.44
325.626	90.44
325.855	89.44
326.084	81.44
326.313	74.44
326.542	79.44
326.77	98.44
326.999	80.44
327.228	83.44
327.457	76.44
327.686	85.44
327.914	83.44
328.143	91.44
328.372	86.44
328.6	91.44
328.829	89.44
329.058	95.44
329.287	87.44
329.515	79.44
329.744	87.44
329.972	84.44
330.201	89.44
330.43	81.44
330.658	80.44
330.887	93.44
331.115	88.44
331.344	99.44
331.572	94.44
331.801	76.44
332.03	89.44
332.258	82.44
332.486	79.44
332.715	84.44
332.943	87.44
333.172	87.44
333.4	90.44
333.629	89.44
333.857	81.44
334.085	85.44
334.314	81.44
334.542	81.44
334.771	77.44
334.999	84.44
335.227	87.44
335.455	81.44
335.684	87.44
335.912	75.44
336.14	88.44
336.369	76.44
336.597	85.44
336.825	89.44
337.053	94.44
337.281	88.44
337.51	78.44
337.738	106.44
337.966	80.44
338.194	80.44
338.422	79.44
338.65	101.44
338.878	79.44
339.106	78.44
339.334	90.44
339.562	77.44
339.79	96.44
340.018	80.44
340.246	86.44
340.474	84.44
340.702	76.44
340.93	94.44
341.158	93.44
341.386	90.44
341.614	71.44
341.842	90.44
342.07	84.44
342.298	73.44
342.526	94.44
342.754	88.44
342.981	86.44
343.209	78.44
343.437	97.44
343.665	89.44
343.893	111.44
344.12	88.44
344.348	100.44
344.576	66.44
344.804	81.44
345.031	66.44
345.259	87.44
345.487	91.44
345.714	94.44
345.942	96.44
346.17	89.44
346.397	83.44
346.625	85.44
346.853	81.44
347.08	75.44
347.308	83.44
347.535	75.44
347.763	93.44
347.99	97.44
348.218	81.44
348.445	70.44
348.673	77.44
348.9	103.44
349.128	94.44
349.355	84.44
349.583	90.44
349.81	79.44
350.037	82.44
350.265	96.44
350.492	88.44
350.72	91.44
350.947	71.44
351.174	86.44
351.402	85.44
351.629	87.44
351.856	102.44
352.083	89.44
352.311	88.44
352.538	80.44
352.765	85.44
352.992	86.44
353.22	88.44
353.447	104.44
353.674	95.44
353.901	77.44
354.128	88.44
354.355	96.44
354.583	90.44
354.81	83.44
355.037	77.44
355.264	88.44
355.491	77.44
355.718	81.44
355.945	95.44
356.172	76.44
356.399	87.44
356.626	66.44
356.853	69.44
357.08	80.44
357.307	88.44
357.534	77.44
357.761	87.44
357.988	83.44
358.215	87.44
358.441	82.44
358.668	88.44
358.895	76.44
359.122	73.44
359.349	75.44
359.576	75.44
359.802	81.44
360.029	82.44
360.256	88.44
360.483	82.44
360.709	78.44
360.936	93.44
361.163	80.44
361.39	84.44
361.616	90.44
361.843	81.44
362.07	84.44
362.296	76.44
362.523	80.44
362.749	71.44
362.976	81.44
363.203	93.44
363.429	92.44
363.656	83.44
363.882	76.44
364.109	79.44
364.335	84.44
364.562	83.44
364.788	85.44
365.015	89.44
365.241	94.44
365.468	75.44
365.694	98.44
365.92	91.44
366.147	86.44
366.373	100.44
366.599	93.44
366.826	79.44
367.052	85.44
367.278	80.44
367.505	104.44
367.731	85.44
367.957	87.44
368.184	81.44
368.41	91.44
368.636	82.44
368.862	85.44
369.089	85.44
369.315	76.44
369.541	84.44
369.767	76.44
369.993	84.44
370.219	79.44
370.445	84.44
370.672	61.44
370.898	80.44
371.124	80.44
371.35	75.44
371.576	90.44
371.802	74.44
372.028	76.44
372.254	68.44
372.48	73.44
372.706	98.44
372.932	92.44
373.158	89.44
373.384	81.44
373.61	91.44
373.835	83.44
374.061	87.44
374.287	87.44
374.513	86.44
374.739	77.44
374.965	80.44
375.191	77.44
375.416	86.44
375.642	86.44
375.868	97.44
376.094	80.44
376.319	81.44
376.545	84.44
376.771	82.44
376.997	70.44
377.222	85.44
377.448	105.44
377.674	82.44
377.899	91.44
378.125	80.44
378.35	101.44
378.576	66.44
378.802	66.44
379.027	79.44
379.253	88.44
379.478	95.44
379.704	97.44
379.929	87.44
380.155	94.44
380.38	77.44
380.606	77.44
380.831	85.44
381.057	84.44
381.282	78.44
381.507	84.44
381.733	98.44
381.958	69.44
382.184	88.44
382.409	80.44
382.634	92.44
382.86	91.44
383.085	87.44
383.31	94.44
383.535	92.44
383.761	76.44
383.986	83.44
384.211	75.44
384.436	71.44
384.662	68.44
384.887	79.44
385.112	82.44
385.337	93.44
385.562	65.44
385.787	91.44
386.013	91.44
386.238	86.44
386.463	97.44
386.688	79.44
386.913	88.44
387.138	81.44
387.363	86.44
387.588	81.44
387.813	84.44
388.038	85.44
388.263	85.44
388.488	72.44
388.713	81.44
388.938	91.44
389.163	88.44
389.387	85.44
389.612	68.44
389.837	74.44
390.062	85.44
390.287	83.44
390.512	78.44
390.736	77.44
390.961	84.44
391.186	72.44
391.411	76.44
391.636	90.44
391.86	80.44
392.085	83.44
392.31	80.44
392.534	84.44
392.759	83.44
392.984	85.44
393.208	79.44
393.433	89.44
393.658	78.44
393.882	90.44
394.107	85.44
394.331	88.44
394.556	75.44
394.78	100.44
395.005	89.44
395.229	74.44
395.454	91.44
395.678	86.44
395.903	82.44
396.127	67.44
396.352	92.44
396.576	81.44
396.801	76.44
397.025	84.44
397.249	87.44
397.474	79.44
397.698	89.44
397.922	81.44
398.147	88.44
398.371	81.44
398.595	95.44
398.82	92.44
399.044	85.44
399.268	98.44
399.492	86.44
399.717	87.44
399.941	92.44
400.165	83.44
400.389	84.44
400.613	81.44
400.837	86.44
401.062	81.44
401.286	100.44
401.51	88.44
401.734	78.44
401.958	82.44
402.182	91.44
402.406	71.44
402.63	84.44
402.854	88.44
403.078	66.44
403.302	92.44
403.526	95.44
403.75	82.44
403.974	80.44
404.198	81.44
404.422	77.44
404.645	74.44
404.869	66.44
405.093	78.44
405.317	76.44
405.541	64.44
405.765	73.44
405.988	87.44
406.212	91.44
406.436	75.44
406.66	89.44
406.883	78.44
407.107	73.44
407.331	87.44
407.555	78.44
407.778	76.44
408.002	84.44
408.226	85.44
408.449	85.44
408.673	88.44
408.896	82.44
409.12	74.44
409.344	84.44
409.567	82.44
409.791	83.44
410.014	72.44
410.238	78.44
410.461	78.44
410.685	88.44
410.908	87.44
411.132	77.44
411.355	80.44
411.578	97.44
411.802	97.44
412.025	84.44
412.249	80.44
412.472	85.44
412.695	86.44
412.919	79.44
413.142	90.44
413.365	86.44
413.589	66.44
413.812	78.44
414.035	92.44
414.258	78.44
414.482	89.44
414.705	85.44
414.928	93.44
415.151	79.44
415.374	94.44
415.597	88.44
415.821	102.44
416.044	88.44
416.267	76.44
416.49	89.44
416.713	80.44
416.936	86.44
417.159	70.44
417.382	74.44
417.605	85.44
417.828	84.44
418.051	69.44
418.274	72.44
418.497	74.44
418.72	82.44
418.943	77.44
419.166	97.44
419.389	78.44
419.611	81.44
419.834	78.44
420.057	86.44
420.28	84.44
420.503	76.44
420.726	76.44
420.948	81.44
421.171	89.44
421.394	87.44
421.617	85.44
421.839	87.44
422.062	84.44
422.285	95.44
422.507	77.44
422.73	86.44
422.953	78.44
423.175	82.44
423.398	81.44
423.621	81.44
423.843	79.44
424.066	74.44
424.288	66.44
424.511	69.44
424.733	79.44
424.956	75.44
425.178	77.44
425.401	70.44
425.623	89.44
425.846	78.44
426.068	97.44
426.291	94.44
426.513	78.44
426.735	73.44
426.958	88.44
427.18	90.44
427.402	84.44
427.625	81.44
427.847	82.44
428.069	76.44
428.292	87.44
428.514	76.44
428.736	72.44
428.958	67.44
429.181	84.44
429.403	76.44
429.625	91.44
429.847	78.44
430.069	82.44
430.292	80.44
430.514	75.44
430.736	84.44
430.958	83.44
431.18	76.44
431.402	80.44
431.624	68.44
431.846	86.44
432.068	79.44
432.29	90.44
432.512	89.44
432.734	84.44
432.956	84.44
433.178	83.44
433.4	94.44
433.622	83.44
433.844	90.44
434.066	88.44
434.287	71.44
434.509	84.44
434.731	79.44
434.953	69.44
435.175	87.44
435.397	77.44
435.618	74.44
435.84	82.44
436.062	76.44
436.284	78.44
436.505	76.44
436.727	88.44
436.949	90.44
437.17	85.44
437.392	88.44
437.614	74.44
437.835	89.44
438.057	86.44
438.278	71.44
438.5	61.44
438.721	72.44
438.943	85.44
439.165	89.44
439.386	85.44
439.608	84.44
439.829	87.44
440.05	86.44
440.272	86.44
440.493	80.44
440.715	76.44
440.936	95.44
441.158	72.44
441.379	78.44
441.6	75.44
441.822	78.44
442.043	77.44
442.264	76.44
442.486	94.44
442.707	81.44
442.928	86.44
443.149	82.44
443.371	85.44
443.592	87.44
443.813	75.44
444.034	88.44
444.255	82.44
444.476	82.44
444.698	72.44
444.919	83.44
445.14	180.44
445.361	128.44
445.582	90.44
445.803	90.44
446.024	64.44
446.245	76.44
446.466	88.44
446.687	77.44
446.908	74.44
447.129	89.44
447.35	73.44
447.571	91.44
447.792	63.44
448.013	75.44
448.234	78.44
448.455	73.44
448.675	85.44
448.896	84.44
449.117	91.44
449.338	92.44
449.559	85.44
449.779	84.44
450	67.44
450.221	85.44
450.442	84.44
450.662	80.44
450.883	81.44
451.104	76.44
451.324	78.44
451.545	94.44
451.766	77.44
451.986	80.44
452.207	89.44
452.428	78.44
452.648	76.44
452.869	93.44
453.089	89.44
453.31	81.44
453.53	82.44
453.751	88.44
453.971	70.44
454.192	82.44
454.412	92.44
454.633	90.44
454.853	93.44
455.073	80.44
455.294	82.44
455.514	77.44
455.734	80.44
455.955	78.44
456.175	85.44
456.395	81.44
456.616	80.44
456.836	68.44
457.056	92.44
457.276	77.44
457.497	90.44
457.717	78.44
457.937	89.44
458.157	90.44
458.377	78.44
458.598	76.44
458.818	78.44
459.038	83.44
459.258	91.44
459.478	83.44
459.698	87.44
459.918	73.44
460.138	81.44
460.358	85.44
460.578	79.44
460.798	89.44
461.018	75.44
461.238	76.44
461.458	72.44
461.678	95.44
461.898	93.44
462.118	84.44
462.338	87.44
462.558	86.44
462.777	87.44
462.997	95.44
463.217	75.44
463.437	84.44
463.657	78.44
463.876	86.44
464.096	80.44
464.316	84.44
464.536	76.44
464.755	86.44
464.975	93.44
465.195	92.44
465.414	89.44
465.634	92.44
465.854	77.44
466.073	81.44
466.293	87.44
466.512	80.44
466.732	86.44
466.951	94.44
467.171	87.44
467.391	82.44
467.61	78.44
467.829	77.44
468.049	69.44
468.268	85.44
468.488	80.44
468.707	80.44
468.927	93.44
469.146	87.44
469.365	86.44
469.585	81.44
469.804	75.44
470.023	80.44
470.243	86.44
470.462	88.44
470.681	86.44
470.901	87.44
471.12	80.44
471.339	84.44
471.558	78.44
471.777	78.44
471.997	85.44
472.216	91.44
472.435	87.44
472.654	82.44
472.873	85.44
473.092	82.44
473.311	71.44
473.53	82.44
473.749	84.44
473.968	84.44
474.187	90.44
474.406	92.44
474.625	85.44
474.844	98.44
475.063	84.44
475.282	84.44
475.501	89.44
475.72	96.44
475.939	85.44
476.158	97.44
476.377	72.44
476.596	89.44
476.814	76.44
477.033	90.44
477.252	86.44
477.471	81.44
477.69	64.44
477.908	82.44
478.127	90.44
478.346	79.44
478.564	76.44
478.783	86.44
479.002	76.44
479.22	88.44
479.439	86.44
479.658	76.44
479.876	81.44
480.095	81.44
480.313	89.44
480.532	70.44
480.751	94.44
480.969	90.44
481.188	80.44
481.406	95.44
481.624	73.44
481.843	70.44
482.061	85.44
482.28	80.44
482.498	85.44
482.717	78.44
482.935	70.44
483.153	87.44
483.372	72.44
483.59	84.44
483.808	77.44
484.027	80.44
484.245	82.44
484.463	90.44
484.681	102.44
484.9	78.44
485.118	72.44
485.336	80.44
485.554	73.44
485.772	74.44
485.99	77.44
486.209	91.44
486.427	79.44
486.645	84.44
486.863	85.44
487.081	75.44
487.299	88.44
487.517	78.44
487.735	76.44
487.953	92.44
488.171	98.44
488.389	75.44
488.607	74.44
488.825	82.44
489.043	92.44
489.261	88.44
489.479	90.44
489.696	72.44
489.914	80.44
490.132	81.44
490.35	92.44
490.568	84.44
490.786	77.44
491.003	72.44
491.221	86.44
491.439	91.44
491.657	84.44
491.874	75.44
492.092	80.44
492.31	90.44
492.527	84.44
492.745	80.44
492.963	85.44
493.18	87.44
493.398	87.44
493.615	94.44
493.833	80.44
494.05	84.44
494.268	111.44
494.485	89.44
494.703	85.44
494.92	73.44
495.138	81.44
495.355	74.44
495.573	90.44
495.79	79.44
496.008	54.44
496.225	90.44
496.442	82.44
496.66	80.44
496.877	86.44
497.094	98.44
497.312	92.44
497.529	95.44
497.746	88.44
497.963	81.44
498.181	94.44
498.398	79.44
498.615	88.44
498.832	79.44
499.049	90.44
499.267	81.44
499.484	76.44
499.701	85.44
499.918	101.44
500.135	88.44
500.352	74.44
500.569	91.44
500.786	72.44
501.003	92.44
501.22	88.44
501.437	86.44
501.654	88.44
501.871	67.44
502.088	79.44
502.305	79.44
502.522	82.44
502.739	88.44
502.956	70.44
503.172	79.44
503.389	76.44
503.606	83.44
503.823	86.44
504.04	76.44
504.256	78.44
504.473	81.44
504.69	76.44
504.907	88.44
505.123	83.44
505.34	84.44
505.557	80.44
505.773	67.44
505.99	78.44
506.207	71.44
506.423	88.44
506.64	78.44
506.856	89.44
507.073	85.44
507.289	102.44
507.506	81.44
507.722	84.44
507.939	90.44
508.155	73.44
508.372	75.44
508.588	66.44
508.805	93.44
509.021	78.44
509.238	77.44
509.454	81.44
509.67	79.44
509.887	64.44
510.103	90.44
510.319	82.44
510.536	86.44
510.752	80.44
510.968	88.44
511.184	80.44
511.401	90.44
511.617	78.44
511.833	93.44
512.049	100.44
512.265	80.44
512.481	104.44
512.698	85.44
512.914	94.44
513.13	83.44
513.346	87.44
513.562	88.44
513.778	81.44
513.994	97.44
514.21	82.44
514.426	89.44
514.642	84.44
514.858	95.44
515.074	90.44
515.29	92.44
515.506	88.44
515.721	89.44
515.937	73.44
516.153	93.44
516.369	74.44
516.585	100.44
516.801	77.44
517.016	90.44
517.232	74.44
517.448	94.44
517.664	95.44
517.879	83.44
518.095	86.44
518.311	86.44
518.527	73.44
518.742	77.44
518.958	88.44
519.173	95.44
519.389	90.44
519.605	78.44
519.82	87.44
