Data from BG_HRD10591_030.txt Node
Date: Fri May 16 15:14:37 EDT 2025
User: Yrep
Spectrometer: HR+D1059
Trigger mode: 1
Integration Time (sec): 1.000000E-1
Scans to average: 1
Electric dark correction enabled: true
Nonlinearity correction enabled: false
Boxcar width: 0
XAxis mode: Wavelengths
Number of Pixels in Spectrum: 2048
>>>>>Begin Spectral Data<<<<<
223.165	-11.62
223.4	-11.62
223.635	-11.62
223.869	-19.62
224.104	-11.62
224.338	-22.62
224.573	-22.62
224.808	-11.62
225.042	-0.62
225.277	-4.62
225.511	0.38
225.746	-0.62
225.98	-1.62
226.215	11.38
226.449	6.38
226.683	13.38
226.918	43.38
227.152	32.38
227.387	22.38
227.621	42.38
227.856	44.38
228.09	46.38
228.324	54.38
228.559	65.38
228.793	69.38
229.027	63.38
229.262	75.38
229.496	56.38
229.73	69.38
229.964	73.38
230.199	73.38
230.433	74.38
230.667	72.38
230.901	72.38
231.136	90.38
231.37	89.38
231.604	71.38
231.838	85.38
232.072	77.38
232.306	71.38
232.541	75.38
232.775	68.38
233.009	79.38
233.243	80.38
233.477	77.38
233.711	90.38
233.945	80.38
234.179	75.38
234.413	95.38
234.647	94.38
234.881	83.38
235.115	74.38
235.349	91.38
235.583	79.38
235.817	85.38
236.051	88.38
236.285	71.38
236.519	75.38
236.753	86.38
236.987	76.38
237.221	73.38
237.455	78.38
237.689	93.38
237.922	75.38
238.156	64.38
238.39	75.38
238.624	80.38
238.858	92.38
239.091	95.38
239.325	81.38
239.559	78.38
239.793	87.38
240.027	71.38
240.26	80.38
240.494	87.38
240.728	89.38
240.961	72.38
241.195	72.38
241.429	65.38
241.662	77.38
241.896	69.38
242.13	69.38
242.363	90.38
242.597	74.38
242.83	83.38
243.064	80.38
243.298	75.38
243.531	81.38
243.765	86.38
243.998	79.38
244.232	97.38
244.465	74.38
244.699	83.38
244.932	78.38
245.166	90.38
245.399	82.38
245.633	89.38
245.866	83.38
246.099	89.38
246.333	85.38
246.566	73.38
246.8	77.38
247.033	79.38
247.266	73.38
247.5	77.38
247.733	77.38
247.966	75.38
248.2	71.38
248.433	70.38
248.666	61.38
248.899	83.38
249.133	67.38
249.366	93.38
249.599	78.38
249.832	89.38
250.066	87.38
250.299	89.38
250.532	74.38
250.765	66.38
250.998	82.38
251.231	90.38
251.465	84.38
251.698	76.38
251.931	71.38
252.164	87.38
252.397	76.38
252.63	79.38
252.863	75.38
253.096	75.38
253.329	82.38
253.562	76.38
253.795	93.38
254.028	106.38
254.261	93.38
254.494	80.38
254.727	85.38
254.96	89.38
255.193	76.38
255.426	87.38
255.659	88.38
255.892	87.38
256.124	76.38
256.357	73.38
256.59	73.38
256.823	71.38
257.056	81.38
257.289	84.38
257.521	91.38
257.754	96.38
257.987	95.38
258.22	81.38
258.452	87.38
258.685	84.38
258.918	69.38
259.151	78.38
259.383	101.38
259.616	77.38
259.849	90.38
260.081	87.38
260.314	85.38
260.547	78.38
260.779	73.38
261.012	77.38
261.244	84.38
261.477	82.38
261.71	75.38
261.942	85.38
262.175	64.38
262.407	87.38
262.64	83.38
262.872	78.38
263.105	85.38
263.337	87.38
263.57	82.38
263.802	85.38
264.035	79.38
264.267	89.38
264.499	74.38
264.732	82.38
264.964	79.38
265.197	85.38
265.429	81.38
265.661	79.38
265.894	74.38
266.126	71.38
266.358	78.38
266.591	76.38
266.823	87.38
267.055	92.38
267.287	90.38
267.52	90.38
267.752	90.38
267.984	91.38
268.216	91.38
268.448	84.38
268.681	84.38
268.913	98.38
269.145	88.38
269.377	81.38
269.609	76.38
269.841	84.38
270.073	78.38
270.306	94.38
270.538	92.38
270.77	83.38
271.002	81.38
271.234	88.38
271.466	75.38
271.698	83.38
271.93	77.38
272.162	86.38
272.394	101.38
272.626	94.38
272.858	101.38
273.09	76.38
273.322	87.38
273.553	88.38
273.785	101.38
274.017	95.38
274.249	79.38
274.481	76.38
274.713	78.38
274.945	73.38
275.176	78.38
275.408	80.38
275.64	86.38
275.872	69.38
276.104	78.38
276.335	78.38
276.567	93.38
276.799	83.38
277.031	94.38
277.262	78.38
277.494	89.38
277.726	82.38
277.957	72.38
278.189	95.38
278.421	103.38
278.652	92.38
278.884	82.38
279.115	79.38
279.347	91.38
279.579	77.38
279.81	92.38
280.042	89.38
280.273	88.38
280.505	87.38
280.736	79.38
280.968	95.38
281.199	94.38
281.431	94.38
281.662	91.38
281.894	85.38
282.125	87.38
282.356	92.38
282.588	93.38
282.819	76.38
283.051	85.38
283.282	103.38
283.513	95.38
283.745	81.38
283.976	88.38
284.207	77.38
284.439	88.38
284.67	93.38
284.901	81.38
285.132	80.38
285.364	79.38
285.595	87.38
285.826	87.38
286.057	85.38
286.288	97.38
286.52	102.38
286.751	77.38
286.982	100.38
287.213	90.38
287.444	89.38
287.675	75.38
287.906	75.38
288.138	97.38
288.369	88.38
288.6	91.38
288.831	81.38
289.062	99.38
289.293	86.38
289.524	87.38
289.755	104.38
289.986	78.38
290.217	89.38
290.448	94.38
290.679	76.38
290.91	101.38
291.141	89.38
291.371	89.38
291.602	88.38
291.833	75.38
292.064	89.38
292.295	85.38
292.526	86.38
292.757	91.38
292.987	87.38
293.218	88.38
293.449	86.38
293.68	94.38
293.91	89.38
294.141	83.38
294.372	91.38
294.603	77.38
294.833	84.38
295.064	95.38
295.295	82.38
295.525	83.38
295.756	87.38
295.987	101.38
296.217	92.38
296.448	79.38
296.679	97.38
296.909	85.38
297.14	84.38
297.37	88.38
297.601	85.38
297.831	90.38
298.062	94.38
298.292	79.38
298.523	80.38
298.753	91.38
298.984	83.38
299.214	89.38
299.445	113.38
299.675	87.38
299.905	66.38
300.136	96.38
300.366	87.38
300.597	93.38
300.827	79.38
301.057	83.38
301.288	105.38
301.518	91.38
301.748	90.38
301.979	99.38
302.209	79.38
302.439	93.38
302.669	85.38
302.9	83.38
303.13	93.38
303.36	103.38
303.59	100.38
303.82	94.38
304.051	104.38
304.281	92.38
304.511	79.38
304.741	87.38
304.971	91.38
305.201	99.38
305.431	89.38
305.661	95.38
305.891	94.38
306.121	87.38
306.352	97.38
306.582	81.38
306.812	92.38
307.042	102.38
307.272	96.38
307.502	101.38
307.731	97.38
307.961	83.38
308.191	77.38
308.421	101.38
308.651	91.38
308.881	85.38
309.111	85.38
309.341	93.38
309.571	88.38
309.8	86.38
310.03	79.38
310.26	80.38
310.49	88.38
310.72	80.38
310.949	72.38
311.179	93.38
311.409	92.38
311.639	80.38
311.868	85.38
312.098	101.38
312.328	76.38
312.557	88.38
312.787	99.38
313.017	114.38
313.246	85.38
313.476	85.38
313.706	92.38
313.935	73.38
314.165	85.38
314.394	81.38
314.624	88.38
314.853	87.38
315.083	87.38
315.312	100.38
315.542	86.38
315.771	90.38
316.001	82.38
316.23	91.38
316.46	91.38
316.689	88.38
316.919	90.38
317.148	83.38
317.377	100.38
317.607	87.38
317.836	105.38
318.065	71.38
318.295	90.38
318.524	74.38
318.753	91.38
318.983	87.38
319.212	92.38
319.441	101.38
319.67	100.38
319.9	104.38
320.129	100.38
320.358	90.38
320.587	83.38
320.816	94.38
321.046	76.38
321.275	96.38
321.504	84.38
321.733	85.38
321.962	85.38
322.191	83.38
322.42	94.38
322.649	75.38
322.878	78.38
323.108	85.38
323.337	92.38
323.566	89.38
323.795	92.38
324.024	88.38
324.253	85.38
324.482	85.38
324.71	91.38
324.939	86.38
325.168	86.38
325.397	92.38
325.626	92.38
325.855	99.38
326.084	86.38
326.313	80.38
326.542	87.38
326.77	90.38
326.999	79.38
327.228	77.38
327.457	87.38
327.686	89.38
327.914	99.38
328.143	99.38
328.372	80.38
328.6	99.38
328.829	89.38
329.058	83.38
329.287	106.38
329.515	91.38
329.744	88.38
329.972	95.38
330.201	99.38
330.43	88.38
330.658	93.38
330.887	90.38
331.115	100.38
331.344	101.38
331.572	95.38
331.801	97.38
332.03	100.38
332.258	98.38
332.486	94.38
332.715	96.38
332.943	88.38
333.172	91.38
333.4	97.38
333.629	99.38
333.857	99.38
334.085	95.38
334.314	96.38
334.542	83.38
334.771	88.38
334.999	103.38
335.227	69.38
335.455	69.38
335.684	86.38
335.912	103.38
336.14	93.38
336.369	85.38
336.597	87.38
336.825	80.38
337.053	88.38
337.281	80.38
337.51	94.38
337.738	95.38
337.966	97.38
338.194	95.38
338.422	90.38
338.65	89.38
338.878	97.38
339.106	90.38
339.334	93.38
339.562	103.38
339.79	90.38
340.018	89.38
340.246	97.38
340.474	81.38
340.702	90.38
340.93	69.38
341.158	72.38
341.386	89.38
341.614	98.38
341.842	92.38
342.07	100.38
342.298	93.38
342.526	91.38
342.754	86.38
342.981	103.38
343.209	107.38
343.437	103.38
343.665	92.38
343.893	86.38
344.12	87.38
344.348	95.38
344.576	93.38
344.804	87.38
345.031	84.38
345.259	99.38
345.487	81.38
345.714	88.38
345.942	84.38
346.17	84.38
346.397	77.38
346.625	93.38
346.853	86.38
347.08	94.38
347.308	103.38
347.535	85.38
347.763	90.38
347.99	90.38
348.218	89.38
348.445	95.38
348.673	99.38
348.9	103.38
349.128	106.38
349.355	82.38
349.583	77.38
349.81	88.38
350.037	96.38
350.265	97.38
350.492	83.38
350.72	81.38
350.947	86.38
351.174	76.38
351.402	91.38
351.629	91.38
351.856	87.38
352.083	88.38
352.311	91.38
352.538	71.38
352.765	74.38
352.992	73.38
353.22	81.38
353.447	88.38
353.674	93.38
353.901	95.38
354.128	86.38
354.355	75.38
354.583	94.38
354.81	96.38
355.037	89.38
355.264	88.38
355.491	85.38
355.718	89.38
355.945	87.38
356.172	87.38
356.399	89.38
356.626	93.38
356.853	81.38
357.08	89.38
357.307	85.38
357.534	88.38
357.761	84.38
357.988	77.38
358.215	90.38
358.441	77.38
358.668	102.38
358.895	101.38
359.122	91.38
359.349	97.38
359.576	90.38
359.802	100.38
360.029	81.38
360.256	95.38
360.483	94.38
360.709	83.38
360.936	101.38
361.163	80.38
361.39	88.38
361.616	69.38
361.843	99.38
362.07	85.38
362.296	90.38
362.523	84.38
362.749	91.38
362.976	76.38
363.203	84.38
363.429	86.38
363.656	88.38
363.882	87.38
364.109	107.38
364.335	86.38
364.562	87.38
364.788	84.38
365.015	80.38
365.241	84.38
365.468	88.38
365.694	83.38
365.92	84.38
366.147	88.38
366.373	102.38
366.599	77.38
366.826	87.38
367.052	93.38
367.278	80.38
367.505	91.38
367.731	103.38
367.957	99.38
368.184	105.38
368.41	94.38
368.636	83.38
368.862	84.38
369.089	84.38
369.315	87.38
369.541	75.38
369.767	92.38
369.993	86.38
370.219	100.38
370.445	100.38
370.672	88.38
370.898	88.38
371.124	87.38
371.35	88.38
371.576	94.38
371.802	85.38
372.028	79.38
372.254	94.38
372.48	81.38
372.706	81.38
372.932	81.38
373.158	87.38
373.384	98.38
373.61	96.38
373.835	91.38
374.061	85.38
374.287	84.38
374.513	89.38
374.739	75.38
374.965	79.38
375.191	89.38
375.416	91.38
375.642	99.38
375.868	89.38
376.094	87.38
376.319	83.38
376.545	85.38
376.771	81.38
376.997	95.38
377.222	93.38
377.448	74.38
377.674	86.38
377.899	90.38
378.125	84.38
378.35	103.38
378.576	77.38
378.802	88.38
379.027	88.38
379.253	81.38
379.478	85.38
379.704	88.38
379.929	89.38
380.155	81.38
380.38	85.38
380.606	90.38
380.831	89.38
381.057	92.38
381.282	92.38
381.507	101.38
381.733	86.38
381.958	99.38
382.184	90.38
382.409	94.38
382.634	93.38
382.86	93.38
383.085	88.38
383.31	96.38
383.535	86.38
383.761	83.38
383.986	90.38
384.211	92.38
384.436	84.38
384.662	75.38
384.887	89.38
385.112	73.38
385.337	79.38
385.562	85.38
385.787	72.38
386.013	91.38
386.238	95.38
386.463	93.38
386.688	95.38
386.913	89.38
387.138	73.38
387.363	91.38
387.588	88.38
387.813	95.38
388.038	91.38
388.263	94.38
388.488	78.38
388.713	83.38
388.938	97.38
389.163	94.38
389.387	77.38
389.612	83.38
389.837	94.38
390.062	94.38
390.287	79.38
390.512	81.38
390.736	91.38
390.961	78.38
391.186	81.38
391.411	83.38
391.636	81.38
391.86	84.38
392.085	101.38
392.31	83.38
392.534	85.38
392.759	96.38
392.984	72.38
393.208	91.38
393.433	91.38
393.658	83.38
393.882	84.38
394.107	98.38
394.331	94.38
394.556	86.38
394.78	86.38
395.005	106.38
395.229	67.38
395.454	83.38
395.678	87.38
395.903	88.38
396.127	91.38
396.352	77.38
396.576	95.38
396.801	99.38
397.025	93.38
397.249	86.38
397.474	94.38
397.698	97.38
397.922	79.38
398.147	84.38
398.371	92.38
398.595	98.38
398.82	92.38
399.044	99.38
399.268	87.38
399.492	93.38
399.717	99.38
399.941	101.38
400.165	85.38
400.389	88.38
400.613	80.38
400.837	84.38
401.062	93.38
401.286	86.38
401.51	91.38
401.734	88.38
401.958	97.38
402.182	96.38
402.406	104.38
402.63	98.38
402.854	97.38
403.078	77.38
403.302	93.38
403.526	93.38
403.75	99.38
403.974	82.38
404.198	79.38
404.422	93.38
404.645	83.38
404.869	84.38
405.093	99.38
405.317	85.38
405.541	96.38
405.765	90.38
405.988	89.38
406.212	86.38
406.436	80.38
406.66	103.38
406.883	95.38
407.107	87.38
407.331	97.38
407.555	95.38
407.778	84.38
408.002	80.38
408.226	96.38
408.449	83.38
408.673	91.38
408.896	95.38
409.12	93.38
409.344	69.38
409.567	81.38
409.791	106.38
410.014	90.38
410.238	85.38
410.461	93.38
410.685	89.38
410.908	96.38
411.132	91.38
411.355	85.38
411.578	89.38
411.802	81.38
412.025	89.38
412.249	88.38
412.472	80.38
412.695	104.38
412.919	94.38
413.142	89.38
413.365	93.38
413.589	83.38
413.812	95.38
414.035	94.38
414.258	79.38
414.482	107.38
414.705	96.38
414.928	84.38
415.151	80.38
415.374	108.38
415.597	97.38
415.821	81.38
416.044	87.38
416.267	103.38
416.49	107.38
416.713	89.38
416.936	80.38
417.159	94.38
417.382	91.38
417.605	85.38
417.828	89.38
418.051	79.38
418.274	90.38
418.497	90.38
418.72	99.38
418.943	107.38
419.166	104.38
419.389	98.38
419.611	91.38
419.834	99.38
420.057	86.38
420.28	82.38
420.503	105.38
420.726	91.38
420.948	89.38
421.171	87.38
421.394	101.38
421.617	83.38
421.839	89.38
422.062	93.38
422.285	73.38
422.507	88.38
422.73	101.38
422.953	94.38
423.175	103.38
423.398	95.38
423.621	102.38
423.843	83.38
424.066	96.38
424.288	103.38
424.511	88.38
424.733	100.38
424.956	75.38
425.178	75.38
425.401	87.38
425.623	80.38
425.846	68.38
426.068	86.38
426.291	88.38
426.513	87.38
426.735	92.38
426.958	77.38
427.18	82.38
427.402	88.38
427.625	95.38
427.847	91.38
428.069	103.38
428.292	87.38
428.514	94.38
428.736	78.38
428.958	81.38
429.181	83.38
429.403	82.38
429.625	87.38
429.847	71.38
430.069	90.38
430.292	81.38
430.514	93.38
430.736	88.38
430.958	94.38
431.18	99.38
431.402	99.38
431.624	85.38
431.846	86.38
432.068	87.38
432.29	73.38
432.512	86.38
432.734	98.38
432.956	78.38
433.178	91.38
433.4	89.38
433.622	96.38
433.844	95.38
434.066	104.38
434.287	88.38
434.509	91.38
434.731	82.38
434.953	94.38
435.175	89.38
435.397	86.38
435.618	97.38
435.84	100.38
436.062	101.38
436.284	97.38
436.505	89.38
436.727	80.38
436.949	87.38
437.17	77.38
437.392	86.38
437.614	84.38
437.835	84.38
438.057	89.38
438.278	85.38
438.5	88.38
438.721	85.38
438.943	93.38
439.165	89.38
439.386	82.38
439.608	83.38
439.829	94.38
440.05	87.38
440.272	95.38
440.493	87.38
440.715	86.38
440.936	88.38
441.158	88.38
441.379	80.38
441.6	111.38
441.822	97.38
442.043	94.38
442.264	94.38
442.486	99.38
442.707	70.38
442.928	78.38
443.149	91.38
443.371	80.38
443.592	87.38
443.813	90.38
444.034	94.38
444.255	83.38
444.476	75.38
444.698	95.38
444.919	97.38
445.14	171.38
445.361	129.38
445.582	95.38
445.803	80.38
446.024	83.38
446.245	91.38
446.466	89.38
446.687	93.38
446.908	86.38
447.129	101.38
447.35	85.38
447.571	87.38
447.792	84.38
448.013	85.38
448.234	83.38
448.455	100.38
448.675	85.38
448.896	95.38
449.117	91.38
449.338	76.38
449.559	93.38
449.779	80.38
450	91.38
450.221	85.38
450.442	90.38
450.662	92.38
450.883	95.38
451.104	99.38
451.324	93.38
451.545	96.38
451.766	87.38
451.986	84.38
452.207	88.38
452.428	91.38
452.648	105.38
452.869	90.38
453.089	94.38
453.31	91.38
453.53	83.38
453.751	93.38
453.971	77.38
454.192	82.38
454.412	82.38
454.633	93.38
454.853	91.38
455.073	84.38
455.294	91.38
455.514	88.38
455.734	84.38
455.955	86.38
456.175	87.38
456.395	86.38
456.616	91.38
456.836	90.38
457.056	87.38
457.276	91.38
457.497	91.38
457.717	74.38
457.937	89.38
458.157	85.38
458.377	72.38
458.598	80.38
458.818	87.38
459.038	91.38
459.258	90.38
459.478	95.38
459.698	77.38
459.918	88.38
460.138	85.38
460.358	91.38
460.578	99.38
460.798	93.38
461.018	95.38
461.238	81.38
461.458	106.38
461.678	94.38
461.898	85.38
462.118	105.38
462.338	94.38
462.558	96.38
462.777	96.38
462.997	84.38
463.217	88.38
463.437	86.38
463.657	84.38
463.876	102.38
464.096	89.38
464.316	101.38
464.536	109.38
464.755	100.38
464.975	97.38
465.195	99.38
465.414	89.38
465.634	82.38
465.854	101.38
466.073	96.38
466.293	78.38
466.512	90.38
466.732	87.38
466.951	95.38
467.171	78.38
467.391	93.38
467.61	87.38
467.829	83.38
468.049	93.38
468.268	82.38
468.488	99.38
468.707	83.38
468.927	94.38
469.146	87.38
469.365	88.38
469.585	84.38
469.804	90.38
470.023	93.38
470.243	73.38
470.462	83.38
470.681	85.38
470.901	96.38
471.12	92.38
471.339	78.38
471.558	83.38
471.777	77.38
471.997	81.38
472.216	87.38
472.435	80.38
472.654	96.38
472.873	73.38
473.092	76.38
473.311	92.38
473.53	86.38
473.749	96.38
473.968	85.38
474.187	85.38
474.406	78.38
474.625	90.38
474.844	92.38
475.063	87.38
475.282	70.38
475.501	92.38
475.72	95.38
475.939	88.38
476.158	85.38
476.377	76.38
476.596	73.38
476.814	78.38
477.033	81.38
477.252	100.38
477.471	87.38
477.69	99.38
477.908	87.38
478.127	76.38
478.346	101.38
478.564	89.38
478.783	102.38
479.002	86.38
479.22	89.38
479.439	92.38
479.658	86.38
479.876	86.38
480.095	89.38
480.313	106.38
480.532	89.38
480.751	92.38
480.969	90.38
481.188	105.38
481.406	96.38
481.624	85.38
481.843	88.38
482.061	85.38
482.28	87.38
482.498	96.38
482.717	87.38
482.935	84.38
483.153	107.38
483.372	87.38
483.59	96.38
483.808	80.38
484.027	76.38
484.245	86.38
484.463	77.38
484.681	110.38
484.9	83.38
485.118	87.38
485.336	93.38
485.554	94.38
485.772	96.38
485.99	93.38
486.209	79.38
486.427	81.38
486.645	97.38
486.863	88.38
487.081	95.38
487.299	101.38
487.517	97.38
487.735	87.38
487.953	84.38
488.171	72.38
488.389	99.38
488.607	84.38
488.825	84.38
489.043	109.38
489.261	85.38
489.479	94.38
489.696	99.38
489.914	86.38
490.132	89.38
490.35	104.38
490.568	90.38
490.786	91.38
491.003	86.38
491.221	84.38
491.439	101.38
491.657	84.38
491.874	89.38
492.092	99.38
492.31	95.38
492.527	97.38
492.745	89.38
492.963	100.38
493.18	86.38
493.398	109.38
493.615	105.38
493.833	88.38
494.05	85.38
494.268	87.38
494.485	84.38
494.703	101.38
494.92	91.38
495.138	86.38
495.355	88.38
495.573	88.38
495.79	95.38
496.008	99.38
496.225	89.38
496.442	93.38
496.66	80.38
496.877	97.38
497.094	103.38
497.312	89.38
497.529	96.38
497.746	97.38
497.963	87.38
498.181	94.38
498.398	103.38
498.615	101.38
498.832	95.38
499.049	105.38
499.267	105.38
499.484	95.38
499.701	108.38
499.918	121.38
500.135	131.38
500.352	117.38
500.569	126.38
500.786	109.38
501.003	105.38
501.22	100.38
501.437	103.38
501.654	95.38
501.871	94.38
502.088	102.38
502.305	111.38
502.522	98.38
502.739	104.38
502.956	91.38
503.172	88.38
503.389	82.38
503.606	95.38
503.823	97.38
504.04	94.38
504.256	93.38
504.473	109.38
504.69	101.38
504.907	97.38
505.123	98.38
505.34	102.38
505.557	99.38
505.773	97.38
505.99	105.38
506.207	82.38
506.423	87.38
506.64	94.38
506.856	88.38
507.073	94.38
507.289	86.38
507.506	93.38
507.722	91.38
507.939	97.38
508.155	81.38
508.372	95.38
508.588	85.38
508.805	95.38
509.021	89.38
509.238	75.38
509.454	101.38
509.67	93.38
509.887	77.38
510.103	93.38
510.319	92.38
510.536	72.38
510.752	97.38
510.968	96.38
511.184	102.38
511.401	104.38
511.617	95.38
511.833	88.38
512.049	96.38
512.265	84.38
512.481	99.38
512.698	92.38
512.914	107.38
513.13	82.38
513.346	99.38
513.562	79.38
513.778	92.38
513.994	77.38
514.21	87.38
514.426	87.38
514.642	97.38
514.858	96.38
515.074	69.38
515.29	102.38
515.506	87.38
515.721	85.38
515.937	90.38
516.153	81.38
516.369	87.38
516.585	93.38
516.801	96.38
517.016	87.38
517.232	95.38
517.448	93.38
517.664	100.38
517.879	94.38
518.095	109.38
518.311	95.38
518.527	84.38
