Data from BG_HRD10591_064.txt Node
Date: Fri May 16 15:14:54 EDT 2025
User: Yrep
Spectrometer: HR+D1059
Trigger mode: 1
Integration Time (sec): 1.000000E-1
Scans to average: 1
Electric dark correction enabled: true
Nonlinearity correction enabled: false
Boxcar width: 0
XAxis mode: Wavelengths
Number of Pixels in Spectrum: 2048
>>>>>Begin Spectral Data<<<<<
223.165	-13.31
223.4	-13.31
223.635	-13.31
223.869	-20.31
224.104	-28.31
224.338	-16.31
224.573	-6.31
224.808	-17.31
225.042	4.69
225.277	1.69
225.511	0.69
225.746	0.69
225.98	14.69
226.215	3.69
226.449	5.69
226.683	22.69
226.918	15.69
227.152	31.69
227.387	42.69
227.621	37.69
227.856	52.69
228.09	43.69
228.324	53.69
228.559	46.69
228.793	60.69
229.027	57.69
229.262	51.69
229.496	65.69
229.73	74.69
229.964	75.69
230.199	80.69
230.433	72.69
230.667	86.69
230.901	62.69
231.136	73.69
231.37	75.69
231.604	71.69
231.838	78.69
232.072	88.69
232.306	87.69
232.541	72.69
232.775	77.69
233.009	70.69
233.243	80.69
233.477	88.69
233.711	93.69
233.945	83.69
234.179	73.69
234.413	93.69
234.647	69.69
234.881	80.69
235.115	76.69
235.349	80.69
235.583	85.69
235.817	89.69
236.051	79.69
236.285	82.69
236.519	70.69
236.753	82.69
236.987	74.69
237.221	76.69
237.455	77.69
237.689	69.69
237.922	75.69
238.156	75.69
238.39	80.69
238.624	68.69
238.858	83.69
239.091	69.69
239.325	73.69
239.559	72.69
239.793	74.69
240.027	87.69
240.26	82.69
240.494	80.69
240.728	79.69
240.961	73.69
241.195	80.69
241.429	74.69
241.662	68.69
241.896	75.69
242.13	74.69
242.363	77.69
242.597	72.69
242.83	76.69
243.064	75.69
243.298	77.69
243.531	78.69
243.765	72.69
243.998	76.69
244.232	66.69
244.465	92.69
244.699	75.69
244.932	85.69
245.166	66.69
245.399	73.69
245.633	61.69
245.866	78.69
246.099	67.69
246.333	78.69
246.566	74.69
246.8	93.69
247.033	75.69
247.266	55.69
247.5	74.69
247.733	82.69
247.966	69.69
248.2	68.69
248.433	77.69
248.666	83.69
248.899	85.69
249.133	87.69
249.366	81.69
249.599	82.69
249.832	76.69
250.066	74.69
250.299	76.69
250.532	90.69
250.765	92.69
250.998	89.69
251.231	82.69
251.465	89.69
251.698	76.69
251.931	80.69
252.164	87.69
252.397	73.69
252.63	84.69
252.863	86.69
253.096	86.69
253.329	93.69
253.562	67.69
253.795	78.69
254.028	86.69
254.261	78.69
254.494	79.69
254.727	72.69
254.96	86.69
255.193	88.69
255.426	88.69
255.659	72.69
255.892	90.69
256.124	86.69
256.357	78.69
256.59	86.69
256.823	72.69
257.056	90.69
257.289	79.69
257.521	85.69
257.754	76.69
257.987	82.69
258.22	90.69
258.452	90.69
258.685	105.69
258.918	77.69
259.151	91.69
259.383	85.69
259.616	82.69
259.849	84.69
260.081	87.69
260.314	89.69
260.547	88.69
260.779	81.69
261.012	75.69
261.244	82.69
261.477	83.69
261.71	76.69
261.942	82.69
262.175	90.69
262.407	79.69
262.64	65.69
262.872	80.69
263.105	78.69
263.337	80.69
263.57	78.69
263.802	83.69
264.035	82.69
264.267	85.69
264.499	84.69
264.732	84.69
264.964	79.69
265.197	75.69
265.429	69.69
265.661	91.69
265.894	90.69
266.126	85.69
266.358	91.69
266.591	85.69
266.823	66.69
267.055	72.69
267.287	80.69
267.52	86.69
267.752	67.69
267.984	85.69
268.216	77.69
268.448	87.69
268.681	96.69
268.913	78.69
269.145	89.69
269.377	92.69
269.609	92.69
269.841	91.69
270.073	80.69
270.306	68.69
270.538	87.69
270.77	87.69
271.002	87.69
271.234	91.69
271.466	82.69
271.698	71.69
271.93	85.69
272.162	82.69
272.394	88.69
272.626	88.69
272.858	88.69
273.09	83.69
273.322	91.69
273.553	89.69
273.785	93.69
274.017	99.69
274.249	97.69
274.481	84.69
274.713	80.69
274.945	83.69
275.176	91.69
275.408	88.69
275.64	93.69
275.872	75.69
276.104	73.69
276.335	88.69
276.567	90.69
276.799	86.69
277.031	83.69
277.262	81.69
277.494	74.69
277.726	88.69
277.957	73.69
278.189	87.69
278.421	86.69
278.652	83.69
278.884	80.69
279.115	74.69
279.347	85.69
279.579	79.69
279.81	90.69
280.042	77.69
280.273	77.69
280.505	70.69
280.736	87.69
280.968	71.69
281.199	85.69
281.431	97.69
281.662	80.69
281.894	102.69
282.125	90.69
282.356	78.69
282.588	87.69
282.819	86.69
283.051	102.69
283.282	74.69
283.513	86.69
283.745	92.69
283.976	99.69
284.207	85.69
284.439	81.69
284.67	87.69
284.901	81.69
285.132	89.69
285.364	79.69
285.595	87.69
285.826	79.69
286.057	84.69
286.288	77.69
286.52	85.69
286.751	85.69
286.982	81.69
287.213	80.69
287.444	97.69
287.675	92.69
287.906	88.69
288.138	77.69
288.369	86.69
288.6	85.69
288.831	85.69
289.062	90.69
289.293	75.69
289.524	83.69
289.755	86.69
289.986	77.69
290.217	92.69
290.448	85.69
290.679	84.69
290.91	73.69
291.141	81.69
291.371	90.69
291.602	94.69
291.833	89.69
292.064	93.69
292.295	82.69
292.526	95.69
292.757	85.69
292.987	95.69
293.218	85.69
293.449	83.69
293.68	80.69
293.91	86.69
294.141	96.69
294.372	89.69
294.603	89.69
294.833	76.69
295.064	80.69
295.295	81.69
295.525	70.69
295.756	96.69
295.987	79.69
296.217	83.69
296.448	92.69
296.679	83.69
296.909	79.69
297.14	90.69
297.37	73.69
297.601	98.69
297.831	94.69
298.062	81.69
298.292	91.69
298.523	93.69
298.753	89.69
298.984	81.69
299.214	85.69
299.445	81.69
299.675	80.69
299.905	89.69
300.136	75.69
300.366	85.69
300.597	92.69
300.827	87.69
301.057	79.69
301.288	86.69
301.518	91.69
301.748	82.69
301.979	106.69
302.209	92.69
302.439	91.69
302.669	83.69
302.9	94.69
303.13	87.69
303.36	97.69
303.59	93.69
303.82	86.69
304.051	104.69
304.281	97.69
304.511	74.69
304.741	72.69
304.971	80.69
305.201	79.69
305.431	96.69
305.661	68.69
305.891	82.69
306.121	81.69
306.352	81.69
306.582	82.69
306.812	86.69
307.042	91.69
307.272	83.69
307.502	89.69
307.731	85.69
307.961	89.69
308.191	81.69
308.421	71.69
308.651	91.69
308.881	85.69
309.111	83.69
309.341	90.69
309.571	94.69
309.8	102.69
310.03	93.69
310.26	82.69
310.49	94.69
310.72	96.69
310.949	88.69
311.179	80.69
311.409	79.69
311.639	86.69
311.868	73.69
312.098	74.69
312.328	81.69
312.557	80.69
312.787	98.69
313.017	95.69
313.246	80.69
313.476	78.69
313.706	80.69
313.935	74.69
314.165	98.69
314.394	83.69
314.624	92.69
314.853	107.69
315.083	89.69
315.312	84.69
315.542	89.69
315.771	83.69
316.001	87.69
316.23	78.69
316.46	98.69
316.689	94.69
316.919	98.69
317.148	94.69
317.377	95.69
317.607	94.69
317.836	59.69
318.065	95.69
318.295	91.69
318.524	96.69
318.753	97.69
318.983	86.69
319.212	78.69
319.441	87.69
319.67	90.69
319.9	94.69
320.129	79.69
320.358	85.69
320.587	77.69
320.816	76.69
321.046	88.69
321.275	82.69
321.504	83.69
321.733	71.69
321.962	87.69
322.191	83.69
322.42	79.69
322.649	97.69
322.878	79.69
323.108	95.69
323.337	83.69
323.566	90.69
323.795	84.69
324.024	94.69
324.253	85.69
324.482	93.69
324.71	104.69
324.939	87.69
325.168	96.69
325.397	103.69
325.626	75.69
325.855	99.69
326.084	71.69
326.313	95.69
326.542	88.69
326.77	86.69
326.999	98.69
327.228	99.69
327.457	104.69
327.686	99.69
327.914	98.69
328.143	101.69
328.372	91.69
328.6	93.69
328.829	96.69
329.058	85.69
329.287	81.69
329.515	87.69
329.744	85.69
329.972	99.69
330.201	89.69
330.43	79.69
330.658	84.69
330.887	89.69
331.115	83.69
331.344	89.69
331.572	89.69
331.801	80.69
332.03	96.69
332.258	88.69
332.486	105.69
332.715	90.69
332.943	104.69
333.172	88.69
333.4	92.69
333.629	89.69
333.857	89.69
334.085	84.69
334.314	80.69
334.542	88.69
334.771	96.69
334.999	95.69
335.227	94.69
335.455	93.69
335.684	95.69
335.912	91.69
336.14	93.69
336.369	86.69
336.597	90.69
336.825	84.69
337.053	102.69
337.281	97.69
337.51	92.69
337.738	91.69
337.966	87.69
338.194	80.69
338.422	85.69
338.65	80.69
338.878	90.69
339.106	88.69
339.334	103.69
339.562	89.69
339.79	85.69
340.018	91.69
340.246	89.69
340.474	71.69
340.702	99.69
340.93	102.69
341.158	92.69
341.386	81.69
341.614	75.69
341.842	94.69
342.07	89.69
342.298	90.69
342.526	97.69
342.754	85.69
342.981	89.69
343.209	93.69
343.437	125.69
343.665	74.69
343.893	80.69
344.12	84.69
344.348	93.69
344.576	83.69
344.804	79.69
345.031	93.69
345.259	93.69
345.487	89.69
345.714	83.69
345.942	82.69
346.17	94.69
346.397	94.69
346.625	82.69
346.853	83.69
347.08	83.69
347.308	93.69
347.535	86.69
347.763	95.69
347.99	90.69
348.218	83.69
348.445	82.69
348.673	97.69
348.9	85.69
349.128	88.69
349.355	91.69
349.583	81.69
349.81	99.69
350.037	87.69
350.265	92.69
350.492	79.69
350.72	88.69
350.947	81.69
351.174	87.69
351.402	96.69
351.629	104.69
351.856	103.69
352.083	92.69
352.311	89.69
352.538	84.69
352.765	81.69
352.992	91.69
353.22	90.69
353.447	86.69
353.674	93.69
353.901	103.69
354.128	89.69
354.355	96.69
354.583	79.69
354.81	92.69
355.037	113.69
355.264	92.69
355.491	85.69
355.718	83.69
355.945	94.69
356.172	107.69
356.399	89.69
356.626	97.69
356.853	90.69
357.08	77.69
357.307	85.69
357.534	86.69
357.761	87.69
357.988	98.69
358.215	100.69
358.441	79.69
358.668	101.69
358.895	91.69
359.122	101.69
359.349	89.69
359.576	90.69
359.802	88.69
360.029	105.69
360.256	104.69
360.483	89.69
360.709	86.69
360.936	95.69
361.163	85.69
361.39	82.69
361.616	100.69
361.843	95.69
362.07	92.69
362.296	96.69
362.523	104.69
362.749	86.69
362.976	105.69
363.203	94.69
363.429	82.69
363.656	87.69
363.882	83.69
364.109	78.69
364.335	96.69
364.562	89.69
364.788	83.69
365.015	79.69
365.241	89.69
365.468	99.69
365.694	95.69
365.92	83.69
366.147	86.69
366.373	93.69
366.599	95.69
366.826	80.69
367.052	84.69
367.278	87.69
367.505	88.69
367.731	92.69
367.957	92.69
368.184	76.69
368.41	88.69
368.636	81.69
368.862	92.69
369.089	88.69
369.315	94.69
369.541	101.69
369.767	99.69
369.993	87.69
370.219	80.69
370.445	91.69
370.672	79.69
370.898	92.69
371.124	97.69
371.35	101.69
371.576	83.69
371.802	88.69
372.028	79.69
372.254	92.69
372.48	72.69
372.706	78.69
372.932	96.69
373.158	103.69
373.384	88.69
373.61	87.69
373.835	87.69
374.061	81.69
374.287	85.69
374.513	95.69
374.739	90.69
374.965	92.69
375.191	91.69
375.416	93.69
375.642	81.69
375.868	83.69
376.094	78.69
376.319	91.69
376.545	110.69
376.771	92.69
376.997	80.69
377.222	92.69
377.448	77.69
377.674	83.69
377.899	108.69
378.125	86.69
378.35	92.69
378.576	75.69
378.802	85.69
379.027	86.69
379.253	82.69
379.478	81.69
379.704	86.69
379.929	93.69
380.155	98.69
380.38	76.69
380.606	85.69
380.831	89.69
381.057	91.69
381.282	94.69
381.507	89.69
381.733	98.69
381.958	94.69
382.184	91.69
382.409	86.69
382.634	98.69
382.86	80.69
383.085	89.69
383.31	98.69
383.535	92.69
383.761	101.69
383.986	84.69
384.211	76.69
384.436	94.69
384.662	96.69
384.887	101.69
385.112	91.69
385.337	90.69
385.562	94.69
385.787	101.69
386.013	92.69
386.238	88.69
386.463	78.69
386.688	109.69
386.913	92.69
387.138	87.69
387.363	92.69
387.588	97.69
387.813	86.69
388.038	103.69
388.263	82.69
388.488	89.69
388.713	93.69
388.938	102.69
389.163	85.69
389.387	87.69
389.612	88.69
389.837	83.69
390.062	96.69
390.287	96.69
390.512	75.69
390.736	97.69
390.961	101.69
391.186	94.69
391.411	90.69
391.636	97.69
391.86	93.69
392.085	81.69
392.31	85.69
392.534	94.69
392.759	93.69
392.984	88.69
393.208	101.69
393.433	79.69
393.658	90.69
393.882	97.69
394.107	90.69
394.331	95.69
394.556	92.69
394.78	93.69
395.005	72.69
395.229	83.69
395.454	97.69
395.678	92.69
395.903	93.69
396.127	98.69
396.352	89.69
396.576	97.69
396.801	87.69
397.025	98.69
397.249	91.69
397.474	83.69
397.698	93.69
397.922	90.69
398.147	79.69
398.371	93.69
398.595	85.69
398.82	94.69
399.044	87.69
399.268	93.69
399.492	98.69
399.717	117.69
399.941	83.69
400.165	107.69
400.389	94.69
400.613	93.69
400.837	102.69
401.062	105.69
401.286	79.69
401.51	85.69
401.734	81.69
401.958	87.69
402.182	99.69
402.406	105.69
402.63	96.69
402.854	90.69
403.078	88.69
403.302	90.69
403.526	104.69
403.75	83.69
403.974	95.69
404.198	94.69
404.422	94.69
404.645	85.69
404.869	82.69
405.093	83.69
405.317	96.69
405.541	109.69
405.765	103.69
405.988	91.69
406.212	91.69
406.436	85.69
406.66	89.69
406.883	82.69
407.107	88.69
407.331	88.69
407.555	99.69
407.778	94.69
408.002	103.69
408.226	92.69
408.449	85.69
408.673	98.69
408.896	94.69
409.12	82.69
409.344	83.69
409.567	101.69
409.791	89.69
410.014	77.69
410.238	109.69
410.461	89.69
410.685	86.69
410.908	81.69
411.132	93.69
411.355	92.69
411.578	97.69
411.802	86.69
412.025	79.69
412.249	87.69
412.472	89.69
412.695	93.69
412.919	95.69
413.142	82.69
413.365	90.69
413.589	85.69
413.812	85.69
414.035	92.69
414.258	90.69
414.482	83.69
414.705	87.69
414.928	85.69
415.151	85.69
415.374	90.69
415.597	90.69
415.821	107.69
416.044	103.69
416.267	87.69
416.49	104.69
416.713	88.69
416.936	102.69
417.159	87.69
417.382	107.69
417.605	87.69
417.828	109.69
418.051	86.69
418.274	94.69
418.497	93.69
418.72	101.69
418.943	99.69
419.166	99.69
419.389	89.69
419.611	93.69
419.834	93.69
420.057	108.69
420.28	98.69
420.503	73.69
420.726	93.69
420.948	94.69
421.171	103.69
421.394	91.69
421.617	87.69
421.839	104.69
422.062	87.69
422.285	85.69
422.507	103.69
422.73	97.69
422.953	90.69
423.175	96.69
423.398	87.69
423.621	106.69
423.843	93.69
424.066	105.69
424.288	103.69
424.511	95.69
424.733	92.69
424.956	94.69
425.178	96.69
425.401	98.69
425.623	76.69
425.846	91.69
426.068	97.69
426.291	74.69
426.513	80.69
426.735	94.69
426.958	88.69
427.18	84.69
427.402	106.69
427.625	85.69
427.847	87.69
428.069	94.69
428.292	71.69
428.514	95.69
428.736	86.69
428.958	98.69
429.181	94.69
429.403	82.69
429.625	94.69
429.847	94.69
430.069	101.69
430.292	91.69
430.514	90.69
430.736	98.69
430.958	95.69
431.18	79.69
431.402	97.69
431.624	81.69
431.846	87.69
432.068	98.69
432.29	90.69
432.512	86.69
432.734	84.69
432.956	90.69
433.178	97.69
433.4	96.69
433.622	95.69
433.844	81.69
434.066	81.69
434.287	86.69
434.509	86.69
434.731	99.69
434.953	102.69
435.175	101.69
435.397	86.69
435.618	93.69
435.84	96.69
436.062	95.69
436.284	87.69
436.505	80.69
436.727	85.69
436.949	77.69
437.17	102.69
437.392	89.69
437.614	87.69
437.835	79.69
438.057	84.69
438.278	81.69
438.5	84.69
438.721	88.69
438.943	86.69
439.165	97.69
439.386	89.69
439.608	91.69
439.829	95.69
440.05	90.69
440.272	92.69
440.493	89.69
440.715	86.69
440.936	94.69
441.158	81.69
441.379	92.69
441.6	92.69
441.822	85.69
442.043	89.69
442.264	81.69
442.486	86.69
442.707	97.69
442.928	89.69
443.149	103.69
443.371	98.69
443.592	88.69
443.813	90.69
444.034	96.69
444.255	110.69
444.476	87.69
444.698	92.69
444.919	86.69
445.14	170.69
445.361	117.69
445.582	78.69
445.803	72.69
446.024	98.69
446.245	90.69
446.466	101.69
446.687	86.69
446.908	89.69
447.129	77.69
447.35	93.69
447.571	98.69
447.792	71.69
448.013	90.69
448.234	92.69
448.455	71.69
448.675	87.69
448.896	88.69
449.117	110.69
449.338	83.69
449.559	79.69
449.779	93.69
450	86.69
450.221	78.69
450.442	87.69
450.662	88.69
450.883	81.69
451.104	83.69
451.324	88.69
451.545	89.69
451.766	93.69
451.986	96.69
452.207	63.69
452.428	85.69
452.648	92.69
452.869	84.69
453.089	81.69
453.31	80.69
453.53	98.69
453.751	97.69
453.971	76.69
454.192	81.69
454.412	97.69
454.633	99.69
454.853	88.69
455.073	91.69
455.294	99.69
455.514	78.69
455.734	85.69
455.955	87.69
456.175	94.69
456.395	91.69
456.616	92.69
456.836	84.69
457.056	111.69
457.276	102.69
457.497	97.69
457.717	89.69
457.937	81.69
458.157	86.69
458.377	94.69
458.598	83.69
458.818	86.69
459.038	88.69
459.258	99.69
459.478	81.69
459.698	95.69
459.918	101.69
460.138	91.69
460.358	89.69
460.578	84.69
460.798	89.69
461.018	81.69
461.238	105.69
461.458	94.69
461.678	83.69
461.898	95.69
462.118	87.69
462.338	91.69
462.558	93.69
462.777	102.69
462.997	91.69
463.217	94.69
463.437	88.69
463.657	85.69
463.876	93.69
464.096	103.69
464.316	90.69
464.536	93.69
464.755	93.69
464.975	96.69
465.195	94.69
465.414	90.69
465.634	89.69
465.854	84.69
466.073	85.69
466.293	101.69
466.512	97.69
466.732	89.69
466.951	90.69
467.171	91.69
467.391	77.69
467.61	99.69
467.829	99.69
468.049	87.69
468.268	84.69
468.488	82.69
468.707	93.69
468.927	84.69
469.146	82.69
469.365	94.69
469.585	81.69
469.804	90.69
470.023	67.69
470.243	88.69
470.462	93.69
470.681	89.69
470.901	75.69
471.12	78.69
471.339	96.69
471.558	86.69
471.777	106.69
471.997	87.69
472.216	74.69
472.435	79.69
472.654	97.69
472.873	87.69
473.092	93.69
473.311	93.69
473.53	85.69
473.749	97.69
473.968	96.69
474.187	94.69
474.406	87.69
474.625	88.69
474.844	105.69
475.063	89.69
475.282	75.69
475.501	101.69
475.72	97.69
475.939	77.69
476.158	107.69
476.377	87.69
476.596	90.69
476.814	78.69
477.033	93.69
477.252	98.69
477.471	94.69
477.69	89.69
477.908	75.69
478.127	90.69
478.346	90.69
478.564	97.69
478.783	88.69
479.002	89.69
479.22	89.69
479.439	97.69
479.658	81.69
479.876	94.69
480.095	82.69
480.313	95.69
480.532	92.69
480.751	92.69
480.969	89.69
481.188	98.69
481.406	81.69
481.624	90.69
481.843	92.69
482.061	89.69
482.28	104.69
482.498	91.69
482.717	90.69
482.935	99.69
483.153	81.69
483.372	94.69
483.59	92.69
483.808	72.69
484.027	80.69
484.245	107.69
484.463	85.69
484.681	86.69
484.9	97.69
485.118	91.69
485.336	80.69
485.554	89.69
485.772	101.69
485.99	90.69
486.209	75.69
486.427	105.69
486.645	94.69
486.863	89.69
487.081	98.69
487.299	96.69
487.517	94.69
487.735	98.69
487.953	83.69
488.171	98.69
488.389	104.69
488.607	85.69
488.825	92.69
489.043	74.69
489.261	80.69
489.479	93.69
489.696	89.69
489.914	102.69
490.132	88.69
490.35	96.69
490.568	82.69
490.786	88.69
491.003	89.69
491.221	85.69
491.439	89.69
491.657	104.69
491.874	103.69
492.092	96.69
492.31	103.69
492.527	101.69
492.745	85.69
492.963	89.69
493.18	91.69
493.398	91.69
493.615	104.69
493.833	102.69
494.05	93.69
494.268	93.69
494.485	81.69
494.703	104.69
494.92	101.69
495.138	81.69
495.355	93.69
495.573	87.69
495.79	72.69
496.008	78.69
496.225	92.69
496.442	90.69
496.66	89.69
496.877	102.69
497.094	98.69
497.312	90.69
497.529	80.69
497.746	86.69
497.963	81.69
498.181	87.69
498.398	92.69
498.615	96.69
498.832	101.69
499.049	85.69
499.267	112.69
499.484	98.69
499.701	108.69
499.918	107.69
500.135	107.69
500.352	117.69
500.569	125.69
500.786	127.69
501.003	124.69
501.22	107.69
501.437	85.69
501.654	105.69
501.871	103.69
502.088	105.69
502.305	95.69
502.522	93.69
502.739	107.69
502.956	102.69
503.172	89.69
503.389	112.69
503.606	94.69
503.823	103.69
504.04	90.69
504.256	95.69
504.473	99.69
504.69	103.69
504.907	102.69
505.123	88.69
505.34	93.69
505.557	93.69
505.773	94.69
505.99	101.69
506.207	95.69
506.423	88.69
506.64	98.69
506.856	88.69
507.073	89.69
507.289	99.69
507.506	105.69
507.722	91.69
507.939	97.69
508.155	79.69
508.372	90.69
508.588	107.69
508.805	101.69
509.021	80.69
509.238	77.69
509.454	105.69
509.67	87.69
509.887	85.69
510.103	95.69
510.319	94.69
510.536	94.69
510.752	85.69
510.968	90.69
511.184	106.69
511.401	76.69
511.617	81.69
511.833	94.69
512.049	97.69
512.265	104.69
512.481	87.69
512.698	85.69
512.914	92.69
513.13	89.69
513.346	95.69
513.562	97.69
513.778	107.69
513.994	94.69
514.21	101.69
514.426	71.69
514.642	98.69
514.858	80.69
515.074	88.69
515.29	99.69
515.506	85.69
515.721	94.69
515.937	105.69
516.153	93.69
516.369	84.69
516.585	99.69
516.801	97.69
517.016	94.69
517.232	109.69
517.448	97.69
517.664	107.69
517.879	90.69
518.095	102.69
518.311	95.69
518.527	85.69
