Data from BG_HRD10591_043.txt Node
Date: Fri May 16 15:14:44 EDT 2025
User: Yrep
Spectrometer: HR+D1059
Trigger mode: 1
Integration Time (sec): 1.000000E-1
Scans to average: 1
Electric dark correction enabled: true
Nonlinearity correction enabled: false
Boxcar width: 0
XAxis mode: Wavelengths
Number of Pixels in Spectrum: 2048
>>>>>Begin Spectral Data<<<<<
223.165	-25.75
223.4	-25.75
223.635	-25.75
223.869	-16.75
224.104	-20.75
224.338	-9.75
224.573	-25.75
224.808	-7.75
225.042	-0.75
225.277	16.25
225.511	-9.75
225.746	-5.75
225.98	4.25
226.215	12.25
226.449	0.25
226.683	26.25
226.918	22.25
227.152	41.25
227.387	44.25
227.621	42.25
227.856	63.25
228.09	59.25
228.324	39.25
228.559	59.25
228.793	54.25
229.027	73.25
229.262	74.25
229.496	75.25
229.73	73.25
229.964	77.25
230.199	77.25
230.433	79.25
230.667	74.25
230.901	69.25
231.136	96.25
231.37	83.25
231.604	72.25
231.838	78.25
232.072	76.25
232.306	80.25
232.541	77.25
232.775	65.25
233.009	87.25
233.243	81.25
233.477	84.25
233.711	82.25
233.945	81.25
234.179	78.25
234.413	74.25
234.647	95.25
234.881	86.25
235.115	83.25
235.349	96.25
235.583	99.25
235.817	76.25
236.051	68.25
236.285	73.25
236.519	82.25
236.753	87.25
236.987	80.25
237.221	77.25
237.455	69.25
237.689	85.25
237.922	76.25
238.156	67.25
238.39	73.25
238.624	83.25
238.858	89.25
239.091	79.25
239.325	86.25
239.559	70.25
239.793	79.25
240.027	72.25
240.26	84.25
240.494	88.25
240.728	86.25
240.961	69.25
241.195	95.25
241.429	76.25
241.662	77.25
241.896	82.25
242.13	74.25
242.363	87.25
242.597	84.25
242.83	83.25
243.064	79.25
243.298	82.25
243.531	86.25
243.765	83.25
243.998	69.25
244.232	86.25
244.465	77.25
244.699	86.25
244.932	84.25
245.166	74.25
245.399	84.25
245.633	83.25
245.866	92.25
246.099	82.25
246.333	86.25
246.566	74.25
246.8	83.25
247.033	80.25
247.266	76.25
247.5	78.25
247.733	80.25
247.966	83.25
248.2	80.25
248.433	75.25
248.666	88.25
248.899	76.25
249.133	83.25
249.366	75.25
249.599	83.25
249.832	89.25
250.066	90.25
250.299	84.25
250.532	92.25
250.765	75.25
250.998	69.25
251.231	66.25
251.465	60.25
251.698	86.25
251.931	89.25
252.164	86.25
252.397	74.25
252.63	98.25
252.863	87.25
253.096	80.25
253.329	90.25
253.562	79.25
253.795	92.25
254.028	102.25
254.261	97.25
254.494	96.25
254.727	93.25
254.96	82.25
255.193	86.25
255.426	70.25
255.659	82.25
255.892	82.25
256.124	66.25
256.357	88.25
256.59	81.25
256.823	84.25
257.056	90.25
257.289	81.25
257.521	88.25
257.754	83.25
257.987	82.25
258.22	110.25
258.452	76.25
258.685	94.25
258.918	99.25
259.151	91.25
259.383	80.25
259.616	94.25
259.849	75.25
260.081	72.25
260.314	90.25
260.547	73.25
260.779	90.25
261.012	91.25
261.244	80.25
261.477	94.25
261.71	89.25
261.942	77.25
262.175	96.25
262.407	91.25
262.64	88.25
262.872	90.25
263.105	88.25
263.337	87.25
263.57	81.25
263.802	89.25
264.035	76.25
264.267	78.25
264.499	91.25
264.732	79.25
264.964	89.25
265.197	88.25
265.429	74.25
265.661	102.25
265.894	90.25
266.126	90.25
266.358	92.25
266.591	80.25
266.823	96.25
267.055	92.25
267.287	82.25
267.52	94.25
267.752	91.25
267.984	94.25
268.216	94.25
268.448	78.25
268.681	94.25
268.913	77.25
269.145	81.25
269.377	79.25
269.609	85.25
269.841	78.25
270.073	95.25
270.306	93.25
270.538	103.25
270.77	83.25
271.002	83.25
271.234	81.25
271.466	75.25
271.698	85.25
271.93	78.25
272.162	94.25
272.394	89.25
272.626	87.25
272.858	84.25
273.09	78.25
273.322	79.25
273.553	88.25
273.785	88.25
274.017	77.25
274.249	88.25
274.481	74.25
274.713	98.25
274.945	93.25
275.176	83.25
275.408	75.25
275.64	99.25
275.872	93.25
276.104	93.25
276.335	93.25
276.567	87.25
276.799	100.25
277.031	83.25
277.262	92.25
277.494	84.25
277.726	92.25
277.957	82.25
278.189	68.25
278.421	88.25
278.652	91.25
278.884	75.25
279.115	106.25
279.347	90.25
279.579	90.25
279.81	88.25
280.042	93.25
280.273	94.25
280.505	86.25
280.736	82.25
280.968	84.25
281.199	81.25
281.431	95.25
281.662	102.25
281.894	94.25
282.125	95.25
282.356	87.25
282.588	89.25
282.819	92.25
283.051	100.25
283.282	97.25
283.513	89.25
283.745	76.25
283.976	93.25
284.207	102.25
284.439	81.25
284.67	95.25
284.901	98.25
285.132	103.25
285.364	90.25
285.595	105.25
285.826	105.25
286.057	80.25
286.288	82.25
286.52	86.25
286.751	82.25
286.982	89.25
287.213	85.25
287.444	87.25
287.675	80.25
287.906	83.25
288.138	90.25
288.369	86.25
288.6	85.25
288.831	108.25
289.062	96.25
289.293	86.25
289.524	97.25
289.755	90.25
289.986	84.25
290.217	103.25
290.448	83.25
290.679	91.25
290.91	97.25
291.141	94.25
291.371	91.25
291.602	88.25
291.833	82.25
292.064	85.25
292.295	103.25
292.526	82.25
292.757	89.25
292.987	86.25
293.218	87.25
293.449	90.25
293.68	98.25
293.91	107.25
294.141	102.25
294.372	98.25
294.603	90.25
294.833	75.25
295.064	97.25
295.295	92.25
295.525	82.25
295.756	98.25
295.987	91.25
296.217	94.25
296.448	93.25
296.679	88.25
296.909	90.25
297.14	102.25
297.37	96.25
297.601	86.25
297.831	94.25
298.062	83.25
298.292	97.25
298.523	92.25
298.753	94.25
298.984	68.25
299.214	93.25
299.445	96.25
299.675	98.25
299.905	102.25
300.136	92.25
300.366	83.25
300.597	76.25
300.827	98.25
301.057	93.25
301.288	88.25
301.518	91.25
301.748	98.25
301.979	91.25
302.209	88.25
302.439	83.25
302.669	94.25
302.9	94.25
303.13	86.25
303.36	90.25
303.59	92.25
303.82	85.25
304.051	109.25
304.281	93.25
304.511	104.25
304.741	100.25
304.971	82.25
305.201	102.25
305.431	83.25
305.661	95.25
305.891	89.25
306.121	96.25
306.352	96.25
306.582	74.25
306.812	85.25
307.042	84.25
307.272	84.25
307.502	100.25
307.731	93.25
307.961	88.25
308.191	88.25
308.421	95.25
308.651	89.25
308.881	76.25
309.111	82.25
309.341	89.25
309.571	84.25
309.8	92.25
310.03	88.25
310.26	99.25
310.49	104.25
310.72	86.25
310.949	85.25
311.179	83.25
311.409	89.25
311.639	83.25
311.868	92.25
312.098	91.25
312.328	94.25
312.557	96.25
312.787	97.25
313.017	106.25
313.246	81.25
313.476	88.25
313.706	84.25
313.935	82.25
314.165	86.25
314.394	96.25
314.624	91.25
314.853	85.25
315.083	91.25
315.312	88.25
315.542	91.25
315.771	96.25
316.001	104.25
316.23	106.25
316.46	98.25
316.689	107.25
316.919	86.25
317.148	77.25
317.377	99.25
317.607	103.25
317.836	88.25
318.065	83.25
318.295	108.25
318.524	98.25
318.753	94.25
318.983	90.25
319.212	91.25
319.441	98.25
319.67	88.25
319.9	79.25
320.129	100.25
320.358	94.25
320.587	106.25
320.816	102.25
321.046	91.25
321.275	80.25
321.504	80.25
321.733	95.25
321.962	83.25
322.191	80.25
322.42	86.25
322.649	92.25
322.878	98.25
323.108	110.25
323.337	83.25
323.566	78.25
323.795	113.25
324.024	97.25
324.253	95.25
324.482	98.25
324.71	88.25
324.939	96.25
325.168	81.25
325.397	86.25
325.626	91.25
325.855	99.25
326.084	99.25
326.313	86.25
326.542	94.25
326.77	104.25
326.999	99.25
327.228	103.25
327.457	91.25
327.686	86.25
327.914	90.25
328.143	83.25
328.372	92.25
328.6	98.25
328.829	99.25
329.058	98.25
329.287	82.25
329.515	104.25
329.744	93.25
329.972	95.25
330.201	104.25
330.43	92.25
330.658	87.25
330.887	93.25
331.115	91.25
331.344	104.25
331.572	102.25
331.801	109.25
332.03	87.25
332.258	104.25
332.486	100.25
332.715	92.25
332.943	97.25
333.172	86.25
333.4	94.25
333.629	88.25
333.857	86.25
334.085	90.25
334.314	95.25
334.542	88.25
334.771	79.25
334.999	91.25
335.227	91.25
335.455	85.25
335.684	100.25
335.912	93.25
336.14	90.25
336.369	92.25
336.597	93.25
336.825	90.25
337.053	72.25
337.281	87.25
337.51	87.25
337.738	77.25
337.966	81.25
338.194	94.25
338.422	95.25
338.65	102.25
338.878	92.25
339.106	99.25
339.334	103.25
339.562	88.25
339.79	91.25
340.018	83.25
340.246	99.25
340.474	95.25
340.702	97.25
340.93	89.25
341.158	91.25
341.386	96.25
341.614	92.25
341.842	100.25
342.07	87.25
342.298	95.25
342.526	96.25
342.754	88.25
342.981	81.25
343.209	92.25
343.437	98.25
343.665	84.25
343.893	97.25
344.12	96.25
344.348	94.25
344.576	90.25
344.804	95.25
345.031	103.25
345.259	88.25
345.487	94.25
345.714	105.25
345.942	93.25
346.17	104.25
346.397	99.25
346.625	90.25
346.853	97.25
347.08	87.25
347.308	91.25
347.535	87.25
347.763	80.25
347.99	92.25
348.218	103.25
348.445	92.25
348.673	103.25
348.9	98.25
349.128	90.25
349.355	105.25
349.583	89.25
349.81	86.25
350.037	94.25
350.265	100.25
350.492	89.25
350.72	89.25
350.947	103.25
351.174	89.25
351.402	105.25
351.629	92.25
351.856	77.25
352.083	92.25
352.311	90.25
352.538	89.25
352.765	97.25
352.992	97.25
353.22	99.25
353.447	99.25
353.674	86.25
353.901	92.25
354.128	96.25
354.355	91.25
354.583	89.25
354.81	101.25
355.037	103.25
355.264	99.25
355.491	108.25
355.718	90.25
355.945	100.25
356.172	91.25
356.399	81.25
356.626	89.25
356.853	82.25
357.08	92.25
357.307	96.25
357.534	92.25
357.761	105.25
357.988	94.25
358.215	86.25
358.441	89.25
358.668	103.25
358.895	97.25
359.122	86.25
359.349	91.25
359.576	103.25
359.802	87.25
360.029	87.25
360.256	94.25
360.483	81.25
360.709	95.25
360.936	90.25
361.163	94.25
361.39	88.25
361.616	98.25
361.843	79.25
362.07	86.25
362.296	86.25
362.523	96.25
362.749	96.25
362.976	84.25
363.203	98.25
363.429	81.25
363.656	84.25
363.882	90.25
364.109	100.25
364.335	95.25
364.562	107.25
364.788	93.25
365.015	104.25
365.241	89.25
365.468	98.25
365.694	85.25
365.92	94.25
366.147	86.25
366.373	88.25
366.599	88.25
366.826	95.25
367.052	91.25
367.278	91.25
367.505	95.25
367.731	105.25
367.957	95.25
368.184	98.25
368.41	78.25
368.636	102.25
368.862	94.25
369.089	79.25
369.315	85.25
369.541	82.25
369.767	86.25
369.993	89.25
370.219	79.25
370.445	97.25
370.672	104.25
370.898	83.25
371.124	96.25
371.35	88.25
371.576	87.25
371.802	94.25
372.028	97.25
372.254	80.25
372.48	94.25
372.706	87.25
372.932	94.25
373.158	99.25
373.384	98.25
373.61	86.25
373.835	97.25
374.061	84.25
374.287	98.25
374.513	79.25
374.739	92.25
374.965	99.25
375.191	96.25
375.416	89.25
375.642	93.25
375.868	94.25
376.094	78.25
376.319	95.25
376.545	77.25
376.771	82.25
376.997	93.25
377.222	91.25
377.448	95.25
377.674	94.25
377.899	101.25
378.125	82.25
378.35	90.25
378.576	84.25
378.802	90.25
379.027	95.25
379.253	87.25
379.478	108.25
379.704	93.25
379.929	112.25
380.155	90.25
380.38	83.25
380.606	70.25
380.831	96.25
381.057	96.25
381.282	110.25
381.507	89.25
381.733	105.25
381.958	90.25
382.184	89.25
382.409	82.25
382.634	85.25
382.86	99.25
383.085	106.25
383.31	92.25
383.535	95.25
383.761	98.25
383.986	95.25
384.211	90.25
384.436	84.25
384.662	81.25
384.887	86.25
385.112	97.25
385.337	84.25
385.562	83.25
385.787	89.25
386.013	109.25
386.238	89.25
386.463	95.25
386.688	97.25
386.913	107.25
387.138	84.25
387.363	79.25
387.588	91.25
387.813	74.25
388.038	92.25
388.263	86.25
388.488	82.25
388.713	90.25
388.938	92.25
389.163	82.25
389.387	104.25
389.612	88.25
389.837	86.25
390.062	84.25
390.287	85.25
390.512	94.25
390.736	79.25
390.961	83.25
391.186	87.25
391.411	88.25
391.636	110.25
391.86	84.25
392.085	90.25
392.31	95.25
392.534	74.25
392.759	99.25
392.984	83.25
393.208	98.25
393.433	88.25
393.658	92.25
393.882	91.25
394.107	85.25
394.331	77.25
394.556	89.25
394.78	89.25
395.005	83.25
395.229	96.25
395.454	91.25
395.678	96.25
395.903	90.25
396.127	95.25
396.352	90.25
396.576	75.25
396.801	107.25
397.025	88.25
397.249	88.25
397.474	95.25
397.698	80.25
397.922	98.25
398.147	74.25
398.371	89.25
398.595	98.25
398.82	95.25
399.044	95.25
399.268	99.25
399.492	116.25
399.717	118.25
399.941	88.25
400.165	90.25
400.389	90.25
400.613	88.25
400.837	91.25
401.062	74.25
401.286	95.25
401.51	88.25
401.734	91.25
401.958	86.25
402.182	88.25
402.406	94.25
402.63	98.25
402.854	96.25
403.078	87.25
403.302	84.25
403.526	85.25
403.75	97.25
403.974	97.25
404.198	95.25
404.422	100.25
404.645	87.25
404.869	99.25
405.093	87.25
405.317	100.25
405.541	104.25
405.765	97.25
405.988	85.25
406.212	98.25
406.436	93.25
406.66	98.25
406.883	99.25
407.107	84.25
407.331	87.25
407.555	90.25
407.778	102.25
408.002	88.25
408.226	95.25
408.449	83.25
408.673	99.25
408.896	89.25
409.12	103.25
409.344	95.25
409.567	87.25
409.791	89.25
410.014	89.25
410.238	95.25
410.461	89.25
410.685	91.25
410.908	83.25
411.132	90.25
411.355	98.25
411.578	98.25
411.802	86.25
412.025	83.25
412.249	93.25
412.472	95.25
412.695	99.25
412.919	94.25
413.142	87.25
413.365	88.25
413.589	98.25
413.812	92.25
414.035	93.25
414.258	90.25
414.482	104.25
414.705	96.25
414.928	92.25
415.151	94.25
415.374	97.25
415.597	90.25
415.821	94.25
416.044	100.25
416.267	98.25
416.49	88.25
416.713	88.25
416.936	85.25
417.159	97.25
417.382	98.25
417.605	84.25
417.828	98.25
418.051	99.25
418.274	92.25
418.497	86.25
418.72	100.25
418.943	106.25
419.166	95.25
419.389	85.25
419.611	95.25
419.834	98.25
420.057	98.25
420.28	93.25
420.503	90.25
420.726	90.25
420.948	79.25
421.171	90.25
421.394	92.25
421.617	92.25
421.839	92.25
422.062	96.25
422.285	102.25
422.507	86.25
422.73	94.25
422.953	91.25
423.175	86.25
423.398	86.25
423.621	88.25
423.843	95.25
424.066	90.25
424.288	99.25
424.511	104.25
424.733	110.25
424.956	88.25
425.178	100.25
425.401	101.25
425.623	90.25
425.846	94.25
426.068	97.25
426.291	72.25
426.513	100.25
426.735	84.25
426.958	83.25
427.18	106.25
427.402	96.25
427.625	89.25
427.847	82.25
428.069	108.25
428.292	86.25
428.514	82.25
428.736	88.25
428.958	86.25
429.181	89.25
429.403	97.25
429.625	77.25
429.847	87.25
430.069	82.25
430.292	102.25
430.514	80.25
430.736	88.25
430.958	74.25
431.18	98.25
431.402	84.25
431.624	91.25
431.846	81.25
432.068	84.25
432.29	95.25
432.512	92.25
432.734	98.25
432.956	97.25
433.178	107.25
433.4	94.25
433.622	93.25
433.844	89.25
434.066	93.25
434.287	89.25
434.509	84.25
434.731	80.25
434.953	90.25
435.175	88.25
435.397	94.25
435.618	88.25
435.84	90.25
436.062	83.25
436.284	90.25
436.505	90.25
436.727	87.25
436.949	83.25
437.17	87.25
437.392	79.25
437.614	77.25
437.835	100.25
438.057	86.25
438.278	84.25
438.5	98.25
438.721	93.25
438.943	101.25
439.165	85.25
439.386	95.25
439.608	96.25
439.829	81.25
440.05	92.25
440.272	86.25
440.493	87.25
440.715	87.25
440.936	106.25
441.158	92.25
441.379	91.25
441.6	80.25
441.822	97.25
442.043	82.25
442.264	88.25
442.486	104.25
442.707	93.25
442.928	95.25
443.149	88.25
443.371	99.25
443.592	81.25
443.813	95.25
444.034	94.25
444.255	91.25
444.476	90.25
444.698	81.25
444.919	94.25
445.14	175.25
445.361	144.25
445.582	91.25
445.803	95.25
446.024	92.25
446.245	97.25
446.466	83.25
446.687	88.25
446.908	101.25
447.129	92.25
447.35	92.25
447.571	87.25
447.792	84.25
448.013	89.25
448.234	87.25
448.455	82.25
448.675	90.25
448.896	96.25
449.117	98.25
449.338	91.25
449.559	86.25
449.779	81.25
450	79.25
450.221	99.25
450.442	93.25
450.662	95.25
450.883	93.25
451.104	98.25
451.324	89.25
451.545	79.25
451.766	76.25
451.986	82.25
452.207	83.25
452.428	86.25
452.648	94.25
452.869	79.25
453.089	80.25
453.31	100.25
453.53	82.25
453.751	84.25
453.971	100.25
454.192	103.25
454.412	98.25
454.633	88.25
454.853	90.25
455.073	93.25
455.294	95.25
455.514	87.25
455.734	86.25
455.955	94.25
456.175	85.25
456.395	91.25
456.616	95.25
456.836	96.25
457.056	84.25
457.276	74.25
457.497	87.25
457.717	86.25
457.937	91.25
458.157	87.25
458.377	86.25
458.598	89.25
458.818	87.25
459.038	91.25
459.258	86.25
459.478	86.25
459.698	109.25
459.918	93.25
460.138	79.25
460.358	92.25
460.578	90.25
460.798	95.25
461.018	100.25
461.238	87.25
461.458	86.25
461.678	75.25
461.898	90.25
462.118	86.25
462.338	104.25
462.558	107.25
462.777	90.25
462.997	101.25
463.217	94.25
463.437	88.25
463.657	81.25
463.876	94.25
464.096	88.25
464.316	85.25
464.536	92.25
464.755	99.25
464.975	89.25
465.195	111.25
465.414	96.25
465.634	88.25
465.854	91.25
466.073	86.25
466.293	90.25
466.512	89.25
466.732	82.25
466.951	91.25
467.171	99.25
467.391	80.25
467.61	79.25
467.829	74.25
468.049	92.25
468.268	90.25
468.488	93.25
468.707	88.25
468.927	87.25
469.146	95.25
469.365	83.25
469.585	87.25
469.804	92.25
470.023	89.25
470.243	114.25
470.462	94.25
470.681	96.25
470.901	86.25
471.12	102.25
471.339	97.25
471.558	95.25
471.777	87.25
471.997	103.25
472.216	98.25
472.435	93.25
472.654	86.25
472.873	95.25
473.092	83.25
473.311	96.25
473.53	94.25
473.749	102.25
473.968	84.25
474.187	83.25
474.406	95.25
474.625	93.25
474.844	90.25
475.063	99.25
475.282	93.25
475.501	102.25
475.72	108.25
475.939	96.25
476.158	94.25
476.377	92.25
476.596	94.25
476.814	76.25
477.033	92.25
477.252	86.25
477.471	102.25
477.69	113.25
477.908	86.25
478.127	96.25
478.346	81.25
478.564	89.25
478.783	75.25
479.002	81.25
479.22	83.25
479.439	100.25
479.658	94.25
479.876	94.25
480.095	96.25
480.313	98.25
480.532	80.25
480.751	84.25
480.969	85.25
481.188	88.25
481.406	100.25
481.624	87.25
481.843	88.25
482.061	79.25
482.28	102.25
482.498	94.25
482.717	87.25
482.935	93.25
483.153	89.25
483.372	90.25
483.59	97.25
483.808	92.25
484.027	88.25
484.245	87.25
484.463	97.25
484.681	79.25
484.9	92.25
485.118	107.25
485.336	91.25
485.554	88.25
485.772	86.25
485.99	87.25
486.209	88.25
486.427	80.25
486.645	91.25
486.863	86.25
487.081	93.25
487.299	97.25
487.517	111.25
487.735	104.25
487.953	81.25
488.171	93.25
488.389	82.25
488.607	81.25
488.825	88.25
489.043	78.25
489.261	93.25
489.479	95.25
489.696	83.25
489.914	100.25
490.132	97.25
490.35	92.25
490.568	86.25
490.786	88.25
491.003	96.25
491.221	86.25
491.439	94.25
491.657	90.25
491.874	107.25
492.092	71.25
492.31	103.25
492.527	103.25
492.745	95.25
492.963	94.25
493.18	98.25
493.398	102.25
493.615	95.25
493.833	90.25
494.05	106.25
494.268	81.25
494.485	88.25
494.703	93.25
494.92	100.25
495.138	102.25
495.355	91.25
495.573	94.25
495.79	100.25
496.008	96.25
496.225	86.25
496.442	94.25
496.66	103.25
496.877	86.25
497.094	95.25
497.312	95.25
497.529	96.25
497.746	82.25
497.963	88.25
498.181	95.25
498.398	107.25
498.615	97.25
498.832	95.25
499.049	97.25
499.267	99.25
499.484	107.25
499.701	100.25
499.918	110.25
500.135	131.25
500.352	116.25
500.569	137.25
500.786	114.25
501.003	112.25
501.22	106.25
501.437	104.25
501.654	110.25
501.871	104.25
502.088	102.25
502.305	98.25
502.522	93.25
502.739	105.25
502.956	99.25
503.172	96.25
503.389	94.25
503.606	89.25
503.823	76.25
504.04	92.25
504.256	94.25
504.473	95.25
504.69	98.25
504.907	90.25
505.123	96.25
505.34	110.25
505.557	97.25
505.773	106.25
505.99	98.25
506.207	89.25
506.423	88.25
506.64	92.25
506.856	93.25
507.073	94.25
507.289	90.25
507.506	104.25
507.722	90.25
507.939	98.25
508.155	91.25
508.372	94.25
508.588	87.25
508.805	99.25
509.021	98.25
509.238	98.25
509.454	89.25
509.67	91.25
509.887	84.25
510.103	95.25
510.319	94.25
510.536	110.25
510.752	86.25
510.968	83.25
511.184	90.25
511.401	89.25
511.617	86.25
511.833	87.25
512.049	90.25
512.265	107.25
512.481	97.25
512.698	102.25
512.914	104.25
513.13	96.25
513.346	110.25
513.562	95.25
513.778	83.25
513.994	90.25
514.21	91.25
514.426	92.25
514.642	103.25
514.858	102.25
515.074	99.25
515.29	106.25
515.506	88.25
515.721	96.25
515.937	109.25
516.153	85.25
516.369	97.25
516.585	102.25
516.801	96.25
517.016	96.25
517.232	86.25
517.448	98.25
517.664	84.25
517.879	92.25
