Data from BG_HRD10591_060.txt Node
Date: Fri May 16 15:14:52 EDT 2025
User: Yrep
Spectrometer: HR+D1059
Trigger mode: 1
Integration Time (sec): 1.000000E-1
Scans to average: 1
Electric dark correction enabled: true
Nonlinearity correction enabled: false
Boxcar width: 0
XAxis mode: Wavelengths
Number of Pixels in Spectrum: 2048
>>>>>Begin Spectral Data<<<<<
223.165	-6.94
223.4	-6.94
223.635	-6.94
223.869	-33.94
224.104	-23.94
224.338	-19.94
224.573	-22.94
224.808	-17.94
225.042	-16.94
225.277	-5.94
225.511	-7.94
225.746	9.06
225.98	5.06
226.215	17.06
226.449	19.06
226.683	30.06
226.918	45.06
227.152	31.06
227.387	42.06
227.621	30.06
227.856	34.06
228.09	52.06
228.324	55.06
228.559	77.06
228.793	65.06
229.027	62.06
229.262	69.06
229.496	67.06
229.73	70.06
229.964	81.06
230.199	68.06
230.433	76.06
230.667	72.06
230.901	77.06
231.136	83.06
231.37	77.06
231.604	66.06
231.838	80.06
232.072	78.06
232.306	76.06
232.541	90.06
232.775	67.06
233.009	76.06
233.243	73.06
233.477	83.06
233.711	89.06
233.945	77.06
234.179	84.06
234.413	86.06
234.647	75.06
234.881	80.06
235.115	90.06
235.349	81.06
235.583	71.06
235.817	65.06
236.051	78.06
236.285	62.06
236.519	69.06
236.753	88.06
236.987	88.06
237.221	78.06
237.455	77.06
237.689	78.06
237.922	73.06
238.156	81.06
238.39	72.06
238.624	65.06
238.858	64.06
239.091	70.06
239.325	68.06
239.559	73.06
239.793	78.06
240.027	84.06
240.26	80.06
240.494	81.06
240.728	79.06
240.961	74.06
241.195	78.06
241.429	73.06
241.662	77.06
241.896	76.06
242.13	91.06
242.363	74.06
242.597	87.06
242.83	73.06
243.064	69.06
243.298	79.06
243.531	75.06
243.765	60.06
243.998	72.06
244.232	73.06
244.465	78.06
244.699	91.06
244.932	87.06
245.166	84.06
245.399	77.06
245.633	73.06
245.866	84.06
246.099	78.06
246.333	91.06
246.566	86.06
246.8	60.06
247.033	70.06
247.266	72.06
247.5	86.06
247.733	73.06
247.966	70.06
248.2	75.06
248.433	66.06
248.666	86.06
248.899	81.06
249.133	81.06
249.366	96.06
249.599	66.06
249.832	75.06
250.066	76.06
250.299	82.06
250.532	79.06
250.765	64.06
250.998	81.06
251.231	80.06
251.465	76.06
251.698	80.06
251.931	82.06
252.164	95.06
252.397	64.06
252.63	72.06
252.863	78.06
253.096	84.06
253.329	72.06
253.562	76.06
253.795	71.06
254.028	66.06
254.261	82.06
254.494	77.06
254.727	95.06
254.96	95.06
255.193	89.06
255.426	80.06
255.659	81.06
255.892	82.06
256.124	94.06
256.357	77.06
256.59	79.06
256.823	76.06
257.056	82.06
257.289	82.06
257.521	72.06
257.754	85.06
257.987	94.06
258.22	84.06
258.452	86.06
258.685	77.06
258.918	83.06
259.151	71.06
259.383	97.06
259.616	72.06
259.849	78.06
260.081	95.06
260.314	90.06
260.547	81.06
260.779	74.06
261.012	70.06
261.244	75.06
261.477	97.06
261.71	75.06
261.942	81.06
262.175	72.06
262.407	93.06
262.64	80.06
262.872	76.06
263.105	86.06
263.337	65.06
263.57	80.06
263.802	94.06
264.035	83.06
264.267	79.06
264.499	80.06
264.732	94.06
264.964	84.06
265.197	74.06
265.429	72.06
265.661	94.06
265.894	92.06
266.126	91.06
266.358	95.06
266.591	94.06
266.823	79.06
267.055	82.06
267.287	72.06
267.52	83.06
267.752	88.06
267.984	91.06
268.216	86.06
268.448	90.06
268.681	79.06
268.913	84.06
269.145	72.06
269.377	89.06
269.609	81.06
269.841	92.06
270.073	93.06
270.306	83.06
270.538	79.06
270.77	76.06
271.002	72.06
271.234	93.06
271.466	89.06
271.698	81.06
271.93	88.06
272.162	90.06
272.394	93.06
272.626	79.06
272.858	79.06
273.09	82.06
273.322	79.06
273.553	86.06
273.785	77.06
274.017	84.06
274.249	81.06
274.481	82.06
274.713	80.06
274.945	79.06
275.176	76.06
275.408	92.06
275.64	89.06
275.872	92.06
276.104	88.06
276.335	102.06
276.567	76.06
276.799	85.06
277.031	84.06
277.262	79.06
277.494	90.06
277.726	84.06
277.957	81.06
278.189	70.06
278.421	103.06
278.652	83.06
278.884	81.06
279.115	78.06
279.347	77.06
279.579	94.06
279.81	88.06
280.042	76.06
280.273	88.06
280.505	91.06
280.736	89.06
280.968	93.06
281.199	94.06
281.431	84.06
281.662	89.06
281.894	91.06
282.125	82.06
282.356	79.06
282.588	89.06
282.819	71.06
283.051	75.06
283.282	82.06
283.513	92.06
283.745	78.06
283.976	89.06
284.207	97.06
284.439	88.06
284.67	114.06
284.901	79.06
285.132	85.06
285.364	96.06
285.595	80.06
285.826	90.06
286.057	96.06
286.288	93.06
286.52	79.06
286.751	77.06
286.982	85.06
287.213	85.06
287.444	98.06
287.675	84.06
287.906	90.06
288.138	98.06
288.369	93.06
288.6	92.06
288.831	85.06
289.062	82.06
289.293	89.06
289.524	76.06
289.755	76.06
289.986	82.06
290.217	86.06
290.448	81.06
290.679	92.06
290.91	89.06
291.141	78.06
291.371	104.06
291.602	85.06
291.833	88.06
292.064	92.06
292.295	74.06
292.526	78.06
292.757	80.06
292.987	103.06
293.218	89.06
293.449	87.06
293.68	80.06
293.91	86.06
294.141	80.06
294.372	89.06
294.603	82.06
294.833	89.06
295.064	98.06
295.295	103.06
295.525	79.06
295.756	83.06
295.987	83.06
296.217	86.06
296.448	99.06
296.679	73.06
296.909	89.06
297.14	83.06
297.37	93.06
297.601	71.06
297.831	86.06
298.062	93.06
298.292	92.06
298.523	92.06
298.753	93.06
298.984	86.06
299.214	94.06
299.445	104.06
299.675	85.06
299.905	90.06
300.136	84.06
300.366	78.06
300.597	86.06
300.827	89.06
301.057	82.06
301.288	94.06
301.518	92.06
301.748	90.06
301.979	106.06
302.209	73.06
302.439	85.06
302.669	85.06
302.9	87.06
303.13	92.06
303.36	86.06
303.59	103.06
303.82	84.06
304.051	93.06
304.281	88.06
304.511	82.06
304.741	88.06
304.971	89.06
305.201	83.06
305.431	96.06
305.661	87.06
305.891	81.06
306.121	88.06
306.352	93.06
306.582	75.06
306.812	84.06
307.042	86.06
307.272	84.06
307.502	101.06
307.731	81.06
307.961	78.06
308.191	92.06
308.421	109.06
308.651	98.06
308.881	90.06
309.111	98.06
309.341	90.06
309.571	105.06
309.8	94.06
310.03	67.06
310.26	85.06
310.49	80.06
310.72	87.06
310.949	93.06
311.179	100.06
311.409	78.06
311.639	78.06
311.868	91.06
312.098	95.06
312.328	96.06
312.557	101.06
312.787	87.06
313.017	101.06
313.246	93.06
313.476	94.06
313.706	96.06
313.935	79.06
314.165	63.06
314.394	86.06
314.624	94.06
314.853	82.06
315.083	96.06
315.312	97.06
315.542	91.06
315.771	87.06
316.001	94.06
316.23	95.06
316.46	92.06
316.689	83.06
316.919	92.06
317.148	80.06
317.377	97.06
317.607	102.06
317.836	91.06
318.065	86.06
318.295	94.06
318.524	83.06
318.753	98.06
318.983	94.06
319.212	89.06
319.441	87.06
319.67	89.06
319.9	95.06
320.129	73.06
320.358	101.06
320.587	79.06
320.816	84.06
321.046	83.06
321.275	100.06
321.504	89.06
321.733	86.06
321.962	84.06
322.191	81.06
322.42	88.06
322.649	90.06
322.878	87.06
323.108	82.06
323.337	84.06
323.566	98.06
323.795	80.06
324.024	96.06
324.253	86.06
324.482	89.06
324.71	94.06
324.939	101.06
325.168	100.06
325.397	84.06
325.626	94.06
325.855	89.06
326.084	80.06
326.313	81.06
326.542	90.06
326.77	88.06
326.999	93.06
327.228	75.06
327.457	95.06
327.686	90.06
327.914	97.06
328.143	83.06
328.372	78.06
328.6	81.06
328.829	82.06
329.058	73.06
329.287	95.06
329.515	102.06
329.744	90.06
329.972	91.06
330.201	90.06
330.43	93.06
330.658	89.06
330.887	84.06
331.115	77.06
331.344	88.06
331.572	84.06
331.801	96.06
332.03	91.06
332.258	84.06
332.486	90.06
332.715	88.06
332.943	76.06
333.172	96.06
333.4	89.06
333.629	93.06
333.857	96.06
334.085	91.06
334.314	89.06
334.542	85.06
334.771	93.06
334.999	71.06
335.227	83.06
335.455	78.06
335.684	91.06
335.912	95.06
336.14	83.06
336.369	87.06
336.597	90.06
336.825	93.06
337.053	89.06
337.281	84.06
337.51	84.06
337.738	100.06
337.966	84.06
338.194	97.06
338.422	87.06
338.65	85.06
338.878	87.06
339.106	86.06
339.334	78.06
339.562	92.06
339.79	89.06
340.018	81.06
340.246	95.06
340.474	95.06
340.702	84.06
340.93	80.06
341.158	79.06
341.386	87.06
341.614	95.06
341.842	91.06
342.07	92.06
342.298	89.06
342.526	78.06
342.754	98.06
342.981	81.06
343.209	111.06
343.437	105.06
343.665	91.06
343.893	85.06
344.12	86.06
344.348	96.06
344.576	88.06
344.804	95.06
345.031	85.06
345.259	102.06
345.487	78.06
345.714	72.06
345.942	86.06
346.17	79.06
346.397	87.06
346.625	82.06
346.853	93.06
347.08	76.06
347.308	75.06
347.535	85.06
347.763	88.06
347.99	82.06
348.218	83.06
348.445	80.06
348.673	100.06
348.9	90.06
349.128	72.06
349.355	80.06
349.583	89.06
349.81	92.06
350.037	84.06
350.265	79.06
350.492	91.06
350.72	95.06
350.947	91.06
351.174	89.06
351.402	86.06
351.629	81.06
351.856	90.06
352.083	85.06
352.311	97.06
352.538	97.06
352.765	86.06
352.992	81.06
353.22	94.06
353.447	96.06
353.674	92.06
353.901	103.06
354.128	91.06
354.355	74.06
354.583	98.06
354.81	100.06
355.037	86.06
355.264	94.06
355.491	100.06
355.718	94.06
355.945	100.06
356.172	84.06
356.399	91.06
356.626	94.06
356.853	78.06
357.08	93.06
357.307	95.06
357.534	83.06
357.761	100.06
357.988	89.06
358.215	93.06
358.441	88.06
358.668	86.06
358.895	79.06
359.122	104.06
359.349	88.06
359.576	94.06
359.802	76.06
360.029	101.06
360.256	87.06
360.483	88.06
360.709	84.06
360.936	102.06
361.163	94.06
361.39	86.06
361.616	91.06
361.843	96.06
362.07	97.06
362.296	71.06
362.523	76.06
362.749	88.06
362.976	90.06
363.203	92.06
363.429	96.06
363.656	94.06
363.882	85.06
364.109	102.06
364.335	89.06
364.562	96.06
364.788	88.06
365.015	98.06
365.241	100.06
365.468	85.06
365.694	88.06
365.92	82.06
366.147	80.06
366.373	85.06
366.599	99.06
366.826	102.06
367.052	95.06
367.278	105.06
367.505	80.06
367.731	93.06
367.957	84.06
368.184	96.06
368.41	74.06
368.636	90.06
368.862	100.06
369.089	92.06
369.315	80.06
369.541	99.06
369.767	77.06
369.993	85.06
370.219	83.06
370.445	87.06
370.672	84.06
370.898	74.06
371.124	74.06
371.35	105.06
371.576	89.06
371.802	85.06
372.028	88.06
372.254	96.06
372.48	86.06
372.706	80.06
372.932	96.06
373.158	89.06
373.384	85.06
373.61	89.06
373.835	94.06
374.061	91.06
374.287	96.06
374.513	89.06
374.739	85.06
374.965	89.06
375.191	89.06
375.416	90.06
375.642	92.06
375.868	87.06
376.094	79.06
376.319	81.06
376.545	95.06
376.771	85.06
376.997	89.06
377.222	82.06
377.448	85.06
377.674	88.06
377.899	92.06
378.125	86.06
378.35	90.06
378.576	82.06
378.802	89.06
379.027	78.06
379.253	87.06
379.478	95.06
379.704	89.06
379.929	94.06
380.155	78.06
380.38	81.06
380.606	86.06
380.831	85.06
381.057	86.06
381.282	81.06
381.507	85.06
381.733	102.06
381.958	93.06
382.184	91.06
382.409	77.06
382.634	93.06
382.86	82.06
383.085	82.06
383.31	85.06
383.535	81.06
383.761	93.06
383.986	82.06
384.211	85.06
384.436	90.06
384.662	91.06
384.887	90.06
385.112	79.06
385.337	89.06
385.562	93.06
385.787	96.06
386.013	95.06
386.238	93.06
386.463	79.06
386.688	91.06
386.913	89.06
387.138	96.06
387.363	79.06
387.588	98.06
387.813	93.06
388.038	88.06
388.263	85.06
388.488	104.06
388.713	101.06
388.938	75.06
389.163	86.06
389.387	81.06
389.612	78.06
389.837	100.06
390.062	88.06
390.287	94.06
390.512	88.06
390.736	91.06
390.961	63.06
391.186	84.06
391.411	94.06
391.636	79.06
391.86	88.06
392.085	88.06
392.31	88.06
392.534	88.06
392.759	114.06
392.984	100.06
393.208	96.06
393.433	87.06
393.658	89.06
393.882	84.06
394.107	96.06
394.331	81.06
394.556	83.06
394.78	96.06
395.005	82.06
395.229	92.06
395.454	87.06
395.678	84.06
395.903	86.06
396.127	106.06
396.352	77.06
396.576	107.06
396.801	80.06
397.025	79.06
397.249	80.06
397.474	103.06
397.698	82.06
397.922	86.06
398.147	93.06
398.371	94.06
398.595	93.06
398.82	76.06
399.044	100.06
399.268	96.06
399.492	88.06
399.717	104.06
399.941	96.06
400.165	97.06
400.389	82.06
400.613	70.06
400.837	87.06
401.062	99.06
401.286	97.06
401.51	88.06
401.734	91.06
401.958	81.06
402.182	77.06
402.406	105.06
402.63	88.06
402.854	93.06
403.078	88.06
403.302	93.06
403.526	88.06
403.75	87.06
403.974	104.06
404.198	90.06
404.422	94.06
404.645	92.06
404.869	96.06
405.093	93.06
405.317	84.06
405.541	108.06
405.765	90.06
405.988	100.06
406.212	88.06
406.436	101.06
406.66	87.06
406.883	93.06
407.107	93.06
407.331	90.06
407.555	78.06
407.778	93.06
408.002	101.06
408.226	91.06
408.449	96.06
408.673	92.06
408.896	100.06
409.12	92.06
409.344	96.06
409.567	80.06
409.791	97.06
410.014	83.06
410.238	86.06
410.461	92.06
410.685	96.06
410.908	83.06
411.132	108.06
411.355	96.06
411.578	90.06
411.802	90.06
412.025	101.06
412.249	83.06
412.472	88.06
412.695	93.06
412.919	88.06
413.142	76.06
413.365	89.06
413.589	107.06
413.812	85.06
414.035	93.06
414.258	79.06
414.482	104.06
414.705	100.06
414.928	101.06
415.151	81.06
415.374	86.06
415.597	95.06
415.821	92.06
416.044	90.06
416.267	85.06
416.49	91.06
416.713	91.06
416.936	84.06
417.159	90.06
417.382	79.06
417.605	99.06
417.828	94.06
418.051	80.06
418.274	87.06
418.497	106.06
418.72	90.06
418.943	96.06
419.166	101.06
419.389	90.06
419.611	85.06
419.834	87.06
420.057	74.06
420.28	86.06
420.503	89.06
420.726	64.06
420.948	84.06
421.171	90.06
421.394	94.06
421.617	84.06
421.839	97.06
422.062	97.06
422.285	94.06
422.507	89.06
422.73	86.06
422.953	91.06
423.175	82.06
423.398	91.06
423.621	91.06
423.843	101.06
424.066	106.06
424.288	97.06
424.511	100.06
424.733	92.06
424.956	86.06
425.178	89.06
425.401	86.06
425.623	92.06
425.846	105.06
426.068	102.06
426.291	88.06
426.513	100.06
426.735	84.06
426.958	74.06
427.18	82.06
427.402	92.06
427.625	102.06
427.847	100.06
428.069	88.06
428.292	89.06
428.514	92.06
428.736	93.06
428.958	91.06
429.181	79.06
429.403	76.06
429.625	90.06
429.847	93.06
430.069	78.06
430.292	90.06
430.514	81.06
430.736	95.06
430.958	88.06
431.18	100.06
431.402	101.06
431.624	96.06
431.846	96.06
432.068	105.06
432.29	94.06
432.512	100.06
432.734	98.06
432.956	102.06
433.178	93.06
433.4	90.06
433.622	101.06
433.844	83.06
434.066	70.06
434.287	94.06
434.509	91.06
434.731	100.06
434.953	84.06
435.175	95.06
435.397	92.06
435.618	83.06
435.84	78.06
436.062	82.06
436.284	90.06
436.505	89.06
436.727	78.06
436.949	82.06
437.17	81.06
437.392	88.06
437.614	84.06
437.835	83.06
438.057	89.06
438.278	93.06
438.5	81.06
438.721	86.06
438.943	84.06
439.165	91.06
439.386	96.06
439.608	88.06
439.829	84.06
440.05	84.06
440.272	83.06
440.493	94.06
440.715	88.06
440.936	94.06
441.158	96.06
441.379	87.06
441.6	91.06
441.822	98.06
442.043	90.06
442.264	90.06
442.486	99.06
442.707	79.06
442.928	81.06
443.149	91.06
443.371	80.06
443.592	94.06
443.813	89.06
444.034	87.06
444.255	97.06
444.476	88.06
444.698	94.06
444.919	78.06
445.14	181.06
445.361	148.06
445.582	106.06
445.803	91.06
446.024	96.06
446.245	86.06
446.466	74.06
446.687	92.06
446.908	95.06
447.129	101.06
447.35	86.06
447.571	79.06
447.792	89.06
448.013	88.06
448.234	87.06
448.455	109.06
448.675	102.06
448.896	86.06
449.117	90.06
449.338	90.06
449.559	95.06
449.779	104.06
450	74.06
450.221	80.06
450.442	94.06
450.662	82.06
450.883	85.06
451.104	104.06
451.324	92.06
451.545	74.06
451.766	72.06
451.986	77.06
452.207	88.06
452.428	95.06
452.648	102.06
452.869	90.06
453.089	104.06
453.31	89.06
453.53	78.06
453.751	78.06
453.971	106.06
454.192	75.06
454.412	94.06
454.633	97.06
454.853	88.06
455.073	78.06
455.294	86.06
455.514	76.06
455.734	100.06
455.955	101.06
456.175	88.06
456.395	91.06
456.616	92.06
456.836	90.06
457.056	93.06
457.276	75.06
457.497	88.06
457.717	92.06
457.937	84.06
458.157	75.06
458.377	63.06
458.598	93.06
458.818	84.06
459.038	84.06
459.258	92.06
459.478	76.06
459.698	95.06
459.918	84.06
460.138	91.06
460.358	90.06
460.578	92.06
460.798	85.06
461.018	103.06
461.238	97.06
461.458	105.06
461.678	103.06
461.898	98.06
462.118	73.06
462.338	85.06
462.558	85.06
462.777	97.06
462.997	90.06
463.217	94.06
463.437	91.06
463.657	90.06
463.876	103.06
464.096	111.06
464.316	81.06
464.536	106.06
464.755	95.06
464.975	78.06
465.195	90.06
465.414	97.06
465.634	78.06
465.854	89.06
466.073	95.06
466.293	98.06
466.512	95.06
466.732	87.06
466.951	84.06
467.171	94.06
467.391	84.06
467.61	100.06
467.829	80.06
468.049	86.06
468.268	86.06
468.488	103.06
468.707	90.06
468.927	97.06
469.146	103.06
469.365	102.06
469.585	88.06
469.804	100.06
470.023	100.06
470.243	91.06
470.462	90.06
470.681	88.06
470.901	94.06
471.12	78.06
471.339	78.06
471.558	91.06
471.777	98.06
471.997	78.06
472.216	85.06
472.435	93.06
472.654	76.06
472.873	77.06
473.092	91.06
473.311	93.06
473.53	86.06
473.749	98.06
473.968	93.06
474.187	86.06
474.406	89.06
474.625	79.06
474.844	81.06
475.063	81.06
475.282	78.06
475.501	85.06
475.72	96.06
475.939	93.06
476.158	94.06
476.377	91.06
476.596	93.06
476.814	88.06
477.033	101.06
477.252	86.06
477.471	86.06
477.69	102.06
477.908	82.06
478.127	95.06
478.346	84.06
478.564	96.06
478.783	104.06
479.002	96.06
479.22	79.06
479.439	101.06
479.658	93.06
479.876	98.06
480.095	81.06
480.313	95.06
480.532	102.06
480.751	84.06
480.969	104.06
481.188	93.06
481.406	87.06
481.624	98.06
481.843	87.06
482.061	89.06
482.28	103.06
482.498	100.06
482.717	84.06
482.935	93.06
483.153	87.06
483.372	97.06
483.59	95.06
483.808	94.06
484.027	94.06
484.245	93.06
484.463	85.06
484.681	88.06
484.9	88.06
485.118	96.06
485.336	100.06
485.554	102.06
485.772	85.06
485.99	86.06
486.209	89.06
486.427	81.06
486.645	92.06
486.863	100.06
487.081	101.06
487.299	91.06
487.517	95.06
487.735	96.06
487.953	93.06
488.171	93.06
488.389	87.06
488.607	90.06
488.825	103.06
489.043	102.06
489.261	89.06
489.479	90.06
489.696	90.06
489.914	89.06
490.132	80.06
490.35	92.06
490.568	89.06
490.786	78.06
491.003	91.06
491.221	78.06
491.439	111.06
491.657	91.06
491.874	94.06
492.092	81.06
492.31	86.06
492.527	79.06
492.745	93.06
492.963	91.06
493.18	87.06
493.398	96.06
493.615	89.06
493.833	104.06
494.05	72.06
494.268	86.06
494.485	96.06
494.703	88.06
494.92	95.06
495.138	97.06
495.355	98.06
495.573	103.06
495.79	97.06
496.008	89.06
496.225	90.06
496.442	92.06
496.66	100.06
496.877	85.06
497.094	102.06
497.312	100.06
497.529	91.06
497.746	80.06
497.963	103.06
498.181	88.06
498.398	108.06
498.615	91.06
498.832	106.06
499.049	104.06
499.267	94.06
499.484	111.06
499.701	112.06
499.918	122.06
500.135	122.06
500.352	115.06
500.569	122.06
500.786	117.06
501.003	96.06
501.22	112.06
501.437	104.06
501.654	108.06
501.871	110.06
502.088	94.06
502.305	100.06
502.522	98.06
502.739	102.06
502.956	92.06
503.172	104.06
503.389	107.06
503.606	89.06
503.823	102.06
504.04	110.06
504.256	100.06
504.473	84.06
504.69	87.06
504.907	91.06
505.123	87.06
505.34	95.06
505.557	89.06
505.773	94.06
505.99	99.06
506.207	108.06
506.423	90.06
506.64	97.06
506.856	91.06
507.073	92.06
507.289	80.06
507.506	90.06
507.722	88.06
507.939	93.06
508.155	90.06
508.372	88.06
508.588	92.06
508.805	97.06
509.021	93.06
509.238	89.06
509.454	88.06
509.67	78.06
509.887	92.06
510.103	91.06
510.319	84.06
510.536	101.06
510.752	86.06
510.968	96.06
511.184	110.06
511.401	89.06
511.617	88.06
511.833	96.06
512.049	72.06
512.265	88.06
512.481	89.06
512.698	90.06
512.914	103.06
513.13	106.06
513.346	96.06
513.562	102.06
513.778	98.06
513.994	93.06
514.21	95.06
514.426	97.06
514.642	96.06
514.858	90.06
515.074	82.06
515.29	96.06
515.506	81.06
515.721	82.06
515.937	104.06
516.153	96.06
516.369	90.06
516.585	100.06
516.801	96.06
517.016	104.06
517.232	78.06
517.448	92.06
517.664	108.06
517.879	94.06
518.095	104.06
