Data from BG_HRD10591_018.txt Node
Date: Fri May 16 15:14:31 EDT 2025
User: Yrep
Spectrometer: HR+D1059
Trigger mode: 1
Integration Time (sec): 1.000000E-1
Scans to average: 1
Electric dark correction enabled: true
Nonlinearity correction enabled: false
Boxcar width: 0
XAxis mode: Wavelengths
Number of Pixels in Spectrum: 2048
>>>>>Begin Spectral Data<<<<<
223.165	-18.81
223.4	-18.81
223.635	-18.81
223.869	-29.81
224.104	-11.81
224.338	-19.81
224.573	-22.81
224.808	-23.81
225.042	-21.81
225.277	8.19
225.511	-9.81
225.746	-10.81
225.98	7.19
226.215	17.19
226.449	29.19
226.683	29.19
226.918	49.19
227.152	29.19
227.387	25.19
227.621	35.19
227.856	47.19
228.09	49.19
228.324	38.19
228.559	70.19
228.793	68.19
229.027	67.19
229.262	66.19
229.496	70.19
229.73	60.19
229.964	64.19
230.199	69.19
230.433	67.19
230.667	94.19
230.901	89.19
231.136	73.19
231.37	78.19
231.604	80.19
231.838	72.19
232.072	79.19
232.306	70.19
232.541	79.19
232.775	91.19
233.009	89.19
233.243	86.19
233.477	86.19
233.711	78.19
233.945	79.19
234.179	74.19
234.413	63.19
234.647	91.19
234.881	93.19
235.115	82.19
235.349	86.19
235.583	84.19
235.817	71.19
236.051	90.19
236.285	82.19
236.519	85.19
236.753	77.19
236.987	75.19
237.221	74.19
237.455	70.19
237.689	80.19
237.922	79.19
238.156	74.19
238.39	55.19
238.624	65.19
238.858	75.19
239.091	83.19
239.325	90.19
239.559	72.19
239.793	68.19
240.027	87.19
240.26	88.19
240.494	78.19
240.728	77.19
240.961	70.19
241.195	76.19
241.429	71.19
241.662	67.19
241.896	77.19
242.13	60.19
242.363	72.19
242.597	71.19
242.83	86.19
243.064	70.19
243.298	78.19
243.531	80.19
243.765	75.19
243.998	88.19
244.232	83.19
244.465	85.19
244.699	73.19
244.932	68.19
245.166	79.19
245.399	80.19
245.633	75.19
245.866	77.19
246.099	65.19
246.333	71.19
246.566	84.19
246.8	84.19
247.033	75.19
247.266	71.19
247.5	79.19
247.733	84.19
247.966	79.19
248.2	98.19
248.433	85.19
248.666	89.19
248.899	77.19
249.133	82.19
249.366	83.19
249.599	85.19
249.832	81.19
250.066	85.19
250.299	82.19
250.532	69.19
250.765	82.19
250.998	73.19
251.231	77.19
251.465	86.19
251.698	92.19
251.931	77.19
252.164	91.19
252.397	79.19
252.63	74.19
252.863	85.19
253.096	76.19
253.329	72.19
253.562	85.19
253.795	84.19
254.028	73.19
254.261	80.19
254.494	77.19
254.727	88.19
254.96	78.19
255.193	80.19
255.426	79.19
255.659	84.19
255.892	80.19
256.124	93.19
256.357	97.19
256.59	85.19
256.823	68.19
257.056	74.19
257.289	75.19
257.521	82.19
257.754	72.19
257.987	79.19
258.22	83.19
258.452	71.19
258.685	94.19
258.918	83.19
259.151	89.19
259.383	86.19
259.616	75.19
259.849	93.19
260.081	90.19
260.314	80.19
260.547	87.19
260.779	78.19
261.012	60.19
261.244	77.19
261.477	70.19
261.71	68.19
261.942	81.19
262.175	75.19
262.407	83.19
262.64	83.19
262.872	75.19
263.105	86.19
263.337	94.19
263.57	81.19
263.802	72.19
264.035	70.19
264.267	83.19
264.499	74.19
264.732	78.19
264.964	73.19
265.197	74.19
265.429	77.19
265.661	86.19
265.894	87.19
266.126	86.19
266.358	93.19
266.591	77.19
266.823	73.19
267.055	77.19
267.287	66.19
267.52	82.19
267.752	81.19
267.984	78.19
268.216	85.19
268.448	79.19
268.681	93.19
268.913	83.19
269.145	81.19
269.377	81.19
269.609	92.19
269.841	90.19
270.073	92.19
270.306	88.19
270.538	77.19
270.77	73.19
271.002	98.19
271.234	77.19
271.466	87.19
271.698	81.19
271.93	70.19
272.162	97.19
272.394	95.19
272.626	82.19
272.858	82.19
273.09	85.19
273.322	86.19
273.553	87.19
273.785	89.19
274.017	71.19
274.249	81.19
274.481	91.19
274.713	90.19
274.945	75.19
275.176	79.19
275.408	90.19
275.64	98.19
275.872	89.19
276.104	87.19
276.335	87.19
276.567	102.19
276.799	86.19
277.031	74.19
277.262	85.19
277.494	70.19
277.726	81.19
277.957	83.19
278.189	98.19
278.421	77.19
278.652	85.19
278.884	87.19
279.115	81.19
279.347	70.19
279.579	86.19
279.81	93.19
280.042	79.19
280.273	77.19
280.505	83.19
280.736	94.19
280.968	81.19
281.199	90.19
281.431	80.19
281.662	94.19
281.894	84.19
282.125	103.19
282.356	85.19
282.588	84.19
282.819	86.19
283.051	90.19
283.282	73.19
283.513	82.19
283.745	90.19
283.976	79.19
284.207	90.19
284.439	88.19
284.67	97.19
284.901	82.19
285.132	69.19
285.364	78.19
285.595	88.19
285.826	76.19
286.057	86.19
286.288	82.19
286.52	92.19
286.751	89.19
286.982	92.19
287.213	78.19
287.444	81.19
287.675	77.19
287.906	82.19
288.138	75.19
288.369	82.19
288.6	91.19
288.831	86.19
289.062	85.19
289.293	91.19
289.524	74.19
289.755	70.19
289.986	83.19
290.217	90.19
290.448	70.19
290.679	99.19
290.91	86.19
291.141	88.19
291.371	78.19
291.602	87.19
291.833	86.19
292.064	83.19
292.295	85.19
292.526	77.19
292.757	100.19
292.987	89.19
293.218	77.19
293.449	89.19
293.68	78.19
293.91	81.19
294.141	88.19
294.372	84.19
294.603	75.19
294.833	80.19
295.064	86.19
295.295	88.19
295.525	90.19
295.756	90.19
295.987	82.19
296.217	93.19
296.448	84.19
296.679	84.19
296.909	91.19
297.14	74.19
297.37	84.19
297.601	81.19
297.831	87.19
298.062	77.19
298.292	91.19
298.523	88.19
298.753	82.19
298.984	84.19
299.214	91.19
299.445	81.19
299.675	83.19
299.905	82.19
300.136	79.19
300.366	91.19
300.597	83.19
300.827	79.19
301.057	90.19
301.288	109.19
301.518	81.19
301.748	82.19
301.979	101.19
302.209	71.19
302.439	91.19
302.669	91.19
302.9	74.19
303.13	79.19
303.36	76.19
303.59	90.19
303.82	80.19
304.051	87.19
304.281	81.19
304.511	92.19
304.741	97.19
304.971	93.19
305.201	99.19
305.431	95.19
305.661	83.19
305.891	87.19
306.121	82.19
306.352	86.19
306.582	84.19
306.812	86.19
307.042	79.19
307.272	83.19
307.502	82.19
307.731	101.19
307.961	94.19
308.191	94.19
308.421	69.19
308.651	81.19
308.881	98.19
309.111	78.19
309.341	92.19
309.571	76.19
309.8	78.19
310.03	68.19
310.26	92.19
310.49	96.19
310.72	88.19
310.949	92.19
311.179	100.19
311.409	81.19
311.639	95.19
311.868	102.19
312.098	93.19
312.328	76.19
312.557	83.19
312.787	85.19
313.017	75.19
313.246	93.19
313.476	87.19
313.706	84.19
313.935	80.19
314.165	84.19
314.394	92.19
314.624	74.19
314.853	84.19
315.083	87.19
315.312	85.19
315.542	90.19
315.771	89.19
316.001	86.19
316.23	82.19
316.46	77.19
316.689	79.19
316.919	79.19
317.148	90.19
317.377	89.19
317.607	69.19
317.836	89.19
318.065	89.19
318.295	84.19
318.524	84.19
318.753	87.19
318.983	82.19
319.212	98.19
319.441	88.19
319.67	75.19
319.9	90.19
320.129	83.19
320.358	88.19
320.587	95.19
320.816	89.19
321.046	91.19
321.275	97.19
321.504	91.19
321.733	92.19
321.962	86.19
322.191	78.19
322.42	85.19
322.649	101.19
322.878	82.19
323.108	83.19
323.337	82.19
323.566	101.19
323.795	72.19
324.024	77.19
324.253	83.19
324.482	83.19
324.71	87.19
324.939	99.19
325.168	86.19
325.397	105.19
325.626	76.19
325.855	86.19
326.084	92.19
326.313	79.19
326.542	81.19
326.77	82.19
326.999	69.19
327.228	81.19
327.457	83.19
327.686	78.19
327.914	73.19
328.143	87.19
328.372	83.19
328.6	78.19
328.829	74.19
329.058	85.19
329.287	77.19
329.515	105.19
329.744	81.19
329.972	89.19
330.201	92.19
330.43	84.19
330.658	98.19
330.887	87.19
331.115	89.19
331.344	93.19
331.572	82.19
331.801	91.19
332.03	89.19
332.258	91.19
332.486	75.19
332.715	91.19
332.943	78.19
333.172	79.19
333.4	91.19
333.629	83.19
333.857	75.19
334.085	93.19
334.314	89.19
334.542	85.19
334.771	83.19
334.999	90.19
335.227	83.19
335.455	98.19
335.684	89.19
335.912	97.19
336.14	97.19
336.369	94.19
336.597	97.19
336.825	79.19
337.053	83.19
337.281	97.19
337.51	88.19
337.738	92.19
337.966	92.19
338.194	96.19
338.422	89.19
338.65	93.19
338.878	84.19
339.106	88.19
339.334	93.19
339.562	93.19
339.79	78.19
340.018	88.19
340.246	76.19
340.474	82.19
340.702	87.19
340.93	82.19
341.158	87.19
341.386	81.19
341.614	75.19
341.842	77.19
342.07	86.19
342.298	75.19
342.526	77.19
342.754	79.19
342.981	82.19
343.209	89.19
343.437	92.19
343.665	94.19
343.893	93.19
344.12	88.19
344.348	101.19
344.576	98.19
344.804	93.19
345.031	72.19
345.259	83.19
345.487	98.19
345.714	90.19
345.942	77.19
346.17	83.19
346.397	79.19
346.625	99.19
346.853	97.19
347.08	94.19
347.308	97.19
347.535	67.19
347.763	104.19
347.99	100.19
348.218	88.19
348.445	84.19
348.673	78.19
348.9	83.19
349.128	92.19
349.355	92.19
349.583	95.19
349.81	96.19
350.037	89.19
350.265	82.19
350.492	91.19
350.72	76.19
350.947	84.19
351.174	89.19
351.402	93.19
351.629	91.19
351.856	92.19
352.083	80.19
352.311	90.19
352.538	82.19
352.765	83.19
352.992	92.19
353.22	79.19
353.447	89.19
353.674	79.19
353.901	84.19
354.128	71.19
354.355	69.19
354.583	85.19
354.81	79.19
355.037	85.19
355.264	80.19
355.491	104.19
355.718	91.19
355.945	80.19
356.172	82.19
356.399	91.19
356.626	92.19
356.853	81.19
357.08	77.19
357.307	76.19
357.534	90.19
357.761	70.19
357.988	91.19
358.215	85.19
358.441	91.19
358.668	64.19
358.895	91.19
359.122	97.19
359.349	83.19
359.576	62.19
359.802	97.19
360.029	77.19
360.256	87.19
360.483	77.19
360.709	81.19
360.936	73.19
361.163	75.19
361.39	86.19
361.616	102.19
361.843	97.19
362.07	102.19
362.296	83.19
362.523	81.19
362.749	99.19
362.976	81.19
363.203	80.19
363.429	86.19
363.656	74.19
363.882	83.19
364.109	78.19
364.335	93.19
364.562	89.19
364.788	93.19
365.015	82.19
365.241	69.19
365.468	90.19
365.694	85.19
365.92	93.19
366.147	85.19
366.373	71.19
366.599	75.19
366.826	93.19
367.052	87.19
367.278	79.19
367.505	87.19
367.731	101.19
367.957	84.19
368.184	90.19
368.41	83.19
368.636	86.19
368.862	84.19
369.089	60.19
369.315	93.19
369.541	77.19
369.767	76.19
369.993	90.19
370.219	70.19
370.445	82.19
370.672	81.19
370.898	89.19
371.124	94.19
371.35	74.19
371.576	81.19
371.802	89.19
372.028	82.19
372.254	77.19
372.48	88.19
372.706	75.19
372.932	76.19
373.158	77.19
373.384	86.19
373.61	79.19
373.835	87.19
374.061	88.19
374.287	89.19
374.513	91.19
374.739	79.19
374.965	84.19
375.191	92.19
375.416	81.19
375.642	86.19
375.868	88.19
376.094	83.19
376.319	89.19
376.545	80.19
376.771	82.19
376.997	78.19
377.222	71.19
377.448	69.19
377.674	89.19
377.899	97.19
378.125	75.19
378.35	85.19
378.576	86.19
378.802	82.19
379.027	86.19
379.253	81.19
379.478	97.19
379.704	89.19
379.929	86.19
380.155	79.19
380.38	89.19
380.606	81.19
380.831	78.19
381.057	87.19
381.282	63.19
381.507	93.19
381.733	89.19
381.958	88.19
382.184	90.19
382.409	95.19
382.634	96.19
382.86	86.19
383.085	82.19
383.31	93.19
383.535	89.19
383.761	98.19
383.986	87.19
384.211	95.19
384.436	84.19
384.662	77.19
384.887	99.19
385.112	105.19
385.337	81.19
385.562	90.19
385.787	85.19
386.013	77.19
386.238	76.19
386.463	86.19
386.688	81.19
386.913	82.19
387.138	88.19
387.363	89.19
387.588	78.19
387.813	87.19
388.038	80.19
388.263	90.19
388.488	93.19
388.713	97.19
388.938	85.19
389.163	90.19
389.387	92.19
389.612	93.19
389.837	74.19
390.062	87.19
390.287	91.19
390.512	82.19
390.736	82.19
390.961	76.19
391.186	81.19
391.411	74.19
391.636	94.19
391.86	90.19
392.085	93.19
392.31	88.19
392.534	94.19
392.759	83.19
392.984	86.19
393.208	81.19
393.433	69.19
393.658	78.19
393.882	84.19
394.107	76.19
394.331	91.19
394.556	94.19
394.78	94.19
395.005	85.19
395.229	90.19
395.454	86.19
395.678	99.19
395.903	84.19
396.127	93.19
396.352	82.19
396.576	85.19
396.801	95.19
397.025	86.19
397.249	91.19
397.474	92.19
397.698	85.19
397.922	78.19
398.147	93.19
398.371	88.19
398.595	102.19
398.82	104.19
399.044	80.19
399.268	98.19
399.492	109.19
399.717	92.19
399.941	92.19
400.165	97.19
400.389	85.19
400.613	93.19
400.837	74.19
401.062	81.19
401.286	91.19
401.51	100.19
401.734	100.19
401.958	88.19
402.182	84.19
402.406	102.19
402.63	93.19
402.854	88.19
403.078	90.19
403.302	86.19
403.526	86.19
403.75	78.19
403.974	92.19
404.198	71.19
404.422	88.19
404.645	109.19
404.869	85.19
405.093	89.19
405.317	88.19
405.541	99.19
405.765	84.19
405.988	97.19
406.212	99.19
406.436	77.19
406.66	97.19
406.883	89.19
407.107	61.19
407.331	85.19
407.555	97.19
407.778	98.19
408.002	94.19
408.226	94.19
408.449	93.19
408.673	91.19
408.896	90.19
409.12	72.19
409.344	78.19
409.567	93.19
409.791	88.19
410.014	93.19
410.238	96.19
410.461	93.19
410.685	83.19
410.908	83.19
411.132	103.19
411.355	83.19
411.578	91.19
411.802	91.19
412.025	88.19
412.249	91.19
412.472	95.19
412.695	88.19
412.919	94.19
413.142	88.19
413.365	89.19
413.589	80.19
413.812	85.19
414.035	92.19
414.258	85.19
414.482	85.19
414.705	94.19
414.928	75.19
415.151	79.19
415.374	89.19
415.597	80.19
415.821	89.19
416.044	91.19
416.267	83.19
416.49	92.19
416.713	95.19
416.936	88.19
417.159	77.19
417.382	84.19
417.605	77.19
417.828	85.19
418.051	88.19
418.274	83.19
418.497	103.19
418.72	79.19
418.943	91.19
419.166	83.19
419.389	83.19
419.611	78.19
419.834	92.19
420.057	84.19
420.28	98.19
420.503	76.19
420.726	91.19
420.948	94.19
421.171	79.19
421.394	88.19
421.617	93.19
421.839	78.19
422.062	97.19
422.285	98.19
422.507	95.19
422.73	81.19
422.953	86.19
423.175	83.19
423.398	76.19
423.621	93.19
423.843	98.19
424.066	80.19
424.288	97.19
424.511	97.19
424.733	75.19
424.956	81.19
425.178	94.19
425.401	95.19
425.623	87.19
425.846	92.19
426.068	85.19
426.291	94.19
426.513	86.19
426.735	82.19
426.958	86.19
427.18	89.19
427.402	85.19
427.625	79.19
427.847	95.19
428.069	102.19
428.292	96.19
428.514	85.19
428.736	82.19
428.958	92.19
429.181	81.19
429.403	86.19
429.625	76.19
429.847	85.19
430.069	86.19
430.292	93.19
430.514	95.19
430.736	87.19
430.958	74.19
431.18	87.19
431.402	99.19
431.624	81.19
431.846	94.19
432.068	89.19
432.29	99.19
432.512	81.19
432.734	73.19
432.956	86.19
433.178	90.19
433.4	91.19
433.622	101.19
433.844	99.19
434.066	92.19
434.287	90.19
434.509	84.19
434.731	77.19
434.953	91.19
435.175	99.19
435.397	94.19
435.618	91.19
435.84	76.19
436.062	100.19
436.284	82.19
436.505	82.19
436.727	93.19
436.949	82.19
437.17	72.19
437.392	85.19
437.614	99.19
437.835	78.19
438.057	88.19
438.278	88.19
438.5	87.19
438.721	101.19
438.943	89.19
439.165	95.19
439.386	82.19
439.608	92.19
439.829	84.19
440.05	97.19
440.272	87.19
440.493	103.19
440.715	72.19
440.936	85.19
441.158	97.19
441.379	90.19
441.6	95.19
441.822	83.19
442.043	81.19
442.264	97.19
442.486	98.19
442.707	91.19
442.928	86.19
443.149	81.19
443.371	77.19
443.592	85.19
443.813	90.19
444.034	87.19
444.255	70.19
444.476	97.19
444.698	78.19
444.919	87.19
445.14	162.19
445.361	126.19
445.582	85.19
445.803	84.19
446.024	87.19
446.245	71.19
446.466	97.19
446.687	83.19
446.908	92.19
447.129	88.19
447.35	100.19
447.571	90.19
447.792	91.19
448.013	103.19
448.234	83.19
448.455	93.19
448.675	74.19
448.896	87.19
449.117	88.19
449.338	91.19
449.559	81.19
449.779	81.19
450	90.19
450.221	87.19
450.442	95.19
450.662	84.19
450.883	95.19
451.104	97.19
451.324	86.19
451.545	97.19
451.766	99.19
451.986	91.19
452.207	89.19
452.428	81.19
452.648	80.19
452.869	74.19
453.089	90.19
453.31	83.19
453.53	83.19
453.751	101.19
453.971	100.19
454.192	87.19
454.412	79.19
454.633	74.19
454.853	97.19
455.073	87.19
455.294	77.19
455.514	80.19
455.734	78.19
455.955	84.19
456.175	78.19
456.395	79.19
456.616	90.19
456.836	79.19
457.056	81.19
457.276	77.19
457.497	82.19
457.717	87.19
457.937	80.19
458.157	81.19
458.377	89.19
458.598	77.19
458.818	78.19
459.038	91.19
459.258	87.19
459.478	76.19
459.698	85.19
459.918	71.19
460.138	89.19
460.358	78.19
460.578	92.19
460.798	76.19
461.018	86.19
461.238	92.19
461.458	90.19
461.678	98.19
461.898	90.19
462.118	84.19
462.338	97.19
462.558	97.19
462.777	107.19
462.997	79.19
463.217	94.19
463.437	91.19
463.657	93.19
463.876	91.19
464.096	103.19
464.316	97.19
464.536	94.19
464.755	88.19
464.975	87.19
465.195	83.19
465.414	80.19
465.634	100.19
465.854	88.19
466.073	86.19
466.293	78.19
466.512	85.19
466.732	79.19
466.951	91.19
467.171	91.19
467.391	95.19
467.61	92.19
467.829	75.19
468.049	87.19
468.268	84.19
468.488	90.19
468.707	85.19
468.927	87.19
469.146	85.19
469.365	101.19
469.585	88.19
469.804	77.19
470.023	75.19
470.243	100.19
470.462	90.19
470.681	87.19
470.901	77.19
471.12	83.19
471.339	93.19
471.558	86.19
471.777	84.19
471.997	79.19
472.216	73.19
472.435	87.19
472.654	95.19
472.873	81.19
473.092	92.19
473.311	90.19
473.53	91.19
473.749	84.19
473.968	94.19
474.187	94.19
474.406	77.19
474.625	81.19
474.844	84.19
475.063	98.19
475.282	90.19
475.501	80.19
475.72	89.19
475.939	89.19
476.158	92.19
476.377	89.19
476.596	76.19
476.814	87.19
477.033	99.19
477.252	81.19
477.471	89.19
477.69	88.19
477.908	83.19
478.127	92.19
478.346	81.19
478.564	84.19
478.783	85.19
479.002	77.19
479.22	89.19
479.439	100.19
479.658	97.19
479.876	78.19
480.095	88.19
480.313	99.19
480.532	93.19
480.751	84.19
480.969	86.19
481.188	93.19
481.406	101.19
481.624	89.19
481.843	81.19
482.061	76.19
482.28	86.19
482.498	94.19
482.717	87.19
482.935	103.19
483.153	86.19
483.372	96.19
483.59	73.19
483.808	84.19
484.027	87.19
484.245	88.19
484.463	95.19
484.681	94.19
484.9	89.19
485.118	97.19
485.336	89.19
485.554	91.19
485.772	101.19
485.99	89.19
486.209	91.19
486.427	86.19
486.645	91.19
486.863	92.19
487.081	94.19
487.299	80.19
487.517	75.19
487.735	94.19
487.953	88.19
488.171	97.19
488.389	99.19
488.607	97.19
488.825	88.19
489.043	82.19
489.261	80.19
489.479	98.19
489.696	96.19
489.914	77.19
490.132	77.19
490.35	83.19
490.568	87.19
490.786	79.19
491.003	87.19
491.221	105.19
491.439	79.19
491.657	78.19
491.874	89.19
492.092	84.19
492.31	92.19
492.527	82.19
492.745	74.19
492.963	84.19
493.18	85.19
493.398	89.19
493.615	92.19
493.833	89.19
494.05	88.19
494.268	94.19
494.485	75.19
494.703	90.19
494.92	89.19
495.138	93.19
495.355	85.19
495.573	90.19
495.79	90.19
496.008	97.19
496.225	105.19
496.442	80.19
496.66	101.19
496.877	89.19
497.094	84.19
497.312	82.19
497.529	93.19
497.746	75.19
497.963	92.19
498.181	101.19
498.398	87.19
498.615	103.19
498.832	89.19
499.049	90.19
499.267	93.19
499.484	101.19
499.701	97.19
499.918	113.19
500.135	107.19
500.352	119.19
500.569	126.19
500.786	130.19
501.003	95.19
501.22	95.19
501.437	97.19
501.654	105.19
501.871	103.19
502.088	102.19
502.305	88.19
502.522	94.19
502.739	98.19
502.956	94.19
503.172	85.19
503.389	87.19
503.606	98.19
503.823	86.19
504.04	88.19
504.256	107.19
504.473	92.19
504.69	97.19
504.907	101.19
505.123	91.19
505.34	97.19
505.557	93.19
505.773	97.19
505.99	83.19
506.207	97.19
506.423	86.19
506.64	102.19
506.856	79.19
507.073	91.19
507.289	93.19
507.506	85.19
507.722	98.19
507.939	105.19
508.155	94.19
508.372	80.19
508.588	99.19
508.805	95.19
509.021	98.19
509.238	83.19
509.454	83.19
509.67	92.19
509.887	101.19
510.103	87.19
510.319	94.19
510.536	94.19
510.752	80.19
510.968	82.19
511.184	93.19
511.401	84.19
511.617	92.19
511.833	96.19
512.049	85.19
512.265	88.19
512.481	89.19
512.698	93.19
512.914	92.19
513.13	80.19
513.346	79.19
513.562	73.19
513.778	99.19
513.994	101.19
514.21	91.19
514.426	101.19
514.642	94.19
514.858	81.19
515.074	84.19
515.29	82.19
515.506	106.19
515.721	101.19
515.937	78.19
516.153	94.19
516.369	104.19
516.585	92.19
516.801	91.19
517.016	90.19
517.232	90.19
517.448	92.19
517.664	99.19
517.879	101.19
518.095	97.19
518.311	95.19
518.527	89.19
518.742	97.19
518.958	86.19
519.173	110.19
519.389	81.19
