Data from BG_HRD10591_055.txt Node
Date: Fri May 16 15:14:50 EDT 2025
User: Yrep
Spectrometer: HR+D1059
Trigger mode: 1
Integration Time (sec): 1.000000E-1
Scans to average: 1
Electric dark correction enabled: true
Nonlinearity correction enabled: false
Boxcar width: 0
XAxis mode: Wavelengths
Number of Pixels in Spectrum: 2048
>>>>>Begin Spectral Data<<<<<
223.165	-17.06
223.4	-17.06
223.635	-17.06
223.869	-29.06
224.104	-21.06
224.338	-16.06
224.573	-20.06
224.808	-10.06
225.042	-12.06
225.277	-8.06
225.511	3.94
225.746	8.94
225.98	2.94
226.215	11.94
226.449	21.94
226.683	28.94
226.918	29.94
227.152	24.94
227.387	46.94
227.621	29.94
227.856	32.94
228.09	53.94
228.324	46.94
228.559	42.94
228.793	53.94
229.027	60.94
229.262	53.94
229.496	66.94
229.73	65.94
229.964	72.94
230.199	66.94
230.433	65.94
230.667	65.94
230.901	79.94
231.136	66.94
231.37	84.94
231.604	82.94
231.838	81.94
232.072	73.94
232.306	83.94
232.541	70.94
232.775	77.94
233.009	62.94
233.243	73.94
233.477	64.94
233.711	70.94
233.945	63.94
234.179	71.94
234.413	86.94
234.647	79.94
234.881	82.94
235.115	78.94
235.349	66.94
235.583	80.94
235.817	74.94
236.051	67.94
236.285	62.94
236.519	63.94
236.753	69.94
236.987	73.94
237.221	76.94
237.455	70.94
237.689	67.94
237.922	66.94
238.156	74.94
238.39	87.94
238.624	78.94
238.858	60.94
239.091	72.94
239.325	67.94
239.559	59.94
239.793	80.94
240.027	66.94
240.26	67.94
240.494	69.94
240.728	78.94
240.961	82.94
241.195	67.94
241.429	74.94
241.662	58.94
241.896	79.94
242.13	67.94
242.363	72.94
242.597	67.94
242.83	67.94
243.064	68.94
243.298	75.94
243.531	58.94
243.765	75.94
243.998	89.94
244.232	70.94
244.465	73.94
244.699	80.94
244.932	78.94
245.166	76.94
245.399	88.94
245.633	86.94
245.866	82.94
246.099	66.94
246.333	78.94
246.566	72.94
246.8	70.94
247.033	95.94
247.266	71.94
247.5	86.94
247.733	69.94
247.966	84.94
248.2	84.94
248.433	67.94
248.666	76.94
248.899	63.94
249.133	59.94
249.366	83.94
249.599	75.94
249.832	69.94
250.066	71.94
250.299	66.94
250.532	67.94
250.765	69.94
250.998	72.94
251.231	76.94
251.465	64.94
251.698	64.94
251.931	81.94
252.164	96.94
252.397	86.94
252.63	88.94
252.863	71.94
253.096	43.94
253.329	81.94
253.562	80.94
253.795	78.94
254.028	80.94
254.261	74.94
254.494	68.94
254.727	79.94
254.96	76.94
255.193	56.94
255.426	69.94
255.659	71.94
255.892	74.94
256.124	96.94
256.357	90.94
256.59	75.94
256.823	85.94
257.056	88.94
257.289	66.94
257.521	81.94
257.754	68.94
257.987	95.94
258.22	75.94
258.452	82.94
258.685	72.94
258.918	65.94
259.151	71.94
259.383	68.94
259.616	68.94
259.849	73.94
260.081	78.94
260.314	66.94
260.547	65.94
260.779	69.94
261.012	67.94
261.244	74.94
261.477	63.94
261.71	86.94
261.942	80.94
262.175	84.94
262.407	82.94
262.64	86.94
262.872	79.94
263.105	79.94
263.337	75.94
263.57	63.94
263.802	70.94
264.035	86.94
264.267	81.94
264.499	79.94
264.732	84.94
264.964	73.94
265.197	82.94
265.429	87.94
265.661	64.94
265.894	77.94
266.126	72.94
266.358	78.94
266.591	77.94
266.823	69.94
267.055	76.94
267.287	87.94
267.52	71.94
267.752	86.94
267.984	95.94
268.216	76.94
268.448	70.94
268.681	71.94
268.913	80.94
269.145	76.94
269.377	94.94
269.609	82.94
269.841	72.94
270.073	74.94
270.306	75.94
270.538	75.94
270.77	78.94
271.002	84.94
271.234	78.94
271.466	87.94
271.698	86.94
271.93	68.94
272.162	80.94
272.394	79.94
272.626	81.94
272.858	78.94
273.09	84.94
273.322	86.94
273.553	81.94
273.785	82.94
274.017	70.94
274.249	74.94
274.481	90.94
274.713	79.94
274.945	79.94
275.176	81.94
275.408	89.94
275.64	71.94
275.872	75.94
276.104	74.94
276.335	86.94
276.567	79.94
276.799	77.94
277.031	89.94
277.262	75.94
277.494	87.94
277.726	70.94
277.957	82.94
278.189	69.94
278.421	60.94
278.652	86.94
278.884	94.94
279.115	81.94
279.347	82.94
279.579	86.94
279.81	86.94
280.042	95.94
280.273	86.94
280.505	83.94
280.736	78.94
280.968	74.94
281.199	87.94
281.431	84.94
281.662	84.94
281.894	83.94
282.125	78.94
282.356	84.94
282.588	68.94
282.819	82.94
283.051	82.94
283.282	78.94
283.513	78.94
283.745	92.94
283.976	81.94
284.207	91.94
284.439	70.94
284.67	77.94
284.901	74.94
285.132	92.94
285.364	79.94
285.595	87.94
285.826	69.94
286.057	87.94
286.288	70.94
286.52	74.94
286.751	71.94
286.982	82.94
287.213	82.94
287.444	82.94
287.675	79.94
287.906	81.94
288.138	79.94
288.369	90.94
288.6	72.94
288.831	70.94
289.062	84.94
289.293	67.94
289.524	71.94
289.755	69.94
289.986	75.94
290.217	93.94
290.448	90.94
290.679	78.94
290.91	80.94
291.141	92.94
291.371	95.94
291.602	81.94
291.833	91.94
292.064	85.94
292.295	95.94
292.526	81.94
292.757	72.94
292.987	78.94
293.218	81.94
293.449	70.94
293.68	89.94
293.91	83.94
294.141	81.94
294.372	76.94
294.603	81.94
294.833	85.94
295.064	77.94
295.295	86.94
295.525	79.94
295.756	96.94
295.987	91.94
296.217	84.94
296.448	85.94
296.679	93.94
296.909	91.94
297.14	91.94
297.37	70.94
297.601	55.94
297.831	72.94
298.062	91.94
298.292	85.94
298.523	78.94
298.753	82.94
298.984	83.94
299.214	80.94
299.445	81.94
299.675	78.94
299.905	81.94
300.136	86.94
300.366	88.94
300.597	76.94
300.827	80.94
301.057	82.94
301.288	90.94
301.518	78.94
301.748	86.94
301.979	75.94
302.209	92.94
302.439	76.94
302.669	79.94
302.9	87.94
303.13	71.94
303.36	85.94
303.59	84.94
303.82	89.94
304.051	88.94
304.281	88.94
304.511	90.94
304.741	80.94
304.971	71.94
305.201	80.94
305.431	86.94
305.661	91.94
305.891	87.94
306.121	87.94
306.352	88.94
306.582	76.94
306.812	84.94
307.042	73.94
307.272	78.94
307.502	72.94
307.731	84.94
307.961	74.94
308.191	80.94
308.421	79.94
308.651	82.94
308.881	92.94
309.111	83.94
309.341	82.94
309.571	86.94
309.8	95.94
310.03	80.94
310.26	85.94
310.49	87.94
310.72	83.94
310.949	83.94
311.179	85.94
311.409	92.94
311.639	77.94
311.868	71.94
312.098	90.94
312.328	92.94
312.557	94.94
312.787	80.94
313.017	89.94
313.246	74.94
313.476	74.94
313.706	86.94
313.935	96.94
314.165	84.94
314.394	87.94
314.624	75.94
314.853	83.94
315.083	64.94
315.312	79.94
315.542	96.94
315.771	94.94
316.001	85.94
316.23	89.94
316.46	82.94
316.689	86.94
316.919	96.94
317.148	87.94
317.377	74.94
317.607	84.94
317.836	79.94
318.065	91.94
318.295	73.94
318.524	79.94
318.753	89.94
318.983	71.94
319.212	75.94
319.441	95.94
319.67	94.94
319.9	75.94
320.129	76.94
320.358	89.94
320.587	97.94
320.816	83.94
321.046	82.94
321.275	77.94
321.504	89.94
321.733	95.94
321.962	99.94
322.191	89.94
322.42	88.94
322.649	89.94
322.878	91.94
323.108	80.94
323.337	84.94
323.566	91.94
323.795	67.94
324.024	69.94
324.253	94.94
324.482	83.94
324.71	69.94
324.939	82.94
325.168	94.94
325.397	89.94
325.626	86.94
325.855	100.94
326.084	78.94
326.313	90.94
326.542	85.94
326.77	82.94
326.999	76.94
327.228	94.94
327.457	84.94
327.686	88.94
327.914	98.94
328.143	86.94
328.372	87.94
328.6	92.94
328.829	88.94
329.058	82.94
329.287	77.94
329.515	96.94
329.744	96.94
329.972	87.94
330.201	91.94
330.43	92.94
330.658	83.94
330.887	87.94
331.115	77.94
331.344	74.94
331.572	90.94
331.801	80.94
332.03	71.94
332.258	89.94
332.486	69.94
332.715	86.94
332.943	85.94
333.172	86.94
333.4	81.94
333.629	83.94
333.857	69.94
334.085	81.94
334.314	87.94
334.542	84.94
334.771	84.94
334.999	72.94
335.227	65.94
335.455	90.94
335.684	78.94
335.912	87.94
336.14	87.94
336.369	80.94
336.597	79.94
336.825	75.94
337.053	84.94
337.281	80.94
337.51	92.94
337.738	69.94
337.966	82.94
338.194	92.94
338.422	91.94
338.65	87.94
338.878	81.94
339.106	90.94
339.334	94.94
339.562	78.94
339.79	81.94
340.018	99.94
340.246	87.94
340.474	68.94
340.702	81.94
340.93	86.94
341.158	95.94
341.386	86.94
341.614	64.94
341.842	78.94
342.07	95.94
342.298	80.94
342.526	113.94
342.754	81.94
342.981	81.94
343.209	79.94
343.437	97.94
343.665	70.94
343.893	78.94
344.12	80.94
344.348	86.94
344.576	84.94
344.804	70.94
345.031	78.94
345.259	90.94
345.487	79.94
345.714	77.94
345.942	89.94
346.17	78.94
346.397	72.94
346.625	87.94
346.853	87.94
347.08	84.94
347.308	96.94
347.535	71.94
347.763	67.94
347.99	82.94
348.218	91.94
348.445	79.94
348.673	84.94
348.9	84.94
349.128	91.94
349.355	83.94
349.583	67.94
349.81	94.94
350.037	89.94
350.265	81.94
350.492	89.94
350.72	86.94
350.947	82.94
351.174	74.94
351.402	90.94
351.629	79.94
351.856	86.94
352.083	78.94
352.311	84.94
352.538	83.94
352.765	76.94
352.992	71.94
353.22	80.94
353.447	82.94
353.674	77.94
353.901	92.94
354.128	87.94
354.355	82.94
354.583	89.94
354.81	83.94
355.037	87.94
355.264	80.94
355.491	82.94
355.718	65.94
355.945	74.94
356.172	77.94
356.399	81.94
356.626	96.94
356.853	72.94
357.08	89.94
357.307	87.94
357.534	87.94
357.761	76.94
357.988	82.94
358.215	92.94
358.441	73.94
358.668	68.94
358.895	71.94
359.122	82.94
359.349	86.94
359.576	93.94
359.802	75.94
360.029	81.94
360.256	88.94
360.483	87.94
360.709	79.94
360.936	71.94
361.163	81.94
361.39	83.94
361.616	86.94
361.843	84.94
362.07	78.94
362.296	88.94
362.523	92.94
362.749	79.94
362.976	87.94
363.203	83.94
363.429	72.94
363.656	76.94
363.882	81.94
364.109	73.94
364.335	97.94
364.562	82.94
364.788	75.94
365.015	79.94
365.241	84.94
365.468	95.94
365.694	69.94
365.92	71.94
366.147	85.94
366.373	79.94
366.599	80.94
366.826	88.94
367.052	74.94
367.278	87.94
367.505	79.94
367.731	87.94
367.957	78.94
368.184	98.94
368.41	76.94
368.636	91.94
368.862	88.94
369.089	101.94
369.315	92.94
369.541	70.94
369.767	67.94
369.993	76.94
370.219	74.94
370.445	82.94
370.672	72.94
370.898	85.94
371.124	90.94
371.35	81.94
371.576	78.94
371.802	80.94
372.028	77.94
372.254	101.94
372.48	70.94
372.706	79.94
372.932	81.94
373.158	83.94
373.384	83.94
373.61	78.94
373.835	100.94
374.061	66.94
374.287	94.94
374.513	81.94
374.739	79.94
374.965	86.94
375.191	75.94
375.416	103.94
375.642	70.94
375.868	70.94
376.094	80.94
376.319	75.94
376.545	78.94
376.771	98.94
376.997	77.94
377.222	76.94
377.448	94.94
377.674	82.94
377.899	70.94
378.125	79.94
378.35	91.94
378.576	89.94
378.802	96.94
379.027	80.94
379.253	74.94
379.478	95.94
379.704	99.94
379.929	81.94
380.155	94.94
380.38	85.94
380.606	82.94
380.831	88.94
381.057	84.94
381.282	83.94
381.507	82.94
381.733	94.94
381.958	100.94
382.184	66.94
382.409	81.94
382.634	89.94
382.86	84.94
383.085	86.94
383.31	76.94
383.535	81.94
383.761	83.94
383.986	83.94
384.211	92.94
384.436	87.94
384.662	73.94
384.887	75.94
385.112	80.94
385.337	84.94
385.562	77.94
385.787	86.94
386.013	95.94
386.238	82.94
386.463	84.94
386.688	79.94
386.913	88.94
387.138	86.94
387.363	80.94
387.588	80.94
387.813	76.94
388.038	82.94
388.263	84.94
388.488	74.94
388.713	91.94
388.938	80.94
389.163	81.94
389.387	100.94
389.612	92.94
389.837	88.94
390.062	79.94
390.287	82.94
390.512	84.94
390.736	93.94
390.961	93.94
391.186	86.94
391.411	86.94
391.636	76.94
391.86	86.94
392.085	89.94
392.31	100.94
392.534	83.94
392.759	86.94
392.984	89.94
393.208	84.94
393.433	88.94
393.658	100.94
393.882	83.94
394.107	82.94
394.331	94.94
394.556	94.94
394.78	99.94
395.005	92.94
395.229	82.94
395.454	78.94
395.678	78.94
395.903	88.94
396.127	90.94
396.352	70.94
396.576	70.94
396.801	89.94
397.025	99.94
397.249	106.94
397.474	97.94
397.698	84.94
397.922	76.94
398.147	88.94
398.371	88.94
398.595	88.94
398.82	76.94
399.044	82.94
399.268	94.94
399.492	95.94
399.717	103.94
399.941	85.94
400.165	86.94
400.389	87.94
400.613	87.94
400.837	80.94
401.062	91.94
401.286	84.94
401.51	71.94
401.734	89.94
401.958	87.94
402.182	85.94
402.406	75.94
402.63	78.94
402.854	87.94
403.078	79.94
403.302	76.94
403.526	88.94
403.75	86.94
403.974	88.94
404.198	71.94
404.422	99.94
404.645	94.94
404.869	73.94
405.093	94.94
405.317	92.94
405.541	92.94
405.765	95.94
405.988	78.94
406.212	84.94
406.436	99.94
406.66	87.94
406.883	90.94
407.107	82.94
407.331	88.94
407.555	70.94
407.778	90.94
408.002	84.94
408.226	94.94
408.449	87.94
408.673	85.94
408.896	86.94
409.12	67.94
409.344	73.94
409.567	85.94
409.791	96.94
410.014	85.94
410.238	96.94
410.461	89.94
410.685	87.94
410.908	85.94
411.132	84.94
411.355	90.94
411.578	86.94
411.802	75.94
412.025	82.94
412.249	82.94
412.472	96.94
412.695	80.94
412.919	72.94
413.142	100.94
413.365	87.94
413.589	78.94
413.812	90.94
414.035	97.94
414.258	83.94
414.482	88.94
414.705	84.94
414.928	77.94
415.151	75.94
415.374	107.94
415.597	90.94
415.821	88.94
416.044	87.94
416.267	83.94
416.49	82.94
416.713	91.94
416.936	85.94
417.159	90.94
417.382	78.94
417.605	93.94
417.828	89.94
418.051	108.94
418.274	78.94
418.497	84.94
418.72	83.94
418.943	89.94
419.166	72.94
419.389	85.94
419.611	92.94
419.834	89.94
420.057	84.94
420.28	86.94
420.503	82.94
420.726	80.94
420.948	84.94
421.171	87.94
421.394	96.94
421.617	74.94
421.839	68.94
422.062	86.94
422.285	91.94
422.507	76.94
422.73	84.94
422.953	85.94
423.175	84.94
423.398	84.94
423.621	87.94
423.843	94.94
424.066	91.94
424.288	79.94
424.511	92.94
424.733	80.94
424.956	91.94
425.178	95.94
425.401	101.94
425.623	90.94
425.846	82.94
426.068	85.94
426.291	87.94
426.513	97.94
426.735	92.94
426.958	80.94
427.18	85.94
427.402	89.94
427.625	95.94
427.847	94.94
428.069	94.94
428.292	91.94
428.514	74.94
428.736	80.94
428.958	77.94
429.181	80.94
429.403	80.94
429.625	92.94
429.847	80.94
430.069	100.94
430.292	83.94
430.514	80.94
430.736	80.94
430.958	91.94
431.18	68.94
431.402	73.94
431.624	76.94
431.846	81.94
432.068	73.94
432.29	92.94
432.512	78.94
432.734	89.94
432.956	84.94
433.178	90.94
433.4	66.94
433.622	86.94
433.844	88.94
434.066	84.94
434.287	90.94
434.509	83.94
434.731	89.94
434.953	91.94
435.175	96.94
435.397	93.94
435.618	82.94
435.84	74.94
436.062	77.94
436.284	85.94
436.505	89.94
436.727	79.94
436.949	88.94
437.17	80.94
437.392	78.94
437.614	82.94
437.835	87.94
438.057	71.94
438.278	91.94
438.5	81.94
438.721	84.94
438.943	81.94
439.165	91.94
439.386	73.94
439.608	70.94
439.829	79.94
440.05	85.94
440.272	79.94
440.493	94.94
440.715	85.94
440.936	91.94
441.158	76.94
441.379	78.94
441.6	91.94
441.822	91.94
442.043	81.94
442.264	93.94
442.486	86.94
442.707	92.94
442.928	84.94
443.149	81.94
443.371	96.94
443.592	86.94
443.813	83.94
444.034	91.94
444.255	84.94
444.476	86.94
444.698	98.94
444.919	71.94
445.14	162.94
445.361	115.94
445.582	81.94
445.803	80.94
446.024	91.94
446.245	89.94
446.466	68.94
446.687	87.94
446.908	78.94
447.129	83.94
447.35	82.94
447.571	102.94
447.792	74.94
448.013	84.94
448.234	80.94
448.455	84.94
448.675	79.94
448.896	83.94
449.117	84.94
449.338	80.94
449.559	76.94
449.779	86.94
450	96.94
450.221	81.94
450.442	94.94
450.662	92.94
450.883	85.94
451.104	85.94
451.324	90.94
451.545	81.94
451.766	76.94
451.986	86.94
452.207	83.94
452.428	88.94
452.648	92.94
452.869	78.94
453.089	70.94
453.31	76.94
453.53	72.94
453.751	84.94
453.971	76.94
454.192	77.94
454.412	76.94
454.633	87.94
454.853	74.94
455.073	78.94
455.294	89.94
455.514	96.94
455.734	81.94
455.955	88.94
456.175	95.94
456.395	75.94
456.616	83.94
456.836	84.94
457.056	94.94
457.276	98.94
457.497	92.94
457.717	87.94
457.937	79.94
458.157	81.94
458.377	74.94
458.598	70.94
458.818	83.94
459.038	69.94
459.258	78.94
459.478	80.94
459.698	93.94
459.918	73.94
460.138	78.94
460.358	89.94
460.578	84.94
460.798	86.94
461.018	83.94
461.238	91.94
461.458	101.94
461.678	91.94
461.898	96.94
462.118	90.94
462.338	93.94
462.558	84.94
462.777	100.94
462.997	87.94
463.217	82.94
463.437	81.94
463.657	95.94
463.876	88.94
464.096	87.94
464.316	84.94
464.536	96.94
464.755	79.94
464.975	83.94
465.195	76.94
465.414	91.94
465.634	84.94
465.854	90.94
466.073	92.94
466.293	86.94
466.512	75.94
466.732	79.94
466.951	75.94
467.171	83.94
467.391	79.94
467.61	83.94
467.829	80.94
468.049	85.94
468.268	83.94
468.488	82.94
468.707	73.94
468.927	83.94
469.146	77.94
469.365	99.94
469.585	85.94
469.804	68.94
470.023	86.94
470.243	94.94
470.462	84.94
470.681	99.94
470.901	89.94
471.12	81.94
471.339	77.94
471.558	71.94
471.777	73.94
471.997	82.94
472.216	82.94
472.435	71.94
472.654	104.94
472.873	79.94
473.092	75.94
473.311	84.94
473.53	73.94
473.749	87.94
473.968	76.94
474.187	80.94
474.406	67.94
474.625	85.94
474.844	88.94
475.063	90.94
475.282	90.94
475.501	95.94
475.72	84.94
475.939	76.94
476.158	91.94
476.377	78.94
476.596	88.94
476.814	84.94
477.033	75.94
477.252	86.94
477.471	80.94
477.69	81.94
477.908	87.94
478.127	100.94
478.346	80.94
478.564	87.94
478.783	74.94
479.002	91.94
479.22	96.94
479.439	86.94
479.658	80.94
479.876	84.94
480.095	83.94
480.313	84.94
480.532	81.94
480.751	81.94
480.969	86.94
481.188	98.94
481.406	100.94
481.624	70.94
481.843	88.94
482.061	87.94
482.28	83.94
482.498	84.94
482.717	95.94
482.935	85.94
483.153	82.94
483.372	87.94
483.59	92.94
483.808	87.94
484.027	99.94
484.245	88.94
484.463	72.94
484.681	91.94
484.9	85.94
485.118	77.94
485.336	91.94
485.554	80.94
485.772	81.94
485.99	100.94
486.209	76.94
486.427	86.94
486.645	84.94
486.863	92.94
487.081	92.94
487.299	100.94
487.517	74.94
487.735	90.94
487.953	100.94
488.171	87.94
488.389	102.94
488.607	86.94
488.825	87.94
489.043	84.94
489.261	88.94
489.479	88.94
489.696	79.94
489.914	82.94
490.132	89.94
490.35	92.94
490.568	67.94
490.786	82.94
491.003	90.94
491.221	81.94
491.439	78.94
491.657	80.94
491.874	83.94
492.092	96.94
492.31	88.94
492.527	85.94
492.745	83.94
492.963	93.94
493.18	95.94
493.398	91.94
493.615	87.94
493.833	70.94
494.05	86.94
494.268	82.94
494.485	81.94
494.703	70.94
494.92	94.94
495.138	87.94
495.355	87.94
495.573	92.94
495.79	79.94
496.008	66.94
496.225	80.94
496.442	88.94
496.66	92.94
496.877	87.94
497.094	88.94
497.312	79.94
497.529	79.94
497.746	82.94
497.963	86.94
498.181	84.94
498.398	107.94
498.615	104.94
498.832	105.94
499.049	104.94
499.267	97.94
499.484	94.94
499.701	106.94
499.918	97.94
500.135	107.94
500.352	108.94
500.569	126.94
500.786	106.94
501.003	108.94
501.22	120.94
501.437	110.94
501.654	79.94
501.871	99.94
502.088	87.94
502.305	84.94
502.522	91.94
502.739	87.94
502.956	87.94
503.172	90.94
503.389	67.94
503.606	97.94
503.823	91.94
504.04	89.94
504.256	86.94
504.473	97.94
504.69	91.94
504.907	105.94
505.123	88.94
505.34	76.94
505.557	78.94
505.773	94.94
505.99	86.94
506.207	90.94
506.423	81.94
506.64	100.94
506.856	88.94
507.073	87.94
507.289	87.94
507.506	101.94
507.722	70.94
507.939	81.94
508.155	70.94
508.372	90.94
508.588	80.94
508.805	78.94
509.021	84.94
509.238	97.94
509.454	94.94
509.67	82.94
509.887	96.94
510.103	80.94
510.319	82.94
510.536	94.94
510.752	82.94
510.968	88.94
511.184	80.94
511.401	96.94
511.617	81.94
511.833	93.94
512.049	96.94
512.265	80.94
512.481	77.94
512.698	86.94
512.914	89.94
513.13	87.94
513.346	75.94
513.562	79.94
513.778	94.94
513.994	79.94
514.21	89.94
514.426	82.94
514.642	82.94
514.858	70.94
515.074	72.94
515.29	88.94
515.506	86.94
515.721	80.94
515.937	87.94
516.153	88.94
516.369	78.94
516.585	81.94
516.801	74.94
517.016	92.94
517.232	92.94
517.448	89.94
517.664	88.94
517.879	75.94
518.095	87.94
518.311	88.94
518.527	83.94
518.742	79.94
518.958	90.94
519.173	80.94
519.389	89.94
519.605	109.94
519.82	92.94
