Data from BG_HRD10591_065.txt Node
Date: Fri May 16 15:14:55 EDT 2025
User: Yrep
Spectrometer: HR+D1059
Trigger mode: 1
Integration Time (sec): 1.000000E-1
Scans to average: 1
Electric dark correction enabled: true
Nonlinearity correction enabled: false
Boxcar width: 0
XAxis mode: Wavelengths
Number of Pixels in Spectrum: 2048
>>>>>Begin Spectral Data<<<<<
223.165	-14.94
223.4	-14.94
223.635	-14.94
223.869	-37.94
224.104	-15.94
224.338	-15.94
224.573	-16.94
224.808	-18.94
225.042	-13.94
225.277	-1.94
225.511	5.06
225.746	5.06
225.98	18.06
226.215	18.06
226.449	8.06
226.683	19.06
226.918	29.06
227.152	34.06
227.387	31.06
227.621	50.06
227.856	55.06
228.09	43.06
228.324	62.06
228.559	57.06
228.793	67.06
229.027	57.06
229.262	74.06
229.496	68.06
229.73	58.06
229.964	65.06
230.199	73.06
230.433	69.06
230.667	81.06
230.901	85.06
231.136	77.06
231.37	78.06
231.604	81.06
231.838	82.06
232.072	96.06
232.306	87.06
232.541	74.06
232.775	85.06
233.009	96.06
233.243	95.06
233.477	97.06
233.711	73.06
233.945	62.06
234.179	81.06
234.413	78.06
234.647	90.06
234.881	72.06
235.115	86.06
235.349	79.06
235.583	83.06
235.817	82.06
236.051	75.06
236.285	77.06
236.519	81.06
236.753	85.06
236.987	80.06
237.221	79.06
237.455	84.06
237.689	72.06
237.922	79.06
238.156	77.06
238.39	76.06
238.624	92.06
238.858	78.06
239.091	78.06
239.325	77.06
239.559	64.06
239.793	87.06
240.027	90.06
240.26	78.06
240.494	87.06
240.728	81.06
240.961	85.06
241.195	85.06
241.429	74.06
241.662	73.06
241.896	81.06
242.13	83.06
242.363	76.06
242.597	79.06
242.83	89.06
243.064	79.06
243.298	77.06
243.531	81.06
243.765	77.06
243.998	75.06
244.232	89.06
244.465	99.06
244.699	74.06
244.932	87.06
245.166	87.06
245.399	88.06
245.633	79.06
245.866	77.06
246.099	75.06
246.333	85.06
246.566	67.06
246.8	86.06
247.033	73.06
247.266	98.06
247.5	83.06
247.733	88.06
247.966	58.06
248.2	69.06
248.433	73.06
248.666	67.06
248.899	80.06
249.133	76.06
249.366	83.06
249.599	96.06
249.832	67.06
250.066	83.06
250.299	91.06
250.532	94.06
250.765	89.06
250.998	87.06
251.231	83.06
251.465	101.06
251.698	80.06
251.931	95.06
252.164	94.06
252.397	73.06
252.63	82.06
252.863	82.06
253.096	70.06
253.329	79.06
253.562	99.06
253.795	91.06
254.028	79.06
254.261	81.06
254.494	91.06
254.727	74.06
254.96	77.06
255.193	76.06
255.426	90.06
255.659	81.06
255.892	76.06
256.124	79.06
256.357	80.06
256.59	83.06
256.823	78.06
257.056	91.06
257.289	80.06
257.521	78.06
257.754	80.06
257.987	89.06
258.22	84.06
258.452	82.06
258.685	94.06
258.918	93.06
259.151	94.06
259.383	92.06
259.616	81.06
259.849	89.06
260.081	81.06
260.314	78.06
260.547	72.06
260.779	85.06
261.012	86.06
261.244	97.06
261.477	91.06
261.71	93.06
261.942	79.06
262.175	77.06
262.407	87.06
262.64	90.06
262.872	87.06
263.105	83.06
263.337	87.06
263.57	79.06
263.802	78.06
264.035	74.06
264.267	80.06
264.499	87.06
264.732	87.06
264.964	70.06
265.197	88.06
265.429	110.06
265.661	93.06
265.894	88.06
266.126	93.06
266.358	87.06
266.591	82.06
266.823	89.06
267.055	79.06
267.287	76.06
267.52	89.06
267.752	78.06
267.984	90.06
268.216	83.06
268.448	83.06
268.681	92.06
268.913	98.06
269.145	82.06
269.377	97.06
269.609	68.06
269.841	80.06
270.073	96.06
270.306	87.06
270.538	83.06
270.77	89.06
271.002	87.06
271.234	90.06
271.466	81.06
271.698	82.06
271.93	82.06
272.162	85.06
272.394	103.06
272.626	87.06
272.858	82.06
273.09	89.06
273.322	94.06
273.553	92.06
273.785	86.06
274.017	81.06
274.249	91.06
274.481	101.06
274.713	92.06
274.945	85.06
275.176	85.06
275.408	86.06
275.64	92.06
275.872	86.06
276.104	86.06
276.335	97.06
276.567	88.06
276.799	73.06
277.031	79.06
277.262	78.06
277.494	90.06
277.726	99.06
277.957	83.06
278.189	81.06
278.421	91.06
278.652	88.06
278.884	89.06
279.115	85.06
279.347	81.06
279.579	91.06
279.81	82.06
280.042	99.06
280.273	90.06
280.505	83.06
280.736	88.06
280.968	79.06
281.199	77.06
281.431	99.06
281.662	99.06
281.894	81.06
282.125	85.06
282.356	72.06
282.588	91.06
282.819	87.06
283.051	85.06
283.282	77.06
283.513	109.06
283.745	91.06
283.976	77.06
284.207	93.06
284.439	92.06
284.67	95.06
284.901	97.06
285.132	87.06
285.364	90.06
285.595	95.06
285.826	92.06
286.057	82.06
286.288	89.06
286.52	85.06
286.751	101.06
286.982	80.06
287.213	85.06
287.444	79.06
287.675	98.06
287.906	101.06
288.138	77.06
288.369	94.06
288.6	79.06
288.831	76.06
289.062	92.06
289.293	87.06
289.524	99.06
289.755	89.06
289.986	77.06
290.217	87.06
290.448	85.06
290.679	94.06
290.91	97.06
291.141	100.06
291.371	92.06
291.602	80.06
291.833	94.06
292.064	95.06
292.295	109.06
292.526	95.06
292.757	84.06
292.987	76.06
293.218	86.06
293.449	89.06
293.68	96.06
293.91	77.06
294.141	80.06
294.372	89.06
294.603	93.06
294.833	95.06
295.064	96.06
295.295	103.06
295.525	104.06
295.756	90.06
295.987	83.06
296.217	96.06
296.448	92.06
296.679	91.06
296.909	91.06
297.14	79.06
297.37	86.06
297.601	90.06
297.831	79.06
298.062	84.06
298.292	101.06
298.523	94.06
298.753	96.06
298.984	89.06
299.214	101.06
299.445	97.06
299.675	101.06
299.905	93.06
300.136	94.06
300.366	94.06
300.597	103.06
300.827	99.06
301.057	94.06
301.288	83.06
301.518	91.06
301.748	89.06
301.979	90.06
302.209	99.06
302.439	98.06
302.669	91.06
302.9	85.06
303.13	95.06
303.36	105.06
303.59	89.06
303.82	91.06
304.051	98.06
304.281	98.06
304.511	91.06
304.741	92.06
304.971	101.06
305.201	107.06
305.431	88.06
305.661	97.06
305.891	98.06
306.121	83.06
306.352	89.06
306.582	98.06
306.812	88.06
307.042	81.06
307.272	94.06
307.502	94.06
307.731	87.06
307.961	81.06
308.191	95.06
308.421	81.06
308.651	99.06
308.881	98.06
309.111	92.06
309.341	96.06
309.571	91.06
309.8	86.06
310.03	93.06
310.26	93.06
310.49	90.06
310.72	94.06
310.949	86.06
311.179	96.06
311.409	104.06
311.639	90.06
311.868	95.06
312.098	106.06
312.328	111.06
312.557	95.06
312.787	94.06
313.017	101.06
313.246	89.06
313.476	87.06
313.706	72.06
313.935	87.06
314.165	98.06
314.394	98.06
314.624	83.06
314.853	83.06
315.083	92.06
315.312	93.06
315.542	93.06
315.771	86.06
316.001	83.06
316.23	87.06
316.46	93.06
316.689	92.06
316.919	101.06
317.148	94.06
317.377	88.06
317.607	91.06
317.836	93.06
318.065	85.06
318.295	100.06
318.524	89.06
318.753	95.06
318.983	101.06
319.212	86.06
319.441	95.06
319.67	84.06
319.9	102.06
320.129	94.06
320.358	87.06
320.587	92.06
320.816	85.06
321.046	82.06
321.275	93.06
321.504	89.06
321.733	83.06
321.962	107.06
322.191	85.06
322.42	78.06
322.649	88.06
322.878	92.06
323.108	90.06
323.337	88.06
323.566	98.06
323.795	93.06
324.024	95.06
324.253	93.06
324.482	99.06
324.71	94.06
324.939	84.06
325.168	80.06
325.397	91.06
325.626	96.06
325.855	104.06
326.084	84.06
326.313	83.06
326.542	85.06
326.77	85.06
326.999	90.06
327.228	95.06
327.457	95.06
327.686	83.06
327.914	86.06
328.143	90.06
328.372	97.06
328.6	83.06
328.829	80.06
329.058	91.06
329.287	101.06
329.515	93.06
329.744	87.06
329.972	91.06
330.201	90.06
330.43	95.06
330.658	98.06
330.887	82.06
331.115	98.06
331.344	81.06
331.572	97.06
331.801	91.06
332.03	78.06
332.258	77.06
332.486	85.06
332.715	86.06
332.943	107.06
333.172	101.06
333.4	101.06
333.629	96.06
333.857	92.06
334.085	100.06
334.314	96.06
334.542	93.06
334.771	87.06
334.999	96.06
335.227	87.06
335.455	102.06
335.684	86.06
335.912	93.06
336.14	87.06
336.369	95.06
336.597	91.06
336.825	88.06
337.053	94.06
337.281	81.06
337.51	99.06
337.738	94.06
337.966	93.06
338.194	91.06
338.422	92.06
338.65	85.06
338.878	98.06
339.106	100.06
339.334	96.06
339.562	86.06
339.79	87.06
340.018	88.06
340.246	102.06
340.474	83.06
340.702	79.06
340.93	101.06
341.158	93.06
341.386	78.06
341.614	85.06
341.842	91.06
342.07	78.06
342.298	85.06
342.526	89.06
342.754	96.06
342.981	77.06
343.209	91.06
343.437	100.06
343.665	99.06
343.893	94.06
344.12	117.06
344.348	83.06
344.576	102.06
344.804	105.06
345.031	103.06
345.259	89.06
345.487	85.06
345.714	105.06
345.942	85.06
346.17	99.06
346.397	95.06
346.625	88.06
346.853	85.06
347.08	88.06
347.308	97.06
347.535	104.06
347.763	84.06
347.99	92.06
348.218	97.06
348.445	104.06
348.673	90.06
348.9	94.06
349.128	93.06
349.355	81.06
349.583	81.06
349.81	86.06
350.037	92.06
350.265	83.06
350.492	88.06
350.72	90.06
350.947	83.06
351.174	89.06
351.402	96.06
351.629	94.06
351.856	85.06
352.083	73.06
352.311	95.06
352.538	90.06
352.765	96.06
352.992	99.06
353.22	91.06
353.447	91.06
353.674	96.06
353.901	87.06
354.128	75.06
354.355	98.06
354.583	97.06
354.81	88.06
355.037	97.06
355.264	73.06
355.491	95.06
355.718	87.06
355.945	91.06
356.172	90.06
356.399	93.06
356.626	92.06
356.853	92.06
357.08	82.06
357.307	83.06
357.534	85.06
357.761	86.06
357.988	96.06
358.215	105.06
358.441	89.06
358.668	81.06
358.895	81.06
359.122	94.06
359.349	79.06
359.576	91.06
359.802	89.06
360.029	88.06
360.256	94.06
360.483	101.06
360.709	101.06
360.936	94.06
361.163	101.06
361.39	103.06
361.616	84.06
361.843	80.06
362.07	95.06
362.296	83.06
362.523	83.06
362.749	83.06
362.976	99.06
363.203	90.06
363.429	82.06
363.656	87.06
363.882	93.06
364.109	84.06
364.335	90.06
364.562	75.06
364.788	92.06
365.015	79.06
365.241	89.06
365.468	83.06
365.694	88.06
365.92	103.06
366.147	75.06
366.373	83.06
366.599	87.06
366.826	89.06
367.052	96.06
367.278	80.06
367.505	86.06
367.731	105.06
367.957	88.06
368.184	104.06
368.41	86.06
368.636	97.06
368.862	90.06
369.089	99.06
369.315	109.06
369.541	96.06
369.767	93.06
369.993	103.06
370.219	90.06
370.445	105.06
370.672	89.06
370.898	100.06
371.124	93.06
371.35	79.06
371.576	86.06
371.802	84.06
372.028	89.06
372.254	89.06
372.48	89.06
372.706	103.06
372.932	70.06
373.158	84.06
373.384	92.06
373.61	97.06
373.835	96.06
374.061	84.06
374.287	93.06
374.513	80.06
374.739	92.06
374.965	90.06
375.191	90.06
375.416	97.06
375.642	90.06
375.868	97.06
376.094	86.06
376.319	78.06
376.545	88.06
376.771	83.06
376.997	74.06
377.222	81.06
377.448	99.06
377.674	84.06
377.899	86.06
378.125	91.06
378.35	91.06
378.576	89.06
378.802	87.06
379.027	85.06
379.253	93.06
379.478	82.06
379.704	94.06
379.929	86.06
380.155	84.06
380.38	101.06
380.606	94.06
380.831	89.06
381.057	103.06
381.282	89.06
381.507	99.06
381.733	93.06
381.958	83.06
382.184	91.06
382.409	83.06
382.634	77.06
382.86	89.06
383.085	95.06
383.31	95.06
383.535	99.06
383.761	93.06
383.986	82.06
384.211	90.06
384.436	86.06
384.662	95.06
384.887	101.06
385.112	90.06
385.337	94.06
385.562	101.06
385.787	85.06
386.013	82.06
386.238	99.06
386.463	93.06
386.688	91.06
386.913	93.06
387.138	96.06
387.363	92.06
387.588	80.06
387.813	92.06
388.038	80.06
388.263	93.06
388.488	85.06
388.713	93.06
388.938	87.06
389.163	94.06
389.387	83.06
389.612	102.06
389.837	89.06
390.062	87.06
390.287	89.06
390.512	92.06
390.736	71.06
390.961	103.06
391.186	89.06
391.411	81.06
391.636	92.06
391.86	96.06
392.085	86.06
392.31	92.06
392.534	91.06
392.759	81.06
392.984	83.06
393.208	105.06
393.433	75.06
393.658	85.06
393.882	85.06
394.107	90.06
394.331	98.06
394.556	107.06
394.78	83.06
395.005	88.06
395.229	99.06
395.454	99.06
395.678	99.06
395.903	97.06
396.127	102.06
396.352	92.06
396.576	68.06
396.801	98.06
397.025	83.06
397.249	96.06
397.474	106.06
397.698	87.06
397.922	98.06
398.147	89.06
398.371	84.06
398.595	91.06
398.82	102.06
399.044	92.06
399.268	101.06
399.492	95.06
399.717	99.06
399.941	98.06
400.165	82.06
400.389	93.06
400.613	85.06
400.837	104.06
401.062	97.06
401.286	99.06
401.51	83.06
401.734	84.06
401.958	82.06
402.182	87.06
402.406	94.06
402.63	93.06
402.854	92.06
403.078	88.06
403.302	97.06
403.526	98.06
403.75	97.06
403.974	106.06
404.198	94.06
404.422	97.06
404.645	98.06
404.869	94.06
405.093	103.06
405.317	90.06
405.541	89.06
405.765	93.06
405.988	84.06
406.212	86.06
406.436	98.06
406.66	81.06
406.883	101.06
407.107	105.06
407.331	96.06
407.555	101.06
407.778	92.06
408.002	92.06
408.226	77.06
408.449	81.06
408.673	85.06
408.896	89.06
409.12	99.06
409.344	96.06
409.567	96.06
409.791	91.06
410.014	108.06
410.238	102.06
410.461	90.06
410.685	87.06
410.908	78.06
411.132	86.06
411.355	97.06
411.578	96.06
411.802	103.06
412.025	86.06
412.249	86.06
412.472	81.06
412.695	88.06
412.919	79.06
413.142	98.06
413.365	90.06
413.589	90.06
413.812	81.06
414.035	80.06
414.258	87.06
414.482	103.06
414.705	86.06
414.928	105.06
415.151	83.06
415.374	86.06
415.597	103.06
415.821	94.06
416.044	89.06
416.267	93.06
416.49	94.06
416.713	89.06
416.936	77.06
417.159	87.06
417.382	95.06
417.605	95.06
417.828	99.06
418.051	89.06
418.274	90.06
418.497	97.06
418.72	90.06
418.943	86.06
419.166	97.06
419.389	102.06
419.611	98.06
419.834	105.06
420.057	103.06
420.28	92.06
420.503	96.06
420.726	82.06
420.948	86.06
421.171	89.06
421.394	98.06
421.617	93.06
421.839	86.06
422.062	106.06
422.285	93.06
422.507	107.06
422.73	101.06
422.953	94.06
423.175	78.06
423.398	89.06
423.621	81.06
423.843	77.06
424.066	82.06
424.288	90.06
424.511	82.06
424.733	93.06
424.956	90.06
425.178	97.06
425.401	103.06
425.623	98.06
425.846	75.06
426.068	108.06
426.291	93.06
426.513	98.06
426.735	108.06
426.958	89.06
427.18	90.06
427.402	91.06
427.625	90.06
427.847	80.06
428.069	91.06
428.292	90.06
428.514	86.06
428.736	103.06
428.958	91.06
429.181	97.06
429.403	96.06
429.625	89.06
429.847	89.06
430.069	94.06
430.292	90.06
430.514	92.06
430.736	89.06
430.958	89.06
431.18	102.06
431.402	87.06
431.624	94.06
431.846	72.06
432.068	88.06
432.29	86.06
432.512	107.06
432.734	71.06
432.956	92.06
433.178	94.06
433.4	102.06
433.622	100.06
433.844	89.06
434.066	89.06
434.287	95.06
434.509	82.06
434.731	92.06
434.953	80.06
435.175	96.06
435.397	103.06
435.618	96.06
435.84	89.06
436.062	90.06
436.284	94.06
436.505	91.06
436.727	83.06
436.949	78.06
437.17	90.06
437.392	95.06
437.614	79.06
437.835	86.06
438.057	90.06
438.278	99.06
438.5	86.06
438.721	76.06
438.943	99.06
439.165	101.06
439.386	86.06
439.608	101.06
439.829	89.06
440.05	83.06
440.272	87.06
440.493	90.06
440.715	87.06
440.936	94.06
441.158	95.06
441.379	96.06
441.6	89.06
441.822	91.06
442.043	96.06
442.264	99.06
442.486	99.06
442.707	97.06
442.928	90.06
443.149	95.06
443.371	97.06
443.592	94.06
443.813	91.06
444.034	82.06
444.255	91.06
444.476	88.06
444.698	102.06
444.919	101.06
445.14	177.06
445.361	119.06
445.582	85.06
445.803	91.06
446.024	90.06
446.245	92.06
446.466	96.06
446.687	107.06
446.908	92.06
447.129	81.06
447.35	84.06
447.571	80.06
447.792	91.06
448.013	93.06
448.234	89.06
448.455	89.06
448.675	84.06
448.896	92.06
449.117	87.06
449.338	96.06
449.559	90.06
449.779	90.06
450	86.06
450.221	71.06
450.442	97.06
450.662	86.06
450.883	93.06
451.104	81.06
451.324	82.06
451.545	93.06
451.766	95.06
451.986	85.06
452.207	96.06
452.428	81.06
452.648	104.06
452.869	100.06
453.089	89.06
453.31	89.06
453.53	82.06
453.751	88.06
453.971	84.06
454.192	94.06
454.412	85.06
454.633	87.06
454.853	96.06
455.073	86.06
455.294	84.06
455.514	79.06
455.734	85.06
455.955	103.06
456.175	93.06
456.395	81.06
456.616	81.06
456.836	97.06
457.056	104.06
457.276	104.06
457.497	79.06
457.717	87.06
457.937	79.06
458.157	80.06
458.377	85.06
458.598	74.06
458.818	91.06
459.038	94.06
459.258	85.06
459.478	93.06
459.698	93.06
459.918	91.06
460.138	85.06
460.358	98.06
460.578	87.06
460.798	102.06
461.018	96.06
461.238	90.06
461.458	87.06
461.678	97.06
461.898	101.06
462.118	101.06
462.338	93.06
462.558	102.06
462.777	94.06
462.997	90.06
463.217	93.06
463.437	102.06
463.657	92.06
463.876	91.06
464.096	81.06
464.316	111.06
464.536	92.06
464.755	101.06
464.975	99.06
465.195	98.06
465.414	107.06
465.634	93.06
465.854	93.06
466.073	99.06
466.293	96.06
466.512	80.06
466.732	89.06
466.951	87.06
467.171	80.06
467.391	93.06
467.61	94.06
467.829	81.06
468.049	90.06
468.268	101.06
468.488	89.06
468.707	84.06
468.927	82.06
469.146	93.06
469.365	80.06
469.585	86.06
469.804	78.06
470.023	88.06
470.243	90.06
470.462	85.06
470.681	83.06
470.901	109.06
471.12	87.06
471.339	85.06
471.558	85.06
471.777	98.06
471.997	90.06
472.216	66.06
472.435	81.06
472.654	93.06
472.873	87.06
473.092	86.06
473.311	94.06
473.53	98.06
473.749	93.06
473.968	91.06
474.187	99.06
474.406	89.06
474.625	90.06
474.844	89.06
475.063	75.06
475.282	90.06
475.501	92.06
475.72	93.06
475.939	89.06
476.158	93.06
476.377	90.06
476.596	103.06
476.814	97.06
477.033	87.06
477.252	95.06
477.471	93.06
477.69	89.06
477.908	83.06
478.127	97.06
478.346	84.06
478.564	85.06
478.783	91.06
479.002	88.06
479.22	95.06
479.439	86.06
479.658	102.06
479.876	86.06
480.095	96.06
480.313	102.06
480.532	89.06
480.751	85.06
480.969	106.06
481.188	99.06
481.406	93.06
481.624	107.06
481.843	102.06
482.061	89.06
482.28	83.06
482.498	96.06
482.717	90.06
482.935	89.06
483.153	81.06
483.372	92.06
483.59	97.06
483.808	94.06
484.027	105.06
484.245	83.06
484.463	99.06
484.681	104.06
484.9	95.06
485.118	99.06
485.336	90.06
485.554	90.06
485.772	90.06
485.99	101.06
486.209	97.06
486.427	83.06
486.645	107.06
486.863	103.06
487.081	81.06
487.299	87.06
487.517	92.06
487.735	87.06
487.953	101.06
488.171	102.06
488.389	90.06
488.607	90.06
488.825	90.06
489.043	102.06
489.261	101.06
489.479	85.06
489.696	96.06
489.914	98.06
490.132	105.06
490.35	96.06
490.568	99.06
490.786	88.06
491.003	88.06
491.221	91.06
491.439	89.06
491.657	91.06
491.874	86.06
492.092	93.06
492.31	90.06
492.527	87.06
492.745	94.06
492.963	91.06
493.18	89.06
493.398	84.06
493.615	87.06
493.833	84.06
494.05	87.06
494.268	90.06
494.485	95.06
494.703	88.06
494.92	97.06
495.138	97.06
495.355	97.06
495.573	96.06
495.79	101.06
496.008	82.06
496.225	88.06
496.442	105.06
496.66	99.06
496.877	100.06
497.094	93.06
497.312	105.06
497.529	101.06
497.746	98.06
497.963	97.06
498.181	77.06
498.398	103.06
498.615	105.06
498.832	106.06
499.049	92.06
499.267	98.06
499.484	101.06
499.701	101.06
499.918	110.06
500.135	107.06
500.352	115.06
500.569	107.06
500.786	109.06
501.003	121.06
501.22	105.06
501.437	112.06
501.654	89.06
501.871	93.06
502.088	95.06
502.305	91.06
502.522	99.06
502.739	99.06
502.956	93.06
503.172	89.06
503.389	97.06
503.606	90.06
503.823	87.06
504.04	93.06
504.256	94.06
504.473	87.06
504.69	103.06
504.907	105.06
505.123	92.06
505.34	97.06
505.557	93.06
505.773	108.06
505.99	83.06
506.207	93.06
506.423	87.06
506.64	89.06
506.856	95.06
507.073	81.06
507.289	97.06
507.506	87.06
507.722	90.06
507.939	81.06
508.155	101.06
508.372	105.06
508.588	98.06
508.805	94.06
509.021	98.06
509.238	87.06
509.454	89.06
509.67	87.06
509.887	90.06
510.103	95.06
510.319	86.06
510.536	101.06
510.752	92.06
510.968	101.06
511.184	94.06
511.401	77.06
511.617	101.06
511.833	88.06
512.049	91.06
512.265	88.06
512.481	83.06
512.698	90.06
512.914	91.06
513.13	82.06
513.346	94.06
513.562	92.06
513.778	85.06
513.994	103.06
514.21	101.06
514.426	94.06
514.642	87.06
514.858	109.06
515.074	83.06
515.29	95.06
515.506	93.06
515.721	83.06
515.937	91.06
516.153	86.06
516.369	96.06
516.585	104.06
516.801	101.06
517.016	91.06
517.232	85.06
517.448	93.06
517.664	96.06
517.879	87.06
518.095	101.06
