Data from BG_HRD10591_058.txt Node
Date: Fri May 16 15:14:51 EDT 2025
User: Yrep
Spectrometer: HR+D1059
Trigger mode: 1
Integration Time (sec): 1.000000E-1
Scans to average: 1
Electric dark correction enabled: true
Nonlinearity correction enabled: false
Boxcar width: 0
XAxis mode: Wavelengths
Number of Pixels in Spectrum: 2048
>>>>>Begin Spectral Data<<<<<
223.165	-14.38
223.4	-14.38
223.635	-14.38
223.869	-20.38
224.104	-12.38
224.338	-20.38
224.573	-26.38
224.808	-11.38
225.042	-7.38
225.277	-12.38
225.511	8.62
225.746	-9.38
225.98	7.62
226.215	31.62
226.449	20.62
226.683	0.62
226.918	21.62
227.152	43.62
227.387	50.62
227.621	44.62
227.856	51.62
228.09	47.62
228.324	57.62
228.559	51.62
228.793	61.62
229.027	67.62
229.262	59.62
229.496	65.62
229.73	71.62
229.964	81.62
230.199	75.62
230.433	73.62
230.667	67.62
230.901	71.62
231.136	72.62
231.37	76.62
231.604	81.62
231.838	85.62
232.072	84.62
232.306	80.62
232.541	83.62
232.775	88.62
233.009	79.62
233.243	81.62
233.477	73.62
233.711	88.62
233.945	80.62
234.179	83.62
234.413	73.62
234.647	84.62
234.881	81.62
235.115	80.62
235.349	80.62
235.583	71.62
235.817	80.62
236.051	78.62
236.285	70.62
236.519	76.62
236.753	77.62
236.987	85.62
237.221	80.62
237.455	95.62
237.689	82.62
237.922	75.62
238.156	80.62
238.39	75.62
238.624	80.62
238.858	68.62
239.091	72.62
239.325	94.62
239.559	77.62
239.793	74.62
240.027	77.62
240.26	85.62
240.494	86.62
240.728	77.62
240.961	71.62
241.195	77.62
241.429	81.62
241.662	76.62
241.896	72.62
242.13	73.62
242.363	76.62
242.597	77.62
242.83	73.62
243.064	91.62
243.298	82.62
243.531	82.62
243.765	79.62
243.998	75.62
244.232	72.62
244.465	66.62
244.699	91.62
244.932	81.62
245.166	69.62
245.399	81.62
245.633	72.62
245.866	78.62
246.099	79.62
246.333	73.62
246.566	85.62
246.8	94.62
247.033	80.62
247.266	99.62
247.5	86.62
247.733	85.62
247.966	64.62
248.2	85.62
248.433	74.62
248.666	73.62
248.899	79.62
249.133	75.62
249.366	86.62
249.599	86.62
249.832	80.62
250.066	84.62
250.299	73.62
250.532	84.62
250.765	90.62
250.998	70.62
251.231	78.62
251.465	78.62
251.698	84.62
251.931	73.62
252.164	80.62
252.397	87.62
252.63	88.62
252.863	96.62
253.096	84.62
253.329	68.62
253.562	74.62
253.795	74.62
254.028	88.62
254.261	78.62
254.494	75.62
254.727	80.62
254.96	77.62
255.193	76.62
255.426	73.62
255.659	79.62
255.892	78.62
256.124	88.62
256.357	73.62
256.59	80.62
256.823	77.62
257.056	78.62
257.289	64.62
257.521	83.62
257.754	65.62
257.987	81.62
258.22	83.62
258.452	80.62
258.685	81.62
258.918	77.62
259.151	96.62
259.383	80.62
259.616	85.62
259.849	83.62
260.081	89.62
260.314	76.62
260.547	61.62
260.779	74.62
261.012	76.62
261.244	93.62
261.477	95.62
261.71	77.62
261.942	77.62
262.175	77.62
262.407	83.62
262.64	97.62
262.872	81.62
263.105	86.62
263.337	99.62
263.57	79.62
263.802	77.62
264.035	84.62
264.267	85.62
264.499	99.62
264.732	82.62
264.964	88.62
265.197	82.62
265.429	99.62
265.661	83.62
265.894	88.62
266.126	79.62
266.358	71.62
266.591	81.62
266.823	83.62
267.055	75.62
267.287	87.62
267.52	79.62
267.752	93.62
267.984	80.62
268.216	81.62
268.448	84.62
268.681	93.62
268.913	78.62
269.145	91.62
269.377	84.62
269.609	70.62
269.841	75.62
270.073	84.62
270.306	83.62
270.538	83.62
270.77	75.62
271.002	80.62
271.234	88.62
271.466	85.62
271.698	78.62
271.93	85.62
272.162	89.62
272.394	91.62
272.626	89.62
272.858	69.62
273.09	89.62
273.322	89.62
273.553	91.62
273.785	90.62
274.017	76.62
274.249	96.62
274.481	88.62
274.713	81.62
274.945	87.62
275.176	81.62
275.408	91.62
275.64	75.62
275.872	89.62
276.104	85.62
276.335	83.62
276.567	92.62
276.799	90.62
277.031	87.62
277.262	80.62
277.494	86.62
277.726	90.62
277.957	73.62
278.189	77.62
278.421	79.62
278.652	79.62
278.884	101.62
279.115	81.62
279.347	78.62
279.579	84.62
279.81	78.62
280.042	80.62
280.273	91.62
280.505	85.62
280.736	81.62
280.968	87.62
281.199	85.62
281.431	86.62
281.662	84.62
281.894	96.62
282.125	93.62
282.356	87.62
282.588	97.62
282.819	82.62
283.051	90.62
283.282	85.62
283.513	93.62
283.745	68.62
283.976	93.62
284.207	80.62
284.439	91.62
284.67	101.62
284.901	90.62
285.132	93.62
285.364	94.62
285.595	81.62
285.826	93.62
286.057	94.62
286.288	88.62
286.52	84.62
286.751	82.62
286.982	92.62
287.213	96.62
287.444	92.62
287.675	113.62
287.906	83.62
288.138	91.62
288.369	101.62
288.6	90.62
288.831	91.62
289.062	80.62
289.293	90.62
289.524	89.62
289.755	105.62
289.986	86.62
290.217	97.62
290.448	77.62
290.679	81.62
290.91	91.62
291.141	79.62
291.371	94.62
291.602	83.62
291.833	76.62
292.064	92.62
292.295	91.62
292.526	89.62
292.757	83.62
292.987	84.62
293.218	84.62
293.449	73.62
293.68	88.62
293.91	87.62
294.141	87.62
294.372	78.62
294.603	93.62
294.833	83.62
295.064	94.62
295.295	91.62
295.525	95.62
295.756	94.62
295.987	89.62
296.217	84.62
296.448	88.62
296.679	88.62
296.909	96.62
297.14	92.62
297.37	107.62
297.601	94.62
297.831	88.62
298.062	95.62
298.292	84.62
298.523	91.62
298.753	81.62
298.984	67.62
299.214	96.62
299.445	88.62
299.675	92.62
299.905	80.62
300.136	97.62
300.366	87.62
300.597	90.62
300.827	96.62
301.057	76.62
301.288	93.62
301.518	100.62
301.748	92.62
301.979	106.62
302.209	88.62
302.439	103.62
302.669	92.62
302.9	109.62
303.13	93.62
303.36	81.62
303.59	78.62
303.82	101.62
304.051	80.62
304.281	97.62
304.511	86.62
304.741	96.62
304.971	97.62
305.201	94.62
305.431	78.62
305.661	80.62
305.891	80.62
306.121	88.62
306.352	104.62
306.582	83.62
306.812	90.62
307.042	92.62
307.272	95.62
307.502	80.62
307.731	83.62
307.961	81.62
308.191	87.62
308.421	86.62
308.651	99.62
308.881	99.62
309.111	92.62
309.341	74.62
309.571	68.62
309.8	97.62
310.03	73.62
310.26	91.62
310.49	96.62
310.72	94.62
310.949	83.62
311.179	87.62
311.409	75.62
311.639	90.62
311.868	85.62
312.098	93.62
312.328	87.62
312.557	89.62
312.787	102.62
313.017	87.62
313.246	92.62
313.476	93.62
313.706	85.62
313.935	104.62
314.165	95.62
314.394	81.62
314.624	97.62
314.853	95.62
315.083	76.62
315.312	95.62
315.542	88.62
315.771	94.62
316.001	94.62
316.23	112.62
316.46	92.62
316.689	85.62
316.919	79.62
317.148	83.62
317.377	86.62
317.607	95.62
317.836	83.62
318.065	86.62
318.295	96.62
318.524	92.62
318.753	86.62
318.983	93.62
319.212	83.62
319.441	87.62
319.67	81.62
319.9	95.62
320.129	97.62
320.358	90.62
320.587	91.62
320.816	91.62
321.046	87.62
321.275	81.62
321.504	96.62
321.733	89.62
321.962	79.62
322.191	83.62
322.42	100.62
322.649	99.62
322.878	99.62
323.108	89.62
323.337	80.62
323.566	78.62
323.795	94.62
324.024	71.62
324.253	100.62
324.482	79.62
324.71	89.62
324.939	96.62
325.168	93.62
325.397	89.62
325.626	100.62
325.855	96.62
326.084	75.62
326.313	89.62
326.542	86.62
326.77	91.62
326.999	94.62
327.228	76.62
327.457	81.62
327.686	101.62
327.914	77.62
328.143	96.62
328.372	103.62
328.6	85.62
328.829	83.62
329.058	87.62
329.287	79.62
329.515	89.62
329.744	93.62
329.972	106.62
330.201	89.62
330.43	93.62
330.658	93.62
330.887	80.62
331.115	91.62
331.344	100.62
331.572	83.62
331.801	93.62
332.03	90.62
332.258	75.62
332.486	83.62
332.715	84.62
332.943	90.62
333.172	80.62
333.4	92.62
333.629	91.62
333.857	87.62
334.085	89.62
334.314	86.62
334.542	97.62
334.771	81.62
334.999	91.62
335.227	79.62
335.455	91.62
335.684	95.62
335.912	93.62
336.14	76.62
336.369	88.62
336.597	101.62
336.825	89.62
337.053	84.62
337.281	83.62
337.51	88.62
337.738	89.62
337.966	96.62
338.194	92.62
338.422	87.62
338.65	108.62
338.878	79.62
339.106	92.62
339.334	88.62
339.562	92.62
339.79	89.62
340.018	89.62
340.246	79.62
340.474	77.62
340.702	96.62
340.93	89.62
341.158	86.62
341.386	88.62
341.614	83.62
341.842	84.62
342.07	102.62
342.298	81.62
342.526	88.62
342.754	72.62
342.981	95.62
343.209	83.62
343.437	100.62
343.665	109.62
343.893	107.62
344.12	99.62
344.348	74.62
344.576	85.62
344.804	80.62
345.031	84.62
345.259	89.62
345.487	82.62
345.714	86.62
345.942	81.62
346.17	104.62
346.397	95.62
346.625	92.62
346.853	96.62
347.08	76.62
347.308	85.62
347.535	86.62
347.763	87.62
347.99	79.62
348.218	90.62
348.445	99.62
348.673	91.62
348.9	83.62
349.128	89.62
349.355	90.62
349.583	100.62
349.81	99.62
350.037	72.62
350.265	84.62
350.492	82.62
350.72	92.62
350.947	78.62
351.174	83.62
351.402	79.62
351.629	94.62
351.856	95.62
352.083	87.62
352.311	83.62
352.538	103.62
352.765	99.62
352.992	101.62
353.22	86.62
353.447	103.62
353.674	88.62
353.901	101.62
354.128	99.62
354.355	87.62
354.583	92.62
354.81	74.62
355.037	89.62
355.264	102.62
355.491	94.62
355.718	91.62
355.945	101.62
356.172	84.62
356.399	91.62
356.626	93.62
356.853	98.62
357.08	94.62
357.307	90.62
357.534	93.62
357.761	72.62
357.988	96.62
358.215	88.62
358.441	87.62
358.668	90.62
358.895	83.62
359.122	101.62
359.349	71.62
359.576	82.62
359.802	83.62
360.029	92.62
360.256	91.62
360.483	80.62
360.709	79.62
360.936	80.62
361.163	89.62
361.39	87.62
361.616	73.62
361.843	81.62
362.07	98.62
362.296	89.62
362.523	76.62
362.749	94.62
362.976	81.62
363.203	101.62
363.429	102.62
363.656	78.62
363.882	78.62
364.109	82.62
364.335	85.62
364.562	79.62
364.788	72.62
365.015	93.62
365.241	99.62
365.468	80.62
365.694	88.62
365.92	104.62
366.147	109.62
366.373	96.62
366.599	91.62
366.826	92.62
367.052	76.62
367.278	81.62
367.505	84.62
367.731	92.62
367.957	85.62
368.184	80.62
368.41	79.62
368.636	78.62
368.862	92.62
369.089	78.62
369.315	84.62
369.541	97.62
369.767	96.62
369.993	92.62
370.219	80.62
370.445	82.62
370.672	96.62
370.898	103.62
371.124	103.62
371.35	86.62
371.576	86.62
371.802	85.62
372.028	73.62
372.254	92.62
372.48	88.62
372.706	89.62
372.932	84.62
373.158	88.62
373.384	84.62
373.61	94.62
373.835	83.62
374.061	85.62
374.287	87.62
374.513	93.62
374.739	93.62
374.965	90.62
375.191	101.62
375.416	76.62
375.642	91.62
375.868	88.62
376.094	88.62
376.319	92.62
376.545	79.62
376.771	76.62
376.997	77.62
377.222	86.62
377.448	85.62
377.674	73.62
377.899	85.62
378.125	87.62
378.35	87.62
378.576	85.62
378.802	87.62
379.027	91.62
379.253	96.62
379.478	91.62
379.704	88.62
379.929	79.62
380.155	95.62
380.38	94.62
380.606	88.62
380.831	86.62
381.057	88.62
381.282	94.62
381.507	91.62
381.733	81.62
381.958	89.62
382.184	89.62
382.409	99.62
382.634	91.62
382.86	97.62
383.085	93.62
383.31	83.62
383.535	95.62
383.761	90.62
383.986	88.62
384.211	92.62
384.436	87.62
384.662	94.62
384.887	95.62
385.112	79.62
385.337	83.62
385.562	83.62
385.787	86.62
386.013	87.62
386.238	90.62
386.463	93.62
386.688	95.62
386.913	94.62
387.138	85.62
387.363	85.62
387.588	87.62
387.813	92.62
388.038	95.62
388.263	86.62
388.488	80.62
388.713	79.62
388.938	89.62
389.163	91.62
389.387	96.62
389.612	108.62
389.837	79.62
390.062	82.62
390.287	88.62
390.512	85.62
390.736	94.62
390.961	92.62
391.186	91.62
391.411	95.62
391.636	86.62
391.86	90.62
392.085	85.62
392.31	96.62
392.534	85.62
392.759	95.62
392.984	85.62
393.208	81.62
393.433	87.62
393.658	77.62
393.882	82.62
394.107	96.62
394.331	79.62
394.556	80.62
394.78	100.62
395.005	92.62
395.229	95.62
395.454	101.62
395.678	101.62
395.903	76.62
396.127	80.62
396.352	84.62
396.576	100.62
396.801	77.62
397.025	107.62
397.249	83.62
397.474	98.62
397.698	96.62
397.922	90.62
398.147	86.62
398.371	76.62
398.595	86.62
398.82	83.62
399.044	86.62
399.268	84.62
399.492	105.62
399.717	100.62
399.941	91.62
400.165	95.62
400.389	93.62
400.613	80.62
400.837	75.62
401.062	101.62
401.286	93.62
401.51	86.62
401.734	105.62
401.958	78.62
402.182	76.62
402.406	80.62
402.63	87.62
402.854	89.62
403.078	88.62
403.302	90.62
403.526	93.62
403.75	81.62
403.974	81.62
404.198	89.62
404.422	84.62
404.645	99.62
404.869	76.62
405.093	94.62
405.317	102.62
405.541	97.62
405.765	87.62
405.988	77.62
406.212	88.62
406.436	103.62
406.66	97.62
406.883	95.62
407.107	79.62
407.331	87.62
407.555	104.62
407.778	92.62
408.002	90.62
408.226	87.62
408.449	90.62
408.673	89.62
408.896	92.62
409.12	86.62
409.344	100.62
409.567	95.62
409.791	90.62
410.014	90.62
410.238	92.62
410.461	84.62
410.685	88.62
410.908	99.62
411.132	109.62
411.355	91.62
411.578	85.62
411.802	79.62
412.025	80.62
412.249	86.62
412.472	77.62
412.695	101.62
412.919	94.62
413.142	83.62
413.365	80.62
413.589	105.62
413.812	102.62
414.035	83.62
414.258	91.62
414.482	103.62
414.705	88.62
414.928	89.62
415.151	90.62
415.374	94.62
415.597	93.62
415.821	91.62
416.044	101.62
416.267	87.62
416.49	90.62
416.713	84.62
416.936	84.62
417.159	84.62
417.382	87.62
417.605	84.62
417.828	79.62
418.051	91.62
418.274	96.62
418.497	96.62
418.72	83.62
418.943	93.62
419.166	88.62
419.389	78.62
419.611	99.62
419.834	104.62
420.057	90.62
420.28	76.62
420.503	86.62
420.726	78.62
420.948	86.62
421.171	89.62
421.394	89.62
421.617	86.62
421.839	88.62
422.062	98.62
422.285	91.62
422.507	94.62
422.73	97.62
422.953	76.62
423.175	83.62
423.398	87.62
423.621	97.62
423.843	93.62
424.066	79.62
424.288	77.62
424.511	90.62
424.733	80.62
424.956	79.62
425.178	87.62
425.401	85.62
425.623	91.62
425.846	88.62
426.068	76.62
426.291	88.62
426.513	86.62
426.735	96.62
426.958	100.62
427.18	96.62
427.402	73.62
427.625	87.62
427.847	75.62
428.069	103.62
428.292	87.62
428.514	101.62
428.736	89.62
428.958	79.62
429.181	93.62
429.403	79.62
429.625	85.62
429.847	99.62
430.069	91.62
430.292	88.62
430.514	89.62
430.736	102.62
430.958	91.62
431.18	91.62
431.402	86.62
431.624	80.62
431.846	84.62
432.068	83.62
432.29	94.62
432.512	81.62
432.734	83.62
432.956	91.62
433.178	95.62
433.4	83.62
433.622	75.62
433.844	69.62
434.066	87.62
434.287	84.62
434.509	96.62
434.731	92.62
434.953	87.62
435.175	90.62
435.397	85.62
435.618	101.62
435.84	87.62
436.062	92.62
436.284	77.62
436.505	89.62
436.727	93.62
436.949	80.62
437.17	90.62
437.392	87.62
437.614	86.62
437.835	94.62
438.057	87.62
438.278	89.62
438.5	94.62
438.721	83.62
438.943	91.62
439.165	85.62
439.386	84.62
439.608	93.62
439.829	95.62
440.05	100.62
440.272	82.62
440.493	91.62
440.715	92.62
440.936	102.62
441.158	100.62
441.379	94.62
441.6	92.62
441.822	85.62
442.043	80.62
442.264	82.62
442.486	93.62
442.707	95.62
442.928	85.62
443.149	81.62
443.371	93.62
443.592	109.62
443.813	92.62
444.034	92.62
444.255	93.62
444.476	96.62
444.698	99.62
444.919	90.62
445.14	182.62
445.361	129.62
445.582	86.62
445.803	81.62
446.024	78.62
446.245	92.62
446.466	95.62
446.687	87.62
446.908	99.62
447.129	83.62
447.35	103.62
447.571	81.62
447.792	91.62
448.013	81.62
448.234	77.62
448.455	91.62
448.675	85.62
448.896	85.62
449.117	89.62
449.338	88.62
449.559	88.62
449.779	88.62
450	81.62
450.221	85.62
450.442	106.62
450.662	82.62
450.883	94.62
451.104	82.62
451.324	85.62
451.545	95.62
451.766	99.62
451.986	92.62
452.207	100.62
452.428	83.62
452.648	91.62
452.869	83.62
453.089	94.62
453.31	101.62
453.53	80.62
453.751	75.62
453.971	95.62
454.192	88.62
454.412	98.62
454.633	84.62
454.853	80.62
455.073	79.62
455.294	85.62
455.514	91.62
455.734	75.62
455.955	101.62
456.175	94.62
456.395	81.62
456.616	85.62
456.836	96.62
457.056	89.62
457.276	96.62
457.497	83.62
457.717	97.62
457.937	93.62
458.157	95.62
458.377	81.62
458.598	90.62
458.818	74.62
459.038	85.62
459.258	94.62
459.478	83.62
459.698	71.62
459.918	79.62
460.138	100.62
460.358	79.62
460.578	91.62
460.798	90.62
461.018	101.62
461.238	93.62
461.458	87.62
461.678	83.62
461.898	87.62
462.118	94.62
462.338	95.62
462.558	99.62
462.777	81.62
462.997	99.62
463.217	85.62
463.437	95.62
463.657	97.62
463.876	75.62
464.096	93.62
464.316	93.62
464.536	95.62
464.755	104.62
464.975	92.62
465.195	96.62
465.414	86.62
465.634	96.62
465.854	92.62
466.073	85.62
466.293	82.62
466.512	91.62
466.732	92.62
466.951	89.62
467.171	78.62
467.391	94.62
467.61	84.62
467.829	79.62
468.049	79.62
468.268	84.62
468.488	89.62
468.707	89.62
468.927	87.62
469.146	90.62
469.365	99.62
469.585	91.62
469.804	105.62
470.023	84.62
470.243	100.62
470.462	91.62
470.681	86.62
470.901	93.62
471.12	82.62
471.339	87.62
471.558	89.62
471.777	104.62
471.997	81.62
472.216	78.62
472.435	86.62
472.654	78.62
472.873	80.62
473.092	90.62
473.311	94.62
473.53	87.62
473.749	91.62
473.968	91.62
474.187	81.62
474.406	77.62
474.625	92.62
474.844	75.62
475.063	88.62
475.282	94.62
475.501	90.62
475.72	96.62
475.939	88.62
476.158	93.62
476.377	87.62
476.596	84.62
476.814	90.62
477.033	82.62
477.252	92.62
477.471	85.62
477.69	80.62
477.908	88.62
478.127	93.62
478.346	93.62
478.564	94.62
478.783	78.62
479.002	92.62
479.22	92.62
479.439	85.62
479.658	89.62
479.876	95.62
480.095	87.62
480.313	92.62
480.532	103.62
480.751	88.62
480.969	90.62
481.188	86.62
481.406	92.62
481.624	107.62
481.843	96.62
482.061	99.62
482.28	77.62
482.498	79.62
482.717	86.62
482.935	87.62
483.153	92.62
483.372	83.62
483.59	89.62
483.808	95.62
484.027	81.62
484.245	94.62
484.463	91.62
484.681	99.62
484.9	97.62
485.118	83.62
485.336	89.62
485.554	93.62
485.772	100.62
485.99	92.62
486.209	88.62
486.427	91.62
486.645	109.62
486.863	99.62
487.081	100.62
487.299	93.62
487.517	89.62
487.735	88.62
487.953	86.62
488.171	80.62
488.389	95.62
488.607	91.62
488.825	93.62
489.043	87.62
489.261	95.62
489.479	84.62
489.696	88.62
489.914	93.62
490.132	82.62
490.35	92.62
490.568	84.62
490.786	82.62
491.003	85.62
491.221	91.62
491.439	90.62
491.657	90.62
491.874	91.62
492.092	79.62
492.31	95.62
492.527	95.62
492.745	93.62
492.963	87.62
493.18	93.62
493.398	92.62
493.615	89.62
493.833	91.62
494.05	88.62
494.268	94.62
494.485	91.62
494.703	96.62
494.92	99.62
495.138	83.62
495.355	91.62
495.573	100.62
495.79	93.62
496.008	88.62
496.225	96.62
496.442	91.62
496.66	86.62
496.877	109.62
497.094	91.62
497.312	92.62
497.529	87.62
497.746	92.62
497.963	96.62
498.181	95.62
498.398	103.62
498.615	108.62
498.832	83.62
499.049	103.62
499.267	103.62
499.484	112.62
499.701	105.62
499.918	91.62
500.135	118.62
500.352	117.62
500.569	111.62
500.786	106.62
501.003	120.62
501.22	99.62
501.437	110.62
501.654	83.62
501.871	102.62
502.088	92.62
502.305	93.62
502.522	95.62
502.739	97.62
502.956	94.62
503.172	104.62
503.389	96.62
503.606	82.62
503.823	101.62
504.04	104.62
504.256	99.62
504.473	85.62
504.69	94.62
504.907	103.62
505.123	94.62
505.34	96.62
505.557	83.62
505.773	89.62
505.99	101.62
506.207	87.62
506.423	101.62
506.64	83.62
506.856	93.62
507.073	87.62
507.289	99.62
507.506	99.62
507.722	89.62
507.939	87.62
508.155	81.62
508.372	86.62
508.588	86.62
508.805	89.62
509.021	82.62
509.238	96.62
509.454	84.62
509.67	90.62
509.887	85.62
510.103	94.62
510.319	90.62
510.536	105.62
510.752	89.62
510.968	86.62
511.184	91.62
511.401	88.62
511.617	76.62
511.833	95.62
512.049	96.62
512.265	80.62
512.481	97.62
512.698	85.62
512.914	89.62
513.13	88.62
513.346	94.62
513.562	98.62
513.778	94.62
513.994	86.62
514.21	82.62
514.426	90.62
514.642	89.62
514.858	107.62
515.074	89.62
515.29	103.62
515.506	86.62
515.721	93.62
515.937	98.62
516.153	87.62
516.369	78.62
516.585	93.62
516.801	89.62
517.016	104.62
517.232	109.62
517.448	104.62
517.664	89.62
517.879	99.62
518.095	87.62
518.311	83.62
518.527	101.62
518.742	89.62
