Data from BG_HRD10591_045.txt Node
Date: Fri May 16 15:14:45 EDT 2025
User: Yrep
Spectrometer: HR+D1059
Trigger mode: 1
Integration Time (sec): 1.000000E-1
Scans to average: 1
Electric dark correction enabled: true
Nonlinearity correction enabled: false
Boxcar width: 0
XAxis mode: Wavelengths
Number of Pixels in Spectrum: 2048
>>>>>Begin Spectral Data<<<<<
223.165	-16.94
223.4	-16.94
223.635	-16.94
223.869	-37.94
224.104	-16.94
224.338	-12.94
224.573	-18.94
224.808	-7.94
225.042	-4.94
225.277	-3.94
225.511	-1.94
225.746	1.06
225.98	19.06
226.215	11.06
226.449	17.06
226.683	20.06
226.918	15.06
227.152	39.06
227.387	41.06
227.621	36.06
227.856	33.06
228.09	47.06
228.324	57.06
228.559	41.06
228.793	39.06
229.027	50.06
229.262	59.06
229.496	69.06
229.73	80.06
229.964	63.06
230.199	69.06
230.433	55.06
230.667	71.06
230.901	75.06
231.136	88.06
231.37	83.06
231.604	76.06
231.838	69.06
232.072	82.06
232.306	86.06
232.541	80.06
232.775	80.06
233.009	61.06
233.243	81.06
233.477	86.06
233.711	79.06
233.945	62.06
234.179	70.06
234.413	82.06
234.647	72.06
234.881	75.06
235.115	77.06
235.349	71.06
235.583	75.06
235.817	74.06
236.051	77.06
236.285	77.06
236.519	77.06
236.753	62.06
236.987	81.06
237.221	75.06
237.455	81.06
237.689	75.06
237.922	81.06
238.156	89.06
238.39	67.06
238.624	63.06
238.858	73.06
239.091	74.06
239.325	71.06
239.559	71.06
239.793	70.06
240.027	73.06
240.26	81.06
240.494	80.06
240.728	61.06
240.961	69.06
241.195	84.06
241.429	72.06
241.662	70.06
241.896	70.06
242.13	70.06
242.363	72.06
242.597	79.06
242.83	85.06
243.064	75.06
243.298	76.06
243.531	79.06
243.765	75.06
243.998	85.06
244.232	72.06
244.465	68.06
244.699	63.06
244.932	74.06
245.166	73.06
245.399	59.06
245.633	84.06
245.866	67.06
246.099	79.06
246.333	75.06
246.566	76.06
246.8	90.06
247.033	87.06
247.266	74.06
247.5	75.06
247.733	65.06
247.966	84.06
248.2	75.06
248.433	75.06
248.666	82.06
248.899	76.06
249.133	79.06
249.366	71.06
249.599	89.06
249.832	83.06
250.066	84.06
250.299	70.06
250.532	71.06
250.765	72.06
250.998	85.06
251.231	76.06
251.465	69.06
251.698	91.06
251.931	75.06
252.164	72.06
252.397	82.06
252.63	73.06
252.863	85.06
253.096	88.06
253.329	76.06
253.562	72.06
253.795	69.06
254.028	66.06
254.261	78.06
254.494	67.06
254.727	74.06
254.96	76.06
255.193	68.06
255.426	90.06
255.659	79.06
255.892	85.06
256.124	82.06
256.357	77.06
256.59	79.06
256.823	86.06
257.056	71.06
257.289	86.06
257.521	87.06
257.754	75.06
257.987	75.06
258.22	75.06
258.452	84.06
258.685	86.06
258.918	76.06
259.151	83.06
259.383	60.06
259.616	71.06
259.849	83.06
260.081	84.06
260.314	81.06
260.547	79.06
260.779	74.06
261.012	69.06
261.244	77.06
261.477	80.06
261.71	76.06
261.942	84.06
262.175	90.06
262.407	74.06
262.64	71.06
262.872	91.06
263.105	80.06
263.337	72.06
263.57	96.06
263.802	93.06
264.035	71.06
264.267	91.06
264.499	80.06
264.732	84.06
264.964	76.06
265.197	83.06
265.429	77.06
265.661	83.06
265.894	85.06
266.126	90.06
266.358	77.06
266.591	76.06
266.823	83.06
267.055	87.06
267.287	85.06
267.52	90.06
267.752	80.06
267.984	83.06
268.216	86.06
268.448	80.06
268.681	84.06
268.913	81.06
269.145	87.06
269.377	77.06
269.609	89.06
269.841	81.06
270.073	93.06
270.306	84.06
270.538	81.06
270.77	81.06
271.002	76.06
271.234	71.06
271.466	90.06
271.698	87.06
271.93	78.06
272.162	84.06
272.394	95.06
272.626	99.06
272.858	76.06
273.09	81.06
273.322	78.06
273.553	76.06
273.785	85.06
274.017	71.06
274.249	87.06
274.481	92.06
274.713	74.06
274.945	81.06
275.176	79.06
275.408	98.06
275.64	79.06
275.872	76.06
276.104	81.06
276.335	75.06
276.567	81.06
276.799	81.06
277.031	83.06
277.262	71.06
277.494	86.06
277.726	98.06
277.957	101.06
278.189	87.06
278.421	72.06
278.652	73.06
278.884	82.06
279.115	76.06
279.347	75.06
279.579	82.06
279.81	83.06
280.042	90.06
280.273	87.06
280.505	82.06
280.736	88.06
280.968	74.06
281.199	83.06
281.431	95.06
281.662	83.06
281.894	84.06
282.125	82.06
282.356	75.06
282.588	80.06
282.819	73.06
283.051	84.06
283.282	84.06
283.513	80.06
283.745	77.06
283.976	82.06
284.207	81.06
284.439	78.06
284.67	80.06
284.901	79.06
285.132	79.06
285.364	74.06
285.595	87.06
285.826	75.06
286.057	92.06
286.288	84.06
286.52	78.06
286.751	87.06
286.982	91.06
287.213	83.06
287.444	76.06
287.675	76.06
287.906	76.06
288.138	81.06
288.369	89.06
288.6	90.06
288.831	84.06
289.062	95.06
289.293	73.06
289.524	95.06
289.755	83.06
289.986	80.06
290.217	74.06
290.448	95.06
290.679	95.06
290.91	91.06
291.141	95.06
291.371	93.06
291.602	87.06
291.833	82.06
292.064	82.06
292.295	89.06
292.526	83.06
292.757	90.06
292.987	96.06
293.218	81.06
293.449	80.06
293.68	90.06
293.91	101.06
294.141	80.06
294.372	82.06
294.603	81.06
294.833	77.06
295.064	83.06
295.295	81.06
295.525	85.06
295.756	85.06
295.987	89.06
296.217	78.06
296.448	84.06
296.679	89.06
296.909	83.06
297.14	83.06
297.37	80.06
297.601	72.06
297.831	85.06
298.062	86.06
298.292	94.06
298.523	84.06
298.753	68.06
298.984	96.06
299.214	92.06
299.445	93.06
299.675	78.06
299.905	80.06
300.136	81.06
300.366	87.06
300.597	78.06
300.827	78.06
301.057	97.06
301.288	84.06
301.518	84.06
301.748	76.06
301.979	99.06
302.209	91.06
302.439	96.06
302.669	81.06
302.9	84.06
303.13	81.06
303.36	96.06
303.59	101.06
303.82	80.06
304.051	83.06
304.281	86.06
304.511	95.06
304.741	92.06
304.971	97.06
305.201	76.06
305.431	90.06
305.661	78.06
305.891	80.06
306.121	92.06
306.352	87.06
306.582	85.06
306.812	75.06
307.042	83.06
307.272	68.06
307.502	83.06
307.731	87.06
307.961	77.06
308.191	88.06
308.421	97.06
308.651	92.06
308.881	95.06
309.111	87.06
309.341	85.06
309.571	79.06
309.8	87.06
310.03	75.06
310.26	93.06
310.49	96.06
310.72	81.06
310.949	67.06
311.179	87.06
311.409	84.06
311.639	82.06
311.868	88.06
312.098	87.06
312.328	67.06
312.557	79.06
312.787	88.06
313.017	80.06
313.246	96.06
313.476	93.06
313.706	81.06
313.935	83.06
314.165	83.06
314.394	92.06
314.624	85.06
314.853	101.06
315.083	87.06
315.312	97.06
315.542	95.06
315.771	74.06
316.001	86.06
316.23	86.06
316.46	85.06
316.689	88.06
316.919	86.06
317.148	91.06
317.377	101.06
317.607	95.06
317.836	95.06
318.065	79.06
318.295	89.06
318.524	98.06
318.753	91.06
318.983	88.06
319.212	96.06
319.441	82.06
319.67	80.06
319.9	97.06
320.129	85.06
320.358	81.06
320.587	89.06
320.816	84.06
321.046	84.06
321.275	85.06
321.504	73.06
321.733	87.06
321.962	88.06
322.191	78.06
322.42	84.06
322.649	87.06
322.878	80.06
323.108	91.06
323.337	76.06
323.566	93.06
323.795	86.06
324.024	98.06
324.253	87.06
324.482	95.06
324.71	87.06
324.939	87.06
325.168	80.06
325.397	98.06
325.626	86.06
325.855	80.06
326.084	85.06
326.313	87.06
326.542	72.06
326.77	90.06
326.999	90.06
327.228	78.06
327.457	83.06
327.686	88.06
327.914	89.06
328.143	96.06
328.372	98.06
328.6	68.06
328.829	84.06
329.058	84.06
329.287	91.06
329.515	80.06
329.744	85.06
329.972	88.06
330.201	83.06
330.43	76.06
330.658	92.06
330.887	80.06
331.115	86.06
331.344	95.06
331.572	92.06
331.801	90.06
332.03	91.06
332.258	76.06
332.486	100.06
332.715	77.06
332.943	89.06
333.172	97.06
333.4	87.06
333.629	76.06
333.857	78.06
334.085	79.06
334.314	79.06
334.542	90.06
334.771	90.06
334.999	90.06
335.227	96.06
335.455	85.06
335.684	75.06
335.912	93.06
336.14	79.06
336.369	85.06
336.597	85.06
336.825	87.06
337.053	81.06
337.281	89.06
337.51	83.06
337.738	92.06
337.966	88.06
338.194	82.06
338.422	89.06
338.65	79.06
338.878	87.06
339.106	87.06
339.334	73.06
339.562	85.06
339.79	88.06
340.018	73.06
340.246	92.06
340.474	88.06
340.702	73.06
340.93	73.06
341.158	89.06
341.386	92.06
341.614	90.06
341.842	79.06
342.07	71.06
342.298	71.06
342.526	81.06
342.754	79.06
342.981	75.06
343.209	85.06
343.437	93.06
343.665	84.06
343.893	90.06
344.12	83.06
344.348	90.06
344.576	90.06
344.804	89.06
345.031	81.06
345.259	88.06
345.487	81.06
345.714	91.06
345.942	76.06
346.17	87.06
346.397	81.06
346.625	84.06
346.853	79.06
347.08	71.06
347.308	91.06
347.535	77.06
347.763	84.06
347.99	91.06
348.218	80.06
348.445	92.06
348.673	90.06
348.9	85.06
349.128	92.06
349.355	95.06
349.583	77.06
349.81	86.06
350.037	81.06
350.265	83.06
350.492	73.06
350.72	84.06
350.947	80.06
351.174	93.06
351.402	95.06
351.629	79.06
351.856	91.06
352.083	93.06
352.311	85.06
352.538	79.06
352.765	90.06
352.992	98.06
353.22	95.06
353.447	80.06
353.674	85.06
353.901	96.06
354.128	82.06
354.355	77.06
354.583	84.06
354.81	87.06
355.037	83.06
355.264	93.06
355.491	87.06
355.718	80.06
355.945	92.06
356.172	84.06
356.399	76.06
356.626	84.06
356.853	84.06
357.08	91.06
357.307	87.06
357.534	87.06
357.761	87.06
357.988	85.06
358.215	71.06
358.441	83.06
358.668	83.06
358.895	91.06
359.122	80.06
359.349	89.06
359.576	81.06
359.802	77.06
360.029	84.06
360.256	87.06
360.483	84.06
360.709	86.06
360.936	101.06
361.163	104.06
361.39	91.06
361.616	75.06
361.843	93.06
362.07	103.06
362.296	90.06
362.523	79.06
362.749	70.06
362.976	89.06
363.203	84.06
363.429	83.06
363.656	95.06
363.882	79.06
364.109	97.06
364.335	86.06
364.562	75.06
364.788	80.06
365.015	97.06
365.241	81.06
365.468	88.06
365.694	83.06
365.92	82.06
366.147	82.06
366.373	85.06
366.599	72.06
366.826	64.06
367.052	69.06
367.278	76.06
367.505	75.06
367.731	79.06
367.957	78.06
368.184	90.06
368.41	89.06
368.636	84.06
368.862	95.06
369.089	73.06
369.315	71.06
369.541	77.06
369.767	82.06
369.993	85.06
370.219	78.06
370.445	74.06
370.672	71.06
370.898	83.06
371.124	85.06
371.35	96.06
371.576	86.06
371.802	81.06
372.028	89.06
372.254	86.06
372.48	85.06
372.706	83.06
372.932	80.06
373.158	91.06
373.384	93.06
373.61	86.06
373.835	82.06
374.061	76.06
374.287	81.06
374.513	81.06
374.739	73.06
374.965	88.06
375.191	83.06
375.416	83.06
375.642	86.06
375.868	84.06
376.094	83.06
376.319	87.06
376.545	105.06
376.771	83.06
376.997	82.06
377.222	85.06
377.448	77.06
377.674	86.06
377.899	97.06
378.125	96.06
378.35	68.06
378.576	101.06
378.802	95.06
379.027	76.06
379.253	81.06
379.478	88.06
379.704	86.06
379.929	71.06
380.155	92.06
380.38	92.06
380.606	84.06
380.831	92.06
381.057	86.06
381.282	81.06
381.507	91.06
381.733	81.06
381.958	99.06
382.184	91.06
382.409	89.06
382.634	85.06
382.86	84.06
383.085	97.06
383.31	84.06
383.535	74.06
383.761	84.06
383.986	76.06
384.211	80.06
384.436	84.06
384.662	83.06
384.887	96.06
385.112	91.06
385.337	89.06
385.562	79.06
385.787	83.06
386.013	78.06
386.238	92.06
386.463	80.06
386.688	78.06
386.913	72.06
387.138	83.06
387.363	86.06
387.588	99.06
387.813	85.06
388.038	86.06
388.263	67.06
388.488	77.06
388.713	74.06
388.938	87.06
389.163	85.06
389.387	92.06
389.612	82.06
389.837	74.06
390.062	77.06
390.287	85.06
390.512	82.06
390.736	84.06
390.961	82.06
391.186	82.06
391.411	82.06
391.636	97.06
391.86	84.06
392.085	83.06
392.31	90.06
392.534	67.06
392.759	93.06
392.984	75.06
393.208	80.06
393.433	95.06
393.658	83.06
393.882	79.06
394.107	92.06
394.331	87.06
394.556	72.06
394.78	99.06
395.005	86.06
395.229	74.06
395.454	88.06
395.678	85.06
395.903	97.06
396.127	106.06
396.352	74.06
396.576	67.06
396.801	84.06
397.025	82.06
397.249	97.06
397.474	97.06
397.698	103.06
397.922	90.06
398.147	91.06
398.371	95.06
398.595	87.06
398.82	75.06
399.044	81.06
399.268	90.06
399.492	80.06
399.717	103.06
399.941	87.06
400.165	97.06
400.389	90.06
400.613	69.06
400.837	86.06
401.062	101.06
401.286	93.06
401.51	84.06
401.734	91.06
401.958	88.06
402.182	78.06
402.406	88.06
402.63	87.06
402.854	87.06
403.078	88.06
403.302	88.06
403.526	95.06
403.75	85.06
403.974	80.06
404.198	101.06
404.422	101.06
404.645	96.06
404.869	95.06
405.093	89.06
405.317	101.06
405.541	97.06
405.765	81.06
405.988	86.06
406.212	79.06
406.436	75.06
406.66	89.06
406.883	91.06
407.107	82.06
407.331	77.06
407.555	99.06
407.778	97.06
408.002	79.06
408.226	89.06
408.449	84.06
408.673	71.06
408.896	83.06
409.12	86.06
409.344	70.06
409.567	87.06
409.791	91.06
410.014	85.06
410.238	76.06
410.461	95.06
410.685	85.06
410.908	75.06
411.132	89.06
411.355	83.06
411.578	82.06
411.802	81.06
412.025	85.06
412.249	87.06
412.472	81.06
412.695	96.06
412.919	83.06
413.142	92.06
413.365	91.06
413.589	87.06
413.812	91.06
414.035	86.06
414.258	83.06
414.482	88.06
414.705	77.06
414.928	81.06
415.151	89.06
415.374	79.06
415.597	80.06
415.821	90.06
416.044	75.06
416.267	117.06
416.49	98.06
416.713	95.06
416.936	81.06
417.159	86.06
417.382	76.06
417.605	89.06
417.828	94.06
418.051	87.06
418.274	90.06
418.497	67.06
418.72	86.06
418.943	87.06
419.166	85.06
419.389	90.06
419.611	95.06
419.834	84.06
420.057	95.06
420.28	77.06
420.503	88.06
420.726	83.06
420.948	82.06
421.171	86.06
421.394	95.06
421.617	94.06
421.839	90.06
422.062	97.06
422.285	90.06
422.507	88.06
422.73	86.06
422.953	90.06
423.175	91.06
423.398	79.06
423.621	85.06
423.843	76.06
424.066	95.06
424.288	73.06
424.511	90.06
424.733	91.06
424.956	84.06
425.178	83.06
425.401	85.06
425.623	78.06
425.846	73.06
426.068	89.06
426.291	84.06
426.513	86.06
426.735	81.06
426.958	62.06
427.18	85.06
427.402	83.06
427.625	83.06
427.847	78.06
428.069	89.06
428.292	92.06
428.514	81.06
428.736	84.06
428.958	89.06
429.181	95.06
429.403	87.06
429.625	87.06
429.847	81.06
430.069	89.06
430.292	89.06
430.514	71.06
430.736	72.06
430.958	71.06
431.18	68.06
431.402	92.06
431.624	79.06
431.846	82.06
432.068	78.06
432.29	80.06
432.512	80.06
432.734	76.06
432.956	100.06
433.178	103.06
433.4	85.06
433.622	85.06
433.844	78.06
434.066	82.06
434.287	78.06
434.509	81.06
434.731	74.06
434.953	83.06
435.175	98.06
435.397	84.06
435.618	81.06
435.84	91.06
436.062	98.06
436.284	72.06
436.505	89.06
436.727	95.06
436.949	87.06
437.17	77.06
437.392	87.06
437.614	82.06
437.835	71.06
438.057	85.06
438.278	83.06
438.5	75.06
438.721	77.06
438.943	84.06
439.165	92.06
439.386	86.06
439.608	90.06
439.829	70.06
440.05	78.06
440.272	108.06
440.493	73.06
440.715	92.06
440.936	76.06
441.158	84.06
441.379	83.06
441.6	80.06
441.822	80.06
442.043	81.06
442.264	84.06
442.486	80.06
442.707	83.06
442.928	81.06
443.149	101.06
443.371	106.06
443.592	88.06
443.813	80.06
444.034	87.06
444.255	101.06
444.476	91.06
444.698	83.06
444.919	87.06
445.14	157.06
445.361	111.06
445.582	90.06
445.803	87.06
446.024	76.06
446.245	88.06
446.466	85.06
446.687	98.06
446.908	89.06
447.129	100.06
447.35	87.06
447.571	87.06
447.792	106.06
448.013	78.06
448.234	83.06
448.455	90.06
448.675	93.06
448.896	79.06
449.117	83.06
449.338	91.06
449.559	80.06
449.779	79.06
450	102.06
450.221	67.06
450.442	81.06
450.662	81.06
450.883	84.06
451.104	96.06
451.324	78.06
451.545	76.06
451.766	81.06
451.986	75.06
452.207	91.06
452.428	86.06
452.648	82.06
452.869	83.06
453.089	84.06
453.31	92.06
453.53	99.06
453.751	77.06
453.971	83.06
454.192	71.06
454.412	83.06
454.633	75.06
454.853	85.06
455.073	88.06
455.294	83.06
455.514	86.06
455.734	81.06
455.955	75.06
456.175	78.06
456.395	74.06
456.616	87.06
456.836	94.06
457.056	81.06
457.276	79.06
457.497	76.06
457.717	90.06
457.937	66.06
458.157	91.06
458.377	83.06
458.598	89.06
458.818	79.06
459.038	91.06
459.258	78.06
459.478	79.06
459.698	95.06
459.918	75.06
460.138	75.06
460.358	91.06
460.578	86.06
460.798	96.06
461.018	96.06
461.238	103.06
461.458	88.06
461.678	97.06
461.898	91.06
462.118	95.06
462.338	88.06
462.558	95.06
462.777	95.06
462.997	96.06
463.217	86.06
463.437	97.06
463.657	95.06
463.876	98.06
464.096	104.06
464.316	86.06
464.536	87.06
464.755	79.06
464.975	77.06
465.195	85.06
465.414	85.06
465.634	95.06
465.854	78.06
466.073	85.06
466.293	79.06
466.512	91.06
466.732	89.06
466.951	87.06
467.171	87.06
467.391	77.06
467.61	64.06
467.829	87.06
468.049	91.06
468.268	96.06
468.488	100.06
468.707	88.06
468.927	79.06
469.146	91.06
469.365	73.06
469.585	67.06
469.804	85.06
470.023	105.06
470.243	85.06
470.462	82.06
470.681	81.06
470.901	91.06
471.12	88.06
471.339	86.06
471.558	85.06
471.777	91.06
471.997	77.06
472.216	79.06
472.435	76.06
472.654	81.06
472.873	82.06
473.092	90.06
473.311	80.06
473.53	79.06
473.749	75.06
473.968	79.06
474.187	72.06
474.406	86.06
474.625	77.06
474.844	77.06
475.063	84.06
475.282	83.06
475.501	79.06
475.72	77.06
475.939	78.06
476.158	87.06
476.377	92.06
476.596	87.06
476.814	64.06
477.033	75.06
477.252	78.06
477.471	75.06
477.69	80.06
477.908	75.06
478.127	91.06
478.346	92.06
478.564	91.06
478.783	104.06
479.002	99.06
479.22	90.06
479.439	75.06
479.658	87.06
479.876	94.06
480.095	85.06
480.313	81.06
480.532	92.06
480.751	88.06
480.969	91.06
481.188	82.06
481.406	72.06
481.624	89.06
481.843	77.06
482.061	89.06
482.28	85.06
482.498	90.06
482.717	98.06
482.935	80.06
483.153	79.06
483.372	97.06
483.59	85.06
483.808	87.06
484.027	88.06
484.245	91.06
484.463	89.06
484.681	94.06
484.9	101.06
485.118	92.06
485.336	88.06
485.554	84.06
485.772	83.06
485.99	94.06
486.209	97.06
486.427	94.06
486.645	98.06
486.863	90.06
487.081	89.06
487.299	81.06
487.517	92.06
487.735	88.06
487.953	89.06
488.171	92.06
488.389	81.06
488.607	76.06
488.825	88.06
489.043	84.06
489.261	84.06
489.479	91.06
489.696	95.06
489.914	67.06
490.132	101.06
490.35	89.06
490.568	93.06
490.786	74.06
491.003	84.06
491.221	99.06
491.439	78.06
491.657	71.06
491.874	75.06
492.092	73.06
492.31	80.06
492.527	89.06
492.745	91.06
492.963	80.06
493.18	83.06
493.398	95.06
493.615	90.06
493.833	83.06
494.05	75.06
494.268	90.06
494.485	76.06
494.703	105.06
494.92	92.06
495.138	73.06
495.355	88.06
495.573	90.06
495.79	74.06
496.008	95.06
496.225	90.06
496.442	80.06
496.66	76.06
496.877	79.06
497.094	101.06
497.312	77.06
497.529	100.06
497.746	86.06
497.963	77.06
498.181	90.06
498.398	87.06
498.615	89.06
498.832	99.06
499.049	76.06
499.267	101.06
499.484	93.06
499.701	96.06
499.918	95.06
500.135	106.06
500.352	113.06
500.569	124.06
500.786	110.06
501.003	101.06
501.22	95.06
501.437	113.06
501.654	97.06
501.871	99.06
502.088	93.06
502.305	91.06
502.522	102.06
502.739	85.06
502.956	107.06
503.172	105.06
503.389	91.06
503.606	89.06
503.823	103.06
504.04	90.06
504.256	83.06
504.473	89.06
504.69	91.06
504.907	108.06
505.123	83.06
505.34	87.06
505.557	92.06
505.773	82.06
505.99	79.06
506.207	93.06
506.423	85.06
506.64	87.06
506.856	81.06
507.073	87.06
507.289	91.06
507.506	95.06
507.722	88.06
507.939	83.06
508.155	79.06
508.372	73.06
508.588	89.06
508.805	87.06
509.021	79.06
509.238	74.06
509.454	78.06
509.67	75.06
509.887	99.06
510.103	85.06
510.319	74.06
510.536	95.06
510.752	81.06
510.968	87.06
511.184	95.06
511.401	84.06
511.617	97.06
511.833	97.06
512.049	79.06
512.265	67.06
512.481	91.06
512.698	99.06
512.914	100.06
513.13	99.06
513.346	71.06
513.562	77.06
513.778	91.06
513.994	83.06
514.21	74.06
514.426	84.06
514.642	89.06
514.858	71.06
515.074	84.06
515.29	89.06
515.506	70.06
515.721	76.06
515.937	83.06
516.153	80.06
516.369	79.06
516.585	77.06
516.801	93.06
517.016	104.06
517.232	101.06
517.448	79.06
517.664	83.06
517.879	84.06
518.095	98.06
518.311	86.06
518.527	89.06
518.742	89.06
518.958	95.06
519.173	85.06
519.389	74.06
519.605	79.06
