Data from BG_HRD10591_103.txt Node
Date: Fri May 16 15:17:59 EDT 2025
User: Yrep
Spectrometer: HR+D1059
Trigger mode: 1
Integration Time (sec): 1.000000E-1
Scans to average: 1
Electric dark correction enabled: true
Nonlinearity correction enabled: false
Boxcar width: 0
XAxis mode: Wavelengths
Number of Pixels in Spectrum: 2048
>>>>>Begin Spectral Data<<<<<
223.165	-13.06
223.4	-13.06
223.635	-13.06
223.869	-17.06
224.104	-23.06
224.338	-16.06
224.573	-7.06
224.808	-7.06
225.042	-4.06
225.277	-18.06
225.511	-5.06
225.746	10.94
225.98	-1.06
226.215	-9.06
226.449	11.94
226.683	20.94
226.918	35.94
227.152	40.94
227.387	25.94
227.621	43.94
227.856	47.94
228.09	52.94
228.324	46.94
228.559	60.94
228.793	64.94
229.027	54.94
229.262	64.94
229.496	76.94
229.73	64.94
229.964	77.94
230.199	65.94
230.433	60.94
230.667	72.94
230.901	85.94
231.136	66.94
231.37	75.94
231.604	84.94
231.838	85.94
232.072	82.94
232.306	71.94
232.541	81.94
232.775	78.94
233.009	82.94
233.243	83.94
233.477	77.94
233.711	79.94
233.945	83.94
234.179	80.94
234.413	83.94
234.647	80.94
234.881	69.94
235.115	86.94
235.349	85.94
235.583	75.94
235.817	80.94
236.051	70.94
236.285	80.94
236.519	83.94
236.753	62.94
236.987	64.94
237.221	74.94
237.455	82.94
237.689	74.94
237.922	65.94
238.156	71.94
238.39	95.94
238.624	70.94
238.858	84.94
239.091	64.94
239.325	72.94
239.559	70.94
239.793	88.94
240.027	71.94
240.26	60.94
240.494	62.94
240.728	74.94
240.961	81.94
241.195	83.94
241.429	66.94
241.662	71.94
241.896	88.94
242.13	68.94
242.363	55.94
242.597	64.94
242.83	77.94
243.064	63.94
243.298	88.94
243.531	78.94
243.765	80.94
243.998	83.94
244.232	71.94
244.465	67.94
244.699	81.94
244.932	65.94
245.166	75.94
245.399	79.94
245.633	84.94
245.866	73.94
246.099	65.94
246.333	77.94
246.566	76.94
246.8	75.94
247.033	86.94
247.266	78.94
247.5	77.94
247.733	75.94
247.966	74.94
248.2	83.94
248.433	79.94
248.666	64.94
248.899	86.94
249.133	78.94
249.366	77.94
249.599	71.94
249.832	76.94
250.066	86.94
250.299	78.94
250.532	73.94
250.765	87.94
250.998	73.94
251.231	68.94
251.465	76.94
251.698	78.94
251.931	94.94
252.164	78.94
252.397	82.94
252.63	79.94
252.863	82.94
253.096	61.94
253.329	81.94
253.562	82.94
253.795	79.94
254.028	62.94
254.261	87.94
254.494	87.94
254.727	83.94
254.96	84.94
255.193	71.94
255.426	71.94
255.659	76.94
255.892	78.94
256.124	58.94
256.357	77.94
256.59	94.94
256.823	80.94
257.056	85.94
257.289	82.94
257.521	85.94
257.754	93.94
257.987	87.94
258.22	82.94
258.452	88.94
258.685	59.94
258.918	83.94
259.151	84.94
259.383	79.94
259.616	83.94
259.849	80.94
260.081	83.94
260.314	62.94
260.547	72.94
260.779	70.94
261.012	86.94
261.244	68.94
261.477	84.94
261.71	65.94
261.942	68.94
262.175	90.94
262.407	82.94
262.64	88.94
262.872	64.94
263.105	86.94
263.337	88.94
263.57	71.94
263.802	85.94
264.035	86.94
264.267	79.94
264.499	98.94
264.732	86.94
264.964	84.94
265.197	63.94
265.429	92.94
265.661	82.94
265.894	74.94
266.126	82.94
266.358	64.94
266.591	70.94
266.823	90.94
267.055	86.94
267.287	69.94
267.52	71.94
267.752	74.94
267.984	84.94
268.216	75.94
268.448	89.94
268.681	75.94
268.913	80.94
269.145	79.94
269.377	83.94
269.609	73.94
269.841	87.94
270.073	86.94
270.306	73.94
270.538	79.94
270.77	80.94
271.002	83.94
271.234	86.94
271.466	84.94
271.698	76.94
271.93	76.94
272.162	76.94
272.394	78.94
272.626	87.94
272.858	85.94
273.09	93.94
273.322	87.94
273.553	90.94
273.785	85.94
274.017	87.94
274.249	81.94
274.481	76.94
274.713	99.94
274.945	89.94
275.176	90.94
275.408	83.94
275.64	63.94
275.872	82.94
276.104	74.94
276.335	75.94
276.567	76.94
276.799	89.94
277.031	70.94
277.262	68.94
277.494	90.94
277.726	83.94
277.957	80.94
278.189	69.94
278.421	75.94
278.652	68.94
278.884	83.94
279.115	84.94
279.347	89.94
279.579	100.94
279.81	76.94
280.042	66.94
280.273	75.94
280.505	74.94
280.736	83.94
280.968	86.94
281.199	74.94
281.431	91.94
281.662	70.94
281.894	68.94
282.125	86.94
282.356	79.94
282.588	78.94
282.819	84.94
283.051	83.94
283.282	79.94
283.513	89.94
283.745	76.94
283.976	76.94
284.207	88.94
284.439	88.94
284.67	100.94
284.901	82.94
285.132	80.94
285.364	82.94
285.595	95.94
285.826	86.94
286.057	84.94
286.288	75.94
286.52	81.94
286.751	93.94
286.982	99.94
287.213	84.94
287.444	86.94
287.675	85.94
287.906	73.94
288.138	72.94
288.369	70.94
288.6	86.94
288.831	87.94
289.062	95.94
289.293	89.94
289.524	74.94
289.755	80.94
289.986	80.94
290.217	78.94
290.448	76.94
290.679	91.94
290.91	87.94
291.141	79.94
291.371	101.94
291.602	81.94
291.833	84.94
292.064	79.94
292.295	76.94
292.526	84.94
292.757	98.94
292.987	96.94
293.218	78.94
293.449	93.94
293.68	79.94
293.91	74.94
294.141	83.94
294.372	91.94
294.603	91.94
294.833	87.94
295.064	94.94
295.295	79.94
295.525	82.94
295.756	80.94
295.987	77.94
296.217	85.94
296.448	70.94
296.679	82.94
296.909	80.94
297.14	69.94
297.37	91.94
297.601	94.94
297.831	81.94
298.062	87.94
298.292	88.94
298.523	85.94
298.753	91.94
298.984	85.94
299.214	79.94
299.445	80.94
299.675	98.94
299.905	84.94
300.136	88.94
300.366	87.94
300.597	89.94
300.827	87.94
301.057	73.94
301.288	87.94
301.518	81.94
301.748	86.94
301.979	103.94
302.209	89.94
302.439	86.94
302.669	82.94
302.9	83.94
303.13	86.94
303.36	82.94
303.59	72.94
303.82	89.94
304.051	70.94
304.281	87.94
304.511	89.94
304.741	87.94
304.971	89.94
305.201	82.94
305.431	90.94
305.661	67.94
305.891	84.94
306.121	89.94
306.352	74.94
306.582	74.94
306.812	69.94
307.042	86.94
307.272	86.94
307.502	100.94
307.731	85.94
307.961	75.94
308.191	75.94
308.421	94.94
308.651	84.94
308.881	69.94
309.111	66.94
309.341	67.94
309.571	69.94
309.8	78.94
310.03	89.94
310.26	97.94
310.49	76.94
310.72	86.94
310.949	94.94
311.179	85.94
311.409	107.94
311.639	96.94
311.868	78.94
312.098	85.94
312.328	72.94
312.557	75.94
312.787	86.94
313.017	69.94
313.246	89.94
313.476	77.94
313.706	83.94
313.935	77.94
314.165	86.94
314.394	74.94
314.624	84.94
314.853	88.94
315.083	69.94
315.312	68.94
315.542	84.94
315.771	75.94
316.001	86.94
316.23	90.94
316.46	86.94
316.689	79.94
316.919	96.94
317.148	83.94
317.377	84.94
317.607	83.94
317.836	82.94
318.065	69.94
318.295	78.94
318.524	93.94
318.753	81.94
318.983	83.94
319.212	89.94
319.441	95.94
319.67	78.94
319.9	72.94
320.129	73.94
320.358	93.94
320.587	84.94
320.816	83.94
321.046	90.94
321.275	79.94
321.504	78.94
321.733	86.94
321.962	87.94
322.191	79.94
322.42	89.94
322.649	84.94
322.878	80.94
323.108	88.94
323.337	72.94
323.566	76.94
323.795	84.94
324.024	79.94
324.253	94.94
324.482	77.94
324.71	103.94
324.939	75.94
325.168	74.94
325.397	75.94
325.626	93.94
325.855	80.94
326.084	72.94
326.313	85.94
326.542	80.94
326.77	96.94
326.999	68.94
327.228	78.94
327.457	91.94
327.686	81.94
327.914	82.94
328.143	83.94
328.372	84.94
328.6	70.94
328.829	80.94
329.058	73.94
329.287	75.94
329.515	84.94
329.744	69.94
329.972	62.94
330.201	83.94
330.43	93.94
330.658	82.94
330.887	71.94
331.115	65.94
331.344	81.94
331.572	83.94
331.801	84.94
332.03	75.94
332.258	83.94
332.486	86.94
332.715	98.94
332.943	71.94
333.172	95.94
333.4	85.94
333.629	83.94
333.857	72.94
334.085	91.94
334.314	85.94
334.542	78.94
334.771	75.94
334.999	87.94
335.227	83.94
335.455	83.94
335.684	87.94
335.912	87.94
336.14	86.94
336.369	70.94
336.597	91.94
336.825	76.94
337.053	81.94
337.281	70.94
337.51	78.94
337.738	80.94
337.966	73.94
338.194	91.94
338.422	82.94
338.65	94.94
338.878	81.94
339.106	78.94
339.334	96.94
339.562	79.94
339.79	77.94
340.018	96.94
340.246	73.94
340.474	88.94
340.702	75.94
340.93	88.94
341.158	78.94
341.386	90.94
341.614	86.94
341.842	88.94
342.07	98.94
342.298	83.94
342.526	82.94
342.754	76.94
342.981	93.94
343.209	83.94
343.437	99.94
343.665	69.94
343.893	88.94
344.12	74.94
344.348	95.94
344.576	88.94
344.804	72.94
345.031	88.94
345.259	80.94
345.487	103.94
345.714	92.94
345.942	90.94
346.17	82.94
346.397	70.94
346.625	89.94
346.853	90.94
347.08	93.94
347.308	74.94
347.535	70.94
347.763	80.94
347.99	84.94
348.218	78.94
348.445	88.94
348.673	86.94
348.9	104.94
349.128	77.94
349.355	91.94
349.583	84.94
349.81	82.94
350.037	86.94
350.265	93.94
350.492	84.94
350.72	84.94
350.947	93.94
351.174	88.94
351.402	76.94
351.629	81.94
351.856	79.94
352.083	85.94
352.311	85.94
352.538	77.94
352.765	86.94
352.992	82.94
353.22	74.94
353.447	84.94
353.674	82.94
353.901	95.94
354.128	84.94
354.355	85.94
354.583	85.94
354.81	64.94
355.037	89.94
355.264	94.94
355.491	81.94
355.718	79.94
355.945	92.94
356.172	96.94
356.399	78.94
356.626	90.94
356.853	69.94
357.08	75.94
357.307	89.94
357.534	83.94
357.761	83.94
357.988	88.94
358.215	73.94
358.441	84.94
358.668	90.94
358.895	81.94
359.122	82.94
359.349	92.94
359.576	75.94
359.802	93.94
360.029	86.94
360.256	80.94
360.483	75.94
360.709	78.94
360.936	86.94
361.163	98.94
361.39	85.94
361.616	78.94
361.843	86.94
362.07	68.94
362.296	76.94
362.523	83.94
362.749	79.94
362.976	78.94
363.203	95.94
363.429	78.94
363.656	78.94
363.882	92.94
364.109	92.94
364.335	82.94
364.562	100.94
364.788	91.94
365.015	80.94
365.241	83.94
365.468	82.94
365.694	68.94
365.92	85.94
366.147	94.94
366.373	87.94
366.599	69.94
366.826	76.94
367.052	83.94
367.278	84.94
367.505	83.94
367.731	96.94
367.957	76.94
368.184	88.94
368.41	70.94
368.636	85.94
368.862	81.94
369.089	79.94
369.315	90.94
369.541	79.94
369.767	81.94
369.993	79.94
370.219	77.94
370.445	79.94
370.672	77.94
370.898	87.94
371.124	84.94
371.35	91.94
371.576	79.94
371.802	91.94
372.028	76.94
372.254	80.94
372.48	74.94
372.706	81.94
372.932	86.94
373.158	75.94
373.384	85.94
373.61	93.94
373.835	90.94
374.061	71.94
374.287	91.94
374.513	92.94
374.739	81.94
374.965	86.94
375.191	72.94
375.416	82.94
375.642	92.94
375.868	89.94
376.094	73.94
376.319	92.94
376.545	81.94
376.771	84.94
376.997	72.94
377.222	81.94
377.448	87.94
377.674	80.94
377.899	93.94
378.125	74.94
378.35	100.94
378.576	95.94
378.802	88.94
379.027	73.94
379.253	81.94
379.478	78.94
379.704	76.94
379.929	79.94
380.155	80.94
380.38	73.94
380.606	79.94
380.831	78.94
381.057	78.94
381.282	93.94
381.507	81.94
381.733	81.94
381.958	75.94
382.184	85.94
382.409	95.94
382.634	88.94
382.86	86.94
383.085	73.94
383.31	90.94
383.535	69.94
383.761	94.94
383.986	77.94
384.211	92.94
384.436	86.94
384.662	78.94
384.887	93.94
385.112	75.94
385.337	86.94
385.562	76.94
385.787	76.94
386.013	78.94
386.238	77.94
386.463	85.94
386.688	87.94
386.913	84.94
387.138	70.94
387.363	84.94
387.588	91.94
387.813	80.94
388.038	84.94
388.263	74.94
388.488	89.94
388.713	84.94
388.938	84.94
389.163	77.94
389.387	89.94
389.612	71.94
389.837	90.94
390.062	83.94
390.287	81.94
390.512	98.94
390.736	90.94
390.961	83.94
391.186	84.94
391.411	83.94
391.636	68.94
391.86	73.94
392.085	83.94
392.31	73.94
392.534	89.94
392.759	81.94
392.984	92.94
393.208	72.94
393.433	77.94
393.658	79.94
393.882	81.94
394.107	82.94
394.331	91.94
394.556	68.94
394.78	88.94
395.005	104.94
395.229	82.94
395.454	82.94
395.678	85.94
395.903	90.94
396.127	78.94
396.352	89.94
396.576	84.94
396.801	81.94
397.025	89.94
397.249	78.94
397.474	82.94
397.698	83.94
397.922	92.94
398.147	77.94
398.371	93.94
398.595	88.94
398.82	82.94
399.044	76.94
399.268	83.94
399.492	71.94
399.717	88.94
399.941	93.94
400.165	87.94
400.389	76.94
400.613	77.94
400.837	70.94
401.062	79.94
401.286	77.94
401.51	75.94
401.734	94.94
401.958	87.94
402.182	68.94
402.406	77.94
402.63	90.94
402.854	83.94
403.078	79.94
403.302	83.94
403.526	78.94
403.75	82.94
403.974	83.94
404.198	75.94
404.422	86.94
404.645	89.94
404.869	69.94
405.093	78.94
405.317	74.94
405.541	74.94
405.765	89.94
405.988	77.94
406.212	74.94
406.436	95.94
406.66	76.94
406.883	88.94
407.107	96.94
407.331	78.94
407.555	71.94
407.778	82.94
408.002	86.94
408.226	77.94
408.449	101.94
408.673	85.94
408.896	78.94
409.12	86.94
409.344	89.94
409.567	80.94
409.791	83.94
410.014	78.94
410.238	89.94
410.461	89.94
410.685	84.94
410.908	87.94
411.132	93.94
411.355	92.94
411.578	76.94
411.802	89.94
412.025	83.94
412.249	82.94
412.472	80.94
412.695	85.94
412.919	78.94
413.142	86.94
413.365	69.94
413.589	78.94
413.812	88.94
414.035	88.94
414.258	84.94
414.482	71.94
414.705	95.94
414.928	88.94
415.151	85.94
415.374	80.94
415.597	80.94
415.821	87.94
416.044	102.94
416.267	81.94
416.49	82.94
416.713	82.94
416.936	77.94
417.159	89.94
417.382	79.94
417.605	83.94
417.828	87.94
418.051	76.94
418.274	86.94
418.497	79.94
418.72	103.94
418.943	86.94
419.166	81.94
419.389	99.94
419.611	77.94
419.834	68.94
420.057	78.94
420.28	86.94
420.503	93.94
420.726	72.94
420.948	75.94
421.171	87.94
421.394	70.94
421.617	80.94
421.839	73.94
422.062	86.94
422.285	77.94
422.507	69.94
422.73	75.94
422.953	80.94
423.175	79.94
423.398	100.94
423.621	85.94
423.843	78.94
424.066	83.94
424.288	75.94
424.511	82.94
424.733	76.94
424.956	94.94
425.178	83.94
425.401	84.94
425.623	82.94
425.846	72.94
426.068	76.94
426.291	74.94
426.513	72.94
426.735	86.94
426.958	86.94
427.18	81.94
427.402	83.94
427.625	76.94
427.847	67.94
428.069	73.94
428.292	90.94
428.514	81.94
428.736	90.94
428.958	83.94
429.181	68.94
429.403	95.94
429.625	73.94
429.847	74.94
430.069	81.94
430.292	86.94
430.514	92.94
430.736	95.94
430.958	98.94
431.18	101.94
431.402	88.94
431.624	79.94
431.846	73.94
432.068	86.94
432.29	74.94
432.512	77.94
432.734	74.94
432.956	78.94
433.178	95.94
433.4	90.94
433.622	86.94
433.844	99.94
434.066	94.94
434.287	83.94
434.509	82.94
434.731	78.94
434.953	81.94
435.175	84.94
435.397	91.94
435.618	85.94
435.84	76.94
436.062	81.94
436.284	90.94
436.505	95.94
436.727	88.94
436.949	71.94
437.17	74.94
437.392	71.94
437.614	84.94
437.835	82.94
438.057	73.94
438.278	77.94
438.5	77.94
438.721	78.94
438.943	87.94
439.165	74.94
439.386	90.94
439.608	89.94
439.829	79.94
440.05	84.94
440.272	95.94
440.493	79.94
440.715	84.94
440.936	79.94
441.158	65.94
441.379	87.94
441.6	81.94
441.822	88.94
442.043	62.94
442.264	79.94
442.486	93.94
442.707	88.94
442.928	70.94
443.149	74.94
443.371	69.94
443.592	89.94
443.813	89.94
444.034	81.94
444.255	88.94
444.476	78.94
444.698	81.94
444.919	75.94
445.14	155.94
445.361	109.94
445.582	79.94
445.803	94.94
446.024	94.94
446.245	96.94
446.466	67.94
446.687	88.94
446.908	80.94
447.129	86.94
447.35	86.94
447.571	91.94
447.792	102.94
448.013	78.94
448.234	70.94
448.455	83.94
448.675	88.94
448.896	83.94
449.117	88.94
449.338	86.94
449.559	98.94
449.779	80.94
450	80.94
450.221	94.94
450.442	78.94
450.662	73.94
450.883	75.94
451.104	83.94
451.324	84.94
451.545	95.94
451.766	87.94
451.986	80.94
452.207	87.94
452.428	87.94
452.648	84.94
452.869	94.94
453.089	87.94
453.31	75.94
453.53	73.94
453.751	87.94
453.971	86.94
454.192	98.94
454.412	76.94
454.633	84.94
454.853	80.94
455.073	89.94
455.294	66.94
455.514	80.94
455.734	70.94
455.955	76.94
456.175	74.94
456.395	82.94
456.616	95.94
456.836	78.94
457.056	62.94
457.276	75.94
457.497	80.94
457.717	93.94
457.937	79.94
458.157	81.94
458.377	92.94
458.598	80.94
458.818	86.94
459.038	81.94
459.258	72.94
459.478	81.94
459.698	72.94
459.918	85.94
460.138	79.94
460.358	79.94
460.578	88.94
460.798	89.94
461.018	75.94
461.238	74.94
461.458	64.94
461.678	91.94
461.898	76.94
462.118	92.94
462.338	89.94
462.558	83.94
462.777	87.94
462.997	76.94
463.217	86.94
463.437	85.94
463.657	74.94
463.876	82.94
464.096	83.94
464.316	88.94
464.536	78.94
464.755	66.94
464.975	82.94
465.195	83.94
465.414	97.94
465.634	85.94
465.854	92.94
466.073	74.94
466.293	82.94
466.512	89.94
466.732	80.94
466.951	80.94
467.171	78.94
467.391	91.94
467.61	89.94
467.829	78.94
468.049	85.94
468.268	84.94
468.488	67.94
468.707	76.94
468.927	77.94
469.146	76.94
469.365	86.94
469.585	87.94
469.804	75.94
470.023	87.94
470.243	82.94
470.462	90.94
470.681	76.94
470.901	83.94
471.12	85.94
471.339	89.94
471.558	84.94
471.777	78.94
471.997	92.94
472.216	76.94
472.435	71.94
472.654	82.94
472.873	78.94
473.092	69.94
473.311	88.94
473.53	73.94
473.749	89.94
473.968	98.94
474.187	82.94
474.406	63.94
474.625	80.94
474.844	71.94
475.063	69.94
475.282	87.94
475.501	94.94
475.72	86.94
475.939	91.94
476.158	89.94
476.377	83.94
476.596	85.94
476.814	68.94
477.033	71.94
477.252	92.94
477.471	71.94
477.69	86.94
477.908	96.94
478.127	85.94
478.346	69.94
478.564	76.94
478.783	85.94
479.002	86.94
479.22	76.94
479.439	84.94
479.658	80.94
479.876	83.94
480.095	58.94
480.313	72.94
480.532	86.94
480.751	76.94
480.969	74.94
481.188	73.94
481.406	80.94
481.624	76.94
481.843	86.94
482.061	87.94
482.28	83.94
482.498	68.94
482.717	67.94
482.935	91.94
483.153	93.94
483.372	85.94
483.59	77.94
483.808	71.94
484.027	87.94
484.245	76.94
484.463	85.94
484.681	84.94
484.9	90.94
485.118	82.94
485.336	78.94
485.554	74.94
485.772	72.94
485.99	90.94
486.209	93.94
486.427	79.94
486.645	82.94
486.863	86.94
487.081	94.94
487.299	98.94
487.517	87.94
487.735	79.94
487.953	92.94
488.171	86.94
488.389	77.94
488.607	96.94
488.825	84.94
489.043	72.94
489.261	85.94
489.479	83.94
489.696	74.94
489.914	92.94
490.132	85.94
490.35	65.94
490.568	77.94
490.786	85.94
491.003	88.94
491.221	94.94
491.439	80.94
491.657	70.94
491.874	82.94
492.092	84.94
492.31	90.94
492.527	98.94
492.745	82.94
492.963	82.94
493.18	96.94
493.398	93.94
493.615	79.94
493.833	85.94
494.05	80.94
494.268	99.94
494.485	90.94
494.703	93.94
494.92	72.94
495.138	96.94
495.355	88.94
495.573	98.94
495.79	95.94
496.008	91.94
496.225	89.94
496.442	87.94
496.66	92.94
496.877	85.94
497.094	87.94
497.312	76.94
497.529	84.94
497.746	82.94
497.963	74.94
498.181	78.94
498.398	98.94
498.615	80.94
498.832	86.94
499.049	86.94
499.267	81.94
499.484	85.94
499.701	77.94
499.918	84.94
500.135	79.94
500.352	82.94
500.569	93.94
500.786	84.94
501.003	87.94
501.22	78.94
501.437	93.94
501.654	85.94
501.871	90.94
502.088	87.94
502.305	86.94
502.522	81.94
502.739	86.94
502.956	86.94
503.172	76.94
503.389	72.94
503.606	79.94
503.823	74.94
504.04	74.94
504.256	87.94
504.473	75.94
504.69	75.94
504.907	93.94
505.123	78.94
505.34	71.94
505.557	84.94
505.773	90.94
505.99	78.94
506.207	78.94
506.423	92.94
506.64	92.94
506.856	65.94
507.073	80.94
507.289	70.94
507.506	81.94
507.722	80.94
507.939	76.94
508.155	93.94
508.372	84.94
508.588	79.94
508.805	87.94
509.021	80.94
509.238	78.94
509.454	79.94
509.67	79.94
509.887	83.94
510.103	72.94
510.319	71.94
510.536	78.94
510.752	89.94
510.968	78.94
511.184	61.94
511.401	78.94
511.617	72.94
511.833	65.94
512.049	79.94
512.265	87.94
512.481	74.94
512.698	84.94
512.914	84.94
513.13	88.94
513.346	79.94
513.562	77.94
513.778	78.94
513.994	91.94
514.21	77.94
514.426	71.94
514.642	81.94
514.858	85.94
515.074	68.94
515.29	82.94
515.506	81.94
515.721	75.94
515.937	86.94
516.153	87.94
516.369	80.94
516.585	84.94
516.801	86.94
517.016	74.94
517.232	86.94
517.448	87.94
517.664	87.94
517.879	80.94
518.095	86.94
518.311	85.94
518.527	78.94
518.742	78.94
518.958	88.94
519.173	76.94
519.389	82.94
519.605	91.94
519.82	75.94
520.036	86.94
