Data from BG_HRD10591_032.txt Node
Date: Fri May 16 15:14:38 EDT 2025
User: Yrep
Spectrometer: HR+D1059
Trigger mode: 1
Integration Time (sec): 1.000000E-1
Scans to average: 1
Electric dark correction enabled: true
Nonlinearity correction enabled: false
Boxcar width: 0
XAxis mode: Wavelengths
Number of Pixels in Spectrum: 2048
>>>>>Begin Spectral Data<<<<<
223.165	-15.75
223.4	-15.75
223.635	-15.75
223.869	-10.75
224.104	-16.75
224.338	-10.75
224.573	-31.75
224.808	-19.75
225.042	-19.75
225.277	-0.75
225.511	-10.75
225.746	2.25
225.98	5.25
226.215	8.25
226.449	16.25
226.683	33.25
226.918	28.25
227.152	43.25
227.387	27.25
227.621	38.25
227.856	38.25
228.09	43.25
228.324	41.25
228.559	53.25
228.793	50.25
229.027	58.25
229.262	49.25
229.496	50.25
229.73	74.25
229.964	66.25
230.199	68.25
230.433	45.25
230.667	58.25
230.901	74.25
231.136	68.25
231.37	71.25
231.604	66.25
231.838	73.25
232.072	87.25
232.306	79.25
232.541	53.25
232.775	64.25
233.009	69.25
233.243	80.25
233.477	76.25
233.711	87.25
233.945	71.25
234.179	64.25
234.413	73.25
234.647	70.25
234.881	62.25
235.115	89.25
235.349	70.25
235.583	74.25
235.817	81.25
236.051	74.25
236.285	70.25
236.519	79.25
236.753	70.25
236.987	70.25
237.221	58.25
237.455	72.25
237.689	85.25
237.922	68.25
238.156	75.25
238.39	64.25
238.624	62.25
238.858	68.25
239.091	63.25
239.325	60.25
239.559	73.25
239.793	70.25
240.027	74.25
240.26	76.25
240.494	72.25
240.728	68.25
240.961	67.25
241.195	64.25
241.429	67.25
241.662	62.25
241.896	80.25
242.13	73.25
242.363	62.25
242.597	73.25
242.83	55.25
243.064	74.25
243.298	80.25
243.531	73.25
243.765	69.25
243.998	72.25
244.232	55.25
244.465	88.25
244.699	81.25
244.932	82.25
245.166	61.25
245.399	80.25
245.633	92.25
245.866	75.25
246.099	80.25
246.333	75.25
246.566	67.25
246.8	76.25
247.033	76.25
247.266	61.25
247.5	80.25
247.733	82.25
247.966	55.25
248.2	72.25
248.433	62.25
248.666	64.25
248.899	70.25
249.133	67.25
249.366	71.25
249.599	78.25
249.832	68.25
250.066	83.25
250.299	82.25
250.532	70.25
250.765	62.25
250.998	77.25
251.231	71.25
251.465	83.25
251.698	77.25
251.931	68.25
252.164	62.25
252.397	61.25
252.63	79.25
252.863	74.25
253.096	60.25
253.329	74.25
253.562	67.25
253.795	85.25
254.028	61.25
254.261	78.25
254.494	56.25
254.727	74.25
254.96	86.25
255.193	71.25
255.426	77.25
255.659	82.25
255.892	73.25
256.124	77.25
256.357	84.25
256.59	82.25
256.823	66.25
257.056	75.25
257.289	70.25
257.521	70.25
257.754	65.25
257.987	59.25
258.22	81.25
258.452	80.25
258.685	64.25
258.918	74.25
259.151	77.25
259.383	73.25
259.616	61.25
259.849	82.25
260.081	84.25
260.314	84.25
260.547	81.25
260.779	81.25
261.012	72.25
261.244	76.25
261.477	73.25
261.71	80.25
261.942	72.25
262.175	70.25
262.407	74.25
262.64	80.25
262.872	69.25
263.105	82.25
263.337	67.25
263.57	67.25
263.802	85.25
264.035	71.25
264.267	77.25
264.499	71.25
264.732	77.25
264.964	74.25
265.197	81.25
265.429	69.25
265.661	66.25
265.894	76.25
266.126	73.25
266.358	77.25
266.591	85.25
266.823	74.25
267.055	77.25
267.287	70.25
267.52	75.25
267.752	58.25
267.984	78.25
268.216	79.25
268.448	74.25
268.681	85.25
268.913	79.25
269.145	57.25
269.377	64.25
269.609	72.25
269.841	80.25
270.073	82.25
270.306	72.25
270.538	89.25
270.77	76.25
271.002	88.25
271.234	93.25
271.466	85.25
271.698	73.25
271.93	78.25
272.162	76.25
272.394	76.25
272.626	79.25
272.858	85.25
273.09	82.25
273.322	76.25
273.553	86.25
273.785	86.25
274.017	58.25
274.249	71.25
274.481	71.25
274.713	78.25
274.945	69.25
275.176	64.25
275.408	83.25
275.64	88.25
275.872	86.25
276.104	59.25
276.335	79.25
276.567	62.25
276.799	81.25
277.031	76.25
277.262	61.25
277.494	81.25
277.726	86.25
277.957	85.25
278.189	83.25
278.421	67.25
278.652	79.25
278.884	80.25
279.115	86.25
279.347	83.25
279.579	79.25
279.81	74.25
280.042	61.25
280.273	58.25
280.505	80.25
280.736	70.25
280.968	60.25
281.199	74.25
281.431	68.25
281.662	86.25
281.894	79.25
282.125	72.25
282.356	73.25
282.588	78.25
282.819	69.25
283.051	75.25
283.282	73.25
283.513	85.25
283.745	87.25
283.976	75.25
284.207	76.25
284.439	58.25
284.67	89.25
284.901	87.25
285.132	71.25
285.364	75.25
285.595	83.25
285.826	76.25
286.057	77.25
286.288	76.25
286.52	80.25
286.751	71.25
286.982	86.25
287.213	73.25
287.444	81.25
287.675	85.25
287.906	89.25
288.138	78.25
288.369	80.25
288.6	70.25
288.831	81.25
289.062	83.25
289.293	71.25
289.524	73.25
289.755	73.25
289.986	79.25
290.217	79.25
290.448	82.25
290.679	74.25
290.91	93.25
291.141	78.25
291.371	82.25
291.602	90.25
291.833	89.25
292.064	92.25
292.295	78.25
292.526	70.25
292.757	73.25
292.987	80.25
293.218	63.25
293.449	70.25
293.68	87.25
293.91	85.25
294.141	67.25
294.372	80.25
294.603	75.25
294.833	77.25
295.064	92.25
295.295	73.25
295.525	73.25
295.756	81.25
295.987	77.25
296.217	70.25
296.448	78.25
296.679	75.25
296.909	77.25
297.14	84.25
297.37	79.25
297.601	79.25
297.831	92.25
298.062	81.25
298.292	70.25
298.523	82.25
298.753	77.25
298.984	74.25
299.214	80.25
299.445	85.25
299.675	62.25
299.905	81.25
300.136	82.25
300.366	82.25
300.597	87.25
300.827	80.25
301.057	69.25
301.288	81.25
301.518	92.25
301.748	74.25
301.979	96.25
302.209	80.25
302.439	86.25
302.669	67.25
302.9	83.25
303.13	83.25
303.36	73.25
303.59	72.25
303.82	76.25
304.051	75.25
304.281	82.25
304.511	88.25
304.741	70.25
304.971	86.25
305.201	58.25
305.431	66.25
305.661	72.25
305.891	78.25
306.121	89.25
306.352	81.25
306.582	74.25
306.812	75.25
307.042	71.25
307.272	63.25
307.502	94.25
307.731	82.25
307.961	76.25
308.191	66.25
308.421	83.25
308.651	76.25
308.881	68.25
309.111	74.25
309.341	88.25
309.571	76.25
309.8	84.25
310.03	64.25
310.26	68.25
310.49	73.25
310.72	68.25
310.949	68.25
311.179	72.25
311.409	73.25
311.639	77.25
311.868	69.25
312.098	89.25
312.328	78.25
312.557	83.25
312.787	74.25
313.017	86.25
313.246	80.25
313.476	90.25
313.706	81.25
313.935	78.25
314.165	82.25
314.394	78.25
314.624	81.25
314.853	74.25
315.083	65.25
315.312	83.25
315.542	78.25
315.771	78.25
316.001	93.25
316.23	70.25
316.46	79.25
316.689	78.25
316.919	76.25
317.148	86.25
317.377	81.25
317.607	70.25
317.836	79.25
318.065	68.25
318.295	76.25
318.524	77.25
318.753	58.25
318.983	92.25
319.212	77.25
319.441	77.25
319.67	78.25
319.9	73.25
320.129	77.25
320.358	84.25
320.587	78.25
320.816	86.25
321.046	79.25
321.275	84.25
321.504	68.25
321.733	86.25
321.962	79.25
322.191	70.25
322.42	78.25
322.649	86.25
322.878	88.25
323.108	82.25
323.337	74.25
323.566	63.25
323.795	83.25
324.024	69.25
324.253	74.25
324.482	79.25
324.71	78.25
324.939	96.25
325.168	77.25
325.397	65.25
325.626	86.25
325.855	77.25
326.084	94.25
326.313	79.25
326.542	77.25
326.77	85.25
326.999	72.25
327.228	73.25
327.457	87.25
327.686	86.25
327.914	77.25
328.143	88.25
328.372	84.25
328.6	80.25
328.829	77.25
329.058	89.25
329.287	88.25
329.515	88.25
329.744	93.25
329.972	77.25
330.201	88.25
330.43	81.25
330.658	72.25
330.887	94.25
331.115	81.25
331.344	83.25
331.572	85.25
331.801	65.25
332.03	68.25
332.258	87.25
332.486	74.25
332.715	84.25
332.943	80.25
333.172	77.25
333.4	92.25
333.629	76.25
333.857	78.25
334.085	92.25
334.314	94.25
334.542	89.25
334.771	76.25
334.999	94.25
335.227	69.25
335.455	74.25
335.684	73.25
335.912	83.25
336.14	83.25
336.369	79.25
336.597	98.25
336.825	78.25
337.053	76.25
337.281	78.25
337.51	80.25
337.738	63.25
337.966	81.25
338.194	65.25
338.422	71.25
338.65	76.25
338.878	84.25
339.106	68.25
339.334	70.25
339.562	74.25
339.79	76.25
340.018	76.25
340.246	66.25
340.474	77.25
340.702	73.25
340.93	84.25
341.158	76.25
341.386	73.25
341.614	85.25
341.842	61.25
342.07	81.25
342.298	74.25
342.526	89.25
342.754	72.25
342.981	79.25
343.209	70.25
343.437	93.25
343.665	76.25
343.893	68.25
344.12	68.25
344.348	85.25
344.576	70.25
344.804	68.25
345.031	63.25
345.259	64.25
345.487	68.25
345.714	63.25
345.942	69.25
346.17	83.25
346.397	75.25
346.625	68.25
346.853	78.25
347.08	76.25
347.308	73.25
347.535	78.25
347.763	76.25
347.99	74.25
348.218	90.25
348.445	74.25
348.673	83.25
348.9	90.25
349.128	92.25
349.355	85.25
349.583	78.25
349.81	82.25
350.037	85.25
350.265	75.25
350.492	76.25
350.72	85.25
350.947	64.25
351.174	68.25
351.402	72.25
351.629	84.25
351.856	81.25
352.083	94.25
352.311	68.25
352.538	70.25
352.765	63.25
352.992	94.25
353.22	82.25
353.447	81.25
353.674	84.25
353.901	71.25
354.128	92.25
354.355	83.25
354.583	72.25
354.81	80.25
355.037	85.25
355.264	63.25
355.491	93.25
355.718	87.25
355.945	68.25
356.172	66.25
356.399	65.25
356.626	75.25
356.853	76.25
357.08	79.25
357.307	73.25
357.534	87.25
357.761	71.25
357.988	82.25
358.215	82.25
358.441	68.25
358.668	68.25
358.895	75.25
359.122	72.25
359.349	81.25
359.576	83.25
359.802	83.25
360.029	97.25
360.256	81.25
360.483	78.25
360.709	76.25
360.936	89.25
361.163	68.25
361.39	70.25
361.616	78.25
361.843	67.25
362.07	76.25
362.296	66.25
362.523	76.25
362.749	76.25
362.976	75.25
363.203	73.25
363.429	68.25
363.656	77.25
363.882	68.25
364.109	79.25
364.335	73.25
364.562	74.25
364.788	76.25
365.015	76.25
365.241	64.25
365.468	77.25
365.694	82.25
365.92	71.25
366.147	89.25
366.373	79.25
366.599	81.25
366.826	75.25
367.052	75.25
367.278	83.25
367.505	77.25
367.731	76.25
367.957	84.25
368.184	88.25
368.41	77.25
368.636	82.25
368.862	77.25
369.089	77.25
369.315	83.25
369.541	80.25
369.767	82.25
369.993	77.25
370.219	71.25
370.445	71.25
370.672	76.25
370.898	68.25
371.124	68.25
371.35	92.25
371.576	75.25
371.802	82.25
372.028	84.25
372.254	62.25
372.48	78.25
372.706	71.25
372.932	71.25
373.158	77.25
373.384	71.25
373.61	74.25
373.835	64.25
374.061	80.25
374.287	76.25
374.513	69.25
374.739	86.25
374.965	96.25
375.191	78.25
375.416	80.25
375.642	73.25
375.868	74.25
376.094	78.25
376.319	71.25
376.545	92.25
376.771	81.25
376.997	84.25
377.222	87.25
377.448	80.25
377.674	64.25
377.899	79.25
378.125	75.25
378.35	70.25
378.576	68.25
378.802	66.25
379.027	84.25
379.253	87.25
379.478	79.25
379.704	71.25
379.929	71.25
380.155	67.25
380.38	80.25
380.606	87.25
380.831	72.25
381.057	67.25
381.282	76.25
381.507	68.25
381.733	68.25
381.958	76.25
382.184	81.25
382.409	62.25
382.634	69.25
382.86	85.25
383.085	77.25
383.31	65.25
383.535	70.25
383.761	64.25
383.986	68.25
384.211	77.25
384.436	92.25
384.662	76.25
384.887	71.25
385.112	76.25
385.337	74.25
385.562	82.25
385.787	73.25
386.013	72.25
386.238	83.25
386.463	84.25
386.688	99.25
386.913	73.25
387.138	72.25
387.363	72.25
387.588	77.25
387.813	75.25
388.038	75.25
388.263	77.25
388.488	83.25
388.713	85.25
388.938	82.25
389.163	73.25
389.387	76.25
389.612	78.25
389.837	73.25
390.062	74.25
390.287	86.25
390.512	81.25
390.736	73.25
390.961	73.25
391.186	74.25
391.411	75.25
391.636	88.25
391.86	57.25
392.085	73.25
392.31	73.25
392.534	79.25
392.759	72.25
392.984	62.25
393.208	72.25
393.433	76.25
393.658	92.25
393.882	70.25
394.107	84.25
394.331	87.25
394.556	80.25
394.78	85.25
395.005	87.25
395.229	70.25
395.454	66.25
395.678	73.25
395.903	75.25
396.127	67.25
396.352	76.25
396.576	70.25
396.801	77.25
397.025	80.25
397.249	80.25
397.474	82.25
397.698	61.25
397.922	70.25
398.147	81.25
398.371	80.25
398.595	80.25
398.82	71.25
399.044	80.25
399.268	71.25
399.492	72.25
399.717	84.25
399.941	72.25
400.165	88.25
400.389	74.25
400.613	97.25
400.837	77.25
401.062	93.25
401.286	68.25
401.51	56.25
401.734	75.25
401.958	71.25
402.182	61.25
402.406	87.25
402.63	65.25
402.854	87.25
403.078	70.25
403.302	70.25
403.526	85.25
403.75	76.25
403.974	74.25
404.198	87.25
404.422	86.25
404.645	73.25
404.869	72.25
405.093	82.25
405.317	69.25
405.541	80.25
405.765	79.25
405.988	84.25
406.212	79.25
406.436	73.25
406.66	79.25
406.883	82.25
407.107	73.25
407.331	67.25
407.555	77.25
407.778	67.25
408.002	64.25
408.226	71.25
408.449	73.25
408.673	70.25
408.896	87.25
409.12	63.25
409.344	74.25
409.567	70.25
409.791	76.25
410.014	80.25
410.238	80.25
410.461	81.25
410.685	76.25
410.908	72.25
411.132	84.25
411.355	92.25
411.578	72.25
411.802	70.25
412.025	67.25
412.249	79.25
412.472	78.25
412.695	78.25
412.919	79.25
413.142	89.25
413.365	68.25
413.589	66.25
413.812	82.25
414.035	89.25
414.258	82.25
414.482	78.25
414.705	69.25
414.928	73.25
415.151	88.25
415.374	78.25
415.597	70.25
415.821	66.25
416.044	74.25
416.267	74.25
416.49	85.25
416.713	68.25
416.936	75.25
417.159	83.25
417.382	76.25
417.605	76.25
417.828	71.25
418.051	79.25
418.274	69.25
418.497	78.25
418.72	73.25
418.943	74.25
419.166	77.25
419.389	73.25
419.611	77.25
419.834	79.25
420.057	74.25
420.28	69.25
420.503	58.25
420.726	82.25
420.948	69.25
421.171	78.25
421.394	83.25
421.617	62.25
421.839	79.25
422.062	70.25
422.285	78.25
422.507	82.25
422.73	79.25
422.953	67.25
423.175	64.25
423.398	64.25
423.621	84.25
423.843	87.25
424.066	71.25
424.288	73.25
424.511	64.25
424.733	86.25
424.956	68.25
425.178	71.25
425.401	68.25
425.623	59.25
425.846	73.25
426.068	73.25
426.291	62.25
426.513	83.25
426.735	63.25
426.958	65.25
427.18	78.25
427.402	85.25
427.625	77.25
427.847	69.25
428.069	85.25
428.292	83.25
428.514	68.25
428.736	63.25
428.958	72.25
429.181	76.25
429.403	78.25
429.625	71.25
429.847	71.25
430.069	86.25
430.292	80.25
430.514	64.25
430.736	74.25
430.958	84.25
431.18	70.25
431.402	78.25
431.624	71.25
431.846	71.25
432.068	80.25
432.29	68.25
432.512	58.25
432.734	74.25
432.956	74.25
433.178	94.25
433.4	80.25
433.622	71.25
433.844	76.25
434.066	74.25
434.287	85.25
434.509	82.25
434.731	74.25
434.953	79.25
435.175	68.25
435.397	79.25
435.618	59.25
435.84	76.25
436.062	94.25
436.284	78.25
436.505	87.25
436.727	82.25
436.949	80.25
437.17	80.25
437.392	69.25
437.614	81.25
437.835	72.25
438.057	57.25
438.278	81.25
438.5	72.25
438.721	73.25
438.943	73.25
439.165	64.25
439.386	56.25
439.608	80.25
439.829	76.25
440.05	81.25
440.272	72.25
440.493	80.25
440.715	81.25
440.936	81.25
441.158	67.25
441.379	75.25
441.6	77.25
441.822	72.25
442.043	64.25
442.264	65.25
442.486	59.25
442.707	65.25
442.928	70.25
443.149	64.25
443.371	76.25
443.592	69.25
443.813	62.25
444.034	81.25
444.255	79.25
444.476	64.25
444.698	81.25
444.919	68.25
445.14	151.25
445.361	98.25
445.582	81.25
445.803	70.25
446.024	77.25
446.245	66.25
446.466	74.25
446.687	67.25
446.908	78.25
447.129	77.25
447.35	78.25
447.571	82.25
447.792	89.25
448.013	82.25
448.234	80.25
448.455	89.25
448.675	65.25
448.896	73.25
449.117	69.25
449.338	67.25
449.559	79.25
449.779	78.25
450	71.25
450.221	68.25
450.442	72.25
450.662	71.25
450.883	74.25
451.104	71.25
451.324	82.25
451.545	62.25
451.766	69.25
451.986	70.25
452.207	81.25
452.428	79.25
452.648	76.25
452.869	70.25
453.089	59.25
453.31	67.25
453.53	80.25
453.751	75.25
453.971	81.25
454.192	73.25
454.412	70.25
454.633	74.25
454.853	68.25
455.073	80.25
455.294	59.25
455.514	72.25
455.734	78.25
455.955	81.25
456.175	61.25
456.395	68.25
456.616	68.25
456.836	82.25
457.056	88.25
457.276	89.25
457.497	78.25
457.717	78.25
457.937	77.25
458.157	67.25
458.377	86.25
458.598	85.25
458.818	78.25
459.038	80.25
459.258	70.25
459.478	68.25
459.698	63.25
459.918	68.25
460.138	72.25
460.358	61.25
460.578	75.25
460.798	88.25
461.018	70.25
461.238	87.25
461.458	86.25
461.678	76.25
461.898	69.25
462.118	66.25
462.338	73.25
462.558	75.25
462.777	77.25
462.997	64.25
463.217	66.25
463.437	77.25
463.657	62.25
463.876	83.25
464.096	80.25
464.316	66.25
464.536	59.25
464.755	64.25
464.975	72.25
465.195	87.25
465.414	85.25
465.634	65.25
465.854	68.25
466.073	61.25
466.293	81.25
466.512	88.25
466.732	66.25
466.951	68.25
467.171	70.25
467.391	70.25
467.61	64.25
467.829	85.25
468.049	68.25
468.268	64.25
468.488	68.25
468.707	83.25
468.927	78.25
469.146	70.25
469.365	72.25
469.585	84.25
469.804	67.25
470.023	79.25
470.243	77.25
470.462	82.25
470.681	66.25
470.901	88.25
471.12	80.25
471.339	80.25
471.558	71.25
471.777	77.25
471.997	83.25
472.216	87.25
472.435	72.25
472.654	77.25
472.873	76.25
473.092	79.25
473.311	84.25
473.53	71.25
473.749	79.25
473.968	92.25
474.187	67.25
474.406	72.25
474.625	77.25
474.844	78.25
475.063	74.25
475.282	71.25
475.501	73.25
475.72	84.25
475.939	57.25
476.158	65.25
476.377	67.25
476.596	66.25
476.814	64.25
477.033	89.25
477.252	81.25
477.471	66.25
477.69	72.25
477.908	70.25
478.127	79.25
478.346	84.25
478.564	69.25
478.783	72.25
479.002	64.25
479.22	78.25
479.439	81.25
479.658	68.25
479.876	61.25
480.095	62.25
480.313	70.25
480.532	80.25
480.751	76.25
480.969	77.25
481.188	72.25
481.406	80.25
481.624	81.25
481.843	71.25
482.061	65.25
482.28	74.25
482.498	70.25
482.717	60.25
482.935	70.25
483.153	82.25
483.372	89.25
483.59	91.25
483.808	72.25
484.027	84.25
484.245	61.25
484.463	84.25
484.681	78.25
484.9	58.25
485.118	89.25
485.336	81.25
485.554	77.25
485.772	76.25
485.99	83.25
486.209	57.25
486.427	74.25
486.645	67.25
486.863	68.25
487.081	101.25
487.299	63.25
487.517	71.25
487.735	80.25
487.953	74.25
488.171	74.25
488.389	74.25
488.607	72.25
488.825	65.25
489.043	78.25
489.261	78.25
489.479	95.25
489.696	86.25
489.914	64.25
490.132	88.25
490.35	84.25
490.568	79.25
490.786	78.25
491.003	100.25
491.221	81.25
491.439	72.25
491.657	70.25
491.874	78.25
492.092	79.25
492.31	71.25
492.527	64.25
492.745	77.25
492.963	76.25
493.18	81.25
493.398	69.25
493.615	79.25
493.833	76.25
494.05	58.25
494.268	80.25
494.485	79.25
494.703	66.25
494.92	59.25
495.138	72.25
495.355	73.25
495.573	70.25
495.79	89.25
496.008	64.25
496.225	71.25
496.442	73.25
496.66	80.25
496.877	70.25
497.094	76.25
497.312	74.25
497.529	76.25
497.746	92.25
497.963	78.25
498.181	76.25
498.398	72.25
498.615	82.25
498.832	74.25
499.049	65.25
499.267	78.25
499.484	77.25
499.701	67.25
499.918	77.25
500.135	68.25
500.352	78.25
500.569	82.25
500.786	68.25
501.003	74.25
501.22	68.25
501.437	68.25
501.654	73.25
501.871	67.25
502.088	81.25
502.305	66.25
502.522	70.25
502.739	85.25
502.956	90.25
503.172	64.25
503.389	79.25
503.606	77.25
503.823	73.25
504.04	85.25
504.256	59.25
504.473	74.25
504.69	76.25
504.907	77.25
505.123	69.25
505.34	72.25
505.557	73.25
505.773	69.25
505.99	66.25
506.207	80.25
506.423	81.25
506.64	97.25
506.856	84.25
507.073	66.25
507.289	84.25
507.506	79.25
507.722	69.25
507.939	53.25
508.155	83.25
508.372	64.25
508.588	75.25
508.805	74.25
509.021	71.25
509.238	76.25
509.454	78.25
509.67	79.25
509.887	66.25
510.103	55.25
510.319	70.25
510.536	88.25
510.752	81.25
510.968	89.25
511.184	76.25
511.401	72.25
511.617	76.25
511.833	77.25
512.049	68.25
512.265	76.25
512.481	90.25
512.698	81.25
512.914	78.25
513.13	79.25
513.346	88.25
513.562	75.25
513.778	71.25
513.994	57.25
514.21	80.25
514.426	70.25
514.642	73.25
514.858	74.25
515.074	69.25
515.29	77.25
515.506	69.25
515.721	82.25
515.937	85.25
516.153	84.25
516.369	72.25
516.585	62.25
516.801	73.25
517.016	85.25
517.232	84.25
517.448	69.25
517.664	72.25
517.879	77.25
518.095	74.25
518.311	79.25
518.527	68.25
518.742	76.25
518.958	72.25
519.173	80.25
519.389	82.25
519.605	70.25
519.82	67.25
520.036	88.25
520.251	73.25
