Data from BG_HRD10591_094.txt Node
Date: Fri May 16 15:15:09 EDT 2025
User: Yrep
Spectrometer: HR+D1059
Trigger mode: 1
Integration Time (sec): 1.000000E-1
Scans to average: 1
Electric dark correction enabled: true
Nonlinearity correction enabled: false
Boxcar width: 0
XAxis mode: Wavelengths
Number of Pixels in Spectrum: 2048
>>>>>Begin Spectral Data<<<<<
223.165	-17.19
223.4	-17.19
223.635	-17.19
223.869	-22.19
224.104	-24.19
224.338	-15.19
224.573	-31.19
224.808	1.81
225.042	-1.19
225.277	2.81
225.511	-10.19
225.746	13.81
225.98	2.81
226.215	4.81
226.449	19.81
226.683	10.81
226.918	26.81
227.152	37.81
227.387	30.81
227.621	37.81
227.856	49.81
228.09	52.81
228.324	40.81
228.559	63.81
228.793	63.81
229.027	55.81
229.262	73.81
229.496	60.81
229.73	74.81
229.964	69.81
230.199	69.81
230.433	62.81
230.667	70.81
230.901	69.81
231.136	76.81
231.37	71.81
231.604	81.81
231.838	78.81
232.072	81.81
232.306	80.81
232.541	76.81
232.775	90.81
233.009	90.81
233.243	93.81
233.477	82.81
233.711	82.81
233.945	78.81
234.179	78.81
234.413	79.81
234.647	87.81
234.881	81.81
235.115	89.81
235.349	63.81
235.583	91.81
235.817	82.81
236.051	67.81
236.285	83.81
236.519	70.81
236.753	63.81
236.987	83.81
237.221	63.81
237.455	80.81
237.689	90.81
237.922	87.81
238.156	81.81
238.39	84.81
238.624	82.81
238.858	62.81
239.091	67.81
239.325	69.81
239.559	76.81
239.793	81.81
240.027	75.81
240.26	67.81
240.494	55.81
240.728	54.81
240.961	65.81
241.195	64.81
241.429	80.81
241.662	70.81
241.896	67.81
242.13	85.81
242.363	77.81
242.597	89.81
242.83	52.81
243.064	67.81
243.298	72.81
243.531	67.81
243.765	83.81
243.998	73.81
244.232	67.81
244.465	68.81
244.699	79.81
244.932	70.81
245.166	70.81
245.399	71.81
245.633	87.81
245.866	77.81
246.099	62.81
246.333	67.81
246.566	83.81
246.8	75.81
247.033	77.81
247.266	61.81
247.5	71.81
247.733	65.81
247.966	74.81
248.2	76.81
248.433	63.81
248.666	63.81
248.899	79.81
249.133	92.81
249.366	88.81
249.599	63.81
249.832	76.81
250.066	76.81
250.299	62.81
250.532	71.81
250.765	84.81
250.998	74.81
251.231	90.81
251.465	72.81
251.698	74.81
251.931	82.81
252.164	79.81
252.397	75.81
252.63	75.81
252.863	78.81
253.096	85.81
253.329	85.81
253.562	68.81
253.795	71.81
254.028	63.81
254.261	82.81
254.494	68.81
254.727	72.81
254.96	74.81
255.193	84.81
255.426	81.81
255.659	85.81
255.892	88.81
256.124	63.81
256.357	86.81
256.59	70.81
256.823	78.81
257.056	69.81
257.289	69.81
257.521	70.81
257.754	78.81
257.987	78.81
258.22	86.81
258.452	78.81
258.685	65.81
258.918	98.81
259.151	86.81
259.383	65.81
259.616	73.81
259.849	90.81
260.081	82.81
260.314	76.81
260.547	71.81
260.779	73.81
261.012	76.81
261.244	84.81
261.477	73.81
261.71	91.81
261.942	70.81
262.175	76.81
262.407	72.81
262.64	82.81
262.872	84.81
263.105	76.81
263.337	83.81
263.57	77.81
263.802	88.81
264.035	73.81
264.267	66.81
264.499	73.81
264.732	77.81
264.964	83.81
265.197	71.81
265.429	82.81
265.661	75.81
265.894	84.81
266.126	87.81
266.358	92.81
266.591	95.81
266.823	85.81
267.055	87.81
267.287	92.81
267.52	78.81
267.752	94.81
267.984	93.81
268.216	79.81
268.448	55.81
268.681	82.81
268.913	73.81
269.145	73.81
269.377	82.81
269.609	77.81
269.841	82.81
270.073	95.81
270.306	75.81
270.538	73.81
270.77	72.81
271.002	86.81
271.234	76.81
271.466	98.81
271.698	79.81
271.93	80.81
272.162	69.81
272.394	78.81
272.626	70.81
272.858	84.81
273.09	77.81
273.322	87.81
273.553	81.81
273.785	82.81
274.017	93.81
274.249	85.81
274.481	76.81
274.713	64.81
274.945	71.81
275.176	91.81
275.408	71.81
275.64	78.81
275.872	90.81
276.104	75.81
276.335	77.81
276.567	71.81
276.799	73.81
277.031	80.81
277.262	93.81
277.494	89.81
277.726	91.81
277.957	84.81
278.189	87.81
278.421	84.81
278.652	94.81
278.884	83.81
279.115	83.81
279.347	79.81
279.579	71.81
279.81	70.81
280.042	82.81
280.273	92.81
280.505	62.81
280.736	75.81
280.968	92.81
281.199	88.81
281.431	76.81
281.662	90.81
281.894	81.81
282.125	77.81
282.356	69.81
282.588	83.81
282.819	73.81
283.051	79.81
283.282	87.81
283.513	78.81
283.745	79.81
283.976	78.81
284.207	87.81
284.439	101.81
284.67	75.81
284.901	97.81
285.132	81.81
285.364	91.81
285.595	87.81
285.826	113.81
286.057	84.81
286.288	85.81
286.52	75.81
286.751	87.81
286.982	92.81
287.213	89.81
287.444	94.81
287.675	86.81
287.906	77.81
288.138	82.81
288.369	83.81
288.6	82.81
288.831	95.81
289.062	75.81
289.293	82.81
289.524	101.81
289.755	82.81
289.986	83.81
290.217	85.81
290.448	83.81
290.679	72.81
290.91	86.81
291.141	93.81
291.371	93.81
291.602	93.81
291.833	78.81
292.064	77.81
292.295	94.81
292.526	102.81
292.757	79.81
292.987	81.81
293.218	72.81
293.449	85.81
293.68	80.81
293.91	82.81
294.141	92.81
294.372	88.81
294.603	81.81
294.833	90.81
295.064	79.81
295.295	86.81
295.525	74.81
295.756	91.81
295.987	89.81
296.217	87.81
296.448	71.81
296.679	79.81
296.909	85.81
297.14	75.81
297.37	102.81
297.601	80.81
297.831	82.81
298.062	83.81
298.292	78.81
298.523	94.81
298.753	72.81
298.984	77.81
299.214	73.81
299.445	80.81
299.675	77.81
299.905	75.81
300.136	83.81
300.366	78.81
300.597	78.81
300.827	98.81
301.057	99.81
301.288	75.81
301.518	77.81
301.748	85.81
301.979	94.81
302.209	90.81
302.439	66.81
302.669	89.81
302.9	79.81
303.13	103.81
303.36	79.81
303.59	81.81
303.82	90.81
304.051	94.81
304.281	90.81
304.511	97.81
304.741	67.81
304.971	83.81
305.201	71.81
305.431	97.81
305.661	79.81
305.891	82.81
306.121	91.81
306.352	79.81
306.582	68.81
306.812	75.81
307.042	96.81
307.272	87.81
307.502	87.81
307.731	101.81
307.961	94.81
308.191	81.81
308.421	91.81
308.651	82.81
308.881	85.81
309.111	79.81
309.341	67.81
309.571	92.81
309.8	78.81
310.03	74.81
310.26	78.81
310.49	79.81
310.72	82.81
310.949	85.81
311.179	90.81
311.409	85.81
311.639	74.81
311.868	85.81
312.098	83.81
312.328	102.81
312.557	81.81
312.787	95.81
313.017	82.81
313.246	85.81
313.476	66.81
313.706	76.81
313.935	79.81
314.165	80.81
314.394	93.81
314.624	82.81
314.853	80.81
315.083	85.81
315.312	87.81
315.542	80.81
315.771	75.81
316.001	79.81
316.23	87.81
316.46	83.81
316.689	85.81
316.919	89.81
317.148	73.81
317.377	92.81
317.607	79.81
317.836	81.81
318.065	83.81
318.295	80.81
318.524	81.81
318.753	96.81
318.983	85.81
319.212	92.81
319.441	82.81
319.67	81.81
319.9	82.81
320.129	82.81
320.358	90.81
320.587	86.81
320.816	94.81
321.046	105.81
321.275	95.81
321.504	89.81
321.733	82.81
321.962	85.81
322.191	91.81
322.42	91.81
322.649	98.81
322.878	81.81
323.108	111.81
323.337	77.81
323.566	82.81
323.795	83.81
324.024	88.81
324.253	94.81
324.482	77.81
324.71	86.81
324.939	79.81
325.168	77.81
325.397	72.81
325.626	87.81
325.855	78.81
326.084	93.81
326.313	92.81
326.542	89.81
326.77	98.81
326.999	83.81
327.228	71.81
327.457	93.81
327.686	81.81
327.914	84.81
328.143	77.81
328.372	88.81
328.6	82.81
328.829	97.81
329.058	95.81
329.287	91.81
329.515	78.81
329.744	94.81
329.972	76.81
330.201	72.81
330.43	83.81
330.658	69.81
330.887	87.81
331.115	84.81
331.344	89.81
331.572	88.81
331.801	79.81
332.03	77.81
332.258	79.81
332.486	81.81
332.715	90.81
332.943	94.81
333.172	82.81
333.4	95.81
333.629	87.81
333.857	81.81
334.085	72.81
334.314	75.81
334.542	86.81
334.771	84.81
334.999	90.81
335.227	85.81
335.455	85.81
335.684	89.81
335.912	80.81
336.14	85.81
336.369	91.81
336.597	80.81
336.825	84.81
337.053	99.81
337.281	91.81
337.51	73.81
337.738	81.81
337.966	86.81
338.194	86.81
338.422	85.81
338.65	79.81
338.878	82.81
339.106	87.81
339.334	90.81
339.562	93.81
339.79	86.81
340.018	80.81
340.246	86.81
340.474	83.81
340.702	67.81
340.93	101.81
341.158	83.81
341.386	86.81
341.614	88.81
341.842	87.81
342.07	77.81
342.298	93.81
342.526	82.81
342.754	73.81
342.981	90.81
343.209	86.81
343.437	92.81
343.665	87.81
343.893	84.81
344.12	94.81
344.348	77.81
344.576	84.81
344.804	89.81
345.031	98.81
345.259	71.81
345.487	86.81
345.714	83.81
345.942	82.81
346.17	79.81
346.397	93.81
346.625	84.81
346.853	88.81
347.08	91.81
347.308	69.81
347.535	79.81
347.763	75.81
347.99	70.81
348.218	81.81
348.445	81.81
348.673	100.81
348.9	86.81
349.128	89.81
349.355	77.81
349.583	87.81
349.81	99.81
350.037	91.81
350.265	74.81
350.492	78.81
350.72	88.81
350.947	99.81
351.174	76.81
351.402	86.81
351.629	89.81
351.856	84.81
352.083	95.81
352.311	80.81
352.538	75.81
352.765	84.81
352.992	94.81
353.22	100.81
353.447	94.81
353.674	74.81
353.901	75.81
354.128	83.81
354.355	78.81
354.583	78.81
354.81	100.81
355.037	92.81
355.264	85.81
355.491	106.81
355.718	66.81
355.945	68.81
356.172	79.81
356.399	82.81
356.626	87.81
356.853	90.81
357.08	90.81
357.307	78.81
357.534	83.81
357.761	86.81
357.988	79.81
358.215	91.81
358.441	92.81
358.668	79.81
358.895	75.81
359.122	79.81
359.349	99.81
359.576	77.81
359.802	77.81
360.029	82.81
360.256	92.81
360.483	79.81
360.709	90.81
360.936	80.81
361.163	93.81
361.39	83.81
361.616	77.81
361.843	81.81
362.07	78.81
362.296	95.81
362.523	86.81
362.749	76.81
362.976	101.81
363.203	88.81
363.429	90.81
363.656	84.81
363.882	89.81
364.109	99.81
364.335	90.81
364.562	84.81
364.788	86.81
365.015	75.81
365.241	89.81
365.468	81.81
365.694	95.81
365.92	90.81
366.147	82.81
366.373	75.81
366.599	94.81
366.826	84.81
367.052	85.81
367.278	79.81
367.505	75.81
367.731	84.81
367.957	82.81
368.184	64.81
368.41	95.81
368.636	79.81
368.862	82.81
369.089	87.81
369.315	88.81
369.541	75.81
369.767	82.81
369.993	80.81
370.219	84.81
370.445	91.81
370.672	92.81
370.898	98.81
371.124	84.81
371.35	77.81
371.576	75.81
371.802	81.81
372.028	89.81
372.254	97.81
372.48	85.81
372.706	91.81
372.932	87.81
373.158	83.81
373.384	82.81
373.61	90.81
373.835	98.81
374.061	86.81
374.287	84.81
374.513	102.81
374.739	87.81
374.965	83.81
375.191	87.81
375.416	90.81
375.642	93.81
375.868	102.81
376.094	77.81
376.319	83.81
376.545	83.81
376.771	83.81
376.997	86.81
377.222	79.81
377.448	85.81
377.674	68.81
377.899	92.81
378.125	86.81
378.35	75.81
378.576	69.81
378.802	82.81
379.027	75.81
379.253	79.81
379.478	82.81
379.704	77.81
379.929	81.81
380.155	73.81
380.38	65.81
380.606	91.81
380.831	90.81
381.057	88.81
381.282	90.81
381.507	85.81
381.733	90.81
381.958	91.81
382.184	87.81
382.409	88.81
382.634	74.81
382.86	83.81
383.085	88.81
383.31	84.81
383.535	90.81
383.761	93.81
383.986	82.81
384.211	82.81
384.436	82.81
384.662	81.81
384.887	79.81
385.112	85.81
385.337	75.81
385.562	92.81
385.787	86.81
386.013	79.81
386.238	84.81
386.463	77.81
386.688	87.81
386.913	91.81
387.138	92.81
387.363	88.81
387.588	97.81
387.813	88.81
388.038	83.81
388.263	78.81
388.488	81.81
388.713	85.81
388.938	88.81
389.163	91.81
389.387	88.81
389.612	89.81
389.837	89.81
390.062	86.81
390.287	87.81
390.512	77.81
390.736	87.81
390.961	85.81
391.186	87.81
391.411	90.81
391.636	90.81
391.86	92.81
392.085	84.81
392.31	87.81
392.534	69.81
392.759	78.81
392.984	92.81
393.208	87.81
393.433	94.81
393.658	88.81
393.882	83.81
394.107	59.81
394.331	88.81
394.556	98.81
394.78	88.81
395.005	97.81
395.229	75.81
395.454	86.81
395.678	81.81
395.903	84.81
396.127	76.81
396.352	93.81
396.576	72.81
396.801	91.81
397.025	89.81
397.249	69.81
397.474	87.81
397.698	108.81
397.922	84.81
398.147	92.81
398.371	80.81
398.595	97.81
398.82	76.81
399.044	97.81
399.268	86.81
399.492	85.81
399.717	95.81
399.941	106.81
400.165	84.81
400.389	96.81
400.613	93.81
400.837	81.81
401.062	71.81
401.286	80.81
401.51	98.81
401.734	96.81
401.958	99.81
402.182	91.81
402.406	83.81
402.63	78.81
402.854	84.81
403.078	90.81
403.302	101.81
403.526	86.81
403.75	97.81
403.974	107.81
404.198	94.81
404.422	86.81
404.645	73.81
404.869	90.81
405.093	103.81
405.317	87.81
405.541	89.81
405.765	83.81
405.988	82.81
406.212	85.81
406.436	70.81
406.66	76.81
406.883	83.81
407.107	99.81
407.331	82.81
407.555	99.81
407.778	95.81
408.002	79.81
408.226	76.81
408.449	88.81
408.673	90.81
408.896	85.81
409.12	85.81
409.344	86.81
409.567	93.81
409.791	84.81
410.014	101.81
410.238	84.81
410.461	90.81
410.685	92.81
410.908	90.81
411.132	78.81
411.355	92.81
411.578	78.81
411.802	89.81
412.025	99.81
412.249	67.81
412.472	83.81
412.695	98.81
412.919	93.81
413.142	93.81
413.365	94.81
413.589	107.81
413.812	86.81
414.035	97.81
414.258	94.81
414.482	83.81
414.705	86.81
414.928	85.81
415.151	88.81
415.374	77.81
415.597	89.81
415.821	68.81
416.044	88.81
416.267	81.81
416.49	84.81
416.713	81.81
416.936	84.81
417.159	83.81
417.382	97.81
417.605	83.81
417.828	87.81
418.051	90.81
418.274	74.81
418.497	77.81
418.72	86.81
418.943	92.81
419.166	89.81
419.389	98.81
419.611	85.81
419.834	92.81
420.057	91.81
420.28	93.81
420.503	85.81
420.726	93.81
420.948	94.81
421.171	87.81
421.394	86.81
421.617	86.81
421.839	87.81
422.062	89.81
422.285	86.81
422.507	93.81
422.73	75.81
422.953	87.81
423.175	93.81
423.398	110.81
423.621	81.81
423.843	81.81
424.066	84.81
424.288	84.81
424.511	86.81
424.733	91.81
424.956	83.81
425.178	75.81
425.401	76.81
425.623	77.81
425.846	87.81
426.068	79.81
426.291	84.81
426.513	85.81
426.735	85.81
426.958	95.81
427.18	82.81
427.402	87.81
427.625	81.81
427.847	93.81
428.069	75.81
428.292	91.81
428.514	85.81
428.736	86.81
428.958	88.81
429.181	83.81
429.403	84.81
429.625	86.81
429.847	89.81
430.069	90.81
430.292	82.81
430.514	78.81
430.736	76.81
430.958	76.81
431.18	85.81
431.402	84.81
431.624	74.81
431.846	75.81
432.068	69.81
432.29	103.81
432.512	97.81
432.734	91.81
432.956	103.81
433.178	95.81
433.4	87.81
433.622	91.81
433.844	86.81
434.066	80.81
434.287	101.81
434.509	79.81
434.731	66.81
434.953	86.81
435.175	85.81
435.397	99.81
435.618	99.81
435.84	92.81
436.062	97.81
436.284	86.81
436.505	93.81
436.727	89.81
436.949	90.81
437.17	76.81
437.392	99.81
437.614	91.81
437.835	77.81
438.057	98.81
438.278	97.81
438.5	86.81
438.721	84.81
438.943	72.81
439.165	102.81
439.386	87.81
439.608	102.81
439.829	85.81
440.05	87.81
440.272	84.81
440.493	86.81
440.715	74.81
440.936	93.81
441.158	93.81
441.379	97.81
441.6	76.81
441.822	90.81
442.043	68.81
442.264	80.81
442.486	107.81
442.707	91.81
442.928	90.81
443.149	88.81
443.371	83.81
443.592	82.81
443.813	88.81
444.034	95.81
444.255	87.81
444.476	86.81
444.698	87.81
444.919	88.81
445.14	171.81
445.361	131.81
445.582	85.81
445.803	87.81
446.024	80.81
446.245	95.81
446.466	83.81
446.687	97.81
446.908	78.81
447.129	73.81
447.35	77.81
447.571	95.81
447.792	75.81
448.013	85.81
448.234	85.81
448.455	98.81
448.675	99.81
448.896	75.81
449.117	98.81
449.338	79.81
449.559	103.81
449.779	87.81
450	75.81
450.221	99.81
450.442	99.81
450.662	77.81
450.883	63.81
451.104	91.81
451.324	87.81
451.545	89.81
451.766	75.81
451.986	94.81
452.207	86.81
452.428	84.81
452.648	86.81
452.869	86.81
453.089	90.81
453.31	76.81
453.53	88.81
453.751	77.81
453.971	87.81
454.192	75.81
454.412	81.81
454.633	85.81
454.853	91.81
455.073	95.81
455.294	84.81
455.514	98.81
455.734	102.81
455.955	74.81
456.175	75.81
456.395	87.81
456.616	83.81
456.836	83.81
457.056	77.81
457.276	88.81
457.497	87.81
457.717	91.81
457.937	93.81
458.157	82.81
458.377	66.81
458.598	82.81
458.818	97.81
459.038	85.81
459.258	74.81
459.478	83.81
459.698	79.81
459.918	92.81
460.138	89.81
460.358	88.81
460.578	94.81
460.798	99.81
461.018	93.81
461.238	90.81
461.458	90.81
461.678	83.81
461.898	87.81
462.118	97.81
462.338	88.81
462.558	101.81
462.777	89.81
462.997	84.81
463.217	82.81
463.437	94.81
463.657	97.81
463.876	88.81
464.096	104.81
464.316	92.81
464.536	101.81
464.755	94.81
464.975	91.81
465.195	78.81
465.414	94.81
465.634	92.81
465.854	82.81
466.073	88.81
466.293	86.81
466.512	90.81
466.732	88.81
466.951	79.81
467.171	74.81
467.391	90.81
467.61	79.81
467.829	83.81
468.049	99.81
468.268	95.81
468.488	87.81
468.707	99.81
468.927	93.81
469.146	90.81
469.365	84.81
469.585	75.81
469.804	82.81
470.023	87.81
470.243	83.81
470.462	79.81
470.681	90.81
470.901	76.81
471.12	89.81
471.339	76.81
471.558	92.81
471.777	77.81
471.997	95.81
472.216	93.81
472.435	78.81
472.654	73.81
472.873	82.81
473.092	74.81
473.311	100.81
473.53	86.81
473.749	88.81
473.968	100.81
474.187	90.81
474.406	90.81
474.625	90.81
474.844	90.81
475.063	86.81
475.282	85.81
475.501	78.81
475.72	89.81
475.939	79.81
476.158	77.81
476.377	81.81
476.596	86.81
476.814	86.81
477.033	85.81
477.252	89.81
477.471	86.81
477.69	91.81
477.908	89.81
478.127	91.81
478.346	77.81
478.564	99.81
478.783	87.81
479.002	90.81
479.22	93.81
479.439	85.81
479.658	83.81
479.876	89.81
480.095	87.81
480.313	105.81
480.532	84.81
480.751	97.81
480.969	93.81
481.188	98.81
481.406	88.81
481.624	86.81
481.843	89.81
482.061	87.81
482.28	75.81
482.498	86.81
482.717	81.81
482.935	91.81
483.153	74.81
483.372	79.81
483.59	82.81
483.808	83.81
484.027	86.81
484.245	84.81
484.463	86.81
484.681	101.81
484.9	77.81
485.118	90.81
485.336	83.81
485.554	90.81
485.772	90.81
485.99	74.81
486.209	88.81
486.427	93.81
486.645	108.81
486.863	100.81
487.081	90.81
487.299	79.81
487.517	80.81
487.735	83.81
487.953	86.81
488.171	92.81
488.389	94.81
488.607	82.81
488.825	78.81
489.043	98.81
489.261	85.81
489.479	90.81
489.696	83.81
489.914	80.81
490.132	84.81
490.35	86.81
490.568	75.81
490.786	101.81
491.003	80.81
491.221	90.81
491.439	77.81
491.657	74.81
491.874	92.81
492.092	86.81
492.31	88.81
492.527	85.81
492.745	77.81
492.963	93.81
493.18	97.81
493.398	104.81
493.615	99.81
493.833	79.81
494.05	91.81
494.268	88.81
494.485	101.81
494.703	95.81
494.92	88.81
495.138	93.81
495.355	93.81
495.573	70.81
495.79	97.81
496.008	81.81
496.225	100.81
496.442	79.81
496.66	89.81
496.877	85.81
497.094	87.81
497.312	77.81
497.529	90.81
497.746	86.81
497.963	73.81
498.181	97.81
498.398	95.81
498.615	93.81
498.832	91.81
499.049	94.81
499.267	104.81
499.484	95.81
499.701	106.81
499.918	111.81
500.135	107.81
500.352	113.81
500.569	106.81
500.786	105.81
501.003	108.81
501.22	109.81
501.437	88.81
501.654	91.81
501.871	99.81
502.088	81.81
502.305	94.81
502.522	85.81
502.739	104.81
502.956	95.81
503.172	91.81
503.389	86.81
503.606	83.81
503.823	95.81
504.04	99.81
504.256	89.81
504.473	75.81
504.69	91.81
504.907	105.81
505.123	88.81
505.34	91.81
505.557	90.81
505.773	86.81
505.99	90.81
506.207	70.81
506.423	81.81
506.64	88.81
506.856	81.81
507.073	102.81
507.289	91.81
507.506	89.81
507.722	97.81
507.939	94.81
508.155	85.81
508.372	84.81
508.588	90.81
508.805	93.81
509.021	82.81
509.238	87.81
509.454	100.81
509.67	72.81
509.887	82.81
510.103	76.81
510.319	86.81
510.536	88.81
510.752	106.81
510.968	81.81
511.184	86.81
511.401	95.81
511.617	83.81
511.833	90.81
512.049	86.81
512.265	92.81
512.481	90.81
512.698	84.81
512.914	81.81
513.13	89.81
513.346	94.81
513.562	97.81
513.778	81.81
513.994	91.81
514.21	94.81
514.426	87.81
514.642	91.81
514.858	90.81
515.074	94.81
515.29	94.81
515.506	92.81
515.721	78.81
515.937	85.81
516.153	92.81
516.369	91.81
516.585	93.81
516.801	93.81
517.016	91.81
517.232	90.81
517.448	101.81
517.664	76.81
517.879	99.81
518.095	81.81
518.311	93.81
518.527	107.81
518.742	88.81
518.958	101.81
519.173	90.81
519.389	78.81
