Data from BG_HRD10591_099.txt Node
Date: Fri May 16 15:15:12 EDT 2025
User: Yrep
Spectrometer: HR+D1059
Trigger mode: 1
Integration Time (sec): 1.000000E-1
Scans to average: 1
Electric dark correction enabled: true
Nonlinearity correction enabled: false
Boxcar width: 0
XAxis mode: Wavelengths
Number of Pixels in Spectrum: 2048
>>>>>Begin Spectral Data<<<<<
223.165	-16.44
223.4	-16.44
223.635	-16.44
223.869	-13.44
224.104	-33.44
224.338	-1.44
224.573	-25.44
224.808	-22.44
225.042	-5.44
225.277	-13.44
225.511	-1.44
225.746	13.56
225.98	4.56
226.215	4.56
226.449	28.56
226.683	23.56
226.918	36.56
227.152	21.56
227.387	36.56
227.621	34.56
227.856	28.56
228.09	36.56
228.324	39.56
228.559	68.56
228.793	64.56
229.027	59.56
229.262	70.56
229.496	60.56
229.73	70.56
229.964	68.56
230.199	75.56
230.433	63.56
230.667	61.56
230.901	84.56
231.136	92.56
231.37	75.56
231.604	78.56
231.838	92.56
232.072	80.56
232.306	75.56
232.541	99.56
232.775	79.56
233.009	82.56
233.243	89.56
233.477	84.56
233.711	78.56
233.945	65.56
234.179	70.56
234.413	77.56
234.647	85.56
234.881	79.56
235.115	78.56
235.349	63.56
235.583	79.56
235.817	79.56
236.051	71.56
236.285	83.56
236.519	67.56
236.753	74.56
236.987	86.56
237.221	75.56
237.455	78.56
237.689	84.56
237.922	77.56
238.156	60.56
238.39	72.56
238.624	64.56
238.858	84.56
239.091	69.56
239.325	65.56
239.559	56.56
239.793	75.56
240.027	79.56
240.26	81.56
240.494	76.56
240.728	75.56
240.961	80.56
241.195	82.56
241.429	80.56
241.662	77.56
241.896	77.56
242.13	74.56
242.363	56.56
242.597	78.56
242.83	72.56
243.064	76.56
243.298	85.56
243.531	68.56
243.765	62.56
243.998	79.56
244.232	68.56
244.465	81.56
244.699	78.56
244.932	74.56
245.166	67.56
245.399	72.56
245.633	78.56
245.866	84.56
246.099	88.56
246.333	87.56
246.566	63.56
246.8	73.56
247.033	76.56
247.266	90.56
247.5	70.56
247.733	84.56
247.966	61.56
248.2	70.56
248.433	94.56
248.666	70.56
248.899	100.56
249.133	82.56
249.366	95.56
249.599	70.56
249.832	79.56
250.066	89.56
250.299	81.56
250.532	71.56
250.765	79.56
250.998	73.56
251.231	73.56
251.465	82.56
251.698	70.56
251.931	78.56
252.164	81.56
252.397	73.56
252.63	75.56
252.863	84.56
253.096	78.56
253.329	74.56
253.562	84.56
253.795	83.56
254.028	88.56
254.261	76.56
254.494	80.56
254.727	74.56
254.96	80.56
255.193	65.56
255.426	85.56
255.659	75.56
255.892	90.56
256.124	88.56
256.357	79.56
256.59	82.56
256.823	76.56
257.056	77.56
257.289	74.56
257.521	72.56
257.754	82.56
257.987	92.56
258.22	82.56
258.452	68.56
258.685	71.56
258.918	70.56
259.151	70.56
259.383	84.56
259.616	83.56
259.849	74.56
260.081	90.56
260.314	89.56
260.547	72.56
260.779	79.56
261.012	79.56
261.244	81.56
261.477	93.56
261.71	86.56
261.942	89.56
262.175	63.56
262.407	88.56
262.64	92.56
262.872	86.56
263.105	71.56
263.337	80.56
263.57	86.56
263.802	89.56
264.035	75.56
264.267	78.56
264.499	91.56
264.732	74.56
264.964	84.56
265.197	80.56
265.429	77.56
265.661	93.56
265.894	82.56
266.126	74.56
266.358	86.56
266.591	88.56
266.823	73.56
267.055	83.56
267.287	84.56
267.52	82.56
267.752	90.56
267.984	79.56
268.216	64.56
268.448	101.56
268.681	98.56
268.913	85.56
269.145	74.56
269.377	74.56
269.609	78.56
269.841	72.56
270.073	83.56
270.306	87.56
270.538	90.56
270.77	86.56
271.002	71.56
271.234	80.56
271.466	82.56
271.698	83.56
271.93	62.56
272.162	64.56
272.394	82.56
272.626	102.56
272.858	82.56
273.09	84.56
273.322	88.56
273.553	85.56
273.785	84.56
274.017	91.56
274.249	78.56
274.481	82.56
274.713	79.56
274.945	79.56
275.176	88.56
275.408	80.56
275.64	91.56
275.872	94.56
276.104	84.56
276.335	82.56
276.567	75.56
276.799	83.56
277.031	80.56
277.262	93.56
277.494	97.56
277.726	87.56
277.957	82.56
278.189	79.56
278.421	90.56
278.652	76.56
278.884	79.56
279.115	85.56
279.347	69.56
279.579	84.56
279.81	82.56
280.042	77.56
280.273	86.56
280.505	78.56
280.736	88.56
280.968	90.56
281.199	93.56
281.431	73.56
281.662	73.56
281.894	79.56
282.125	76.56
282.356	94.56
282.588	82.56
282.819	94.56
283.051	88.56
283.282	79.56
283.513	86.56
283.745	86.56
283.976	88.56
284.207	86.56
284.439	87.56
284.67	76.56
284.901	86.56
285.132	78.56
285.364	82.56
285.595	85.56
285.826	83.56
286.057	83.56
286.288	65.56
286.52	90.56
286.751	85.56
286.982	68.56
287.213	86.56
287.444	88.56
287.675	89.56
287.906	84.56
288.138	93.56
288.369	76.56
288.6	94.56
288.831	84.56
289.062	87.56
289.293	95.56
289.524	88.56
289.755	86.56
289.986	84.56
290.217	99.56
290.448	81.56
290.679	79.56
290.91	83.56
291.141	90.56
291.371	77.56
291.602	68.56
291.833	72.56
292.064	79.56
292.295	78.56
292.526	101.56
292.757	91.56
292.987	78.56
293.218	71.56
293.449	77.56
293.68	86.56
293.91	87.56
294.141	90.56
294.372	82.56
294.603	80.56
294.833	85.56
295.064	85.56
295.295	86.56
295.525	88.56
295.756	94.56
295.987	89.56
296.217	77.56
296.448	92.56
296.679	87.56
296.909	103.56
297.14	103.56
297.37	105.56
297.601	91.56
297.831	84.56
298.062	90.56
298.292	102.56
298.523	81.56
298.753	91.56
298.984	95.56
299.214	74.56
299.445	85.56
299.675	82.56
299.905	77.56
300.136	77.56
300.366	71.56
300.597	77.56
300.827	84.56
301.057	92.56
301.288	95.56
301.518	90.56
301.748	73.56
301.979	86.56
302.209	94.56
302.439	87.56
302.669	93.56
302.9	83.56
303.13	88.56
303.36	82.56
303.59	91.56
303.82	78.56
304.051	91.56
304.281	87.56
304.511	104.56
304.741	97.56
304.971	92.56
305.201	86.56
305.431	71.56
305.661	78.56
305.891	87.56
306.121	77.56
306.352	90.56
306.582	80.56
306.812	91.56
307.042	104.56
307.272	84.56
307.502	88.56
307.731	87.56
307.961	90.56
308.191	89.56
308.421	78.56
308.651	93.56
308.881	79.56
309.111	90.56
309.341	80.56
309.571	93.56
309.8	81.56
310.03	82.56
310.26	60.56
310.49	90.56
310.72	82.56
310.949	72.56
311.179	82.56
311.409	70.56
311.639	76.56
311.868	85.56
312.098	90.56
312.328	87.56
312.557	103.56
312.787	88.56
313.017	75.56
313.246	94.56
313.476	84.56
313.706	86.56
313.935	85.56
314.165	87.56
314.394	84.56
314.624	87.56
314.853	96.56
315.083	88.56
315.312	84.56
315.542	92.56
315.771	90.56
316.001	98.56
316.23	90.56
316.46	77.56
316.689	90.56
316.919	93.56
317.148	90.56
317.377	90.56
317.607	83.56
317.836	82.56
318.065	108.56
318.295	86.56
318.524	92.56
318.753	90.56
318.983	79.56
319.212	83.56
319.441	80.56
319.67	91.56
319.9	100.56
320.129	86.56
320.358	82.56
320.587	78.56
320.816	88.56
321.046	76.56
321.275	91.56
321.504	100.56
321.733	83.56
321.962	87.56
322.191	73.56
322.42	88.56
322.649	86.56
322.878	86.56
323.108	78.56
323.337	77.56
323.566	87.56
323.795	102.56
324.024	87.56
324.253	90.56
324.482	88.56
324.71	91.56
324.939	81.56
325.168	78.56
325.397	82.56
325.626	83.56
325.855	98.56
326.084	77.56
326.313	71.56
326.542	99.56
326.77	86.56
326.999	79.56
327.228	86.56
327.457	94.56
327.686	87.56
327.914	101.56
328.143	91.56
328.372	69.56
328.6	109.56
328.829	79.56
329.058	90.56
329.287	100.56
329.515	72.56
329.744	98.56
329.972	94.56
330.201	73.56
330.43	84.56
330.658	94.56
330.887	70.56
331.115	98.56
331.344	79.56
331.572	92.56
331.801	83.56
332.03	94.56
332.258	90.56
332.486	78.56
332.715	86.56
332.943	104.56
333.172	86.56
333.4	97.56
333.629	100.56
333.857	101.56
334.085	81.56
334.314	93.56
334.542	77.56
334.771	85.56
334.999	99.56
335.227	96.56
335.455	83.56
335.684	88.56
335.912	74.56
336.14	79.56
336.369	80.56
336.597	82.56
336.825	84.56
337.053	86.56
337.281	80.56
337.51	82.56
337.738	97.56
337.966	75.56
338.194	79.56
338.422	91.56
338.65	78.56
338.878	88.56
339.106	74.56
339.334	84.56
339.562	83.56
339.79	88.56
340.018	94.56
340.246	78.56
340.474	90.56
340.702	76.56
340.93	80.56
341.158	103.56
341.386	81.56
341.614	85.56
341.842	86.56
342.07	74.56
342.298	92.56
342.526	95.56
342.754	90.56
342.981	95.56
343.209	84.56
343.437	99.56
343.665	85.56
343.893	99.56
344.12	90.56
344.348	83.56
344.576	98.56
344.804	86.56
345.031	89.56
345.259	91.56
345.487	71.56
345.714	70.56
345.942	95.56
346.17	98.56
346.397	71.56
346.625	69.56
346.853	76.56
347.08	95.56
347.308	86.56
347.535	85.56
347.763	91.56
347.99	92.56
348.218	91.56
348.445	83.56
348.673	76.56
348.9	85.56
349.128	92.56
349.355	84.56
349.583	102.56
349.81	84.56
350.037	102.56
350.265	84.56
350.492	87.56
350.72	87.56
350.947	72.56
351.174	85.56
351.402	78.56
351.629	94.56
351.856	89.56
352.083	72.56
352.311	82.56
352.538	79.56
352.765	79.56
352.992	83.56
353.22	90.56
353.447	84.56
353.674	102.56
353.901	88.56
354.128	94.56
354.355	77.56
354.583	87.56
354.81	81.56
355.037	80.56
355.264	80.56
355.491	93.56
355.718	87.56
355.945	79.56
356.172	83.56
356.399	91.56
356.626	91.56
356.853	102.56
357.08	89.56
357.307	102.56
357.534	86.56
357.761	91.56
357.988	76.56
358.215	92.56
358.441	77.56
358.668	88.56
358.895	89.56
359.122	83.56
359.349	87.56
359.576	72.56
359.802	87.56
360.029	85.56
360.256	102.56
360.483	89.56
360.709	90.56
360.936	101.56
361.163	87.56
361.39	76.56
361.616	78.56
361.843	90.56
362.07	89.56
362.296	89.56
362.523	82.56
362.749	83.56
362.976	82.56
363.203	90.56
363.429	95.56
363.656	90.56
363.882	95.56
364.109	90.56
364.335	80.56
364.562	85.56
364.788	87.56
365.015	74.56
365.241	82.56
365.468	86.56
365.694	99.56
365.92	102.56
366.147	82.56
366.373	88.56
366.599	80.56
366.826	99.56
367.052	98.56
367.278	93.56
367.505	83.56
367.731	90.56
367.957	85.56
368.184	82.56
368.41	88.56
368.636	87.56
368.862	83.56
369.089	90.56
369.315	90.56
369.541	82.56
369.767	88.56
369.993	76.56
370.219	74.56
370.445	90.56
370.672	83.56
370.898	76.56
371.124	91.56
371.35	78.56
371.576	90.56
371.802	87.56
372.028	94.56
372.254	92.56
372.48	91.56
372.706	69.56
372.932	82.56
373.158	98.56
373.384	92.56
373.61	85.56
373.835	74.56
374.061	82.56
374.287	92.56
374.513	88.56
374.739	93.56
374.965	86.56
375.191	88.56
375.416	83.56
375.642	84.56
375.868	85.56
376.094	88.56
376.319	84.56
376.545	83.56
376.771	85.56
376.997	86.56
377.222	83.56
377.448	82.56
377.674	94.56
377.899	92.56
378.125	91.56
378.35	87.56
378.576	88.56
378.802	85.56
379.027	74.56
379.253	75.56
379.478	76.56
379.704	79.56
379.929	95.56
380.155	88.56
380.38	91.56
380.606	76.56
380.831	88.56
381.057	86.56
381.282	73.56
381.507	79.56
381.733	87.56
381.958	79.56
382.184	92.56
382.409	85.56
382.634	92.56
382.86	80.56
383.085	88.56
383.31	86.56
383.535	90.56
383.761	82.56
383.986	82.56
384.211	99.56
384.436	100.56
384.662	67.56
384.887	85.56
385.112	85.56
385.337	92.56
385.562	82.56
385.787	99.56
386.013	93.56
386.238	86.56
386.463	89.56
386.688	96.56
386.913	76.56
387.138	73.56
387.363	87.56
387.588	78.56
387.813	81.56
388.038	76.56
388.263	83.56
388.488	87.56
388.713	87.56
388.938	85.56
389.163	83.56
389.387	73.56
389.612	81.56
389.837	92.56
390.062	102.56
390.287	104.56
390.512	99.56
390.736	79.56
390.961	91.56
391.186	92.56
391.411	70.56
391.636	96.56
391.86	91.56
392.085	85.56
392.31	84.56
392.534	79.56
392.759	93.56
392.984	100.56
393.208	92.56
393.433	84.56
393.658	86.56
393.882	79.56
394.107	91.56
394.331	88.56
394.556	83.56
394.78	84.56
395.005	76.56
395.229	89.56
395.454	85.56
395.678	87.56
395.903	92.56
396.127	87.56
396.352	89.56
396.576	102.56
396.801	78.56
397.025	70.56
397.249	72.56
397.474	81.56
397.698	74.56
397.922	98.56
398.147	74.56
398.371	90.56
398.595	85.56
398.82	86.56
399.044	86.56
399.268	77.56
399.492	79.56
399.717	102.56
399.941	90.56
400.165	87.56
400.389	78.56
400.613	95.56
400.837	68.56
401.062	75.56
401.286	75.56
401.51	86.56
401.734	92.56
401.958	95.56
402.182	87.56
402.406	90.56
402.63	91.56
402.854	84.56
403.078	101.56
403.302	82.56
403.526	94.56
403.75	86.56
403.974	84.56
404.198	86.56
404.422	90.56
404.645	86.56
404.869	82.56
405.093	105.56
405.317	82.56
405.541	84.56
405.765	115.56
405.988	104.56
406.212	100.56
406.436	88.56
406.66	87.56
406.883	88.56
407.107	77.56
407.331	90.56
407.555	100.56
407.778	88.56
408.002	78.56
408.226	67.56
408.449	92.56
408.673	89.56
408.896	98.56
409.12	94.56
409.344	88.56
409.567	91.56
409.791	96.56
410.014	83.56
410.238	83.56
410.461	105.56
410.685	93.56
410.908	81.56
411.132	89.56
411.355	80.56
411.578	88.56
411.802	96.56
412.025	93.56
412.249	84.56
412.472	85.56
412.695	80.56
412.919	91.56
413.142	81.56
413.365	99.56
413.589	74.56
413.812	62.56
414.035	95.56
414.258	73.56
414.482	91.56
414.705	79.56
414.928	92.56
415.151	75.56
415.374	72.56
415.597	79.56
415.821	91.56
416.044	82.56
416.267	82.56
416.49	84.56
416.713	87.56
416.936	76.56
417.159	85.56
417.382	82.56
417.605	89.56
417.828	102.56
418.051	92.56
418.274	93.56
418.497	100.56
418.72	91.56
418.943	72.56
419.166	92.56
419.389	95.56
419.611	92.56
419.834	93.56
420.057	98.56
420.28	81.56
420.503	89.56
420.726	90.56
420.948	84.56
421.171	93.56
421.394	97.56
421.617	74.56
421.839	68.56
422.062	94.56
422.285	83.56
422.507	80.56
422.73	91.56
422.953	84.56
423.175	87.56
423.398	79.56
423.621	104.56
423.843	84.56
424.066	83.56
424.288	88.56
424.511	87.56
424.733	88.56
424.956	80.56
425.178	77.56
425.401	92.56
425.623	90.56
425.846	94.56
426.068	92.56
426.291	93.56
426.513	90.56
426.735	90.56
426.958	94.56
427.18	82.56
427.402	88.56
427.625	79.56
427.847	87.56
428.069	81.56
428.292	79.56
428.514	77.56
428.736	80.56
428.958	82.56
429.181	93.56
429.403	66.56
429.625	94.56
429.847	93.56
430.069	87.56
430.292	88.56
430.514	81.56
430.736	84.56
430.958	80.56
431.18	93.56
431.402	74.56
431.624	87.56
431.846	87.56
432.068	82.56
432.29	84.56
432.512	95.56
432.734	98.56
432.956	92.56
433.178	84.56
433.4	89.56
433.622	93.56
433.844	79.56
434.066	84.56
434.287	84.56
434.509	83.56
434.731	77.56
434.953	80.56
435.175	68.56
435.397	84.56
435.618	92.56
435.84	107.56
436.062	85.56
436.284	91.56
436.505	97.56
436.727	102.56
436.949	75.56
437.17	74.56
437.392	87.56
437.614	84.56
437.835	93.56
438.057	85.56
438.278	86.56
438.5	86.56
438.721	86.56
438.943	82.56
439.165	79.56
439.386	99.56
439.608	93.56
439.829	83.56
440.05	77.56
440.272	78.56
440.493	78.56
440.715	86.56
440.936	87.56
441.158	83.56
441.379	85.56
441.6	92.56
441.822	103.56
442.043	82.56
442.264	79.56
442.486	86.56
442.707	87.56
442.928	86.56
443.149	80.56
443.371	91.56
443.592	89.56
443.813	83.56
444.034	82.56
444.255	79.56
444.476	98.56
444.698	84.56
444.919	82.56
445.14	162.56
445.361	127.56
445.582	73.56
445.803	74.56
446.024	81.56
446.245	90.56
446.466	76.56
446.687	90.56
446.908	83.56
447.129	86.56
447.35	82.56
447.571	90.56
447.792	89.56
448.013	90.56
448.234	86.56
448.455	80.56
448.675	84.56
448.896	95.56
449.117	98.56
449.338	97.56
449.559	95.56
449.779	85.56
450	83.56
450.221	85.56
450.442	82.56
450.662	92.56
450.883	82.56
451.104	86.56
451.324	79.56
451.545	80.56
451.766	86.56
451.986	76.56
452.207	98.56
452.428	83.56
452.648	74.56
452.869	82.56
453.089	88.56
453.31	85.56
453.53	87.56
453.751	88.56
453.971	91.56
454.192	84.56
454.412	76.56
454.633	93.56
454.853	82.56
455.073	94.56
455.294	87.56
455.514	80.56
455.734	77.56
455.955	76.56
456.175	95.56
456.395	69.56
456.616	85.56
456.836	94.56
457.056	78.56
457.276	93.56
457.497	84.56
457.717	88.56
457.937	78.56
458.157	85.56
458.377	70.56
458.598	79.56
458.818	74.56
459.038	72.56
459.258	93.56
459.478	101.56
459.698	97.56
459.918	102.56
460.138	100.56
460.358	80.56
460.578	82.56
460.798	80.56
461.018	83.56
461.238	93.56
461.458	92.56
461.678	91.56
461.898	95.56
462.118	96.56
462.338	76.56
462.558	87.56
462.777	87.56
462.997	85.56
463.217	83.56
463.437	94.56
463.657	90.56
463.876	80.56
464.096	102.56
464.316	98.56
464.536	85.56
464.755	75.56
464.975	86.56
465.195	105.56
465.414	88.56
465.634	79.56
465.854	85.56
466.073	89.56
466.293	92.56
466.512	66.56
466.732	75.56
466.951	89.56
467.171	78.56
467.391	74.56
467.61	88.56
467.829	74.56
468.049	90.56
468.268	99.56
468.488	90.56
468.707	78.56
468.927	78.56
469.146	77.56
469.365	99.56
469.585	84.56
469.804	74.56
470.023	74.56
470.243	75.56
470.462	77.56
470.681	91.56
470.901	81.56
471.12	83.56
471.339	91.56
471.558	77.56
471.777	87.56
471.997	84.56
472.216	82.56
472.435	76.56
472.654	75.56
472.873	80.56
473.092	86.56
473.311	90.56
473.53	74.56
473.749	80.56
473.968	95.56
474.187	92.56
474.406	77.56
474.625	72.56
474.844	88.56
475.063	77.56
475.282	96.56
475.501	83.56
475.72	76.56
475.939	94.56
476.158	103.56
476.377	102.56
476.596	84.56
476.814	81.56
477.033	83.56
477.252	94.56
477.471	87.56
477.69	92.56
477.908	78.56
478.127	90.56
478.346	88.56
478.564	100.56
478.783	85.56
479.002	82.56
479.22	81.56
479.439	86.56
479.658	82.56
479.876	82.56
480.095	72.56
480.313	87.56
480.532	99.56
480.751	103.56
480.969	89.56
481.188	100.56
481.406	82.56
481.624	72.56
481.843	83.56
482.061	64.56
482.28	81.56
482.498	95.56
482.717	83.56
482.935	86.56
483.153	83.56
483.372	72.56
483.59	67.56
483.808	86.56
484.027	94.56
484.245	89.56
484.463	84.56
484.681	83.56
484.9	83.56
485.118	74.56
485.336	84.56
485.554	78.56
485.772	70.56
485.99	78.56
486.209	89.56
486.427	90.56
486.645	87.56
486.863	94.56
487.081	87.56
487.299	96.56
487.517	86.56
487.735	99.56
487.953	92.56
488.171	94.56
488.389	84.56
488.607	95.56
488.825	83.56
489.043	87.56
489.261	108.56
489.479	69.56
489.696	90.56
489.914	100.56
490.132	89.56
490.35	100.56
490.568	99.56
490.786	81.56
491.003	82.56
491.221	86.56
491.439	92.56
491.657	65.56
491.874	90.56
492.092	78.56
492.31	94.56
492.527	83.56
492.745	82.56
492.963	98.56
493.18	77.56
493.398	84.56
493.615	73.56
493.833	86.56
494.05	81.56
494.268	77.56
494.485	104.56
494.703	82.56
494.92	103.56
495.138	102.56
495.355	79.56
495.573	93.56
495.79	94.56
496.008	91.56
496.225	91.56
496.442	94.56
496.66	96.56
496.877	86.56
497.094	106.56
497.312	92.56
497.529	78.56
497.746	81.56
497.963	105.56
498.181	108.56
498.398	103.56
498.615	100.56
498.832	96.56
499.049	100.56
499.267	103.56
499.484	99.56
499.701	103.56
499.918	105.56
500.135	102.56
500.352	117.56
500.569	118.56
500.786	108.56
501.003	102.56
501.22	89.56
501.437	100.56
501.654	106.56
501.871	86.56
502.088	86.56
502.305	102.56
502.522	116.56
502.739	107.56
502.956	105.56
503.172	106.56
503.389	94.56
503.606	90.56
503.823	99.56
504.04	103.56
504.256	102.56
504.473	89.56
504.69	78.56
504.907	104.56
505.123	90.56
505.34	82.56
505.557	83.56
505.773	100.56
505.99	101.56
506.207	89.56
506.423	82.56
506.64	88.56
506.856	88.56
507.073	87.56
507.289	86.56
507.506	114.56
507.722	68.56
507.939	84.56
508.155	94.56
508.372	88.56
508.588	79.56
508.805	96.56
509.021	81.56
509.238	89.56
509.454	82.56
509.67	83.56
509.887	78.56
510.103	92.56
510.319	90.56
510.536	98.56
510.752	84.56
510.968	82.56
511.184	94.56
511.401	91.56
511.617	96.56
511.833	88.56
512.049	89.56
512.265	84.56
512.481	87.56
512.698	88.56
512.914	91.56
513.13	87.56
513.346	100.56
513.562	105.56
513.778	94.56
513.994	93.56
514.21	82.56
514.426	87.56
514.642	95.56
514.858	86.56
515.074	96.56
515.29	101.56
515.506	92.56
515.721	100.56
515.937	86.56
516.153	93.56
516.369	84.56
516.585	93.56
516.801	85.56
517.016	82.56
517.232	89.56
517.448	98.56
517.664	108.56
517.879	86.56
518.095	82.56
518.311	85.56
518.527	88.56
518.742	84.56
518.958	87.56
