Data from BG_HRD10591_003.txt Node
Date: Fri May 16 15:14:24 EDT 2025
User: Yrep
Spectrometer: HR+D1059
Trigger mode: 1
Integration Time (sec): 1.000000E-1
Scans to average: 1
Electric dark correction enabled: true
Nonlinearity correction enabled: false
Boxcar width: 0
XAxis mode: Wavelengths
Number of Pixels in Spectrum: 2048
>>>>>Begin Spectral Data<<<<<
223.165	-13.5
223.4	-13.5
223.635	-13.5
223.869	-22.5
224.104	-25.5
224.338	-13.5
224.573	-15.5
224.808	-4.5
225.042	-2.5
225.277	-12.5
225.511	-15.5
225.746	3.5
225.98	12.5
226.215	20.5
226.449	16.5
226.683	15.5
226.918	18.5
227.152	38.5
227.387	29.5
227.621	29.5
227.856	41.5
228.09	42.5
228.324	40.5
228.559	56.5
228.793	52.5
229.027	62.5
229.262	72.5
229.496	65.5
229.73	67.5
229.964	57.5
230.199	61.5
230.433	67.5
230.667	74.5
230.901	73.5
231.136	90.5
231.37	75.5
231.604	87.5
231.838	69.5
232.072	83.5
232.306	80.5
232.541	76.5
232.775	75.5
233.009	75.5
233.243	71.5
233.477	89.5
233.711	84.5
233.945	69.5
234.179	85.5
234.413	81.5
234.647	82.5
234.881	80.5
235.115	71.5
235.349	72.5
235.583	84.5
235.817	80.5
236.051	78.5
236.285	74.5
236.519	62.5
236.753	79.5
236.987	81.5
237.221	74.5
237.455	80.5
237.689	86.5
237.922	78.5
238.156	71.5
238.39	70.5
238.624	68.5
238.858	69.5
239.091	62.5
239.325	63.5
239.559	83.5
239.793	85.5
240.027	66.5
240.26	75.5
240.494	72.5
240.728	79.5
240.961	80.5
241.195	93.5
241.429	67.5
241.662	61.5
241.896	61.5
242.13	76.5
242.363	77.5
242.597	75.5
242.83	79.5
243.064	83.5
243.298	70.5
243.531	82.5
243.765	57.5
243.998	69.5
244.232	80.5
244.465	68.5
244.699	79.5
244.932	61.5
245.166	77.5
245.399	76.5
245.633	68.5
245.866	72.5
246.099	80.5
246.333	80.5
246.566	80.5
246.8	70.5
247.033	68.5
247.266	69.5
247.5	80.5
247.733	73.5
247.966	84.5
248.2	72.5
248.433	72.5
248.666	86.5
248.899	73.5
249.133	76.5
249.366	81.5
249.599	78.5
249.832	72.5
250.066	66.5
250.299	76.5
250.532	94.5
250.765	91.5
250.998	74.5
251.231	82.5
251.465	71.5
251.698	76.5
251.931	69.5
252.164	73.5
252.397	76.5
252.63	75.5
252.863	80.5
253.096	79.5
253.329	79.5
253.562	77.5
253.795	68.5
254.028	84.5
254.261	76.5
254.494	87.5
254.727	76.5
254.96	77.5
255.193	90.5
255.426	90.5
255.659	79.5
255.892	88.5
256.124	82.5
256.357	59.5
256.59	77.5
256.823	57.5
257.056	74.5
257.289	65.5
257.521	76.5
257.754	93.5
257.987	86.5
258.22	74.5
258.452	82.5
258.685	81.5
258.918	74.5
259.151	74.5
259.383	76.5
259.616	81.5
259.849	88.5
260.081	70.5
260.314	79.5
260.547	85.5
260.779	91.5
261.012	69.5
261.244	78.5
261.477	80.5
261.71	84.5
261.942	81.5
262.175	77.5
262.407	60.5
262.64	71.5
262.872	90.5
263.105	94.5
263.337	73.5
263.57	69.5
263.802	76.5
264.035	79.5
264.267	91.5
264.499	69.5
264.732	73.5
264.964	93.5
265.197	81.5
265.429	62.5
265.661	82.5
265.894	81.5
266.126	81.5
266.358	87.5
266.591	86.5
266.823	75.5
267.055	73.5
267.287	81.5
267.52	72.5
267.752	79.5
267.984	75.5
268.216	72.5
268.448	82.5
268.681	78.5
268.913	70.5
269.145	90.5
269.377	85.5
269.609	67.5
269.841	81.5
270.073	84.5
270.306	76.5
270.538	78.5
270.77	70.5
271.002	88.5
271.234	70.5
271.466	91.5
271.698	78.5
271.93	85.5
272.162	90.5
272.394	80.5
272.626	71.5
272.858	74.5
273.09	65.5
273.322	80.5
273.553	82.5
273.785	74.5
274.017	80.5
274.249	90.5
274.481	85.5
274.713	84.5
274.945	74.5
275.176	82.5
275.408	84.5
275.64	82.5
275.872	80.5
276.104	70.5
276.335	68.5
276.567	66.5
276.799	67.5
277.031	84.5
277.262	80.5
277.494	88.5
277.726	68.5
277.957	80.5
278.189	85.5
278.421	87.5
278.652	82.5
278.884	86.5
279.115	82.5
279.347	80.5
279.579	72.5
279.81	73.5
280.042	91.5
280.273	76.5
280.505	80.5
280.736	92.5
280.968	83.5
281.199	86.5
281.431	72.5
281.662	82.5
281.894	74.5
282.125	79.5
282.356	84.5
282.588	79.5
282.819	80.5
283.051	72.5
283.282	81.5
283.513	80.5
283.745	78.5
283.976	79.5
284.207	82.5
284.439	71.5
284.67	80.5
284.901	81.5
285.132	80.5
285.364	80.5
285.595	90.5
285.826	72.5
286.057	90.5
286.288	90.5
286.52	91.5
286.751	90.5
286.982	86.5
287.213	91.5
287.444	76.5
287.675	74.5
287.906	78.5
288.138	78.5
288.369	73.5
288.6	67.5
288.831	75.5
289.062	81.5
289.293	94.5
289.524	94.5
289.755	73.5
289.986	74.5
290.217	80.5
290.448	80.5
290.679	66.5
290.91	82.5
291.141	71.5
291.371	64.5
291.602	67.5
291.833	70.5
292.064	84.5
292.295	82.5
292.526	71.5
292.757	85.5
292.987	93.5
293.218	88.5
293.449	80.5
293.68	72.5
293.91	69.5
294.141	85.5
294.372	75.5
294.603	90.5
294.833	80.5
295.064	84.5
295.295	77.5
295.525	94.5
295.756	79.5
295.987	82.5
296.217	87.5
296.448	79.5
296.679	91.5
296.909	72.5
297.14	72.5
297.37	78.5
297.601	82.5
297.831	77.5
298.062	80.5
298.292	77.5
298.523	84.5
298.753	80.5
298.984	80.5
299.214	90.5
299.445	84.5
299.675	86.5
299.905	88.5
300.136	74.5
300.366	80.5
300.597	82.5
300.827	82.5
301.057	80.5
301.288	92.5
301.518	68.5
301.748	78.5
301.979	87.5
302.209	91.5
302.439	83.5
302.669	81.5
302.9	87.5
303.13	93.5
303.36	83.5
303.59	80.5
303.82	83.5
304.051	75.5
304.281	78.5
304.511	82.5
304.741	76.5
304.971	96.5
305.201	76.5
305.431	72.5
305.661	83.5
305.891	84.5
306.121	93.5
306.352	78.5
306.582	78.5
306.812	81.5
307.042	85.5
307.272	70.5
307.502	72.5
307.731	88.5
307.961	79.5
308.191	71.5
308.421	92.5
308.651	81.5
308.881	85.5
309.111	81.5
309.341	83.5
309.571	77.5
309.8	89.5
310.03	76.5
310.26	77.5
310.49	81.5
310.72	85.5
310.949	77.5
311.179	84.5
311.409	84.5
311.639	83.5
311.868	86.5
312.098	83.5
312.328	105.5
312.557	95.5
312.787	70.5
313.017	72.5
313.246	81.5
313.476	62.5
313.706	83.5
313.935	88.5
314.165	89.5
314.394	84.5
314.624	81.5
314.853	80.5
315.083	93.5
315.312	89.5
315.542	78.5
315.771	80.5
316.001	90.5
316.23	66.5
316.46	81.5
316.689	80.5
316.919	93.5
317.148	81.5
317.377	62.5
317.607	76.5
317.836	74.5
318.065	84.5
318.295	96.5
318.524	82.5
318.753	73.5
318.983	82.5
319.212	67.5
319.441	74.5
319.67	81.5
319.9	84.5
320.129	93.5
320.358	77.5
320.587	69.5
320.816	79.5
321.046	94.5
321.275	86.5
321.504	80.5
321.733	70.5
321.962	83.5
322.191	86.5
322.42	73.5
322.649	65.5
322.878	88.5
323.108	80.5
323.337	86.5
323.566	74.5
323.795	77.5
324.024	65.5
324.253	77.5
324.482	74.5
324.71	75.5
324.939	61.5
325.168	85.5
325.397	81.5
325.626	70.5
325.855	84.5
326.084	86.5
326.313	81.5
326.542	80.5
326.77	77.5
326.999	81.5
327.228	74.5
327.457	76.5
327.686	72.5
327.914	91.5
328.143	87.5
328.372	87.5
328.6	83.5
328.829	92.5
329.058	77.5
329.287	92.5
329.515	76.5
329.744	86.5
329.972	80.5
330.201	91.5
330.43	86.5
330.658	94.5
330.887	81.5
331.115	84.5
331.344	80.5
331.572	75.5
331.801	76.5
332.03	90.5
332.258	84.5
332.486	76.5
332.715	82.5
332.943	85.5
333.172	93.5
333.4	103.5
333.629	69.5
333.857	83.5
334.085	79.5
334.314	84.5
334.542	81.5
334.771	78.5
334.999	79.5
335.227	78.5
335.455	67.5
335.684	84.5
335.912	77.5
336.14	80.5
336.369	65.5
336.597	88.5
336.825	75.5
337.053	67.5
337.281	86.5
337.51	81.5
337.738	90.5
337.966	86.5
338.194	83.5
338.422	88.5
338.65	78.5
338.878	67.5
339.106	78.5
339.334	75.5
339.562	82.5
339.79	74.5
340.018	80.5
340.246	88.5
340.474	85.5
340.702	78.5
340.93	80.5
341.158	88.5
341.386	69.5
341.614	89.5
341.842	78.5
342.07	84.5
342.298	74.5
342.526	70.5
342.754	81.5
342.981	83.5
343.209	84.5
343.437	86.5
343.665	84.5
343.893	93.5
344.12	84.5
344.348	92.5
344.576	69.5
344.804	78.5
345.031	81.5
345.259	77.5
345.487	58.5
345.714	82.5
345.942	72.5
346.17	74.5
346.397	86.5
346.625	72.5
346.853	83.5
347.08	91.5
347.308	72.5
347.535	81.5
347.763	101.5
347.99	80.5
348.218	73.5
348.445	82.5
348.673	72.5
348.9	76.5
349.128	82.5
349.355	96.5
349.583	75.5
349.81	72.5
350.037	74.5
350.265	75.5
350.492	92.5
350.72	70.5
350.947	78.5
351.174	81.5
351.402	85.5
351.629	93.5
351.856	87.5
352.083	86.5
352.311	79.5
352.538	93.5
352.765	92.5
352.992	90.5
353.22	76.5
353.447	90.5
353.674	77.5
353.901	72.5
354.128	80.5
354.355	70.5
354.583	72.5
354.81	73.5
355.037	76.5
355.264	76.5
355.491	83.5
355.718	77.5
355.945	84.5
356.172	95.5
356.399	82.5
356.626	80.5
356.853	100.5
357.08	86.5
357.307	98.5
357.534	82.5
357.761	84.5
357.988	86.5
358.215	92.5
358.441	68.5
358.668	81.5
358.895	76.5
359.122	63.5
359.349	84.5
359.576	70.5
359.802	81.5
360.029	88.5
360.256	78.5
360.483	73.5
360.709	78.5
360.936	82.5
361.163	96.5
361.39	86.5
361.616	87.5
361.843	81.5
362.07	92.5
362.296	90.5
362.523	89.5
362.749	96.5
362.976	81.5
363.203	91.5
363.429	82.5
363.656	74.5
363.882	69.5
364.109	86.5
364.335	75.5
364.562	89.5
364.788	75.5
365.015	76.5
365.241	79.5
365.468	83.5
365.694	76.5
365.92	81.5
366.147	83.5
366.373	74.5
366.599	83.5
366.826	84.5
367.052	87.5
367.278	73.5
367.505	69.5
367.731	96.5
367.957	66.5
368.184	89.5
368.41	75.5
368.636	65.5
368.862	83.5
369.089	78.5
369.315	88.5
369.541	80.5
369.767	87.5
369.993	91.5
370.219	86.5
370.445	76.5
370.672	72.5
370.898	74.5
371.124	76.5
371.35	82.5
371.576	82.5
371.802	88.5
372.028	74.5
372.254	76.5
372.48	61.5
372.706	80.5
372.932	72.5
373.158	72.5
373.384	86.5
373.61	89.5
373.835	85.5
374.061	78.5
374.287	76.5
374.513	77.5
374.739	82.5
374.965	88.5
375.191	85.5
375.416	71.5
375.642	63.5
375.868	84.5
376.094	80.5
376.319	79.5
376.545	76.5
376.771	77.5
376.997	62.5
377.222	78.5
377.448	76.5
377.674	68.5
377.899	74.5
378.125	77.5
378.35	86.5
378.576	72.5
378.802	82.5
379.027	81.5
379.253	85.5
379.478	79.5
379.704	79.5
379.929	84.5
380.155	77.5
380.38	81.5
380.606	79.5
380.831	75.5
381.057	88.5
381.282	77.5
381.507	100.5
381.733	74.5
381.958	87.5
382.184	77.5
382.409	80.5
382.634	80.5
382.86	73.5
383.085	81.5
383.31	58.5
383.535	79.5
383.761	90.5
383.986	73.5
384.211	77.5
384.436	78.5
384.662	82.5
384.887	74.5
385.112	64.5
385.337	86.5
385.562	77.5
385.787	79.5
386.013	98.5
386.238	82.5
386.463	91.5
386.688	96.5
386.913	74.5
387.138	75.5
387.363	66.5
387.588	83.5
387.813	81.5
388.038	73.5
388.263	74.5
388.488	88.5
388.713	78.5
388.938	71.5
389.163	85.5
389.387	72.5
389.612	68.5
389.837	70.5
390.062	91.5
390.287	83.5
390.512	87.5
390.736	71.5
390.961	88.5
391.186	72.5
391.411	74.5
391.636	69.5
391.86	74.5
392.085	79.5
392.31	81.5
392.534	73.5
392.759	70.5
392.984	82.5
393.208	84.5
393.433	75.5
393.658	72.5
393.882	83.5
394.107	72.5
394.331	72.5
394.556	66.5
394.78	76.5
395.005	81.5
395.229	88.5
395.454	92.5
395.678	81.5
395.903	81.5
396.127	77.5
396.352	108.5
396.576	75.5
396.801	77.5
397.025	81.5
397.249	81.5
397.474	78.5
397.698	82.5
397.922	93.5
398.147	81.5
398.371	82.5
398.595	74.5
398.82	84.5
399.044	86.5
399.268	86.5
399.492	74.5
399.717	78.5
399.941	74.5
400.165	88.5
400.389	85.5
400.613	82.5
400.837	78.5
401.062	86.5
401.286	75.5
401.51	68.5
401.734	70.5
401.958	83.5
402.182	80.5
402.406	85.5
402.63	68.5
402.854	75.5
403.078	74.5
403.302	83.5
403.526	86.5
403.75	75.5
403.974	78.5
404.198	78.5
404.422	75.5
404.645	82.5
404.869	76.5
405.093	82.5
405.317	71.5
405.541	80.5
405.765	69.5
405.988	73.5
406.212	78.5
406.436	69.5
406.66	77.5
406.883	83.5
407.107	69.5
407.331	76.5
407.555	81.5
407.778	75.5
408.002	73.5
408.226	85.5
408.449	85.5
408.673	84.5
408.896	81.5
409.12	73.5
409.344	81.5
409.567	92.5
409.791	85.5
410.014	66.5
410.238	63.5
410.461	85.5
410.685	80.5
410.908	85.5
411.132	90.5
411.355	76.5
411.578	87.5
411.802	82.5
412.025	65.5
412.249	83.5
412.472	67.5
412.695	84.5
412.919	82.5
413.142	70.5
413.365	82.5
413.589	81.5
413.812	85.5
414.035	77.5
414.258	82.5
414.482	74.5
414.705	55.5
414.928	84.5
415.151	86.5
415.374	74.5
415.597	66.5
415.821	90.5
416.044	68.5
416.267	78.5
416.49	72.5
416.713	66.5
416.936	74.5
417.159	80.5
417.382	78.5
417.605	76.5
417.828	79.5
418.051	72.5
418.274	76.5
418.497	78.5
418.72	59.5
418.943	81.5
419.166	88.5
419.389	76.5
419.611	78.5
419.834	81.5
420.057	72.5
420.28	83.5
420.503	88.5
420.726	76.5
420.948	82.5
421.171	66.5
421.394	86.5
421.617	81.5
421.839	76.5
422.062	70.5
422.285	83.5
422.507	86.5
422.73	62.5
422.953	80.5
423.175	80.5
423.398	78.5
423.621	86.5
423.843	83.5
424.066	67.5
424.288	76.5
424.511	74.5
424.733	76.5
424.956	73.5
425.178	90.5
425.401	75.5
425.623	82.5
425.846	80.5
426.068	82.5
426.291	63.5
426.513	86.5
426.735	70.5
426.958	77.5
427.18	77.5
427.402	78.5
427.625	84.5
427.847	83.5
428.069	63.5
428.292	72.5
428.514	78.5
428.736	64.5
428.958	66.5
429.181	89.5
429.403	69.5
429.625	76.5
429.847	76.5
430.069	73.5
430.292	86.5
430.514	86.5
430.736	78.5
430.958	77.5
431.18	82.5
431.402	96.5
431.624	83.5
431.846	78.5
432.068	87.5
432.29	78.5
432.512	87.5
432.734	91.5
432.956	69.5
433.178	100.5
433.4	76.5
433.622	91.5
433.844	81.5
434.066	59.5
434.287	62.5
434.509	79.5
434.731	81.5
434.953	75.5
435.175	85.5
435.397	97.5
435.618	70.5
435.84	82.5
436.062	70.5
436.284	74.5
436.505	82.5
436.727	80.5
436.949	94.5
437.17	75.5
437.392	79.5
437.614	74.5
437.835	83.5
438.057	80.5
438.278	72.5
438.5	72.5
438.721	79.5
438.943	73.5
439.165	85.5
439.386	86.5
439.608	72.5
439.829	88.5
440.05	77.5
440.272	79.5
440.493	82.5
440.715	83.5
440.936	68.5
441.158	75.5
441.379	68.5
441.6	73.5
441.822	78.5
442.043	77.5
442.264	73.5
442.486	79.5
442.707	74.5
442.928	74.5
443.149	92.5
443.371	85.5
443.592	82.5
443.813	91.5
444.034	86.5
444.255	72.5
444.476	88.5
444.698	69.5
444.919	79.5
445.14	133.5
445.361	106.5
445.582	86.5
445.803	72.5
446.024	74.5
446.245	81.5
446.466	96.5
446.687	78.5
446.908	78.5
447.129	88.5
447.35	86.5
447.571	69.5
447.792	72.5
448.013	84.5
448.234	70.5
448.455	60.5
448.675	83.5
448.896	71.5
449.117	76.5
449.338	74.5
449.559	72.5
449.779	80.5
450	68.5
450.221	65.5
450.442	75.5
450.662	74.5
450.883	63.5
451.104	80.5
451.324	78.5
451.545	78.5
451.766	73.5
451.986	75.5
452.207	61.5
452.428	82.5
452.648	82.5
452.869	73.5
453.089	81.5
453.31	85.5
453.53	61.5
453.751	68.5
453.971	71.5
454.192	78.5
454.412	72.5
454.633	72.5
454.853	77.5
455.073	83.5
455.294	86.5
455.514	81.5
455.734	83.5
455.955	85.5
456.175	88.5
456.395	75.5
456.616	82.5
456.836	82.5
457.056	84.5
457.276	83.5
457.497	73.5
457.717	84.5
457.937	77.5
458.157	90.5
458.377	76.5
458.598	88.5
458.818	68.5
459.038	81.5
459.258	77.5
459.478	74.5
459.698	76.5
459.918	81.5
460.138	85.5
460.358	78.5
460.578	65.5
460.798	69.5
461.018	75.5
461.238	80.5
461.458	77.5
461.678	54.5
461.898	76.5
462.118	74.5
462.338	77.5
462.558	77.5
462.777	85.5
462.997	73.5
463.217	77.5
463.437	101.5
463.657	92.5
463.876	82.5
464.096	61.5
464.316	70.5
464.536	80.5
464.755	76.5
464.975	69.5
465.195	86.5
465.414	73.5
465.634	90.5
465.854	71.5
466.073	77.5
466.293	85.5
466.512	87.5
466.732	93.5
466.951	86.5
467.171	72.5
467.391	88.5
467.61	76.5
467.829	75.5
468.049	73.5
468.268	78.5
468.488	71.5
468.707	77.5
468.927	94.5
469.146	85.5
469.365	71.5
469.585	66.5
469.804	74.5
470.023	84.5
470.243	68.5
470.462	100.5
470.681	78.5
470.901	61.5
471.12	70.5
471.339	90.5
471.558	73.5
471.777	78.5
471.997	84.5
472.216	79.5
472.435	67.5
472.654	81.5
472.873	85.5
473.092	83.5
473.311	86.5
473.53	72.5
473.749	80.5
473.968	80.5
474.187	89.5
474.406	76.5
474.625	83.5
474.844	70.5
475.063	73.5
475.282	72.5
475.501	76.5
475.72	85.5
475.939	71.5
476.158	80.5
476.377	96.5
476.596	86.5
476.814	84.5
477.033	76.5
477.252	92.5
477.471	71.5
477.69	83.5
477.908	78.5
478.127	74.5
478.346	71.5
478.564	72.5
478.783	79.5
479.002	90.5
479.22	77.5
479.439	64.5
479.658	78.5
479.876	84.5
480.095	78.5
480.313	91.5
480.532	81.5
480.751	82.5
480.969	89.5
481.188	83.5
481.406	69.5
481.624	76.5
481.843	65.5
482.061	82.5
482.28	90.5
482.498	88.5
482.717	88.5
482.935	81.5
483.153	82.5
483.372	91.5
483.59	80.5
483.808	79.5
484.027	84.5
484.245	79.5
484.463	77.5
484.681	80.5
484.9	82.5
485.118	73.5
485.336	82.5
485.554	86.5
485.772	89.5
485.99	72.5
486.209	76.5
486.427	91.5
486.645	78.5
486.863	73.5
487.081	74.5
487.299	74.5
487.517	78.5
487.735	70.5
487.953	82.5
488.171	90.5
488.389	69.5
488.607	89.5
488.825	68.5
489.043	74.5
489.261	81.5
489.479	76.5
489.696	66.5
489.914	76.5
490.132	83.5
490.35	85.5
490.568	74.5
490.786	80.5
491.003	76.5
491.221	76.5
491.439	78.5
491.657	89.5
491.874	75.5
492.092	69.5
492.31	66.5
492.527	72.5
492.745	73.5
492.963	89.5
493.18	72.5
493.398	75.5
493.615	75.5
493.833	68.5
494.05	65.5
494.268	98.5
494.485	93.5
494.703	77.5
494.92	74.5
495.138	72.5
495.355	74.5
495.573	74.5
495.79	75.5
496.008	85.5
496.225	68.5
496.442	81.5
496.66	76.5
496.877	84.5
497.094	81.5
497.312	80.5
497.529	84.5
497.746	88.5
497.963	80.5
498.181	101.5
498.398	76.5
498.615	77.5
498.832	69.5
499.049	88.5
499.267	76.5
499.484	75.5
499.701	76.5
499.918	70.5
500.135	74.5
500.352	86.5
500.569	81.5
500.786	76.5
501.003	79.5
501.22	73.5
501.437	87.5
501.654	80.5
501.871	78.5
502.088	84.5
502.305	83.5
502.522	78.5
502.739	82.5
502.956	74.5
503.172	86.5
503.389	75.5
503.606	77.5
503.823	77.5
504.04	78.5
504.256	66.5
504.473	80.5
504.69	89.5
504.907	71.5
505.123	78.5
505.34	87.5
505.557	75.5
505.773	82.5
505.99	85.5
506.207	85.5
506.423	80.5
506.64	84.5
506.856	81.5
507.073	80.5
507.289	80.5
507.506	82.5
507.722	82.5
507.939	91.5
508.155	87.5
508.372	75.5
508.588	72.5
508.805	71.5
509.021	74.5
509.238	62.5
509.454	76.5
509.67	84.5
509.887	89.5
510.103	77.5
510.319	76.5
510.536	85.5
510.752	73.5
510.968	75.5
511.184	74.5
511.401	87.5
511.617	80.5
511.833	68.5
512.049	68.5
512.265	73.5
512.481	81.5
512.698	68.5
512.914	86.5
513.13	85.5
513.346	74.5
513.562	84.5
513.778	80.5
513.994	76.5
514.21	89.5
514.426	91.5
514.642	80.5
514.858	91.5
515.074	85.5
515.29	83.5
515.506	79.5
515.721	91.5
515.937	92.5
516.153	83.5
516.369	73.5
516.585	82.5
516.801	75.5
517.016	75.5
517.232	84.5
517.448	93.5
517.664	76.5
517.879	76.5
518.095	61.5
518.311	60.5
518.527	67.5
518.742	81.5
518.958	86.5
519.173	94.5
519.389	86.5
519.605	88.5
519.82	88.5
520.036	88.5
520.251	78.5
520.467	84.5
520.682	72.5
520.898	79.5
521.113	83.5
521.329	81.5
521.544	89.5
521.76	76.5
521.975	78.5
522.19	90.5
522.406	77.5
522.621	99.5
522.836	92.5
523.052	75.5
523.267	82.5
523.482	87.5
523.698	96.5
523.913	70.5
524.128	82.5
524.343	76.5
524.559	75.5
524.774	68.5
524.989	89.5
525.204	73.5
525.419	90.5
525.634	73.5
525.849	72.5
526.064	79.5
526.28	78.5
526.495	77.5
526.71	77.5
526.925	73.5
527.14	74.5
527.355	88.5
527.57	82.5
527.785	68.5
527.999	75.5
528.214	82.5
528.429	77.5
528.644	74.5
528.859	80.5
529.074	83.5
529.289	81.5
529.503	74.5
529.718	79.5
529.933	85.5
530.148	76.5
530.363	74.5
530.577	89.5
530.792	82.5
531.007	89.5
531.221	80.5
531.436	94.5
531.651	71.5
531.865	68.5
532.08	84.5
532.295	84.5
532.509	70.5
532.724	89.5
532.938	83.5
533.153	78.5
533.367	97.5
533.582	79.5
533.796	83.5
534.011	65.5
534.225	78.5
534.44	84.5
534.654	86.5
534.868	70.5
535.083	85.5
535.297	65.5
535.511	73.5
535.726	82.5
535.94	97.5
536.154	82.5
536.369	68.5
536.583	87.5
536.797	78.5
537.011	82.5
537.225	83.5
537.44	74.5
537.654	81.5
537.868	74.5
538.082	85.5
538.296	74.5
538.51	85.5
538.724	78.5
538.938	72.5
539.153	81.5
539.367	90.5
539.581	77.5
539.795	61.5
540.009	70.5
540.222	70.5
540.436	80.5
540.65	77.5
