Data from BG_HRD10591_037.txt Node
Date: Fri May 16 15:14:41 EDT 2025
User: Yrep
Spectrometer: HR+D1059
Trigger mode: 1
Integration Time (sec): 1.000000E-1
Scans to average: 1
Electric dark correction enabled: true
Nonlinearity correction enabled: false
Boxcar width: 0
XAxis mode: Wavelengths
Number of Pixels in Spectrum: 2048
>>>>>Begin Spectral Data<<<<<
223.165	-20.31
223.4	-20.31
223.635	-20.31
223.869	-11.31
224.104	-19.31
224.338	-18.31
224.573	-23.31
224.808	-19.31
225.042	-3.31
225.277	-11.31
225.511	-7.31
225.746	0.69
225.98	5.69
226.215	14.69
226.449	35.69
226.683	31.69
226.918	21.69
227.152	23.69
227.387	43.69
227.621	41.69
227.856	43.69
228.09	36.69
228.324	54.69
228.559	48.69
228.793	58.69
229.027	69.69
229.262	53.69
229.496	71.69
229.73	67.69
229.964	73.69
230.199	73.69
230.433	75.69
230.667	79.69
230.901	66.69
231.136	75.69
231.37	73.69
231.604	85.69
231.838	79.69
232.072	70.69
232.306	89.69
232.541	71.69
232.775	79.69
233.009	67.69
233.243	85.69
233.477	92.69
233.711	66.69
233.945	74.69
234.179	77.69
234.413	68.69
234.647	94.69
234.881	81.69
235.115	74.69
235.349	76.69
235.583	79.69
235.817	75.69
236.051	67.69
236.285	73.69
236.519	84.69
236.753	84.69
236.987	75.69
237.221	70.69
237.455	73.69
237.689	81.69
237.922	72.69
238.156	85.69
238.39	80.69
238.624	71.69
238.858	65.69
239.091	78.69
239.325	62.69
239.559	65.69
239.793	85.69
240.027	73.69
240.26	94.69
240.494	89.69
240.728	91.69
240.961	78.69
241.195	62.69
241.429	64.69
241.662	73.69
241.896	61.69
242.13	71.69
242.363	72.69
242.597	77.69
242.83	90.69
243.064	57.69
243.298	73.69
243.531	61.69
243.765	66.69
243.998	81.69
244.232	73.69
244.465	75.69
244.699	77.69
244.932	64.69
245.166	74.69
245.399	68.69
245.633	79.69
245.866	63.69
246.099	77.69
246.333	73.69
246.566	91.69
246.8	73.69
247.033	71.69
247.266	73.69
247.5	73.69
247.733	69.69
247.966	86.69
248.2	81.69
248.433	91.69
248.666	77.69
248.899	60.69
249.133	53.69
249.366	84.69
249.599	82.69
249.832	69.69
250.066	90.69
250.299	74.69
250.532	71.69
250.765	72.69
250.998	73.69
251.231	72.69
251.465	92.69
251.698	78.69
251.931	69.69
252.164	77.69
252.397	67.69
252.63	88.69
252.863	75.69
253.096	82.69
253.329	80.69
253.562	83.69
253.795	86.69
254.028	77.69
254.261	78.69
254.494	80.69
254.727	75.69
254.96	76.69
255.193	73.69
255.426	80.69
255.659	80.69
255.892	72.69
256.124	72.69
256.357	80.69
256.59	71.69
256.823	83.69
257.056	82.69
257.289	87.69
257.521	84.69
257.754	93.69
257.987	84.69
258.22	85.69
258.452	89.69
258.685	84.69
258.918	85.69
259.151	76.69
259.383	75.69
259.616	86.69
259.849	88.69
260.081	91.69
260.314	75.69
260.547	79.69
260.779	92.69
261.012	72.69
261.244	81.69
261.477	84.69
261.71	83.69
261.942	85.69
262.175	91.69
262.407	73.69
262.64	83.69
262.872	80.69
263.105	82.69
263.337	97.69
263.57	72.69
263.802	72.69
264.035	80.69
264.267	78.69
264.499	84.69
264.732	78.69
264.964	85.69
265.197	68.69
265.429	80.69
265.661	80.69
265.894	66.69
266.126	76.69
266.358	89.69
266.591	57.69
266.823	85.69
267.055	84.69
267.287	72.69
267.52	68.69
267.752	75.69
267.984	73.69
268.216	79.69
268.448	80.69
268.681	86.69
268.913	91.69
269.145	79.69
269.377	76.69
269.609	76.69
269.841	85.69
270.073	75.69
270.306	83.69
270.538	83.69
270.77	80.69
271.002	90.69
271.234	77.69
271.466	87.69
271.698	61.69
271.93	82.69
272.162	84.69
272.394	96.69
272.626	65.69
272.858	77.69
273.09	90.69
273.322	87.69
273.553	71.69
273.785	84.69
274.017	82.69
274.249	84.69
274.481	88.69
274.713	76.69
274.945	81.69
275.176	73.69
275.408	86.69
275.64	81.69
275.872	81.69
276.104	85.69
276.335	83.69
276.567	92.69
276.799	83.69
277.031	83.69
277.262	91.69
277.494	86.69
277.726	76.69
277.957	79.69
278.189	74.69
278.421	83.69
278.652	79.69
278.884	85.69
279.115	88.69
279.347	79.69
279.579	81.69
279.81	85.69
280.042	93.69
280.273	80.69
280.505	85.69
280.736	79.69
280.968	76.69
281.199	80.69
281.431	79.69
281.662	72.69
281.894	85.69
282.125	96.69
282.356	78.69
282.588	77.69
282.819	84.69
283.051	72.69
283.282	95.69
283.513	79.69
283.745	96.69
283.976	71.69
284.207	70.69
284.439	81.69
284.67	82.69
284.901	81.69
285.132	74.69
285.364	85.69
285.595	86.69
285.826	85.69
286.057	78.69
286.288	105.69
286.52	82.69
286.751	86.69
286.982	91.69
287.213	85.69
287.444	75.69
287.675	76.69
287.906	72.69
288.138	88.69
288.369	94.69
288.6	81.69
288.831	86.69
289.062	88.69
289.293	70.69
289.524	85.69
289.755	76.69
289.986	79.69
290.217	69.69
290.448	92.69
290.679	82.69
290.91	83.69
291.141	92.69
291.371	96.69
291.602	100.69
291.833	85.69
292.064	66.69
292.295	88.69
292.526	83.69
292.757	85.69
292.987	88.69
293.218	90.69
293.449	76.69
293.68	77.69
293.91	73.69
294.141	79.69
294.372	86.69
294.603	95.69
294.833	77.69
295.064	84.69
295.295	85.69
295.525	70.69
295.756	79.69
295.987	81.69
296.217	106.69
296.448	87.69
296.679	83.69
296.909	104.69
297.14	79.69
297.37	79.69
297.601	81.69
297.831	101.69
298.062	99.69
298.292	96.69
298.523	85.69
298.753	73.69
298.984	87.69
299.214	87.69
299.445	77.69
299.675	76.69
299.905	76.69
300.136	89.69
300.366	71.69
300.597	80.69
300.827	77.69
301.057	84.69
301.288	84.69
301.518	73.69
301.748	80.69
301.979	89.69
302.209	90.69
302.439	84.69
302.669	93.69
302.9	86.69
303.13	79.69
303.36	87.69
303.59	73.69
303.82	80.69
304.051	95.69
304.281	90.69
304.511	95.69
304.741	79.69
304.971	80.69
305.201	94.69
305.431	89.69
305.661	77.69
305.891	64.69
306.121	82.69
306.352	79.69
306.582	82.69
306.812	91.69
307.042	74.69
307.272	79.69
307.502	90.69
307.731	80.69
307.961	78.69
308.191	85.69
308.421	80.69
308.651	73.69
308.881	92.69
309.111	96.69
309.341	83.69
309.571	85.69
309.8	90.69
310.03	85.69
310.26	79.69
310.49	69.69
310.72	82.69
310.949	87.69
311.179	85.69
311.409	88.69
311.639	85.69
311.868	83.69
312.098	87.69
312.328	78.69
312.557	98.69
312.787	88.69
313.017	96.69
313.246	85.69
313.476	69.69
313.706	93.69
313.935	92.69
314.165	79.69
314.394	86.69
314.624	77.69
314.853	76.69
315.083	79.69
315.312	82.69
315.542	75.69
315.771	89.69
316.001	75.69
316.23	91.69
316.46	101.69
316.689	94.69
316.919	82.69
317.148	74.69
317.377	83.69
317.607	75.69
317.836	81.69
318.065	94.69
318.295	72.69
318.524	93.69
318.753	71.69
318.983	90.69
319.212	80.69
319.441	88.69
319.67	84.69
319.9	86.69
320.129	84.69
320.358	101.69
320.587	87.69
320.816	80.69
321.046	82.69
321.275	91.69
321.504	94.69
321.733	84.69
321.962	75.69
322.191	79.69
322.42	78.69
322.649	84.69
322.878	79.69
323.108	85.69
323.337	85.69
323.566	85.69
323.795	85.69
324.024	82.69
324.253	80.69
324.482	81.69
324.71	91.69
324.939	85.69
325.168	86.69
325.397	76.69
325.626	65.69
325.855	83.69
326.084	96.69
326.313	78.69
326.542	84.69
326.77	88.69
326.999	83.69
327.228	92.69
327.457	106.69
327.686	92.69
327.914	93.69
328.143	87.69
328.372	88.69
328.6	87.69
328.829	65.69
329.058	82.69
329.287	95.69
329.515	88.69
329.744	103.69
329.972	84.69
330.201	96.69
330.43	83.69
330.658	79.69
330.887	80.69
331.115	94.69
331.344	84.69
331.572	84.69
331.801	76.69
332.03	87.69
332.258	105.69
332.486	93.69
332.715	76.69
332.943	87.69
333.172	73.69
333.4	74.69
333.629	88.69
333.857	79.69
334.085	83.69
334.314	87.69
334.542	79.69
334.771	74.69
334.999	88.69
335.227	79.69
335.455	89.69
335.684	87.69
335.912	89.69
336.14	84.69
336.369	78.69
336.597	83.69
336.825	99.69
337.053	84.69
337.281	104.69
337.51	85.69
337.738	84.69
337.966	89.69
338.194	77.69
338.422	85.69
338.65	89.69
338.878	81.69
339.106	83.69
339.334	91.69
339.562	85.69
339.79	88.69
340.018	90.69
340.246	66.69
340.474	69.69
340.702	91.69
340.93	80.69
341.158	75.69
341.386	70.69
341.614	79.69
341.842	93.69
342.07	72.69
342.298	92.69
342.526	71.69
342.754	89.69
342.981	83.69
343.209	61.69
343.437	108.69
343.665	85.69
343.893	66.69
344.12	72.69
344.348	77.69
344.576	74.69
344.804	92.69
345.031	74.69
345.259	81.69
345.487	80.69
345.714	92.69
345.942	81.69
346.17	91.69
346.397	72.69
346.625	80.69
346.853	77.69
347.08	72.69
347.308	92.69
347.535	79.69
347.763	85.69
347.99	86.69
348.218	94.69
348.445	100.69
348.673	83.69
348.9	88.69
349.128	77.69
349.355	72.69
349.583	91.69
349.81	82.69
350.037	87.69
350.265	77.69
350.492	66.69
350.72	88.69
350.947	86.69
351.174	79.69
351.402	86.69
351.629	81.69
351.856	96.69
352.083	76.69
352.311	80.69
352.538	76.69
352.765	91.69
352.992	88.69
353.22	85.69
353.447	80.69
353.674	86.69
353.901	84.69
354.128	84.69
354.355	79.69
354.583	89.69
354.81	89.69
355.037	81.69
355.264	76.69
355.491	80.69
355.718	91.69
355.945	84.69
356.172	85.69
356.399	86.69
356.626	93.69
356.853	103.69
357.08	79.69
357.307	75.69
357.534	83.69
357.761	87.69
357.988	89.69
358.215	94.69
358.441	81.69
358.668	88.69
358.895	95.69
359.122	70.69
359.349	79.69
359.576	82.69
359.802	86.69
360.029	90.69
360.256	75.69
360.483	84.69
360.709	92.69
360.936	84.69
361.163	85.69
361.39	88.69
361.616	83.69
361.843	80.69
362.07	72.69
362.296	92.69
362.523	88.69
362.749	74.69
362.976	91.69
363.203	115.69
363.429	74.69
363.656	92.69
363.882	88.69
364.109	93.69
364.335	85.69
364.562	93.69
364.788	76.69
365.015	89.69
365.241	87.69
365.468	88.69
365.694	87.69
365.92	89.69
366.147	82.69
366.373	76.69
366.599	75.69
366.826	89.69
367.052	78.69
367.278	79.69
367.505	85.69
367.731	98.69
367.957	78.69
368.184	75.69
368.41	87.69
368.636	77.69
368.862	76.69
369.089	93.69
369.315	93.69
369.541	89.69
369.767	77.69
369.993	90.69
370.219	91.69
370.445	77.69
370.672	89.69
370.898	91.69
371.124	81.69
371.35	92.69
371.576	73.69
371.802	69.69
372.028	99.69
372.254	98.69
372.48	85.69
372.706	86.69
372.932	86.69
373.158	84.69
373.384	79.69
373.61	102.69
373.835	89.69
374.061	62.69
374.287	83.69
374.513	80.69
374.739	88.69
374.965	68.69
375.191	77.69
375.416	90.69
375.642	91.69
375.868	76.69
376.094	79.69
376.319	84.69
376.545	91.69
376.771	86.69
376.997	79.69
377.222	75.69
377.448	74.69
377.674	71.69
377.899	84.69
378.125	76.69
378.35	96.69
378.576	68.69
378.802	83.69
379.027	79.69
379.253	71.69
379.478	83.69
379.704	86.69
379.929	72.69
380.155	88.69
380.38	80.69
380.606	94.69
380.831	65.69
381.057	99.69
381.282	74.69
381.507	79.69
381.733	77.69
381.958	81.69
382.184	78.69
382.409	78.69
382.634	64.69
382.86	75.69
383.085	86.69
383.31	92.69
383.535	91.69
383.761	91.69
383.986	75.69
384.211	87.69
384.436	83.69
384.662	92.69
384.887	91.69
385.112	83.69
385.337	75.69
385.562	75.69
385.787	87.69
386.013	97.69
386.238	82.69
386.463	71.69
386.688	83.69
386.913	86.69
387.138	70.69
387.363	91.69
387.588	85.69
387.813	91.69
388.038	89.69
388.263	97.69
388.488	80.69
388.713	85.69
388.938	78.69
389.163	92.69
389.387	83.69
389.612	84.69
389.837	91.69
390.062	89.69
390.287	74.69
390.512	75.69
390.736	83.69
390.961	67.69
391.186	71.69
391.411	88.69
391.636	82.69
391.86	85.69
392.085	64.69
392.31	73.69
392.534	86.69
392.759	79.69
392.984	91.69
393.208	74.69
393.433	76.69
393.658	79.69
393.882	85.69
394.107	84.69
394.331	89.69
394.556	78.69
394.78	77.69
395.005	76.69
395.229	77.69
395.454	83.69
395.678	80.69
395.903	78.69
396.127	71.69
396.352	73.69
396.576	87.69
396.801	83.69
397.025	82.69
397.249	82.69
397.474	80.69
397.698	85.69
397.922	73.69
398.147	80.69
398.371	88.69
398.595	84.69
398.82	75.69
399.044	95.69
399.268	69.69
399.492	88.69
399.717	75.69
399.941	89.69
400.165	94.69
400.389	80.69
400.613	93.69
400.837	84.69
401.062	79.69
401.286	83.69
401.51	90.69
401.734	71.69
401.958	69.69
402.182	64.69
402.406	76.69
402.63	79.69
402.854	94.69
403.078	83.69
403.302	75.69
403.526	85.69
403.75	80.69
403.974	92.69
404.198	90.69
404.422	69.69
404.645	78.69
404.869	72.69
405.093	75.69
405.317	92.69
405.541	82.69
405.765	67.69
405.988	88.69
406.212	76.69
406.436	79.69
406.66	69.69
406.883	78.69
407.107	68.69
407.331	83.69
407.555	81.69
407.778	98.69
408.002	77.69
408.226	80.69
408.449	78.69
408.673	81.69
408.896	73.69
409.12	75.69
409.344	78.69
409.567	80.69
409.791	80.69
410.014	84.69
410.238	86.69
410.461	76.69
410.685	80.69
410.908	86.69
411.132	80.69
411.355	86.69
411.578	87.69
411.802	83.69
412.025	77.69
412.249	91.69
412.472	83.69
412.695	77.69
412.919	85.69
413.142	83.69
413.365	72.69
413.589	73.69
413.812	81.69
414.035	74.69
414.258	74.69
414.482	92.69
414.705	85.69
414.928	84.69
415.151	95.69
415.374	73.69
415.597	92.69
415.821	88.69
416.044	81.69
416.267	80.69
416.49	63.69
416.713	89.69
416.936	75.69
417.159	69.69
417.382	83.69
417.605	71.69
417.828	79.69
418.051	74.69
418.274	69.69
418.497	84.69
418.72	77.69
418.943	89.69
419.166	86.69
419.389	89.69
419.611	68.69
419.834	81.69
420.057	75.69
420.28	93.69
420.503	53.69
420.726	72.69
420.948	73.69
421.171	78.69
421.394	79.69
421.617	75.69
421.839	83.69
422.062	92.69
422.285	68.69
422.507	70.69
422.73	79.69
422.953	80.69
423.175	79.69
423.398	75.69
423.621	70.69
423.843	83.69
424.066	81.69
424.288	96.69
424.511	62.69
424.733	77.69
424.956	72.69
425.178	85.69
425.401	78.69
425.623	65.69
425.846	67.69
426.068	78.69
426.291	65.69
426.513	86.69
426.735	72.69
426.958	83.69
427.18	97.69
427.402	93.69
427.625	80.69
427.847	82.69
428.069	89.69
428.292	84.69
428.514	81.69
428.736	89.69
428.958	66.69
429.181	86.69
429.403	77.69
429.625	91.69
429.847	73.69
430.069	76.69
430.292	82.69
430.514	72.69
430.736	89.69
430.958	85.69
431.18	80.69
431.402	85.69
431.624	86.69
431.846	89.69
432.068	70.69
432.29	74.69
432.512	79.69
432.734	79.69
432.956	77.69
433.178	84.69
433.4	76.69
433.622	77.69
433.844	70.69
434.066	83.69
434.287	73.69
434.509	68.69
434.731	86.69
434.953	88.69
435.175	81.69
435.397	76.69
435.618	69.69
435.84	87.69
436.062	81.69
436.284	83.69
436.505	91.69
436.727	76.69
436.949	84.69
437.17	85.69
437.392	96.69
437.614	86.69
437.835	80.69
438.057	80.69
438.278	85.69
438.5	88.69
438.721	87.69
438.943	89.69
439.165	57.69
439.386	83.69
439.608	84.69
439.829	81.69
440.05	73.69
440.272	74.69
440.493	79.69
440.715	83.69
440.936	76.69
441.158	88.69
441.379	64.69
441.6	85.69
441.822	85.69
442.043	67.69
442.264	94.69
442.486	80.69
442.707	60.69
442.928	74.69
443.149	73.69
443.371	76.69
443.592	85.69
443.813	89.69
444.034	72.69
444.255	58.69
444.476	81.69
444.698	90.69
444.919	87.69
445.14	164.69
445.361	119.69
445.582	73.69
445.803	71.69
446.024	80.69
446.245	77.69
446.466	89.69
446.687	65.69
446.908	84.69
447.129	83.69
447.35	86.69
447.571	88.69
447.792	78.69
448.013	86.69
448.234	94.69
448.455	81.69
448.675	76.69
448.896	83.69
449.117	86.69
449.338	92.69
449.559	85.69
449.779	81.69
450	58.69
450.221	85.69
450.442	75.69
450.662	82.69
450.883	80.69
451.104	61.69
451.324	75.69
451.545	86.69
451.766	69.69
451.986	78.69
452.207	77.69
452.428	76.69
452.648	80.69
452.869	84.69
453.089	71.69
453.31	89.69
453.53	74.69
453.751	83.69
453.971	65.69
454.192	94.69
454.412	79.69
454.633	73.69
454.853	96.69
455.073	76.69
455.294	77.69
455.514	101.69
455.734	92.69
455.955	77.69
456.175	81.69
456.395	76.69
456.616	76.69
456.836	92.69
457.056	87.69
457.276	84.69
457.497	84.69
457.717	88.69
457.937	77.69
458.157	80.69
458.377	77.69
458.598	86.69
458.818	79.69
459.038	76.69
459.258	65.69
459.478	76.69
459.698	83.69
459.918	79.69
460.138	76.69
460.358	88.69
460.578	77.69
460.798	88.69
461.018	72.69
461.238	86.69
461.458	82.69
461.678	80.69
461.898	72.69
462.118	90.69
462.338	71.69
462.558	77.69
462.777	85.69
462.997	71.69
463.217	67.69
463.437	75.69
463.657	91.69
463.876	90.69
464.096	87.69
464.316	81.69
464.536	95.69
464.755	91.69
464.975	83.69
465.195	94.69
465.414	69.69
465.634	75.69
465.854	86.69
466.073	83.69
466.293	65.69
466.512	75.69
466.732	78.69
466.951	68.69
467.171	63.69
467.391	77.69
467.61	75.69
467.829	71.69
468.049	89.69
468.268	90.69
468.488	84.69
468.707	93.69
468.927	81.69
469.146	72.69
469.365	88.69
469.585	84.69
469.804	87.69
470.023	79.69
470.243	83.69
470.462	80.69
470.681	86.69
470.901	70.69
471.12	78.69
471.339	86.69
471.558	83.69
471.777	84.69
471.997	92.69
472.216	89.69
472.435	86.69
472.654	75.69
472.873	90.69
473.092	83.69
473.311	71.69
473.53	64.69
473.749	81.69
473.968	73.69
474.187	81.69
474.406	90.69
474.625	88.69
474.844	81.69
475.063	84.69
475.282	65.69
475.501	75.69
475.72	73.69
475.939	88.69
476.158	82.69
476.377	71.69
476.596	78.69
476.814	91.69
477.033	73.69
477.252	79.69
477.471	91.69
477.69	74.69
477.908	74.69
478.127	90.69
478.346	90.69
478.564	84.69
478.783	67.69
479.002	73.69
479.22	90.69
479.439	84.69
479.658	85.69
479.876	89.69
480.095	71.69
480.313	82.69
480.532	73.69
480.751	79.69
480.969	70.69
481.188	75.69
481.406	85.69
481.624	72.69
481.843	73.69
482.061	77.69
482.28	89.69
482.498	94.69
482.717	92.69
482.935	86.69
483.153	74.69
483.372	87.69
483.59	74.69
483.808	83.69
484.027	83.69
484.245	75.69
484.463	87.69
484.681	77.69
484.9	87.69
485.118	76.69
485.336	94.69
485.554	88.69
485.772	84.69
485.99	95.69
486.209	87.69
486.427	78.69
486.645	83.69
486.863	62.69
487.081	66.69
487.299	88.69
487.517	72.69
487.735	99.69
487.953	87.69
488.171	84.69
488.389	71.69
488.607	89.69
488.825	73.69
489.043	68.69
489.261	89.69
489.479	86.69
489.696	76.69
489.914	75.69
490.132	99.69
490.35	85.69
490.568	79.69
490.786	89.69
491.003	80.69
491.221	88.69
491.439	72.69
491.657	80.69
491.874	71.69
492.092	89.69
492.31	85.69
492.527	81.69
492.745	86.69
492.963	88.69
493.18	91.69
493.398	83.69
493.615	81.69
493.833	69.69
494.05	78.69
494.268	91.69
494.485	89.69
494.703	94.69
494.92	85.69
495.138	84.69
495.355	67.69
495.573	77.69
495.79	84.69
496.008	101.69
496.225	84.69
496.442	77.69
496.66	90.69
496.877	84.69
497.094	69.69
497.312	80.69
497.529	67.69
497.746	78.69
497.963	92.69
498.181	88.69
498.398	79.69
498.615	93.69
498.832	71.69
499.049	76.69
499.267	78.69
499.484	79.69
499.701	84.69
499.918	91.69
500.135	73.69
500.352	89.69
500.569	84.69
500.786	78.69
501.003	79.69
501.22	73.69
501.437	72.69
501.654	83.69
501.871	87.69
502.088	77.69
502.305	81.69
502.522	88.69
502.739	78.69
502.956	79.69
503.172	81.69
503.389	74.69
503.606	83.69
503.823	84.69
504.04	65.69
504.256	84.69
504.473	75.69
504.69	81.69
504.907	85.69
505.123	81.69
505.34	88.69
505.557	92.69
505.773	95.69
505.99	94.69
506.207	80.69
506.423	75.69
506.64	87.69
506.856	79.69
507.073	81.69
507.289	74.69
507.506	75.69
507.722	70.69
507.939	71.69
508.155	73.69
508.372	81.69
508.588	79.69
508.805	87.69
509.021	79.69
509.238	84.69
509.454	80.69
509.67	84.69
509.887	78.69
510.103	86.69
510.319	79.69
510.536	71.69
510.752	74.69
510.968	90.69
511.184	74.69
511.401	80.69
511.617	80.69
511.833	75.69
512.049	73.69
512.265	71.69
512.481	83.69
512.698	88.69
512.914	78.69
513.13	75.69
513.346	83.69
513.562	84.69
513.778	76.69
513.994	65.69
514.21	81.69
514.426	93.69
514.642	65.69
514.858	68.69
515.074	103.69
515.29	83.69
515.506	81.69
515.721	79.69
515.937	75.69
516.153	79.69
516.369	77.69
516.585	96.69
516.801	86.69
517.016	88.69
517.232	70.69
517.448	69.69
517.664	77.69
517.879	81.69
518.095	83.69
518.311	86.69
518.527	80.69
518.742	78.69
518.958	80.69
519.173	81.69
519.389	76.69
519.605	69.69
519.82	96.69
520.036	86.69
