Data from BG_HRD10591_066.txt Node
Date: Fri May 16 15:14:55 EDT 2025
User: Yrep
Spectrometer: HR+D1059
Trigger mode: 1
Integration Time (sec): 1.000000E-1
Scans to average: 1
Electric dark correction enabled: true
Nonlinearity correction enabled: false
Boxcar width: 0
XAxis mode: Wavelengths
Number of Pixels in Spectrum: 2048
>>>>>Begin Spectral Data<<<<<
223.165	-6.56
223.4	-6.56
223.635	-6.56
223.869	-24.56
224.104	-16.56
224.338	-17.56
224.573	-13.56
224.808	-11.56
225.042	-6.56
225.277	-1.56
225.511	-0.56
225.746	7.44
225.98	-2.56
226.215	1.44
226.449	14.44
226.683	17.44
226.918	30.44
227.152	30.44
227.387	39.44
227.621	40.44
227.856	39.44
228.09	47.44
228.324	57.44
228.559	51.44
228.793	46.44
229.027	59.44
229.262	57.44
229.496	65.44
229.73	77.44
229.964	76.44
230.199	83.44
230.433	73.44
230.667	86.44
230.901	79.44
231.136	77.44
231.37	79.44
231.604	82.44
231.838	73.44
232.072	77.44
232.306	82.44
232.541	82.44
232.775	73.44
233.009	69.44
233.243	82.44
233.477	93.44
233.711	84.44
233.945	73.44
234.179	77.44
234.413	72.44
234.647	77.44
234.881	90.44
235.115	84.44
235.349	72.44
235.583	98.44
235.817	73.44
236.051	78.44
236.285	69.44
236.519	76.44
236.753	77.44
236.987	72.44
237.221	74.44
237.455	82.44
237.689	73.44
237.922	80.44
238.156	60.44
238.39	72.44
238.624	81.44
238.858	80.44
239.091	72.44
239.325	76.44
239.559	69.44
239.793	64.44
240.027	71.44
240.26	78.44
240.494	74.44
240.728	80.44
240.961	73.44
241.195	66.44
241.429	75.44
241.662	71.44
241.896	74.44
242.13	73.44
242.363	85.44
242.597	78.44
242.83	75.44
243.064	72.44
243.298	93.44
243.531	79.44
243.765	80.44
243.998	69.44
244.232	76.44
244.465	65.44
244.699	84.44
244.932	81.44
245.166	79.44
245.399	81.44
245.633	75.44
245.866	69.44
246.099	76.44
246.333	86.44
246.566	62.44
246.8	75.44
247.033	69.44
247.266	63.44
247.5	74.44
247.733	88.44
247.966	86.44
248.2	78.44
248.433	89.44
248.666	81.44
248.899	82.44
249.133	74.44
249.366	82.44
249.599	80.44
249.832	69.44
250.066	86.44
250.299	71.44
250.532	74.44
250.765	74.44
250.998	77.44
251.231	87.44
251.465	79.44
251.698	82.44
251.931	81.44
252.164	79.44
252.397	90.44
252.63	71.44
252.863	67.44
253.096	90.44
253.329	79.44
253.562	87.44
253.795	80.44
254.028	71.44
254.261	72.44
254.494	73.44
254.727	83.44
254.96	71.44
255.193	82.44
255.426	79.44
255.659	88.44
255.892	82.44
256.124	84.44
256.357	84.44
256.59	78.44
256.823	77.44
257.056	61.44
257.289	74.44
257.521	88.44
257.754	92.44
257.987	80.44
258.22	67.44
258.452	74.44
258.685	63.44
258.918	86.44
259.151	76.44
259.383	81.44
259.616	74.44
259.849	83.44
260.081	79.44
260.314	91.44
260.547	83.44
260.779	86.44
261.012	87.44
261.244	63.44
261.477	81.44
261.71	78.44
261.942	71.44
262.175	84.44
262.407	95.44
262.64	80.44
262.872	85.44
263.105	85.44
263.337	87.44
263.57	85.44
263.802	73.44
264.035	81.44
264.267	84.44
264.499	74.44
264.732	79.44
264.964	85.44
265.197	97.44
265.429	71.44
265.661	76.44
265.894	79.44
266.126	70.44
266.358	77.44
266.591	83.44
266.823	75.44
267.055	57.44
267.287	85.44
267.52	82.44
267.752	85.44
267.984	85.44
268.216	72.44
268.448	89.44
268.681	87.44
268.913	85.44
269.145	86.44
269.377	86.44
269.609	86.44
269.841	77.44
270.073	83.44
270.306	87.44
270.538	89.44
270.77	74.44
271.002	79.44
271.234	84.44
271.466	94.44
271.698	72.44
271.93	71.44
272.162	79.44
272.394	83.44
272.626	95.44
272.858	87.44
273.09	83.44
273.322	83.44
273.553	74.44
273.785	78.44
274.017	66.44
274.249	86.44
274.481	81.44
274.713	75.44
274.945	82.44
275.176	79.44
275.408	89.44
275.64	88.44
275.872	78.44
276.104	73.44
276.335	97.44
276.567	81.44
276.799	93.44
277.031	73.44
277.262	80.44
277.494	87.44
277.726	88.44
277.957	84.44
278.189	82.44
278.421	89.44
278.652	89.44
278.884	69.44
279.115	88.44
279.347	81.44
279.579	73.44
279.81	99.44
280.042	91.44
280.273	85.44
280.505	101.44
280.736	88.44
280.968	69.44
281.199	87.44
281.431	90.44
281.662	70.44
281.894	75.44
282.125	89.44
282.356	78.44
282.588	86.44
282.819	83.44
283.051	98.44
283.282	89.44
283.513	84.44
283.745	79.44
283.976	90.44
284.207	89.44
284.439	81.44
284.67	83.44
284.901	78.44
285.132	89.44
285.364	91.44
285.595	82.44
285.826	81.44
286.057	81.44
286.288	80.44
286.52	85.44
286.751	81.44
286.982	78.44
287.213	87.44
287.444	97.44
287.675	84.44
287.906	73.44
288.138	85.44
288.369	85.44
288.6	75.44
288.831	82.44
289.062	85.44
289.293	93.44
289.524	92.44
289.755	86.44
289.986	72.44
290.217	99.44
290.448	74.44
290.679	83.44
290.91	82.44
291.141	89.44
291.371	64.44
291.602	86.44
291.833	73.44
292.064	85.44
292.295	96.44
292.526	83.44
292.757	84.44
292.987	91.44
293.218	81.44
293.449	81.44
293.68	84.44
293.91	89.44
294.141	94.44
294.372	86.44
294.603	77.44
294.833	94.44
295.064	85.44
295.295	107.44
295.525	75.44
295.756	83.44
295.987	86.44
296.217	77.44
296.448	82.44
296.679	76.44
296.909	90.44
297.14	89.44
297.37	88.44
297.601	95.44
297.831	81.44
298.062	83.44
298.292	72.44
298.523	88.44
298.753	94.44
298.984	84.44
299.214	80.44
299.445	82.44
299.675	88.44
299.905	99.44
300.136	75.44
300.366	77.44
300.597	99.44
300.827	85.44
301.057	73.44
301.288	98.44
301.518	85.44
301.748	90.44
301.979	89.44
302.209	84.44
302.439	83.44
302.669	84.44
302.9	86.44
303.13	75.44
303.36	83.44
303.59	86.44
303.82	96.44
304.051	92.44
304.281	97.44
304.511	93.44
304.741	89.44
304.971	82.44
305.201	93.44
305.431	66.44
305.661	83.44
305.891	89.44
306.121	83.44
306.352	76.44
306.582	83.44
306.812	78.44
307.042	83.44
307.272	97.44
307.502	72.44
307.731	99.44
307.961	81.44
308.191	81.44
308.421	94.44
308.651	83.44
308.881	92.44
309.111	86.44
309.341	78.44
309.571	94.44
309.8	99.44
310.03	92.44
310.26	89.44
310.49	86.44
310.72	77.44
310.949	99.44
311.179	87.44
311.409	71.44
311.639	90.44
311.868	75.44
312.098	93.44
312.328	82.44
312.557	93.44
312.787	85.44
313.017	76.44
313.246	86.44
313.476	89.44
313.706	80.44
313.935	81.44
314.165	79.44
314.394	86.44
314.624	87.44
314.853	83.44
315.083	86.44
315.312	81.44
315.542	75.44
315.771	97.44
316.001	93.44
316.23	94.44
316.46	81.44
316.689	89.44
316.919	95.44
317.148	83.44
317.377	90.44
317.607	87.44
317.836	86.44
318.065	90.44
318.295	84.44
318.524	85.44
318.753	94.44
318.983	84.44
319.212	74.44
319.441	90.44
319.67	89.44
319.9	95.44
320.129	95.44
320.358	103.44
320.587	89.44
320.816	88.44
321.046	83.44
321.275	95.44
321.504	88.44
321.733	90.44
321.962	83.44
322.191	94.44
322.42	81.44
322.649	86.44
322.878	89.44
323.108	72.44
323.337	87.44
323.566	97.44
323.795	87.44
324.024	93.44
324.253	86.44
324.482	90.44
324.71	101.44
324.939	81.44
325.168	91.44
325.397	86.44
325.626	95.44
325.855	88.44
326.084	92.44
326.313	81.44
326.542	92.44
326.77	84.44
326.999	81.44
327.228	99.44
327.457	104.44
327.686	90.44
327.914	107.44
328.143	90.44
328.372	91.44
328.6	73.44
328.829	87.44
329.058	87.44
329.287	93.44
329.515	77.44
329.744	97.44
329.972	90.44
330.201	89.44
330.43	87.44
330.658	86.44
330.887	84.44
331.115	89.44
331.344	94.44
331.572	99.44
331.801	88.44
332.03	91.44
332.258	84.44
332.486	70.44
332.715	80.44
332.943	86.44
333.172	98.44
333.4	92.44
333.629	90.44
333.857	85.44
334.085	92.44
334.314	89.44
334.542	80.44
334.771	86.44
334.999	95.44
335.227	75.44
335.455	92.44
335.684	90.44
335.912	91.44
336.14	85.44
336.369	95.44
336.597	94.44
336.825	90.44
337.053	74.44
337.281	82.44
337.51	93.44
337.738	106.44
337.966	91.44
338.194	93.44
338.422	98.44
338.65	108.44
338.878	101.44
339.106	92.44
339.334	83.44
339.562	92.44
339.79	90.44
340.018	93.44
340.246	85.44
340.474	84.44
340.702	94.44
340.93	91.44
341.158	91.44
341.386	86.44
341.614	105.44
341.842	90.44
342.07	82.44
342.298	73.44
342.526	95.44
342.754	75.44
342.981	91.44
343.209	84.44
343.437	89.44
343.665	91.44
343.893	98.44
344.12	103.44
344.348	101.44
344.576	81.44
344.804	90.44
345.031	84.44
345.259	94.44
345.487	92.44
345.714	101.44
345.942	97.44
346.17	86.44
346.397	89.44
346.625	97.44
346.853	78.44
347.08	95.44
347.308	97.44
347.535	87.44
347.763	86.44
347.99	82.44
348.218	99.44
348.445	84.44
348.673	94.44
348.9	78.44
349.128	72.44
349.355	93.44
349.583	78.44
349.81	93.44
350.037	84.44
350.265	92.44
350.492	94.44
350.72	98.44
350.947	103.44
351.174	81.44
351.402	93.44
351.629	94.44
351.856	86.44
352.083	84.44
352.311	83.44
352.538	111.44
352.765	102.44
352.992	68.44
353.22	101.44
353.447	90.44
353.674	80.44
353.901	91.44
354.128	84.44
354.355	83.44
354.583	98.44
354.81	83.44
355.037	93.44
355.264	84.44
355.491	86.44
355.718	76.44
355.945	89.44
356.172	90.44
356.399	83.44
356.626	97.44
356.853	92.44
357.08	78.44
357.307	92.44
357.534	80.44
357.761	81.44
357.988	89.44
358.215	93.44
358.441	100.44
358.668	82.44
358.895	94.44
359.122	86.44
359.349	88.44
359.576	97.44
359.802	91.44
360.029	81.44
360.256	78.44
360.483	78.44
360.709	73.44
360.936	90.44
361.163	80.44
361.39	91.44
361.616	84.44
361.843	81.44
362.07	85.44
362.296	94.44
362.523	81.44
362.749	87.44
362.976	88.44
363.203	95.44
363.429	85.44
363.656	93.44
363.882	91.44
364.109	103.44
364.335	94.44
364.562	95.44
364.788	82.44
365.015	88.44
365.241	86.44
365.468	88.44
365.694	105.44
365.92	95.44
366.147	89.44
366.373	84.44
366.599	92.44
366.826	83.44
367.052	79.44
367.278	89.44
367.505	85.44
367.731	98.44
367.957	95.44
368.184	84.44
368.41	97.44
368.636	84.44
368.862	93.44
369.089	103.44
369.315	86.44
369.541	77.44
369.767	78.44
369.993	81.44
370.219	91.44
370.445	88.44
370.672	93.44
370.898	85.44
371.124	84.44
371.35	78.44
371.576	90.44
371.802	92.44
372.028	85.44
372.254	88.44
372.48	83.44
372.706	101.44
372.932	87.44
373.158	69.44
373.384	90.44
373.61	79.44
373.835	93.44
374.061	87.44
374.287	78.44
374.513	93.44
374.739	94.44
374.965	94.44
375.191	83.44
375.416	76.44
375.642	89.44
375.868	81.44
376.094	98.44
376.319	81.44
376.545	85.44
376.771	85.44
376.997	79.44
377.222	82.44
377.448	88.44
377.674	84.44
377.899	83.44
378.125	87.44
378.35	95.44
378.576	82.44
378.802	73.44
379.027	96.44
379.253	94.44
379.478	75.44
379.704	80.44
379.929	83.44
380.155	102.44
380.38	85.44
380.606	92.44
380.831	101.44
381.057	98.44
381.282	86.44
381.507	73.44
381.733	73.44
381.958	86.44
382.184	89.44
382.409	88.44
382.634	95.44
382.86	94.44
383.085	81.44
383.31	103.44
383.535	73.44
383.761	89.44
383.986	80.44
384.211	74.44
384.436	77.44
384.662	84.44
384.887	100.44
385.112	92.44
385.337	83.44
385.562	91.44
385.787	91.44
386.013	99.44
386.238	105.44
386.463	79.44
386.688	83.44
386.913	75.44
387.138	82.44
387.363	79.44
387.588	72.44
387.813	83.44
388.038	88.44
388.263	97.44
388.488	83.44
388.713	90.44
388.938	81.44
389.163	87.44
389.387	86.44
389.612	92.44
389.837	87.44
390.062	83.44
390.287	69.44
390.512	86.44
390.736	91.44
390.961	95.44
391.186	89.44
391.411	92.44
391.636	87.44
391.86	72.44
392.085	94.44
392.31	95.44
392.534	86.44
392.759	78.44
392.984	88.44
393.208	88.44
393.433	86.44
393.658	81.44
393.882	87.44
394.107	93.44
394.331	96.44
394.556	89.44
394.78	101.44
395.005	93.44
395.229	88.44
395.454	86.44
395.678	92.44
395.903	82.44
396.127	80.44
396.352	81.44
396.576	79.44
396.801	109.44
397.025	87.44
397.249	83.44
397.474	89.44
397.698	89.44
397.922	93.44
398.147	78.44
398.371	85.44
398.595	91.44
398.82	90.44
399.044	94.44
399.268	97.44
399.492	97.44
399.717	103.44
399.941	100.44
400.165	93.44
400.389	89.44
400.613	95.44
400.837	75.44
401.062	83.44
401.286	87.44
401.51	74.44
401.734	86.44
401.958	87.44
402.182	97.44
402.406	85.44
402.63	84.44
402.854	86.44
403.078	82.44
403.302	85.44
403.526	86.44
403.75	89.44
403.974	89.44
404.198	95.44
404.422	98.44
404.645	67.44
404.869	89.44
405.093	83.44
405.317	86.44
405.541	85.44
405.765	91.44
405.988	94.44
406.212	97.44
406.436	94.44
406.66	115.44
406.883	84.44
407.107	84.44
407.331	73.44
407.555	93.44
407.778	79.44
408.002	93.44
408.226	93.44
408.449	92.44
408.673	74.44
408.896	88.44
409.12	86.44
409.344	79.44
409.567	86.44
409.791	103.44
410.014	85.44
410.238	85.44
410.461	83.44
410.685	89.44
410.908	92.44
411.132	90.44
411.355	95.44
411.578	86.44
411.802	89.44
412.025	111.44
412.249	83.44
412.472	71.44
412.695	87.44
412.919	89.44
413.142	91.44
413.365	79.44
413.589	80.44
413.812	98.44
414.035	88.44
414.258	79.44
414.482	89.44
414.705	73.44
414.928	81.44
415.151	95.44
415.374	99.44
415.597	92.44
415.821	89.44
416.044	94.44
416.267	70.44
416.49	78.44
416.713	104.44
416.936	89.44
417.159	87.44
417.382	79.44
417.605	92.44
417.828	94.44
418.051	83.44
418.274	78.44
418.497	87.44
418.72	89.44
418.943	81.44
419.166	86.44
419.389	100.44
419.611	89.44
419.834	99.44
420.057	95.44
420.28	89.44
420.503	87.44
420.726	84.44
420.948	68.44
421.171	86.44
421.394	93.44
421.617	95.44
421.839	85.44
422.062	93.44
422.285	85.44
422.507	86.44
422.73	69.44
422.953	88.44
423.175	87.44
423.398	94.44
423.621	93.44
423.843	80.44
424.066	84.44
424.288	85.44
424.511	91.44
424.733	98.44
424.956	82.44
425.178	73.44
425.401	93.44
425.623	86.44
425.846	83.44
426.068	98.44
426.291	93.44
426.513	85.44
426.735	90.44
426.958	80.44
427.18	90.44
427.402	88.44
427.625	81.44
427.847	83.44
428.069	87.44
428.292	78.44
428.514	95.44
428.736	77.44
428.958	83.44
429.181	82.44
429.403	93.44
429.625	103.44
429.847	88.44
430.069	92.44
430.292	100.44
430.514	96.44
430.736	89.44
430.958	93.44
431.18	92.44
431.402	84.44
431.624	87.44
431.846	87.44
432.068	81.44
432.29	78.44
432.512	105.44
432.734	91.44
432.956	84.44
433.178	89.44
433.4	74.44
433.622	88.44
433.844	86.44
434.066	92.44
434.287	79.44
434.509	99.44
434.731	89.44
434.953	86.44
435.175	90.44
435.397	84.44
435.618	77.44
435.84	90.44
436.062	87.44
436.284	86.44
436.505	93.44
436.727	82.44
436.949	79.44
437.17	89.44
437.392	82.44
437.614	79.44
437.835	78.44
438.057	86.44
438.278	86.44
438.5	80.44
438.721	90.44
438.943	85.44
439.165	94.44
439.386	94.44
439.608	82.44
439.829	77.44
440.05	88.44
440.272	83.44
440.493	102.44
440.715	89.44
440.936	71.44
441.158	93.44
441.379	87.44
441.6	84.44
441.822	98.44
442.043	88.44
442.264	102.44
442.486	81.44
442.707	71.44
442.928	98.44
443.149	83.44
443.371	102.44
443.592	87.44
443.813	96.44
444.034	91.44
444.255	95.44
444.476	73.44
444.698	89.44
444.919	88.44
445.14	163.44
445.361	139.44
445.582	91.44
445.803	92.44
446.024	97.44
446.245	71.44
446.466	81.44
446.687	90.44
446.908	66.44
447.129	98.44
447.35	86.44
447.571	82.44
447.792	74.44
448.013	86.44
448.234	97.44
448.455	86.44
448.675	87.44
448.896	73.44
449.117	75.44
449.338	106.44
449.559	98.44
449.779	92.44
450	94.44
450.221	76.44
450.442	63.44
450.662	82.44
450.883	82.44
451.104	86.44
451.324	94.44
451.545	69.44
451.766	76.44
451.986	90.44
452.207	76.44
452.428	69.44
452.648	76.44
452.869	74.44
453.089	99.44
453.31	87.44
453.53	94.44
453.751	86.44
453.971	90.44
454.192	71.44
454.412	99.44
454.633	85.44
454.853	81.44
455.073	99.44
455.294	87.44
455.514	98.44
455.734	82.44
455.955	89.44
456.175	82.44
456.395	89.44
456.616	84.44
456.836	80.44
457.056	86.44
457.276	88.44
457.497	87.44
457.717	102.44
457.937	78.44
458.157	85.44
458.377	78.44
458.598	76.44
458.818	82.44
459.038	73.44
459.258	82.44
459.478	90.44
459.698	95.44
459.918	84.44
460.138	83.44
460.358	85.44
460.578	93.44
460.798	81.44
461.018	88.44
461.238	89.44
461.458	97.44
461.678	91.44
461.898	85.44
462.118	98.44
462.338	90.44
462.558	94.44
462.777	97.44
462.997	95.44
463.217	92.44
463.437	94.44
463.657	99.44
463.876	94.44
464.096	76.44
464.316	69.44
464.536	97.44
464.755	97.44
464.975	96.44
465.195	78.44
465.414	87.44
465.634	97.44
465.854	85.44
466.073	86.44
466.293	80.44
466.512	78.44
466.732	81.44
466.951	84.44
467.171	84.44
467.391	90.44
467.61	97.44
467.829	86.44
468.049	87.44
468.268	94.44
468.488	93.44
468.707	87.44
468.927	69.44
469.146	79.44
469.365	80.44
469.585	81.44
469.804	100.44
470.023	81.44
470.243	83.44
470.462	97.44
470.681	86.44
470.901	79.44
471.12	97.44
471.339	86.44
471.558	86.44
471.777	86.44
471.997	83.44
472.216	87.44
472.435	90.44
472.654	87.44
472.873	87.44
473.092	89.44
473.311	88.44
473.53	94.44
473.749	79.44
473.968	102.44
474.187	95.44
474.406	83.44
474.625	86.44
474.844	87.44
475.063	93.44
475.282	101.44
475.501	75.44
475.72	97.44
475.939	79.44
476.158	77.44
476.377	99.44
476.596	89.44
476.814	94.44
477.033	87.44
477.252	101.44
477.471	93.44
477.69	81.44
477.908	82.44
478.127	86.44
478.346	94.44
478.564	86.44
478.783	92.44
479.002	86.44
479.22	98.44
479.439	83.44
479.658	83.44
479.876	105.44
480.095	87.44
480.313	86.44
480.532	94.44
480.751	90.44
480.969	87.44
481.188	97.44
481.406	89.44
481.624	74.44
481.843	84.44
482.061	82.44
482.28	93.44
482.498	87.44
482.717	100.44
482.935	91.44
483.153	86.44
483.372	82.44
483.59	70.44
483.808	88.44
484.027	85.44
484.245	91.44
484.463	88.44
484.681	84.44
484.9	76.44
485.118	93.44
485.336	90.44
485.554	99.44
485.772	78.44
485.99	85.44
486.209	87.44
486.427	92.44
486.645	78.44
486.863	89.44
487.081	85.44
487.299	85.44
487.517	79.44
487.735	92.44
487.953	78.44
488.171	84.44
488.389	91.44
488.607	101.44
488.825	87.44
489.043	103.44
489.261	71.44
489.479	90.44
489.696	82.44
489.914	84.44
490.132	85.44
490.35	92.44
490.568	90.44
490.786	99.44
491.003	95.44
491.221	94.44
491.439	85.44
491.657	89.44
491.874	73.44
492.092	86.44
492.31	90.44
492.527	80.44
492.745	85.44
492.963	86.44
493.18	94.44
493.398	106.44
493.615	94.44
493.833	92.44
494.05	77.44
494.268	76.44
494.485	93.44
494.703	92.44
494.92	93.44
495.138	95.44
495.355	94.44
495.573	81.44
495.79	95.44
496.008	93.44
496.225	93.44
496.442	96.44
496.66	95.44
496.877	89.44
497.094	107.44
497.312	98.44
497.529	106.44
497.746	91.44
497.963	83.44
498.181	103.44
498.398	92.44
498.615	88.44
498.832	92.44
499.049	83.44
499.267	92.44
499.484	85.44
499.701	101.44
499.918	106.44
500.135	121.44
500.352	110.44
500.569	106.44
500.786	122.44
501.003	110.44
501.22	94.44
501.437	97.44
501.654	107.44
501.871	110.44
502.088	98.44
502.305	82.44
502.522	91.44
502.739	102.44
502.956	102.44
503.172	105.44
503.389	99.44
503.606	103.44
503.823	100.44
504.04	90.44
504.256	99.44
504.473	89.44
504.69	87.44
504.907	81.44
505.123	94.44
505.34	88.44
505.557	105.44
505.773	81.44
505.99	83.44
506.207	97.44
506.423	85.44
506.64	77.44
506.856	99.44
507.073	97.44
507.289	78.44
507.506	78.44
507.722	84.44
507.939	103.44
508.155	80.44
508.372	97.44
508.588	93.44
508.805	94.44
509.021	80.44
509.238	97.44
509.454	87.44
509.67	89.44
509.887	99.44
510.103	72.44
510.319	78.44
510.536	101.44
510.752	94.44
510.968	94.44
511.184	83.44
511.401	75.44
511.617	90.44
511.833	78.44
512.049	74.44
512.265	93.44
512.481	94.44
512.698	97.44
512.914	83.44
513.13	89.44
513.346	80.44
513.562	82.44
513.778	81.44
513.994	93.44
514.21	82.44
514.426	80.44
514.642	113.44
514.858	98.44
515.074	79.44
515.29	89.44
515.506	83.44
515.721	83.44
515.937	94.44
516.153	95.44
516.369	102.44
516.585	85.44
516.801	85.44
517.016	80.44
517.232	94.44
517.448	93.44
517.664	64.44
517.879	87.44
518.095	91.44
518.311	92.44
518.527	91.44
518.742	74.44
518.958	80.44
519.173	97.44
519.389	84.44
