Data from BG_HRD10591_063.txt Node
Date: Fri May 16 15:14:54 EDT 2025
User: Yrep
Spectrometer: HR+D1059
Trigger mode: 1
Integration Time (sec): 1.000000E-1
Scans to average: 1
Electric dark correction enabled: true
Nonlinearity correction enabled: false
Boxcar width: 0
XAxis mode: Wavelengths
Number of Pixels in Spectrum: 2048
>>>>>Begin Spectral Data<<<<<
223.165	-25
223.4	-25
223.635	-25
223.869	-23
224.104	-24
224.338	-5
224.573	-12
224.808	-20
225.042	-13
225.277	-10
225.511	-1
225.746	3
225.98	-2
226.215	21
226.449	17
226.683	27
226.918	31
227.152	36
227.387	33
227.621	43
227.856	58
228.09	60
228.324	59
228.559	69
228.793	48
229.027	62
229.262	62
229.496	75
229.73	80
229.964	76
230.199	56
230.433	78
230.667	78
230.901	76
231.136	78
231.37	75
231.604	66
231.838	77
232.072	85
232.306	75
232.541	80
232.775	87
233.009	76
233.243	87
233.477	78
233.711	72
233.945	78
234.179	69
234.413	87
234.647	95
234.881	70
235.115	81
235.349	75
235.583	82
235.817	72
236.051	84
236.285	80
236.519	85
236.753	71
236.987	83
237.221	79
237.455	78
237.689	65
237.922	86
238.156	92
238.39	77
238.624	81
238.858	77
239.091	72
239.325	70
239.559	70
239.793	87
240.027	91
240.26	87
240.494	68
240.728	85
240.961	72
241.195	56
241.429	77
241.662	82
241.896	88
242.13	63
242.363	76
242.597	84
242.83	88
243.064	85
243.298	82
243.531	67
243.765	79
243.998	70
244.232	80
244.465	71
244.699	88
244.932	78
245.166	75
245.399	66
245.633	68
245.866	82
246.099	78
246.333	71
246.566	73
246.8	89
247.033	74
247.266	76
247.5	83
247.733	69
247.966	78
248.2	89
248.433	78
248.666	94
248.899	78
249.133	93
249.366	74
249.599	72
249.832	88
250.066	81
250.299	93
250.532	83
250.765	88
250.998	84
251.231	69
251.465	82
251.698	89
251.931	92
252.164	77
252.397	95
252.63	90
252.863	85
253.096	90
253.329	80
253.562	67
253.795	81
254.028	87
254.261	90
254.494	98
254.727	95
254.96	78
255.193	89
255.426	81
255.659	71
255.892	76
256.124	73
256.357	66
256.59	88
256.823	70
257.056	81
257.289	96
257.521	94
257.754	68
257.987	91
258.22	90
258.452	88
258.685	87
258.918	84
259.151	85
259.383	97
259.616	82
259.849	89
260.081	76
260.314	91
260.547	87
260.779	89
261.012	85
261.244	75
261.477	72
261.71	73
261.942	79
262.175	85
262.407	85
262.64	85
262.872	77
263.105	100
263.337	89
263.57	90
263.802	96
264.035	73
264.267	78
264.499	83
264.732	80
264.964	77
265.197	80
265.429	87
265.661	67
265.894	77
266.126	84
266.358	91
266.591	73
266.823	82
267.055	84
267.287	74
267.52	94
267.752	88
267.984	101
268.216	80
268.448	85
268.681	84
268.913	76
269.145	89
269.377	80
269.609	80
269.841	81
270.073	93
270.306	80
270.538	100
270.77	80
271.002	86
271.234	86
271.466	97
271.698	96
271.93	87
272.162	96
272.394	88
272.626	86
272.858	86
273.09	73
273.322	86
273.553	76
273.785	72
274.017	87
274.249	82
274.481	72
274.713	97
274.945	90
275.176	87
275.408	87
275.64	74
275.872	90
276.104	87
276.335	80
276.567	91
276.799	85
277.031	79
277.262	81
277.494	81
277.726	92
277.957	76
278.189	98
278.421	80
278.652	89
278.884	86
279.115	100
279.347	91
279.579	92
279.81	102
280.042	84
280.273	82
280.505	82
280.736	74
280.968	91
281.199	85
281.431	86
281.662	92
281.894	92
282.125	83
282.356	91
282.588	79
282.819	85
283.051	93
283.282	83
283.513	100
283.745	76
283.976	93
284.207	102
284.439	89
284.67	95
284.901	78
285.132	91
285.364	94
285.595	87
285.826	85
286.057	89
286.288	85
286.52	80
286.751	91
286.982	80
287.213	95
287.444	80
287.675	74
287.906	88
288.138	92
288.369	93
288.6	77
288.831	79
289.062	98
289.293	98
289.524	84
289.755	91
289.986	102
290.217	90
290.448	87
290.679	99
290.91	84
291.141	87
291.371	97
291.602	94
291.833	81
292.064	72
292.295	90
292.526	82
292.757	80
292.987	93
293.218	84
293.449	78
293.68	87
293.91	82
294.141	95
294.372	90
294.603	84
294.833	77
295.064	100
295.295	91
295.525	104
295.756	89
295.987	93
296.217	85
296.448	96
296.679	92
296.909	75
297.14	94
297.37	80
297.601	100
297.831	83
298.062	96
298.292	71
298.523	75
298.753	96
298.984	84
299.214	80
299.445	87
299.675	99
299.905	93
300.136	84
300.366	92
300.597	82
300.827	88
301.057	89
301.288	75
301.518	90
301.748	92
301.979	93
302.209	86
302.439	107
302.669	93
302.9	78
303.13	86
303.36	81
303.59	88
303.82	81
304.051	88
304.281	92
304.511	79
304.741	86
304.971	104
305.201	100
305.431	93
305.661	80
305.891	97
306.121	105
306.352	102
306.582	86
306.812	98
307.042	90
307.272	84
307.502	84
307.731	92
307.961	78
308.191	89
308.421	90
308.651	86
308.881	83
309.111	91
309.341	71
309.571	84
309.8	89
310.03	98
310.26	109
310.49	98
310.72	96
310.949	80
311.179	75
311.409	92
311.639	81
311.868	81
312.098	92
312.328	86
312.557	97
312.787	82
313.017	89
313.246	104
313.476	72
313.706	89
313.935	77
314.165	95
314.394	102
314.624	104
314.853	85
315.083	82
315.312	104
315.542	77
315.771	81
316.001	88
316.23	93
316.46	100
316.689	88
316.919	92
317.148	95
317.377	91
317.607	91
317.836	94
318.065	93
318.295	77
318.524	84
318.753	87
318.983	76
319.212	81
319.441	88
319.67	82
319.9	90
320.129	79
320.358	80
320.587	89
320.816	91
321.046	86
321.275	96
321.504	77
321.733	88
321.962	90
322.191	97
322.42	72
322.649	81
322.878	95
323.108	96
323.337	87
323.566	89
323.795	90
324.024	85
324.253	87
324.482	77
324.71	83
324.939	74
325.168	71
325.397	87
325.626	96
325.855	95
326.084	82
326.313	88
326.542	102
326.77	80
326.999	93
327.228	82
327.457	83
327.686	88
327.914	91
328.143	88
328.372	100
328.6	81
328.829	74
329.058	93
329.287	93
329.515	84
329.744	87
329.972	98
330.201	85
330.43	84
330.658	82
330.887	102
331.115	104
331.344	86
331.572	84
331.801	75
332.03	91
332.258	88
332.486	81
332.715	86
332.943	99
333.172	86
333.4	82
333.629	93
333.857	94
334.085	95
334.314	109
334.542	104
334.771	83
334.999	80
335.227	86
335.455	100
335.684	92
335.912	90
336.14	82
336.369	88
336.597	95
336.825	97
337.053	78
337.281	95
337.51	61
337.738	93
337.966	93
338.194	78
338.422	102
338.65	90
338.878	80
339.106	96
339.334	98
339.562	97
339.79	100
340.018	88
340.246	100
340.474	80
340.702	85
340.93	85
341.158	81
341.386	100
341.614	91
341.842	83
342.07	96
342.298	81
342.526	87
342.754	87
342.981	79
343.209	86
343.437	100
343.665	76
343.893	78
344.12	90
344.348	93
344.576	91
344.804	90
345.031	73
345.259	87
345.487	99
345.714	86
345.942	84
346.17	104
346.397	78
346.625	78
346.853	108
347.08	84
347.308	86
347.535	103
347.763	113
347.99	78
348.218	97
348.445	96
348.673	92
348.9	105
349.128	93
349.355	74
349.583	95
349.81	95
350.037	94
350.265	93
350.492	85
350.72	93
350.947	90
351.174	89
351.402	73
351.629	79
351.856	98
352.083	84
352.311	91
352.538	88
352.765	81
352.992	97
353.22	81
353.447	91
353.674	85
353.901	104
354.128	97
354.355	92
354.583	95
354.81	75
355.037	95
355.264	88
355.491	75
355.718	82
355.945	92
356.172	72
356.399	85
356.626	79
356.853	89
357.08	92
357.307	100
357.534	86
357.761	92
357.988	91
358.215	90
358.441	82
358.668	94
358.895	81
359.122	91
359.349	90
359.576	87
359.802	78
360.029	93
360.256	92
360.483	95
360.709	103
360.936	87
361.163	82
361.39	86
361.616	90
361.843	71
362.07	78
362.296	68
362.523	95
362.749	77
362.976	83
363.203	90
363.429	88
363.656	84
363.882	93
364.109	89
364.335	93
364.562	93
364.788	96
365.015	76
365.241	88
365.468	91
365.694	88
365.92	81
366.147	81
366.373	89
366.599	74
366.826	91
367.052	88
367.278	106
367.505	102
367.731	102
367.957	107
368.184	84
368.41	79
368.636	82
368.862	87
369.089	88
369.315	83
369.541	102
369.767	96
369.993	74
370.219	88
370.445	93
370.672	78
370.898	94
371.124	80
371.35	87
371.576	89
371.802	97
372.028	100
372.254	88
372.48	86
372.706	85
372.932	80
373.158	85
373.384	94
373.61	94
373.835	86
374.061	91
374.287	90
374.513	99
374.739	86
374.965	81
375.191	86
375.416	94
375.642	90
375.868	96
376.094	86
376.319	95
376.545	98
376.771	77
376.997	88
377.222	92
377.448	85
377.674	92
377.899	89
378.125	82
378.35	89
378.576	86
378.802	85
379.027	84
379.253	92
379.478	70
379.704	78
379.929	79
380.155	76
380.38	94
380.606	95
380.831	97
381.057	98
381.282	91
381.507	89
381.733	89
381.958	78
382.184	84
382.409	84
382.634	88
382.86	71
383.085	93
383.31	93
383.535	97
383.761	85
383.986	94
384.211	99
384.436	90
384.662	88
384.887	95
385.112	87
385.337	88
385.562	91
385.787	88
386.013	83
386.238	85
386.463	101
386.688	100
386.913	104
387.138	93
387.363	92
387.588	87
387.813	102
388.038	97
388.263	76
388.488	95
388.713	97
388.938	98
389.163	85
389.387	92
389.612	94
389.837	86
390.062	102
390.287	85
390.512	89
390.736	85
390.961	85
391.186	93
391.411	87
391.636	92
391.86	84
392.085	85
392.31	64
392.534	92
392.759	92
392.984	93
393.208	89
393.433	71
393.658	88
393.882	80
394.107	89
394.331	92
394.556	84
394.78	100
395.005	80
395.229	82
395.454	106
395.678	92
395.903	88
396.127	89
396.352	77
396.576	91
396.801	88
397.025	101
397.249	88
397.474	101
397.698	84
397.922	102
398.147	88
398.371	100
398.595	93
398.82	102
399.044	94
399.268	87
399.492	105
399.717	104
399.941	92
400.165	79
400.389	96
400.613	89
400.837	88
401.062	95
401.286	100
401.51	101
401.734	84
401.958	85
402.182	81
402.406	94
402.63	88
402.854	104
403.078	100
403.302	92
403.526	74
403.75	96
403.974	96
404.198	95
404.422	96
404.645	92
404.869	102
405.093	110
405.317	90
405.541	92
405.765	77
405.988	91
406.212	97
406.436	87
406.66	78
406.883	95
407.107	94
407.331	97
407.555	95
407.778	100
408.002	93
408.226	89
408.449	88
408.673	97
408.896	108
409.12	90
409.344	100
409.567	89
409.791	91
410.014	100
410.238	82
410.461	92
410.685	78
410.908	106
411.132	87
411.355	93
411.578	100
411.802	88
412.025	94
412.249	91
412.472	103
412.695	104
412.919	97
413.142	105
413.365	91
413.589	92
413.812	96
414.035	77
414.258	90
414.482	83
414.705	102
414.928	97
415.151	98
415.374	81
415.597	90
415.821	82
416.044	88
416.267	105
416.49	100
416.713	84
416.936	91
417.159	97
417.382	97
417.605	87
417.828	92
418.051	84
418.274	89
418.497	94
418.72	80
418.943	86
419.166	101
419.389	101
419.611	107
419.834	90
420.057	100
420.28	81
420.503	96
420.726	82
420.948	97
421.171	81
421.394	94
421.617	95
421.839	80
422.062	92
422.285	100
422.507	97
422.73	88
422.953	85
423.175	78
423.398	92
423.621	101
423.843	84
424.066	78
424.288	83
424.511	100
424.733	86
424.956	95
425.178	82
425.401	98
425.623	84
425.846	88
426.068	93
426.291	93
426.513	97
426.735	84
426.958	84
427.18	114
427.402	96
427.625	92
427.847	92
428.069	81
428.292	85
428.514	80
428.736	90
428.958	79
429.181	87
429.403	91
429.625	92
429.847	88
430.069	72
430.292	88
430.514	91
430.736	102
430.958	85
431.18	94
431.402	83
431.624	96
431.846	94
432.068	89
432.29	92
432.512	89
432.734	80
432.956	87
433.178	86
433.4	74
433.622	90
433.844	87
434.066	86
434.287	91
434.509	87
434.731	78
434.953	88
435.175	90
435.397	102
435.618	91
435.84	86
436.062	84
436.284	80
436.505	101
436.727	80
436.949	85
437.17	77
437.392	96
437.614	81
437.835	96
438.057	92
438.278	90
438.5	85
438.721	105
438.943	101
439.165	76
439.386	86
439.608	94
439.829	84
440.05	88
440.272	82
440.493	94
440.715	96
440.936	99
441.158	89
441.379	103
441.6	99
441.822	92
442.043	88
442.264	80
442.486	104
442.707	87
442.928	91
443.149	91
443.371	89
443.592	86
443.813	95
444.034	96
444.255	79
444.476	84
444.698	81
444.919	89
445.14	176
445.361	127
445.582	87
445.803	95
446.024	80
446.245	89
446.466	99
446.687	87
446.908	101
447.129	82
447.35	104
447.571	90
447.792	90
448.013	73
448.234	88
448.455	89
448.675	91
448.896	81
449.117	81
449.338	96
449.559	86
449.779	98
450	94
450.221	79
450.442	84
450.662	92
450.883	93
451.104	92
451.324	82
451.545	94
451.766	81
451.986	85
452.207	91
452.428	86
452.648	89
452.869	90
453.089	88
453.31	94
453.53	81
453.751	83
453.971	90
454.192	90
454.412	89
454.633	90
454.853	92
455.073	85
455.294	89
455.514	87
455.734	79
455.955	92
456.175	74
456.395	96
456.616	79
456.836	95
457.056	79
457.276	82
457.497	73
457.717	88
457.937	85
458.157	90
458.377	98
458.598	92
458.818	104
459.038	96
459.258	84
459.478	75
459.698	94
459.918	89
460.138	86
460.358	84
460.578	89
460.798	97
461.018	99
461.238	76
461.458	88
461.678	95
461.898	85
462.118	84
462.338	91
462.558	92
462.777	88
462.997	96
463.217	91
463.437	80
463.657	83
463.876	91
464.096	102
464.316	86
464.536	110
464.755	90
464.975	93
465.195	81
465.414	86
465.634	91
465.854	93
466.073	95
466.293	102
466.512	103
466.732	74
466.951	80
467.171	90
467.391	93
467.61	91
467.829	90
468.049	78
468.268	85
468.488	84
468.707	94
468.927	78
469.146	81
469.365	80
469.585	69
469.804	98
470.023	77
470.243	84
470.462	96
470.681	85
470.901	99
471.12	96
471.339	64
471.558	88
471.777	93
471.997	95
472.216	85
472.435	90
472.654	94
472.873	85
473.092	90
473.311	78
473.53	76
473.749	102
473.968	90
474.187	102
474.406	96
474.625	97
474.844	80
475.063	90
475.282	72
475.501	82
475.72	92
475.939	89
476.158	90
476.377	85
476.596	93
476.814	95
477.033	99
477.252	93
477.471	90
477.69	87
477.908	100
478.127	82
478.346	100
478.564	85
478.783	78
479.002	100
479.22	89
479.439	93
479.658	92
479.876	90
480.095	84
480.313	95
480.532	95
480.751	84
480.969	95
481.188	84
481.406	93
481.624	96
481.843	100
482.061	93
482.28	86
482.498	74
482.717	93
482.935	93
483.153	79
483.372	93
483.59	84
483.808	101
484.027	96
484.245	88
484.463	104
484.681	88
484.9	84
485.118	91
485.336	82
485.554	92
485.772	89
485.99	86
486.209	81
486.427	95
486.645	82
486.863	89
487.081	97
487.299	105
487.517	97
487.735	96
487.953	97
488.171	109
488.389	85
488.607	103
488.825	86
489.043	95
489.261	97
489.479	98
489.696	95
489.914	100
490.132	103
490.35	106
490.568	88
490.786	98
491.003	91
491.221	76
491.439	91
491.657	88
491.874	81
492.092	88
492.31	100
492.527	94
492.745	105
492.963	88
493.18	102
493.398	93
493.615	100
493.833	94
494.05	89
494.268	96
494.485	97
494.703	95
494.92	97
495.138	95
495.355	91
495.573	92
495.79	89
496.008	81
496.225	103
496.442	94
496.66	79
496.877	94
497.094	98
497.312	93
497.529	106
497.746	82
497.963	84
498.181	89
498.398	84
498.615	98
498.832	108
499.049	109
499.267	103
499.484	102
499.701	107
499.918	104
500.135	113
500.352	113
500.569	114
500.786	120
501.003	112
501.22	102
501.437	104
501.654	89
501.871	108
502.088	87
502.305	102
502.522	94
502.739	94
502.956	101
503.172	93
503.389	88
503.606	93
503.823	97
504.04	91
504.256	81
504.473	92
504.69	78
504.907	114
505.123	83
505.34	86
505.557	78
505.773	106
505.99	96
506.207	86
506.423	90
506.64	94
506.856	76
507.073	96
507.289	90
507.506	106
507.722	92
507.939	89
508.155	79
508.372	80
508.588	85
508.805	87
509.021	84
509.238	96
509.454	80
509.67	92
509.887	94
510.103	92
510.319	94
510.536	89
510.752	94
510.968	97
511.184	97
511.401	89
511.617	106
511.833	70
512.049	75
512.265	102
512.481	89
512.698	81
512.914	89
513.13	100
513.346	97
513.562	87
513.778	93
513.994	84
514.21	87
514.426	90
514.642	104
514.858	106
515.074	92
515.29	92
515.506	81
515.721	93
515.937	83
516.153	101
516.369	100
516.585	92
516.801	89
517.016	102
517.232	95
517.448	89
517.664	93
517.879	91
518.095	97
518.311	105
518.527	93
518.742	100
518.958	83
519.173	87
519.389	77
519.605	99
519.82	88
520.036	108
520.251	89
520.467	94
520.682	102
520.898	104
521.113	83
521.329	84
521.544	98
521.76	102
521.975	111
522.19	108
522.406	77
522.621	86
522.836	96
523.052	93
523.267	90
523.482	90
523.698	82
523.913	102
524.128	97
524.343	95
524.559	90
524.774	88
524.989	98
525.204	88
525.419	92
525.634	78
525.849	96
526.064	91
526.28	94
526.495	101
526.71	100
526.925	85
527.14	91
527.355	96
527.57	84
527.785	91
527.999	95
528.214	96
528.429	89
528.644	102
528.859	90
529.074	91
529.289	101
529.503	87
529.718	80
529.933	106
530.148	88
530.363	92
530.577	89
530.792	87
531.007	87
531.221	98
531.436	87
531.651	84
531.865	94
532.08	96
532.295	99
532.509	77
532.724	80
532.938	92
533.153	88
533.367	103
533.582	104
533.796	100
534.011	93
534.225	90
534.44	83
534.654	95
534.868	95
535.083	77
535.297	88
535.511	79
535.726	108
535.94	97
536.154	90
536.369	90
536.583	91
536.797	90
537.011	100
537.225	90
537.44	103
537.654	84
537.868	90
538.082	79
538.296	76
538.51	93
538.724	92
538.938	86
539.153	98
539.367	83
539.581	89
539.795	103
540.009	93
540.222	76
540.436	76
540.65	80
540.864	90
541.078	88
541.292	93
541.506	90
541.72	86
541.934	87
542.147	81
542.361	92
542.575	92
542.789	94
543.002	73
543.216	78
543.43	88
543.644	74
543.857	90
544.071	83
544.285	101
544.498	90
544.712	89
544.925	89
545.139	88
545.352	93
545.566	94
545.779	84
545.993	96
546.206	93
546.42	85
546.633	93
546.847	95
547.06	85
547.274	90
547.487	104
547.7	92
547.914	93
548.127	87
548.34	99
548.554	86
548.767	93
548.98	97
549.193	93
549.407	91
549.62	93
549.833	101
550.046	78
550.259	92
550.473	100
550.686	99
550.899	94
551.112	86
551.325	88
551.538	82
551.751	89
551.964	96
552.177	90
552.39	91
552.603	87
552.816	90
553.029	96
553.242	96
553.455	79
553.667	81
553.88	100
554.093	90
554.306	90
554.519	81
554.732	94
554.944	80
555.157	95
555.37	81
555.583	89
555.795	87
556.008	89
556.221	86
556.433	92
556.646	79
556.859	97
557.071	98
557.284	88
557.496	91
557.709	104
557.921	97
558.134	90
558.346	81
558.559	90
558.771	91
558.984	78
559.196	103
559.409	84
559.621	101
559.833	87
560.046	77
560.258	101
560.47	84
560.683	78
560.895	91
561.107	94
561.32	90
561.532	88
561.744	104
561.956	92
562.168	93
562.381	101
562.593	94
562.805	83
563.017	94
563.229	93
563.441	86
563.653	93
563.865	84
564.077	102
564.289	98
564.501	97
564.713	86
564.925	81
565.137	97
565.349	86
565.561	86
565.773	76
565.985	95
566.197	85
566.408	95
566.62	105
566.832	104
567.044	88
567.255	90
567.467	99
567.679	90
567.891	94
568.102	102
568.314	92
568.526	103
568.737	100
568.949	89
569.161	89
569.372	86
569.584	90
569.795	76
570.007	78
570.218	95
570.43	90
570.641	97
570.853	87
571.064	89
571.276	88
571.487	86
571.698	79
571.91	84
572.121	96
572.333	92
572.544	86
572.755	87
572.966	92
573.178	80
573.389	90
573.6	84
573.811	89
574.023	84
574.234	85
574.445	93
574.656	82
574.867	102
575.078	90
575.289	84
575.501	87
575.712	87
575.923	85
576.134	81
576.345	79
576.556	82
576.767	76
576.978	71
577.188	77
577.399	89
577.61	82
577.821	90
578.032	88
578.243	99
578.454	89
578.665	72
578.875	101
579.086	94
579.297	100
579.508	84
579.718	99
579.929	101
580.14	90
580.35	77
580.561	86
580.772	90
580.982	83
581.193	87
581.403	83
581.614	85
581.825	74
582.035	93
582.246	97
582.456	86
582.667	85
582.877	96
583.087	81
583.298	90
583.508	93
583.719	79
583.929	84
584.139	84
584.35	82
584.56	82
584.77	89
584.981	82
585.191	89
585.401	87
585.611	82
585.821	94
586.032	84
586.242	83
586.452	92
586.662	73
586.872	66
587.082	83
587.292	74
587.502	86
587.713	94
