Data from BG_HRD10591_056.txt Node
Date: Fri May 16 15:14:50 EDT 2025
User: Yrep
Spectrometer: HR+D1059
Trigger mode: 1
Integration Time (sec): 1.000000E-1
Scans to average: 1
Electric dark correction enabled: true
Nonlinearity correction enabled: false
Boxcar width: 0
XAxis mode: Wavelengths
Number of Pixels in Spectrum: 2048
>>>>>Begin Spectral Data<<<<<
223.165	-22.38
223.4	-22.38
223.635	-22.38
223.869	-17.38
224.104	-12.38
224.338	-21.38
224.573	-8.38
224.808	-15.38
225.042	-6.38
225.277	-3.38
225.511	-1.38
225.746	1.62
225.98	-0.38
226.215	7.62
226.449	15.62
226.683	17.62
226.918	30.62
227.152	35.62
227.387	37.62
227.621	31.62
227.856	38.62
228.09	38.62
228.324	49.62
228.559	51.62
228.793	57.62
229.027	66.62
229.262	58.62
229.496	72.62
229.73	71.62
229.964	75.62
230.199	68.62
230.433	68.62
230.667	92.62
230.901	80.62
231.136	88.62
231.37	79.62
231.604	82.62
231.838	79.62
232.072	94.62
232.306	94.62
232.541	73.62
232.775	81.62
233.009	80.62
233.243	74.62
233.477	86.62
233.711	83.62
233.945	83.62
234.179	79.62
234.413	66.62
234.647	85.62
234.881	74.62
235.115	68.62
235.349	81.62
235.583	71.62
235.817	74.62
236.051	75.62
236.285	64.62
236.519	69.62
236.753	79.62
236.987	72.62
237.221	81.62
237.455	70.62
237.689	80.62
237.922	89.62
238.156	67.62
238.39	67.62
238.624	78.62
238.858	84.62
239.091	69.62
239.325	76.62
239.559	81.62
239.793	74.62
240.027	89.62
240.26	72.62
240.494	84.62
240.728	68.62
240.961	88.62
241.195	92.62
241.429	86.62
241.662	97.62
241.896	73.62
242.13	76.62
242.363	76.62
242.597	65.62
242.83	73.62
243.064	71.62
243.298	72.62
243.531	75.62
243.765	64.62
243.998	72.62
244.232	81.62
244.465	81.62
244.699	84.62
244.932	73.62
245.166	66.62
245.399	85.62
245.633	81.62
245.866	85.62
246.099	81.62
246.333	67.62
246.566	81.62
246.8	62.62
247.033	83.62
247.266	90.62
247.5	83.62
247.733	81.62
247.966	87.62
248.2	74.62
248.433	90.62
248.666	83.62
248.899	70.62
249.133	89.62
249.366	94.62
249.599	77.62
249.832	80.62
250.066	86.62
250.299	95.62
250.532	90.62
250.765	72.62
250.998	63.62
251.231	83.62
251.465	83.62
251.698	89.62
251.931	74.62
252.164	84.62
252.397	95.62
252.63	95.62
252.863	77.62
253.096	63.62
253.329	80.62
253.562	87.62
253.795	86.62
254.028	83.62
254.261	83.62
254.494	80.62
254.727	80.62
254.96	70.62
255.193	72.62
255.426	88.62
255.659	97.62
255.892	72.62
256.124	68.62
256.357	81.62
256.59	76.62
256.823	66.62
257.056	88.62
257.289	67.62
257.521	87.62
257.754	65.62
257.987	83.62
258.22	89.62
258.452	93.62
258.685	76.62
258.918	79.62
259.151	84.62
259.383	75.62
259.616	82.62
259.849	80.62
260.081	86.62
260.314	77.62
260.547	88.62
260.779	81.62
261.012	80.62
261.244	94.62
261.477	94.62
261.71	79.62
261.942	74.62
262.175	84.62
262.407	72.62
262.64	74.62
262.872	84.62
263.105	92.62
263.337	77.62
263.57	60.62
263.802	91.62
264.035	84.62
264.267	85.62
264.499	74.62
264.732	82.62
264.964	76.62
265.197	90.62
265.429	90.62
265.661	91.62
265.894	80.62
266.126	69.62
266.358	84.62
266.591	98.62
266.823	83.62
267.055	76.62
267.287	84.62
267.52	77.62
267.752	74.62
267.984	77.62
268.216	98.62
268.448	84.62
268.681	76.62
268.913	90.62
269.145	83.62
269.377	89.62
269.609	92.62
269.841	75.62
270.073	75.62
270.306	84.62
270.538	81.62
270.77	80.62
271.002	81.62
271.234	87.62
271.466	86.62
271.698	81.62
271.93	74.62
272.162	83.62
272.394	89.62
272.626	90.62
272.858	80.62
273.09	84.62
273.322	88.62
273.553	81.62
273.785	96.62
274.017	93.62
274.249	80.62
274.481	85.62
274.713	75.62
274.945	87.62
275.176	94.62
275.408	96.62
275.64	85.62
275.872	79.62
276.104	70.62
276.335	82.62
276.567	89.62
276.799	72.62
277.031	79.62
277.262	81.62
277.494	84.62
277.726	79.62
277.957	91.62
278.189	88.62
278.421	80.62
278.652	99.62
278.884	85.62
279.115	93.62
279.347	71.62
279.579	89.62
279.81	91.62
280.042	84.62
280.273	87.62
280.505	75.62
280.736	79.62
280.968	92.62
281.199	86.62
281.431	100.62
281.662	101.62
281.894	91.62
282.125	85.62
282.356	83.62
282.588	86.62
282.819	80.62
283.051	84.62
283.282	85.62
283.513	88.62
283.745	86.62
283.976	83.62
284.207	83.62
284.439	75.62
284.67	93.62
284.901	87.62
285.132	86.62
285.364	85.62
285.595	90.62
285.826	86.62
286.057	86.62
286.288	71.62
286.52	92.62
286.751	91.62
286.982	91.62
287.213	91.62
287.444	81.62
287.675	89.62
287.906	91.62
288.138	58.62
288.369	86.62
288.6	93.62
288.831	79.62
289.062	91.62
289.293	86.62
289.524	87.62
289.755	74.62
289.986	84.62
290.217	89.62
290.448	73.62
290.679	86.62
290.91	84.62
291.141	78.62
291.371	83.62
291.602	94.62
291.833	83.62
292.064	83.62
292.295	76.62
292.526	70.62
292.757	82.62
292.987	100.62
293.218	93.62
293.449	92.62
293.68	92.62
293.91	95.62
294.141	89.62
294.372	84.62
294.603	87.62
294.833	93.62
295.064	71.62
295.295	85.62
295.525	75.62
295.756	93.62
295.987	85.62
296.217	85.62
296.448	72.62
296.679	74.62
296.909	97.62
297.14	83.62
297.37	92.62
297.601	99.62
297.831	88.62
298.062	87.62
298.292	83.62
298.523	75.62
298.753	91.62
298.984	94.62
299.214	100.62
299.445	76.62
299.675	95.62
299.905	92.62
300.136	73.62
300.366	71.62
300.597	96.62
300.827	91.62
301.057	83.62
301.288	84.62
301.518	85.62
301.748	94.62
301.979	100.62
302.209	94.62
302.439	87.62
302.669	83.62
302.9	88.62
303.13	89.62
303.36	90.62
303.59	89.62
303.82	95.62
304.051	88.62
304.281	100.62
304.511	106.62
304.741	84.62
304.971	87.62
305.201	83.62
305.431	104.62
305.661	101.62
305.891	83.62
306.121	79.62
306.352	87.62
306.582	88.62
306.812	80.62
307.042	90.62
307.272	82.62
307.502	73.62
307.731	77.62
307.961	96.62
308.191	79.62
308.421	90.62
308.651	90.62
308.881	76.62
309.111	75.62
309.341	89.62
309.571	79.62
309.8	93.62
310.03	93.62
310.26	81.62
310.49	84.62
310.72	90.62
310.949	80.62
311.179	79.62
311.409	81.62
311.639	78.62
311.868	94.62
312.098	103.62
312.328	101.62
312.557	92.62
312.787	94.62
313.017	86.62
313.246	80.62
313.476	93.62
313.706	80.62
313.935	87.62
314.165	91.62
314.394	94.62
314.624	84.62
314.853	73.62
315.083	88.62
315.312	81.62
315.542	81.62
315.771	91.62
316.001	93.62
316.23	92.62
316.46	91.62
316.689	92.62
316.919	93.62
317.148	83.62
317.377	96.62
317.607	101.62
317.836	95.62
318.065	83.62
318.295	77.62
318.524	90.62
318.753	102.62
318.983	102.62
319.212	86.62
319.441	71.62
319.67	101.62
319.9	94.62
320.129	103.62
320.358	107.62
320.587	75.62
320.816	65.62
321.046	77.62
321.275	96.62
321.504	75.62
321.733	83.62
321.962	72.62
322.191	87.62
322.42	82.62
322.649	88.62
322.878	101.62
323.108	86.62
323.337	87.62
323.566	83.62
323.795	89.62
324.024	86.62
324.253	80.62
324.482	76.62
324.71	102.62
324.939	93.62
325.168	100.62
325.397	71.62
325.626	84.62
325.855	96.62
326.084	94.62
326.313	92.62
326.542	101.62
326.77	96.62
326.999	83.62
327.228	82.62
327.457	79.62
327.686	79.62
327.914	86.62
328.143	80.62
328.372	90.62
328.6	78.62
328.829	81.62
329.058	82.62
329.287	84.62
329.515	85.62
329.744	93.62
329.972	71.62
330.201	83.62
330.43	84.62
330.658	85.62
330.887	93.62
331.115	87.62
331.344	87.62
331.572	94.62
331.801	95.62
332.03	87.62
332.258	80.62
332.486	86.62
332.715	87.62
332.943	88.62
333.172	79.62
333.4	91.62
333.629	95.62
333.857	95.62
334.085	84.62
334.314	87.62
334.542	93.62
334.771	92.62
334.999	86.62
335.227	74.62
335.455	111.62
335.684	101.62
335.912	95.62
336.14	89.62
336.369	83.62
336.597	105.62
336.825	82.62
337.053	78.62
337.281	80.62
337.51	83.62
337.738	84.62
337.966	94.62
338.194	87.62
338.422	79.62
338.65	93.62
338.878	86.62
339.106	97.62
339.334	84.62
339.562	85.62
339.79	83.62
340.018	85.62
340.246	87.62
340.474	89.62
340.702	86.62
340.93	95.62
341.158	85.62
341.386	81.62
341.614	87.62
341.842	90.62
342.07	88.62
342.298	81.62
342.526	84.62
342.754	101.62
342.981	94.62
343.209	86.62
343.437	91.62
343.665	91.62
343.893	93.62
344.12	103.62
344.348	99.62
344.576	99.62
344.804	95.62
345.031	86.62
345.259	87.62
345.487	96.62
345.714	82.62
345.942	102.62
346.17	91.62
346.397	80.62
346.625	92.62
346.853	81.62
347.08	86.62
347.308	99.62
347.535	88.62
347.763	87.62
347.99	82.62
348.218	88.62
348.445	93.62
348.673	96.62
348.9	87.62
349.128	88.62
349.355	83.62
349.583	77.62
349.81	91.62
350.037	92.62
350.265	99.62
350.492	88.62
350.72	87.62
350.947	93.62
351.174	94.62
351.402	83.62
351.629	84.62
351.856	82.62
352.083	96.62
352.311	74.62
352.538	88.62
352.765	76.62
352.992	96.62
353.22	89.62
353.447	89.62
353.674	94.62
353.901	90.62
354.128	77.62
354.355	80.62
354.583	93.62
354.81	93.62
355.037	87.62
355.264	78.62
355.491	87.62
355.718	88.62
355.945	80.62
356.172	95.62
356.399	91.62
356.626	94.62
356.853	81.62
357.08	89.62
357.307	64.62
357.534	71.62
357.761	86.62
357.988	84.62
358.215	102.62
358.441	88.62
358.668	80.62
358.895	84.62
359.122	87.62
359.349	69.62
359.576	87.62
359.802	94.62
360.029	89.62
360.256	89.62
360.483	80.62
360.709	75.62
360.936	90.62
361.163	82.62
361.39	82.62
361.616	86.62
361.843	89.62
362.07	83.62
362.296	88.62
362.523	82.62
362.749	84.62
362.976	85.62
363.203	94.62
363.429	84.62
363.656	81.62
363.882	83.62
364.109	77.62
364.335	97.62
364.562	99.62
364.788	83.62
365.015	79.62
365.241	80.62
365.468	85.62
365.694	83.62
365.92	89.62
366.147	75.62
366.373	88.62
366.599	94.62
366.826	79.62
367.052	85.62
367.278	91.62
367.505	88.62
367.731	104.62
367.957	85.62
368.184	81.62
368.41	89.62
368.636	88.62
368.862	75.62
369.089	87.62
369.315	87.62
369.541	88.62
369.767	81.62
369.993	88.62
370.219	104.62
370.445	71.62
370.672	76.62
370.898	71.62
371.124	87.62
371.35	80.62
371.576	81.62
371.802	87.62
372.028	91.62
372.254	88.62
372.48	80.62
372.706	106.62
372.932	75.62
373.158	91.62
373.384	86.62
373.61	76.62
373.835	96.62
374.061	95.62
374.287	99.62
374.513	95.62
374.739	96.62
374.965	88.62
375.191	83.62
375.416	70.62
375.642	87.62
375.868	80.62
376.094	105.62
376.319	93.62
376.545	75.62
376.771	89.62
376.997	76.62
377.222	74.62
377.448	94.62
377.674	94.62
377.899	79.62
378.125	79.62
378.35	89.62
378.576	96.62
378.802	91.62
379.027	88.62
379.253	105.62
379.478	83.62
379.704	82.62
379.929	76.62
380.155	99.62
380.38	83.62
380.606	86.62
380.831	89.62
381.057	100.62
381.282	77.62
381.507	99.62
381.733	87.62
381.958	91.62
382.184	88.62
382.409	93.62
382.634	92.62
382.86	93.62
383.085	86.62
383.31	84.62
383.535	85.62
383.761	88.62
383.986	80.62
384.211	76.62
384.436	90.62
384.662	82.62
384.887	93.62
385.112	88.62
385.337	83.62
385.562	83.62
385.787	86.62
386.013	94.62
386.238	83.62
386.463	91.62
386.688	91.62
386.913	88.62
387.138	93.62
387.363	86.62
387.588	87.62
387.813	92.62
388.038	79.62
388.263	96.62
388.488	80.62
388.713	81.62
388.938	84.62
389.163	81.62
389.387	81.62
389.612	79.62
389.837	80.62
390.062	75.62
390.287	95.62
390.512	97.62
390.736	91.62
390.961	69.62
391.186	92.62
391.411	80.62
391.636	86.62
391.86	84.62
392.085	92.62
392.31	84.62
392.534	90.62
392.759	84.62
392.984	92.62
393.208	79.62
393.433	87.62
393.658	93.62
393.882	85.62
394.107	94.62
394.331	93.62
394.556	83.62
394.78	100.62
395.005	92.62
395.229	86.62
395.454	100.62
395.678	87.62
395.903	102.62
396.127	101.62
396.352	100.62
396.576	80.62
396.801	75.62
397.025	94.62
397.249	101.62
397.474	88.62
397.698	81.62
397.922	93.62
398.147	81.62
398.371	94.62
398.595	99.62
398.82	89.62
399.044	83.62
399.268	77.62
399.492	70.62
399.717	103.62
399.941	92.62
400.165	97.62
400.389	78.62
400.613	93.62
400.837	103.62
401.062	81.62
401.286	85.62
401.51	91.62
401.734	94.62
401.958	90.62
402.182	90.62
402.406	81.62
402.63	80.62
402.854	90.62
403.078	75.62
403.302	93.62
403.526	91.62
403.75	89.62
403.974	96.62
404.198	95.62
404.422	86.62
404.645	99.62
404.869	77.62
405.093	77.62
405.317	88.62
405.541	93.62
405.765	101.62
405.988	83.62
406.212	77.62
406.436	84.62
406.66	89.62
406.883	88.62
407.107	105.62
407.331	103.62
407.555	95.62
407.778	88.62
408.002	91.62
408.226	86.62
408.449	95.62
408.673	97.62
408.896	90.62
409.12	102.62
409.344	83.62
409.567	88.62
409.791	94.62
410.014	86.62
410.238	93.62
410.461	92.62
410.685	102.62
410.908	88.62
411.132	100.62
411.355	92.62
411.578	93.62
411.802	90.62
412.025	81.62
412.249	78.62
412.472	85.62
412.695	91.62
412.919	80.62
413.142	93.62
413.365	87.62
413.589	84.62
413.812	87.62
414.035	109.62
414.258	87.62
414.482	78.62
414.705	91.62
414.928	95.62
415.151	106.62
415.374	87.62
415.597	94.62
415.821	94.62
416.044	103.62
416.267	81.62
416.49	76.62
416.713	76.62
416.936	88.62
417.159	88.62
417.382	93.62
417.605	93.62
417.828	95.62
418.051	103.62
418.274	90.62
418.497	89.62
418.72	81.62
418.943	99.62
419.166	96.62
419.389	91.62
419.611	83.62
419.834	91.62
420.057	99.62
420.28	85.62
420.503	90.62
420.726	85.62
420.948	83.62
421.171	85.62
421.394	84.62
421.617	101.62
421.839	87.62
422.062	75.62
422.285	83.62
422.507	90.62
422.73	105.62
422.953	79.62
423.175	95.62
423.398	93.62
423.621	94.62
423.843	84.62
424.066	103.62
424.288	91.62
424.511	98.62
424.733	103.62
424.956	89.62
425.178	103.62
425.401	80.62
425.623	82.62
425.846	95.62
426.068	90.62
426.291	88.62
426.513	90.62
426.735	82.62
426.958	82.62
427.18	79.62
427.402	79.62
427.625	86.62
427.847	85.62
428.069	96.62
428.292	93.62
428.514	89.62
428.736	110.62
428.958	86.62
429.181	79.62
429.403	78.62
429.625	92.62
429.847	87.62
430.069	89.62
430.292	87.62
430.514	76.62
430.736	77.62
430.958	84.62
431.18	71.62
431.402	93.62
431.624	94.62
431.846	92.62
432.068	89.62
432.29	99.62
432.512	86.62
432.734	83.62
432.956	88.62
433.178	81.62
433.4	97.62
433.622	89.62
433.844	79.62
434.066	103.62
434.287	94.62
434.509	85.62
434.731	83.62
434.953	81.62
435.175	89.62
435.397	97.62
435.618	91.62
435.84	91.62
436.062	95.62
436.284	90.62
436.505	87.62
436.727	87.62
436.949	83.62
437.17	81.62
437.392	85.62
437.614	89.62
437.835	85.62
438.057	84.62
438.278	73.62
438.5	83.62
438.721	101.62
438.943	91.62
439.165	92.62
439.386	86.62
439.608	76.62
439.829	85.62
440.05	87.62
440.272	99.62
440.493	91.62
440.715	90.62
440.936	86.62
441.158	85.62
441.379	63.62
441.6	82.62
441.822	87.62
442.043	93.62
442.264	87.62
442.486	93.62
442.707	84.62
442.928	78.62
443.149	87.62
443.371	86.62
443.592	87.62
443.813	94.62
444.034	83.62
444.255	82.62
444.476	99.62
444.698	98.62
444.919	83.62
445.14	167.62
445.361	131.62
445.582	94.62
445.803	89.62
446.024	86.62
446.245	82.62
446.466	74.62
446.687	77.62
446.908	89.62
447.129	94.62
447.35	93.62
447.571	85.62
447.792	81.62
448.013	94.62
448.234	85.62
448.455	73.62
448.675	92.62
448.896	85.62
449.117	81.62
449.338	86.62
449.559	85.62
449.779	97.62
450	75.62
450.221	84.62
450.442	89.62
450.662	66.62
450.883	85.62
451.104	87.62
451.324	103.62
451.545	74.62
451.766	89.62
451.986	92.62
452.207	99.62
452.428	93.62
452.648	85.62
452.869	86.62
453.089	92.62
453.31	107.62
453.53	77.62
453.751	83.62
453.971	86.62
454.192	84.62
454.412	81.62
454.633	83.62
454.853	83.62
455.073	96.62
455.294	101.62
455.514	89.62
455.734	81.62
455.955	96.62
456.175	101.62
456.395	73.62
456.616	86.62
456.836	87.62
457.056	84.62
457.276	86.62
457.497	107.62
457.717	86.62
457.937	87.62
458.157	99.62
458.377	91.62
458.598	83.62
458.818	85.62
459.038	72.62
459.258	83.62
459.478	109.62
459.698	73.62
459.918	89.62
460.138	86.62
460.358	93.62
460.578	91.62
460.798	91.62
461.018	82.62
461.238	95.62
461.458	101.62
461.678	86.62
461.898	93.62
462.118	89.62
462.338	99.62
462.558	76.62
462.777	76.62
462.997	88.62
463.217	85.62
463.437	95.62
463.657	88.62
463.876	88.62
464.096	104.62
464.316	102.62
464.536	88.62
464.755	81.62
464.975	81.62
465.195	87.62
465.414	86.62
465.634	79.62
465.854	87.62
466.073	101.62
466.293	80.62
466.512	71.62
466.732	84.62
466.951	86.62
467.171	78.62
467.391	88.62
467.61	97.62
467.829	80.62
468.049	84.62
468.268	89.62
468.488	78.62
468.707	93.62
468.927	86.62
469.146	75.62
469.365	71.62
469.585	83.62
469.804	77.62
470.023	88.62
470.243	79.62
470.462	91.62
470.681	94.62
470.901	99.62
471.12	96.62
471.339	94.62
471.558	97.62
471.777	71.62
471.997	94.62
472.216	91.62
472.435	73.62
472.654	90.62
472.873	85.62
473.092	95.62
473.311	88.62
473.53	86.62
473.749	87.62
473.968	88.62
474.187	80.62
474.406	78.62
474.625	83.62
474.844	78.62
475.063	85.62
475.282	78.62
475.501	77.62
475.72	99.62
475.939	91.62
476.158	79.62
476.377	96.62
476.596	88.62
476.814	93.62
477.033	80.62
477.252	103.62
477.471	71.62
477.69	94.62
477.908	93.62
478.127	84.62
478.346	107.62
478.564	92.62
478.783	73.62
479.002	87.62
479.22	63.62
479.439	95.62
479.658	102.62
479.876	79.62
480.095	86.62
480.313	73.62
480.532	87.62
480.751	94.62
480.969	90.62
481.188	96.62
481.406	91.62
481.624	92.62
481.843	94.62
482.061	85.62
482.28	70.62
482.498	91.62
482.717	76.62
482.935	92.62
483.153	91.62
483.372	69.62
483.59	96.62
483.808	93.62
484.027	86.62
484.245	96.62
484.463	72.62
484.681	95.62
484.9	101.62
485.118	83.62
485.336	85.62
485.554	83.62
485.772	89.62
485.99	88.62
486.209	94.62
486.427	86.62
486.645	100.62
486.863	91.62
487.081	99.62
487.299	91.62
487.517	101.62
487.735	83.62
487.953	83.62
488.171	83.62
488.389	89.62
488.607	80.62
488.825	91.62
489.043	84.62
489.261	95.62
489.479	94.62
489.696	82.62
489.914	70.62
490.132	91.62
490.35	91.62
490.568	77.62
490.786	95.62
491.003	92.62
491.221	88.62
491.439	85.62
491.657	79.62
491.874	84.62
492.092	88.62
492.31	82.62
492.527	95.62
492.745	85.62
492.963	82.62
493.18	77.62
493.398	90.62
493.615	89.62
493.833	91.62
494.05	95.62
494.268	76.62
494.485	106.62
494.703	87.62
494.92	91.62
495.138	101.62
495.355	95.62
495.573	91.62
495.79	108.62
496.008	105.62
496.225	71.62
496.442	88.62
496.66	105.62
496.877	80.62
497.094	99.62
497.312	95.62
497.529	85.62
497.746	105.62
497.963	83.62
498.181	95.62
498.398	88.62
498.615	87.62
498.832	95.62
499.049	101.62
499.267	101.62
499.484	93.62
499.701	109.62
499.918	92.62
500.135	120.62
500.352	113.62
500.569	95.62
500.786	115.62
501.003	116.62
501.22	93.62
501.437	103.62
501.654	83.62
501.871	98.62
502.088	90.62
502.305	87.62
502.522	95.62
502.739	93.62
502.956	95.62
503.172	88.62
503.389	85.62
503.606	85.62
503.823	106.62
504.04	80.62
504.256	103.62
504.473	101.62
504.69	99.62
504.907	88.62
505.123	88.62
505.34	87.62
505.557	92.62
505.773	91.62
505.99	106.62
506.207	99.62
506.423	99.62
506.64	102.62
506.856	83.62
507.073	83.62
507.289	102.62
507.506	85.62
507.722	83.62
507.939	88.62
508.155	79.62
508.372	94.62
508.588	96.62
508.805	94.62
509.021	95.62
509.238	81.62
509.454	99.62
509.67	86.62
509.887	92.62
510.103	97.62
510.319	96.62
510.536	111.62
510.752	96.62
510.968	93.62
511.184	85.62
511.401	81.62
511.617	76.62
511.833	95.62
512.049	97.62
512.265	96.62
512.481	92.62
512.698	86.62
512.914	95.62
513.13	88.62
513.346	93.62
513.562	85.62
513.778	66.62
513.994	84.62
514.21	82.62
514.426	87.62
514.642	100.62
514.858	89.62
515.074	84.62
515.29	75.62
515.506	87.62
515.721	94.62
515.937	86.62
516.153	88.62
516.369	90.62
516.585	89.62
516.801	93.62
517.016	98.62
517.232	87.62
517.448	104.62
517.664	95.62
517.879	89.62
518.095	93.62
518.311	99.62
518.527	95.62
518.742	83.62
518.958	102.62
