Data from Uncirc_1984_H10_HRD10591_00063.txt Node
Date: Wed Jan 03 12:21:49 EST 2024
User: Yrep
Spectrometer: HR+D1059
Trigger mode: 1
Integration Time (sec): 1.000000E-1
Scans to average: 1
Electric dark correction enabled: true
Nonlinearity correction enabled: false
Boxcar width: 0
XAxis mode: Wavelengths
Number of Pixels in Spectrum: 2048
>>>>>Begin Spectral Data<<<<<
223.165	-11.31
223.4	-11.31
223.635	-11.31
223.869	-21.31
224.104	-19.31
224.338	-24.31
224.573	-25.31
224.808	2.69
225.042	-2.31
225.277	4.69
225.511	2.69
225.746	2.69
225.98	-5.31
226.215	15.69
226.449	18.69
226.683	20.69
226.918	26.69
227.152	14.69
227.387	37.69
227.621	43.69
227.856	42.69
228.09	41.69
228.324	52.69
228.559	60.69
228.793	57.69
229.027	60.69
229.262	56.69
229.496	68.69
229.73	82.69
229.964	69.69
230.199	84.69
230.433	76.69
230.667	80.69
230.901	72.69
231.136	69.69
231.37	88.69
231.604	78.69
231.838	72.69
232.072	82.69
232.306	87.69
232.541	82.69
232.775	71.69
233.009	88.69
233.243	80.69
233.477	84.69
233.711	67.69
233.945	69.69
234.179	82.69
234.413	70.69
234.647	84.69
234.881	79.69
235.115	64.69
235.349	80.69
235.583	75.69
235.817	75.69
236.051	71.69
236.285	81.69
236.519	82.69
236.753	72.69
236.987	75.69
237.221	76.69
237.455	85.69
237.689	99.69
237.922	72.69
238.156	64.69
238.39	71.69
238.624	72.69
238.858	59.69
239.091	66.69
239.325	75.69
239.559	72.69
239.793	89.69
240.027	87.69
240.26	78.69
240.494	82.69
240.728	75.69
240.961	80.69
241.195	78.69
241.429	75.69
241.662	82.69
241.896	70.69
242.13	74.69
242.363	71.69
242.597	75.69
242.83	74.69
243.064	79.69
243.298	70.69
243.531	75.69
243.765	73.69
243.998	73.69
244.232	68.69
244.465	72.69
244.699	75.69
244.932	83.69
245.166	80.69
245.399	72.69
245.633	73.69
245.866	84.69
246.099	82.69
246.333	67.69
246.566	70.69
246.8	92.69
247.033	74.69
247.266	89.69
247.5	70.69
247.733	71.69
247.966	73.69
248.2	78.69
248.433	95.69
248.666	74.69
248.899	83.69
249.133	85.69
249.366	91.69
249.599	79.69
249.832	98.69
250.066	75.69
250.299	70.69
250.532	84.69
250.765	81.69
250.998	74.69
251.231	81.69
251.465	74.69
251.698	70.69
251.931	78.69
252.164	82.69
252.397	82.69
252.63	86.69
252.863	78.69
253.096	78.69
253.329	86.69
253.562	73.69
253.795	82.69
254.028	73.69
254.261	88.69
254.494	78.69
254.727	75.69
254.96	82.69
255.193	81.69
255.426	82.69
255.659	78.69
255.892	66.69
256.124	76.69
256.357	88.69
256.59	82.69
256.823	87.69
257.056	63.69
257.289	74.69
257.521	79.69
257.754	86.69
257.987	73.69
258.22	91.69
258.452	69.69
258.685	80.69
258.918	92.69
259.151	77.69
259.383	82.69
259.616	86.69
259.849	74.69
260.081	91.69
260.314	77.69
260.547	72.69
260.779	73.69
261.012	90.69
261.244	81.69
261.477	85.69
261.71	76.69
261.942	110.69
262.175	96.69
262.407	90.69
262.64	80.69
262.872	77.69
263.105	75.69
263.337	89.69
263.57	68.69
263.802	80.69
264.035	85.69
264.267	82.69
264.499	87.69
264.732	76.69
264.964	75.69
265.197	75.69
265.429	76.69
265.661	85.69
265.894	69.69
266.126	76.69
266.358	66.69
266.591	87.69
266.823	89.69
267.055	86.69
267.287	94.69
267.52	73.69
267.752	84.69
267.984	71.69
268.216	76.69
268.448	75.69
268.681	81.69
268.913	83.69
269.145	79.69
269.377	87.69
269.609	70.69
269.841	82.69
270.073	90.69
270.306	86.69
270.538	79.69
270.77	78.69
271.002	68.69
271.234	80.69
271.466	72.69
271.698	80.69
271.93	86.69
272.162	78.69
272.394	86.69
272.626	76.69
272.858	70.69
273.09	94.69
273.322	72.69
273.553	75.69
273.785	73.69
274.017	81.69
274.249	92.69
274.481	100.69
274.713	82.69
274.945	88.69
275.176	85.69
275.408	87.69
275.64	67.69
275.872	98.69
276.104	96.69
276.335	75.69
276.567	74.69
276.799	108.69
277.031	100.69
277.262	97.69
277.494	91.69
277.726	84.69
277.957	82.69
278.189	83.69
278.421	98.69
278.652	93.69
278.884	89.69
279.115	82.69
279.347	82.69
279.579	66.69
279.81	86.69
280.042	96.69
280.273	80.69
280.505	83.69
280.736	87.69
280.968	70.69
281.199	85.69
281.431	84.69
281.662	96.69
281.894	90.69
282.125	94.69
282.356	108.69
282.588	127.69
282.819	100.69
283.051	79.69
283.282	84.69
283.513	95.69
283.745	87.69
283.976	85.69
284.207	93.69
284.439	84.69
284.67	92.69
284.901	79.69
285.132	81.69
285.364	86.69
285.595	84.69
285.826	88.69
286.057	98.69
286.288	86.69
286.52	102.69
286.751	86.69
286.982	88.69
287.213	92.69
287.444	94.69
287.675	72.69
287.906	84.69
288.138	98.69
288.369	77.69
288.6	96.69
288.831	67.69
289.062	87.69
289.293	99.69
289.524	88.69
289.755	80.69
289.986	71.69
290.217	105.69
290.448	76.69
290.679	79.69
290.91	94.69
291.141	76.69
291.371	91.69
291.602	104.69
291.833	97.69
292.064	86.69
292.295	95.69
292.526	91.69
292.757	91.69
292.987	80.69
293.218	81.69
293.449	83.69
293.68	81.69
293.91	88.69
294.141	95.69
294.372	98.69
294.603	89.69
294.833	88.69
295.064	87.69
295.295	97.69
295.525	103.69
295.756	108.69
295.987	120.69
296.217	129.69
296.448	118.69
296.679	102.69
296.909	83.69
297.14	84.69
297.37	99.69
297.601	94.69
297.831	82.69
298.062	91.69
298.292	86.69
298.523	87.69
298.753	91.69
298.984	92.69
299.214	95.69
299.445	73.69
299.675	97.69
299.905	99.69
300.136	76.69
300.366	73.69
300.597	92.69
300.827	100.69
301.057	104.69
301.288	102.69
301.518	94.69
301.748	99.69
301.979	90.69
302.209	76.69
302.439	92.69
302.669	87.69
302.9	83.69
303.13	83.69
303.36	90.69
303.59	90.69
303.82	101.69
304.051	94.69
304.281	79.69
304.511	88.69
304.741	90.69
304.971	92.69
305.201	91.69
305.431	96.69
305.661	86.69
305.891	108.69
306.121	110.69
306.352	102.69
306.582	101.69
306.812	111.69
307.042	98.69
307.272	98.69
307.502	88.69
307.731	92.69
307.961	81.69
308.191	87.69
308.421	92.69
308.651	95.69
308.881	82.69
309.111	98.69
309.341	96.69
309.571	102.69
309.8	78.69
310.03	98.69
310.26	99.69
310.49	96.69
310.72	99.69
310.949	100.69
311.179	106.69
311.409	102.69
311.639	79.69
311.868	96.69
312.098	83.69
312.328	85.69
312.557	101.69
312.787	86.69
313.017	109.69
313.246	91.69
313.476	100.69
313.706	105.69
313.935	96.69
314.165	94.69
314.394	106.69
314.624	90.69
314.853	112.69
315.083	99.69
315.312	88.69
315.542	87.69
315.771	94.69
316.001	82.69
316.23	102.69
316.46	106.69
316.689	91.69
316.919	94.69
317.148	99.69
317.377	92.69
317.607	100.69
317.836	86.69
318.065	94.69
318.295	109.69
318.524	85.69
318.753	96.69
318.983	105.69
319.212	86.69
319.441	100.69
319.67	91.69
319.9	99.69
320.129	94.69
320.358	99.69
320.587	86.69
320.816	96.69
321.046	95.69
321.275	88.69
321.504	96.69
321.733	111.69
321.962	103.69
322.191	94.69
322.42	98.69
322.649	104.69
322.878	88.69
323.108	101.69
323.337	132.69
323.566	119.69
323.795	155.69
324.024	206.69
324.253	364.69
324.482	737.69
324.71	1550.69
324.939	2057.69
325.168	762.69
325.397	231.69
325.626	144.69
325.855	135.69
326.084	114.69
326.313	120.69
326.542	144.69
326.77	213.69
326.999	422.69
327.228	876.69
327.457	1592.69
327.686	1280.69
327.914	338.69
328.143	178.69
328.372	126.69
328.6	125.69
328.829	113.69
329.058	130.69
329.287	122.69
329.515	102.69
329.744	98.69
329.972	96.69
330.201	102.69
330.43	94.69
330.658	111.69
330.887	120.69
331.115	119.69
331.344	103.69
331.572	102.69
331.801	105.69
332.03	84.69
332.258	95.69
332.486	91.69
332.715	83.69
332.943	95.69
333.172	107.69
333.4	99.69
333.629	90.69
333.857	110.69
334.085	107.69
334.314	103.69
334.542	107.69
334.771	96.69
334.999	83.69
335.227	99.69
335.455	93.69
335.684	94.69
335.912	103.69
336.14	80.69
336.369	100.69
336.597	103.69
336.825	101.69
337.053	87.69
337.281	96.69
337.51	97.69
337.738	94.69
337.966	95.69
338.194	98.69
338.422	106.69
338.65	103.69
338.878	106.69
339.106	83.69
339.334	101.69
339.562	100.69
339.79	107.69
340.018	95.69
340.246	101.69
340.474	88.69
340.702	92.69
340.93	80.69
341.158	83.69
341.386	108.69
341.614	81.69
341.842	87.69
342.07	92.69
342.298	91.69
342.526	100.69
342.754	94.69
342.981	103.69
343.209	87.69
343.437	90.69
343.665	67.69
343.893	90.69
344.12	82.69
344.348	92.69
344.576	87.69
344.804	81.69
345.031	111.69
345.259	110.69
345.487	102.69
345.714	93.69
345.942	75.69
346.17	100.69
346.397	80.69
346.625	95.69
346.853	92.69
347.08	82.69
347.308	105.69
347.535	103.69
347.763	105.69
347.99	105.69
348.218	94.69
348.445	107.69
348.673	76.69
348.9	99.69
349.128	93.69
349.355	85.69
349.583	97.69
349.81	83.69
350.037	89.69
350.265	92.69
350.492	102.69
350.72	99.69
350.947	84.69
351.174	105.69
351.402	102.69
351.629	98.69
351.856	92.69
352.083	99.69
352.311	109.69
352.538	98.69
352.765	98.69
352.992	117.69
353.22	111.69
353.447	100.69
353.674	83.69
353.901	100.69
354.128	95.69
354.355	98.69
354.583	81.69
354.81	92.69
355.037	99.69
355.264	97.69
355.491	90.69
355.718	89.69
355.945	85.69
356.172	96.69
356.399	115.69
356.626	94.69
356.853	90.69
357.08	79.69
357.307	92.69
357.534	78.69
357.761	84.69
357.988	106.69
358.215	97.69
358.441	97.69
358.668	93.69
358.895	88.69
359.122	91.69
359.349	75.69
359.576	89.69
359.802	98.69
360.029	105.69
360.256	94.69
360.483	93.69
360.709	88.69
360.936	99.69
361.163	92.69
361.39	115.69
361.616	98.69
361.843	97.69
362.07	68.69
362.296	86.69
362.523	86.69
362.749	88.69
362.976	96.69
363.203	95.69
363.429	95.69
363.656	96.69
363.882	88.69
364.109	87.69
364.335	102.69
364.562	100.69
364.788	92.69
365.015	94.69
365.241	94.69
365.468	100.69
365.694	100.69
365.92	89.69
366.147	92.69
366.373	92.69
366.599	82.69
366.826	99.69
367.052	70.69
367.278	83.69
367.505	81.69
367.731	85.69
367.957	97.69
368.184	88.69
368.41	88.69
368.636	86.69
368.862	91.69
369.089	89.69
369.315	86.69
369.541	89.69
369.767	93.69
369.993	92.69
370.219	97.69
370.445	92.69
370.672	78.69
370.898	92.69
371.124	75.69
371.35	92.69
371.576	99.69
371.802	93.69
372.028	81.69
372.254	80.69
372.48	87.69
372.706	74.69
372.932	92.69
373.158	87.69
373.384	99.69
373.61	84.69
373.835	89.69
374.061	82.69
374.287	80.69
374.513	88.69
374.739	88.69
374.965	91.69
375.191	96.69
375.416	90.69
375.642	98.69
375.868	94.69
376.094	76.69
376.319	90.69
376.545	78.69
376.771	91.69
376.997	91.69
377.222	80.69
377.448	72.69
377.674	87.69
377.899	91.69
378.125	90.69
378.35	98.69
378.576	95.69
378.802	102.69
379.027	90.69
379.253	93.69
379.478	90.69
379.704	90.69
379.929	79.69
380.155	83.69
380.38	95.69
380.606	99.69
380.831	87.69
381.057	90.69
381.282	92.69
381.507	89.69
381.733	99.69
381.958	108.69
382.184	92.69
382.409	94.69
382.634	111.69
382.86	96.69
383.085	100.69
383.31	98.69
383.535	97.69
383.761	104.69
383.986	86.69
384.211	84.69
384.436	96.69
384.662	83.69
384.887	104.69
385.112	96.69
385.337	116.69
385.562	106.69
385.787	110.69
386.013	105.69
386.238	95.69
386.463	93.69
386.688	115.69
386.913	105.69
387.138	97.69
387.363	85.69
387.588	94.69
387.813	95.69
388.038	89.69
388.263	104.69
388.488	100.69
388.713	105.69
388.938	91.69
389.163	98.69
389.387	94.69
389.612	90.69
389.837	83.69
390.062	93.69
390.287	78.69
390.512	90.69
390.736	100.69
390.961	86.69
391.186	103.69
391.411	86.69
391.636	84.69
391.86	80.69
392.085	93.69
392.31	87.69
392.534	78.69
392.759	93.69
392.984	95.69
393.208	93.69
393.433	87.69
393.658	82.69
393.882	68.69
394.107	93.69
394.331	76.69
394.556	90.69
394.78	82.69
395.005	104.69
395.229	80.69
395.454	85.69
395.678	83.69
395.903	90.69
396.127	95.69
396.352	94.69
396.576	80.69
396.801	90.69
397.025	86.69
397.249	83.69
397.474	70.69
397.698	73.69
397.922	83.69
398.147	99.69
398.371	81.69
398.595	80.69
398.82	88.69
399.044	96.69
399.268	93.69
399.492	96.69
399.717	78.69
399.941	99.69
400.165	91.69
400.389	80.69
400.613	77.69
400.837	98.69
401.062	89.69
401.286	82.69
401.51	86.69
401.734	83.69
401.958	94.69
402.182	111.69
402.406	137.69
402.63	113.69
402.854	84.69
403.078	88.69
403.302	75.69
403.526	95.69
403.75	66.69
403.974	78.69
404.198	83.69
404.422	75.69
404.645	86.69
404.869	86.69
405.093	103.69
405.317	90.69
405.541	92.69
405.765	98.69
405.988	109.69
406.212	138.69
406.436	213.69
406.66	114.69
406.883	102.69
407.107	95.69
407.331	106.69
407.555	88.69
407.778	94.69
408.002	88.69
408.226	83.69
408.449	99.69
408.673	92.69
408.896	74.69
409.12	75.69
409.344	76.69
409.567	85.69
409.791	90.69
410.014	91.69
410.238	87.69
410.461	98.69
410.685	91.69
410.908	104.69
411.132	107.69
411.355	89.69
411.578	102.69
411.802	93.69
412.025	79.69
412.249	87.69
412.472	92.69
412.695	100.69
412.919	83.69
413.142	75.69
413.365	93.69
413.589	84.69
413.812	81.69
414.035	74.69
414.258	83.69
414.482	90.69
414.705	86.69
414.928	103.69
415.151	76.69
415.374	97.69
415.597	72.69
415.821	86.69
416.044	75.69
416.267	84.69
416.49	89.69
416.713	86.69
416.936	95.69
417.159	100.69
417.382	98.69
417.605	94.69
417.828	96.69
418.051	88.69
418.274	95.69
418.497	86.69
418.72	84.69
418.943	73.69
419.166	91.69
419.389	80.69
419.611	81.69
419.834	94.69
420.057	86.69
420.28	84.69
420.503	85.69
420.726	101.69
420.948	92.69
421.171	101.69
421.394	110.69
421.617	73.69
421.839	75.69
422.062	84.69
422.285	82.69
422.507	89.69
422.73	106.69
422.953	85.69
423.175	79.69
423.398	72.69
423.621	87.69
423.843	79.69
424.066	71.69
424.288	73.69
424.511	95.69
424.733	89.69
424.956	91.69
425.178	103.69
425.401	104.69
425.623	94.69
425.846	88.69
426.068	96.69
426.291	97.69
426.513	94.69
426.735	79.69
426.958	94.69
427.18	104.69
427.402	131.69
427.625	145.69
427.847	125.69
428.069	103.69
428.292	91.69
428.514	83.69
428.736	81.69
428.958	81.69
429.181	83.69
429.403	87.69
429.625	89.69
429.847	84.69
430.069	95.69
430.292	97.69
430.514	96.69
430.736	99.69
430.958	75.69
431.18	90.69
431.402	103.69
431.624	78.69
431.846	83.69
432.068	99.69
432.29	89.69
432.512	86.69
432.734	87.69
432.956	88.69
433.178	99.69
433.4	87.69
433.622	84.69
433.844	86.69
434.066	102.69
434.287	97.69
434.509	74.69
434.731	78.69
434.953	104.69
435.175	90.69
435.397	96.69
435.618	95.69
435.84	103.69
436.062	116.69
436.284	117.69
436.505	115.69
436.727	96.69
436.949	95.69
437.17	79.69
437.392	80.69
437.614	94.69
437.835	115.69
438.057	113.69
438.278	93.69
438.5	93.69
438.721	116.69
438.943	86.69
439.165	86.69
439.386	76.69
439.608	99.69
439.829	100.69
440.05	102.69
440.272	127.69
440.493	103.69
440.715	81.69
440.936	98.69
441.158	85.69
441.379	80.69
441.6	83.69
441.822	94.69
442.043	94.69
442.264	112.69
442.486	96.69
442.707	92.69
442.928	110.69
443.149	122.69
443.371	109.69
443.592	114.69
443.813	116.69
444.034	106.69
444.255	91.69
444.476	90.69
444.698	92.69
444.919	96.69
445.14	121.69
445.361	130.69
445.582	106.69
445.803	125.69
446.024	123.69
446.245	127.69
446.466	100.69
446.687	87.69
446.908	100.69
447.129	82.69
447.35	85.69
447.571	99.69
447.792	97.69
448.013	87.69
448.234	97.69
448.455	110.69
448.675	117.69
448.896	104.69
449.117	96.69
449.338	94.69
449.559	123.69
449.779	122.69
450	96.69
450.221	85.69
450.442	90.69
450.662	90.69
450.883	103.69
451.104	86.69
451.324	91.69
451.545	70.69
451.766	81.69
451.986	80.69
452.207	101.69
452.428	86.69
452.648	108.69
452.869	114.69
453.089	103.69
453.31	104.69
453.53	83.69
453.751	90.69
453.971	97.69
454.192	98.69
454.412	85.69
454.633	73.69
454.853	90.69
455.073	86.69
455.294	88.69
455.514	95.69
455.734	94.69
455.955	81.69
456.175	82.69
456.395	81.69
456.616	71.69
456.836	88.69
457.056	93.69
457.276	89.69
457.497	90.69
457.717	84.69
457.937	80.69
458.157	97.69
458.377	83.69
458.598	108.69
458.818	140.69
459.038	144.69
459.258	106.69
459.478	98.69
459.698	84.69
459.918	86.69
460.138	90.69
460.358	82.69
460.578	83.69
460.798	89.69
461.018	86.69
461.238	92.69
461.458	87.69
461.678	80.69
461.898	90.69
462.118	86.69
462.338	81.69
462.558	78.69
462.777	94.69
462.997	72.69
463.217	80.69
463.437	70.69
463.657	88.69
463.876	86.69
464.096	89.69
464.316	97.69
464.536	93.69
464.755	98.69
464.975	105.69
465.195	141.69
465.414	133.69
465.634	89.69
465.854	89.69
466.073	90.69
466.293	81.69
466.512	75.69
466.732	89.69
466.951	94.69
467.171	82.69
467.391	89.69
467.61	94.69
467.829	99.69
468.049	87.69
468.268	98.69
468.488	78.69
468.707	80.69
468.927	87.69
469.146	79.69
469.365	79.69
469.585	89.69
469.804	80.69
470.023	95.69
470.243	79.69
470.462	100.69
470.681	96.69
470.901	70.69
471.12	80.69
471.339	86.69
471.558	88.69
471.777	74.69
471.997	72.69
472.216	83.69
472.435	99.69
472.654	95.69
472.873	101.69
473.092	82.69
473.311	85.69
473.53	79.69
473.749	96.69
473.968	93.69
474.187	88.69
474.406	84.69
474.625	104.69
474.844	84.69
475.063	84.69
475.282	87.69
475.501	83.69
475.72	96.69
475.939	80.69
476.158	87.69
476.377	93.69
476.596	78.69
476.814	82.69
477.033	93.69
477.252	84.69
477.471	79.69
477.69	89.69
477.908	86.69
478.127	84.69
478.346	89.69
478.564	88.69
478.783	89.69
479.002	91.69
479.22	86.69
479.439	98.69
479.658	85.69
479.876	69.69
480.095	84.69
480.313	94.69
480.532	90.69
480.751	80.69
480.969	89.69
481.188	93.69
481.406	100.69
481.624	94.69
481.843	92.69
482.061	88.69
482.28	94.69
482.498	90.69
482.717	88.69
482.935	99.69
483.153	87.69
483.372	100.69
483.59	92.69
483.808	97.69
484.027	99.69
484.245	90.69
484.463	96.69
484.681	99.69
484.9	87.69
485.118	95.69
485.336	98.69
485.554	85.69
485.772	95.69
485.99	92.69
486.209	100.69
486.427	102.69
486.645	93.69
486.863	112.69
487.081	96.69
487.299	94.69
487.517	101.69
487.735	90.69
487.953	80.69
488.171	72.69
488.389	93.69
488.607	90.69
488.825	95.69
489.043	81.69
489.261	83.69
489.479	106.69
489.696	87.69
489.914	86.69
490.132	102.69
490.35	82.69
490.568	81.69
490.786	86.69
491.003	101.69
491.221	96.69
491.439	86.69
491.657	93.69
491.874	93.69
492.092	92.69
492.31	90.69
492.527	91.69
492.745	86.69
492.963	96.69
493.18	87.69
493.398	86.69
493.615	79.69
493.833	87.69
494.05	79.69
494.268	84.69
494.485	78.69
494.703	82.69
494.92	85.69
495.138	83.69
495.355	91.69
495.573	90.69
495.79	88.69
496.008	98.69
496.225	89.69
496.442	88.69
496.66	94.69
496.877	92.69
497.094	87.69
497.312	91.69
497.529	94.69
497.746	92.69
497.963	80.69
498.181	94.69
498.398	88.69
498.615	112.69
498.832	101.69
499.049	90.69
499.267	88.69
499.484	93.69
499.701	83.69
499.918	95.69
500.135	103.69
500.352	103.69
500.569	94.69
500.786	91.69
501.003	89.69
501.22	80.69
501.437	90.69
501.654	99.69
501.871	110.69
502.088	86.69
502.305	79.69
502.522	90.69
502.739	73.69
502.956	74.69
503.172	100.69
503.389	98.69
503.606	87.69
503.823	81.69
504.04	97.69
504.256	75.69
504.473	88.69
504.69	91.69
504.907	92.69
505.123	76.69
505.34	88.69
505.557	91.69
505.773	92.69
505.99	95.69
506.207	93.69
506.423	75.69
506.64	84.69
506.856	95.69
507.073	97.69
507.289	98.69
507.506	105.69
507.722	96.69
507.939	99.69
508.155	87.69
508.372	80.69
508.588	99.69
508.805	92.69
509.021	82.69
509.238	113.69
509.454	95.69
509.67	124.69
509.887	110.69
510.103	128.69
510.319	208.69
510.536	694.69
510.752	2188.69
510.968	608.69
511.184	150.69
511.401	111.69
511.617	100.69
511.833	94.69
512.049	89.69
512.265	86.69
512.481	84.69
512.698	97.69
512.914	80.69
513.13	104.69
513.346	79.69
513.562	91.69
513.778	93.69
513.994	82.69
514.21	94.69
514.426	112.69
514.642	127.69
514.858	127.69
515.074	148.69
515.29	394.69
515.506	1299.69
515.721	481.69
515.937	136.69
516.153	100.69
516.369	93.69
