Data from Uncirc_1984_H10_HRD10591_00078.txt Node
Date: Wed Jan 03 12:21:52 EST 2024
User: Yrep
Spectrometer: HR+D1059
Trigger mode: 1
Integration Time (sec): 1.000000E-1
Scans to average: 1
Electric dark correction enabled: true
Nonlinearity correction enabled: false
Boxcar width: 0
XAxis mode: Wavelengths
Number of Pixels in Spectrum: 2048
>>>>>Begin Spectral Data<<<<<
223.165	-15.94
223.4	-15.94
223.635	-15.94
223.869	-15.94
224.104	-12.94
224.338	-24.94
224.573	-14.94
224.808	-15.94
225.042	-18.94
225.277	4.06
225.511	-12.94
225.746	10.06
225.98	4.06
226.215	9.06
226.449	17.06
226.683	28.06
226.918	31.06
227.152	29.06
227.387	37.06
227.621	26.06
227.856	43.06
228.09	54.06
228.324	58.06
228.559	61.06
228.793	55.06
229.027	61.06
229.262	66.06
229.496	70.06
229.73	88.06
229.964	63.06
230.199	73.06
230.433	69.06
230.667	66.06
230.901	74.06
231.136	66.06
231.37	77.06
231.604	92.06
231.838	76.06
232.072	79.06
232.306	68.06
232.541	80.06
232.775	81.06
233.009	76.06
233.243	82.06
233.477	90.06
233.711	73.06
233.945	76.06
234.179	89.06
234.413	67.06
234.647	78.06
234.881	75.06
235.115	89.06
235.349	86.06
235.583	80.06
235.817	73.06
236.051	68.06
236.285	64.06
236.519	80.06
236.753	73.06
236.987	78.06
237.221	95.06
237.455	84.06
237.689	69.06
237.922	60.06
238.156	84.06
238.39	81.06
238.624	79.06
238.858	79.06
239.091	71.06
239.325	78.06
239.559	73.06
239.793	76.06
240.027	70.06
240.26	80.06
240.494	71.06
240.728	63.06
240.961	70.06
241.195	72.06
241.429	78.06
241.662	78.06
241.896	69.06
242.13	71.06
242.363	73.06
242.597	65.06
242.83	83.06
243.064	68.06
243.298	71.06
243.531	85.06
243.765	64.06
243.998	73.06
244.232	98.06
244.465	69.06
244.699	58.06
244.932	66.06
245.166	70.06
245.399	78.06
245.633	66.06
245.866	68.06
246.099	76.06
246.333	82.06
246.566	70.06
246.8	79.06
247.033	73.06
247.266	85.06
247.5	81.06
247.733	78.06
247.966	65.06
248.2	68.06
248.433	66.06
248.666	88.06
248.899	82.06
249.133	79.06
249.366	95.06
249.599	100.06
249.832	73.06
250.066	94.06
250.299	78.06
250.532	77.06
250.765	80.06
250.998	89.06
251.231	79.06
251.465	85.06
251.698	80.06
251.931	76.06
252.164	85.06
252.397	70.06
252.63	69.06
252.863	88.06
253.096	70.06
253.329	70.06
253.562	79.06
253.795	78.06
254.028	64.06
254.261	89.06
254.494	68.06
254.727	72.06
254.96	74.06
255.193	77.06
255.426	82.06
255.659	81.06
255.892	81.06
256.124	73.06
256.357	73.06
256.59	73.06
256.823	86.06
257.056	92.06
257.289	88.06
257.521	95.06
257.754	85.06
257.987	64.06
258.22	70.06
258.452	80.06
258.685	89.06
258.918	72.06
259.151	80.06
259.383	93.06
259.616	80.06
259.849	78.06
260.081	80.06
260.314	77.06
260.547	94.06
260.779	71.06
261.012	77.06
261.244	80.06
261.477	99.06
261.71	93.06
261.942	95.06
262.175	105.06
262.407	89.06
262.64	79.06
262.872	82.06
263.105	76.06
263.337	78.06
263.57	94.06
263.802	79.06
264.035	85.06
264.267	74.06
264.499	74.06
264.732	81.06
264.964	79.06
265.197	83.06
265.429	96.06
265.661	82.06
265.894	95.06
266.126	68.06
266.358	84.06
266.591	70.06
266.823	78.06
267.055	81.06
267.287	84.06
267.52	96.06
267.752	80.06
267.984	86.06
268.216	76.06
268.448	77.06
268.681	85.06
268.913	78.06
269.145	86.06
269.377	95.06
269.609	90.06
269.841	78.06
270.073	73.06
270.306	78.06
270.538	84.06
270.77	77.06
271.002	89.06
271.234	81.06
271.466	91.06
271.698	84.06
271.93	71.06
272.162	83.06
272.394	99.06
272.626	79.06
272.858	88.06
273.09	77.06
273.322	99.06
273.553	81.06
273.785	82.06
274.017	81.06
274.249	71.06
274.481	80.06
274.713	96.06
274.945	78.06
275.176	70.06
275.408	84.06
275.64	82.06
275.872	81.06
276.104	98.06
276.335	94.06
276.567	77.06
276.799	106.06
277.031	97.06
277.262	98.06
277.494	78.06
277.726	79.06
277.957	72.06
278.189	82.06
278.421	76.06
278.652	89.06
278.884	68.06
279.115	77.06
279.347	82.06
279.579	80.06
279.81	86.06
280.042	82.06
280.273	84.06
280.505	86.06
280.736	76.06
280.968	89.06
281.199	81.06
281.431	72.06
281.662	108.06
281.894	87.06
282.125	98.06
282.356	122.06
282.588	127.06
282.819	97.06
283.051	86.06
283.282	81.06
283.513	94.06
283.745	82.06
283.976	85.06
284.207	96.06
284.439	80.06
284.67	88.06
284.901	84.06
285.132	91.06
285.364	90.06
285.595	85.06
285.826	86.06
286.057	87.06
286.288	84.06
286.52	98.06
286.751	74.06
286.982	87.06
287.213	88.06
287.444	78.06
287.675	84.06
287.906	92.06
288.138	75.06
288.369	84.06
288.6	71.06
288.831	83.06
289.062	80.06
289.293	91.06
289.524	74.06
289.755	84.06
289.986	85.06
290.217	81.06
290.448	78.06
290.679	80.06
290.91	86.06
291.141	91.06
291.371	88.06
291.602	83.06
291.833	78.06
292.064	80.06
292.295	70.06
292.526	103.06
292.757	85.06
292.987	93.06
293.218	84.06
293.449	88.06
293.68	82.06
293.91	82.06
294.141	89.06
294.372	80.06
294.603	85.06
294.833	87.06
295.064	96.06
295.295	89.06
295.525	94.06
295.756	108.06
295.987	110.06
296.217	116.06
296.448	129.06
296.679	100.06
296.909	85.06
297.14	83.06
297.37	73.06
297.601	104.06
297.831	80.06
298.062	82.06
298.292	85.06
298.523	97.06
298.753	96.06
298.984	89.06
299.214	78.06
299.445	88.06
299.675	89.06
299.905	92.06
300.136	73.06
300.366	77.06
300.597	86.06
300.827	88.06
301.057	79.06
301.288	103.06
301.518	98.06
301.748	87.06
301.979	100.06
302.209	78.06
302.439	91.06
302.669	84.06
302.9	83.06
303.13	90.06
303.36	80.06
303.59	89.06
303.82	92.06
304.051	97.06
304.281	91.06
304.511	83.06
304.741	88.06
304.971	93.06
305.201	99.06
305.431	99.06
305.661	97.06
305.891	75.06
306.121	80.06
306.352	99.06
306.582	102.06
306.812	91.06
307.042	93.06
307.272	75.06
307.502	98.06
307.731	94.06
307.961	88.06
308.191	71.06
308.421	78.06
308.651	94.06
308.881	73.06
309.111	105.06
309.341	76.06
309.571	101.06
309.8	97.06
310.03	85.06
310.26	89.06
310.49	96.06
310.72	68.06
310.949	90.06
311.179	101.06
311.409	90.06
311.639	86.06
311.868	113.06
312.098	88.06
312.328	96.06
312.557	111.06
312.787	96.06
313.017	115.06
313.246	103.06
313.476	88.06
313.706	88.06
313.935	80.06
314.165	92.06
314.394	110.06
314.624	97.06
314.853	88.06
315.083	86.06
315.312	87.06
315.542	85.06
315.771	80.06
316.001	88.06
316.23	97.06
316.46	95.06
316.689	104.06
316.919	105.06
317.148	81.06
317.377	97.06
317.607	104.06
317.836	74.06
318.065	85.06
318.295	88.06
318.524	76.06
318.753	92.06
318.983	92.06
319.212	93.06
319.441	104.06
319.67	96.06
319.9	98.06
320.129	76.06
320.358	92.06
320.587	95.06
320.816	91.06
321.046	89.06
321.275	89.06
321.504	90.06
321.733	102.06
321.962	100.06
322.191	96.06
322.42	111.06
322.649	117.06
322.878	120.06
323.108	117.06
323.337	100.06
323.566	122.06
323.795	139.06
324.024	205.06
324.253	375.06
324.482	798.06
324.71	1594.06
324.939	2104.06
325.168	777.06
325.397	216.06
325.626	134.06
325.855	121.06
326.084	113.06
326.313	130.06
326.542	135.06
326.77	211.06
326.999	422.06
327.228	896.06
327.457	1657.06
327.686	1335.06
327.914	353.06
328.143	180.06
328.372	130.06
328.6	114.06
328.829	109.06
329.058	113.06
329.287	117.06
329.515	124.06
329.744	105.06
329.972	106.06
330.201	101.06
330.43	106.06
330.658	106.06
330.887	127.06
331.115	121.06
331.344	105.06
331.572	109.06
331.801	94.06
332.03	102.06
332.258	83.06
332.486	92.06
332.715	88.06
332.943	89.06
333.172	97.06
333.4	98.06
333.629	97.06
333.857	95.06
334.085	93.06
334.314	84.06
334.542	92.06
334.771	94.06
334.999	78.06
335.227	82.06
335.455	93.06
335.684	84.06
335.912	100.06
336.14	98.06
336.369	102.06
336.597	103.06
336.825	94.06
337.053	80.06
337.281	87.06
337.51	74.06
337.738	76.06
337.966	89.06
338.194	93.06
338.422	87.06
338.65	83.06
338.878	96.06
339.106	84.06
339.334	96.06
339.562	90.06
339.79	104.06
340.018	92.06
340.246	88.06
340.474	89.06
340.702	90.06
340.93	82.06
341.158	97.06
341.386	79.06
341.614	84.06
341.842	93.06
342.07	88.06
342.298	81.06
342.526	79.06
342.754	82.06
342.981	89.06
343.209	94.06
343.437	114.06
343.665	94.06
343.893	88.06
344.12	91.06
344.348	90.06
344.576	82.06
344.804	85.06
345.031	95.06
345.259	86.06
345.487	82.06
345.714	86.06
345.942	96.06
346.17	79.06
346.397	90.06
346.625	102.06
346.853	92.06
347.08	88.06
347.308	93.06
347.535	88.06
347.763	109.06
347.99	89.06
348.218	102.06
348.445	105.06
348.673	93.06
348.9	89.06
349.128	100.06
349.355	88.06
349.583	96.06
349.81	105.06
350.037	95.06
350.265	91.06
350.492	92.06
350.72	112.06
350.947	94.06
351.174	100.06
351.402	93.06
351.629	93.06
351.856	93.06
352.083	103.06
352.311	121.06
352.538	95.06
352.765	106.06
352.992	102.06
353.22	100.06
353.447	99.06
353.674	115.06
353.901	101.06
354.128	96.06
354.355	80.06
354.583	104.06
354.81	105.06
355.037	94.06
355.264	94.06
355.491	94.06
355.718	100.06
355.945	99.06
356.172	84.06
356.399	86.06
356.626	87.06
356.853	100.06
357.08	82.06
357.307	96.06
357.534	85.06
357.761	77.06
357.988	85.06
358.215	101.06
358.441	100.06
358.668	85.06
358.895	84.06
359.122	95.06
359.349	88.06
359.576	99.06
359.802	85.06
360.029	112.06
360.256	98.06
360.483	87.06
360.709	84.06
360.936	111.06
361.163	80.06
361.39	83.06
361.616	100.06
361.843	95.06
362.07	86.06
362.296	96.06
362.523	96.06
362.749	94.06
362.976	86.06
363.203	98.06
363.429	89.06
363.656	86.06
363.882	81.06
364.109	90.06
364.335	91.06
364.562	87.06
364.788	84.06
365.015	96.06
365.241	91.06
365.468	111.06
365.694	99.06
365.92	97.06
366.147	91.06
366.373	94.06
366.599	80.06
366.826	85.06
367.052	93.06
367.278	90.06
367.505	66.06
367.731	90.06
367.957	99.06
368.184	81.06
368.41	96.06
368.636	105.06
368.862	121.06
369.089	112.06
369.315	79.06
369.541	72.06
369.767	96.06
369.993	91.06
370.219	95.06
370.445	87.06
370.672	87.06
370.898	92.06
371.124	92.06
371.35	82.06
371.576	76.06
371.802	85.06
372.028	65.06
372.254	100.06
372.48	98.06
372.706	88.06
372.932	90.06
373.158	84.06
373.384	115.06
373.61	96.06
373.835	97.06
374.061	92.06
374.287	96.06
374.513	87.06
374.739	81.06
374.965	105.06
375.191	78.06
375.416	101.06
375.642	93.06
375.868	68.06
376.094	97.06
376.319	84.06
376.545	93.06
376.771	90.06
376.997	84.06
377.222	93.06
377.448	92.06
377.674	80.06
377.899	92.06
378.125	90.06
378.35	94.06
378.576	97.06
378.802	93.06
379.027	95.06
379.253	97.06
379.478	95.06
379.704	89.06
379.929	92.06
380.155	89.06
380.38	114.06
380.606	73.06
380.831	100.06
381.057	88.06
381.282	94.06
381.507	95.06
381.733	104.06
381.958	100.06
382.184	100.06
382.409	108.06
382.634	98.06
382.86	102.06
383.085	82.06
383.31	87.06
383.535	98.06
383.761	96.06
383.986	96.06
384.211	93.06
384.436	88.06
384.662	90.06
384.887	98.06
385.112	90.06
385.337	92.06
385.562	94.06
385.787	93.06
386.013	102.06
386.238	103.06
386.463	112.06
386.688	103.06
386.913	116.06
387.138	102.06
387.363	103.06
387.588	105.06
387.813	102.06
388.038	89.06
388.263	89.06
388.488	106.06
388.713	103.06
388.938	88.06
389.163	105.06
389.387	91.06
389.612	89.06
389.837	102.06
390.062	85.06
390.287	82.06
390.512	104.06
390.736	90.06
390.961	94.06
391.186	90.06
391.411	103.06
391.636	94.06
391.86	87.06
392.085	86.06
392.31	94.06
392.534	106.06
392.759	89.06
392.984	80.06
393.208	82.06
393.433	103.06
393.658	98.06
393.882	76.06
394.107	73.06
394.331	80.06
394.556	87.06
394.78	101.06
395.005	91.06
395.229	90.06
395.454	89.06
395.678	89.06
395.903	86.06
396.127	83.06
396.352	93.06
396.576	77.06
396.801	90.06
397.025	75.06
397.249	84.06
397.474	80.06
397.698	77.06
397.922	72.06
398.147	67.06
398.371	79.06
398.595	91.06
398.82	88.06
399.044	85.06
399.268	91.06
399.492	75.06
399.717	79.06
399.941	95.06
400.165	99.06
400.389	83.06
400.613	87.06
400.837	90.06
401.062	76.06
401.286	92.06
401.51	89.06
401.734	100.06
401.958	104.06
402.182	128.06
402.406	147.06
402.63	120.06
402.854	97.06
403.078	84.06
403.302	74.06
403.526	102.06
403.75	94.06
403.974	88.06
404.198	84.06
404.422	95.06
404.645	85.06
404.869	96.06
405.093	88.06
405.317	106.06
405.541	84.06
405.765	95.06
405.988	112.06
406.212	155.06
406.436	220.06
406.66	127.06
406.883	92.06
407.107	86.06
407.331	101.06
407.555	89.06
407.778	100.06
408.002	87.06
408.226	81.06
408.449	89.06
408.673	90.06
408.896	88.06
409.12	98.06
409.344	86.06
409.567	83.06
409.791	88.06
410.014	93.06
410.238	84.06
410.461	81.06
410.685	87.06
410.908	92.06
411.132	108.06
411.355	85.06
411.578	81.06
411.802	73.06
412.025	93.06
412.249	76.06
412.472	92.06
412.695	92.06
412.919	84.06
413.142	86.06
413.365	77.06
413.589	95.06
413.812	77.06
414.035	90.06
414.258	82.06
414.482	96.06
414.705	84.06
414.928	90.06
415.151	95.06
415.374	89.06
415.597	79.06
415.821	82.06
416.044	91.06
416.267	88.06
416.49	86.06
416.713	96.06
416.936	76.06
417.159	99.06
417.382	91.06
417.605	89.06
417.828	93.06
418.051	87.06
418.274	98.06
418.497	88.06
418.72	85.06
418.943	79.06
419.166	85.06
419.389	99.06
419.611	72.06
419.834	85.06
420.057	88.06
420.28	104.06
420.503	88.06
420.726	92.06
420.948	93.06
421.171	91.06
421.394	86.06
421.617	88.06
421.839	78.06
422.062	89.06
422.285	86.06
422.507	83.06
422.73	95.06
422.953	97.06
423.175	81.06
423.398	78.06
423.621	94.06
423.843	83.06
424.066	92.06
424.288	78.06
424.511	91.06
424.733	98.06
424.956	94.06
425.178	95.06
425.401	100.06
425.623	101.06
425.846	83.06
426.068	84.06
426.291	97.06
426.513	87.06
426.735	87.06
426.958	109.06
427.18	96.06
427.402	118.06
427.625	158.06
427.847	106.06
428.069	98.06
428.292	79.06
428.514	77.06
428.736	94.06
428.958	90.06
429.181	79.06
429.403	80.06
429.625	80.06
429.847	92.06
430.069	81.06
430.292	81.06
430.514	93.06
430.736	89.06
430.958	89.06
431.18	96.06
431.402	87.06
431.624	88.06
431.846	91.06
432.068	84.06
432.29	82.06
432.512	84.06
432.734	77.06
432.956	89.06
433.178	89.06
433.4	97.06
433.622	112.06
433.844	88.06
434.066	86.06
434.287	92.06
434.509	80.06
434.731	89.06
434.953	93.06
435.175	93.06
435.397	95.06
435.618	89.06
435.84	101.06
436.062	128.06
436.284	103.06
436.505	100.06
436.727	98.06
436.949	96.06
437.17	89.06
437.392	87.06
437.614	91.06
437.835	120.06
438.057	114.06
438.278	106.06
438.5	83.06
438.721	124.06
438.943	111.06
439.165	96.06
439.386	81.06
439.608	82.06
439.829	93.06
440.05	119.06
440.272	118.06
440.493	95.06
440.715	86.06
440.936	93.06
441.158	89.06
441.379	89.06
441.6	82.06
441.822	98.06
442.043	88.06
442.264	93.06
442.486	89.06
442.707	83.06
442.928	93.06
443.149	113.06
443.371	125.06
443.592	103.06
443.813	105.06
444.034	97.06
444.255	92.06
444.476	92.06
444.698	70.06
444.919	87.06
445.14	123.06
445.361	112.06
445.582	105.06
445.803	129.06
446.024	125.06
446.245	132.06
446.466	106.06
446.687	85.06
446.908	72.06
447.129	97.06
447.35	84.06
447.571	88.06
447.792	105.06
448.013	96.06
448.234	99.06
448.455	97.06
448.675	103.06
448.896	124.06
449.117	105.06
449.338	107.06
449.559	128.06
449.779	129.06
450	84.06
450.221	80.06
450.442	96.06
450.662	74.06
450.883	102.06
451.104	108.06
451.324	102.06
451.545	75.06
451.766	82.06
451.986	97.06
452.207	95.06
452.428	92.06
452.648	102.06
452.869	105.06
453.089	104.06
453.31	100.06
453.53	89.06
453.751	98.06
453.971	96.06
454.192	101.06
454.412	93.06
454.633	77.06
454.853	73.06
455.073	92.06
455.294	107.06
455.514	100.06
455.734	92.06
455.955	73.06
456.175	76.06
456.395	71.06
456.616	80.06
456.836	92.06
457.056	81.06
457.276	78.06
457.497	80.06
457.717	82.06
457.937	87.06
458.157	88.06
458.377	77.06
458.598	110.06
458.818	143.06
459.038	148.06
459.258	112.06
459.478	86.06
459.698	82.06
459.918	77.06
460.138	88.06
460.358	94.06
460.578	89.06
460.798	83.06
461.018	88.06
461.238	73.06
461.458	92.06
461.678	89.06
461.898	90.06
462.118	70.06
462.338	87.06
462.558	90.06
462.777	84.06
462.997	84.06
463.217	95.06
463.437	82.06
463.657	77.06
463.876	94.06
464.096	86.06
464.316	78.06
464.536	87.06
464.755	86.06
464.975	100.06
465.195	161.06
465.414	150.06
465.634	87.06
465.854	72.06
466.073	95.06
466.293	93.06
466.512	90.06
466.732	98.06
466.951	91.06
467.171	81.06
467.391	88.06
467.61	109.06
467.829	89.06
468.049	87.06
468.268	78.06
468.488	80.06
468.707	80.06
468.927	90.06
469.146	80.06
469.365	92.06
469.585	76.06
469.804	84.06
470.023	80.06
470.243	81.06
470.462	97.06
470.681	105.06
470.901	82.06
471.12	85.06
471.339	82.06
471.558	71.06
471.777	86.06
471.997	66.06
472.216	82.06
472.435	89.06
472.654	85.06
472.873	92.06
473.092	88.06
473.311	93.06
473.53	83.06
473.749	92.06
473.968	102.06
474.187	88.06
474.406	88.06
474.625	87.06
474.844	78.06
475.063	86.06
475.282	85.06
475.501	77.06
475.72	90.06
475.939	85.06
476.158	92.06
476.377	102.06
476.596	84.06
476.814	84.06
477.033	96.06
477.252	96.06
477.471	104.06
477.69	95.06
477.908	88.06
478.127	86.06
478.346	91.06
478.564	86.06
478.783	96.06
479.002	97.06
479.22	87.06
479.439	101.06
479.658	100.06
479.876	86.06
480.095	83.06
480.313	77.06
480.532	85.06
480.751	86.06
480.969	93.06
481.188	93.06
481.406	92.06
481.624	103.06
481.843	83.06
482.061	86.06
482.28	72.06
482.498	81.06
482.717	92.06
482.935	84.06
483.153	97.06
483.372	89.06
483.59	93.06
483.808	81.06
484.027	97.06
484.245	82.06
484.463	72.06
484.681	84.06
484.9	78.06
485.118	89.06
485.336	88.06
485.554	81.06
485.772	100.06
485.99	88.06
486.209	104.06
486.427	103.06
486.645	93.06
486.863	89.06
487.081	97.06
487.299	98.06
487.517	103.06
487.735	78.06
487.953	94.06
488.171	85.06
488.389	99.06
488.607	94.06
488.825	92.06
489.043	82.06
489.261	97.06
489.479	98.06
489.696	83.06
489.914	98.06
490.132	83.06
490.35	84.06
490.568	104.06
490.786	80.06
491.003	79.06
491.221	101.06
491.439	98.06
491.657	96.06
491.874	92.06
492.092	81.06
492.31	95.06
492.527	72.06
492.745	72.06
492.963	86.06
493.18	97.06
493.398	84.06
493.615	108.06
493.833	95.06
494.05	85.06
494.268	92.06
494.485	88.06
494.703	96.06
494.92	92.06
495.138	92.06
495.355	100.06
495.573	96.06
495.79	86.06
496.008	91.06
496.225	86.06
496.442	95.06
496.66	87.06
496.877	101.06
497.094	97.06
497.312	95.06
497.529	83.06
497.746	83.06
497.963	93.06
498.181	92.06
498.398	98.06
498.615	103.06
498.832	103.06
499.049	95.06
499.267	93.06
499.484	79.06
499.701	93.06
499.918	95.06
500.135	103.06
500.352	94.06
500.569	106.06
500.786	69.06
501.003	86.06
501.22	96.06
501.437	81.06
501.654	90.06
501.871	101.06
502.088	88.06
502.305	93.06
502.522	75.06
502.739	84.06
502.956	89.06
503.172	101.06
503.389	95.06
503.606	102.06
503.823	96.06
504.04	95.06
504.256	102.06
504.473	74.06
504.69	81.06
504.907	117.06
505.123	92.06
505.34	82.06
505.557	90.06
505.773	83.06
505.99	85.06
506.207	82.06
506.423	69.06
506.64	86.06
506.856	85.06
507.073	97.06
507.289	101.06
507.506	90.06
507.722	108.06
507.939	112.06
508.155	88.06
508.372	92.06
508.588	91.06
508.805	109.06
509.021	87.06
509.238	103.06
509.454	111.06
509.67	105.06
509.887	93.06
510.103	121.06
510.319	185.06
510.536	735.06
510.752	2274.06
510.968	621.06
511.184	144.06
511.401	100.06
511.617	100.06
511.833	89.06
512.049	74.06
512.265	93.06
512.481	87.06
512.698	108.06
512.914	93.06
513.13	90.06
513.346	87.06
513.562	81.06
513.778	87.06
513.994	93.06
514.21	109.06
514.426	107.06
514.642	140.06
514.858	120.06
515.074	156.06
515.29	424.06
515.506	1350.06
515.721	481.06
515.937	144.06
516.153	101.06
516.369	106.06
