Data from Uncirc_1984_H10_HRD10591_00095.txt Node
Date: Wed Jan 03 12:21:56 EST 2024
User: Yrep
Spectrometer: HR+D1059
Trigger mode: 1
Integration Time (sec): 1.000000E-1
Scans to average: 1
Electric dark correction enabled: true
Nonlinearity correction enabled: false
Boxcar width: 0
XAxis mode: Wavelengths
Number of Pixels in Spectrum: 2048
>>>>>Begin Spectral Data<<<<<
223.165	-19.69
223.4	-19.69
223.635	-19.69
223.869	-22.69
224.104	-25.69
224.338	-19.69
224.573	-14.69
224.808	-18.69
225.042	4.31
225.277	-8.69
225.511	-9.69
225.746	13.31
225.98	16.31
226.215	-2.69
226.449	10.31
226.683	21.31
226.918	35.31
227.152	41.31
227.387	40.31
227.621	52.31
227.856	58.31
228.09	34.31
228.324	55.31
228.559	64.31
228.793	45.31
229.027	58.31
229.262	67.31
229.496	70.31
229.73	89.31
229.964	77.31
230.199	82.31
230.433	77.31
230.667	72.31
230.901	80.31
231.136	74.31
231.37	68.31
231.604	80.31
231.838	78.31
232.072	92.31
232.306	93.31
232.541	78.31
232.775	71.31
233.009	71.31
233.243	72.31
233.477	86.31
233.711	82.31
233.945	85.31
234.179	85.31
234.413	77.31
234.647	70.31
234.881	81.31
235.115	92.31
235.349	88.31
235.583	84.31
235.817	68.31
236.051	92.31
236.285	88.31
236.519	78.31
236.753	77.31
236.987	89.31
237.221	80.31
237.455	89.31
237.689	86.31
237.922	75.31
238.156	67.31
238.39	76.31
238.624	89.31
238.858	84.31
239.091	67.31
239.325	82.31
239.559	82.31
239.793	69.31
240.027	81.31
240.26	84.31
240.494	75.31
240.728	82.31
240.961	74.31
241.195	69.31
241.429	77.31
241.662	70.31
241.896	80.31
242.13	80.31
242.363	77.31
242.597	75.31
242.83	69.31
243.064	77.31
243.298	88.31
243.531	75.31
243.765	77.31
243.998	77.31
244.232	91.31
244.465	98.31
244.699	92.31
244.932	87.31
245.166	61.31
245.399	75.31
245.633	72.31
245.866	90.31
246.099	77.31
246.333	80.31
246.566	83.31
246.8	67.31
247.033	72.31
247.266	73.31
247.5	77.31
247.733	86.31
247.966	84.31
248.2	77.31
248.433	80.31
248.666	77.31
248.899	82.31
249.133	75.31
249.366	92.31
249.599	90.31
249.832	91.31
250.066	86.31
250.299	86.31
250.532	66.31
250.765	75.31
250.998	81.31
251.231	76.31
251.465	92.31
251.698	65.31
251.931	86.31
252.164	73.31
252.397	93.31
252.63	96.31
252.863	93.31
253.096	68.31
253.329	77.31
253.562	87.31
253.795	80.31
254.028	76.31
254.261	80.31
254.494	80.31
254.727	90.31
254.96	79.31
255.193	86.31
255.426	89.31
255.659	92.31
255.892	98.31
256.124	80.31
256.357	72.31
256.59	86.31
256.823	83.31
257.056	73.31
257.289	94.31
257.521	90.31
257.754	89.31
257.987	88.31
258.22	90.31
258.452	68.31
258.685	69.31
258.918	78.31
259.151	79.31
259.383	70.31
259.616	82.31
259.849	94.31
260.081	80.31
260.314	78.31
260.547	90.31
260.779	66.31
261.012	72.31
261.244	77.31
261.477	96.31
261.71	106.31
261.942	106.31
262.175	114.31
262.407	93.31
262.64	77.31
262.872	77.31
263.105	88.31
263.337	89.31
263.57	80.31
263.802	84.31
264.035	97.31
264.267	100.31
264.499	82.31
264.732	69.31
264.964	80.31
265.197	78.31
265.429	76.31
265.661	83.31
265.894	88.31
266.126	87.31
266.358	86.31
266.591	76.31
266.823	88.31
267.055	85.31
267.287	88.31
267.52	85.31
267.752	88.31
267.984	86.31
268.216	85.31
268.448	81.31
268.681	81.31
268.913	89.31
269.145	85.31
269.377	73.31
269.609	86.31
269.841	85.31
270.073	94.31
270.306	83.31
270.538	86.31
270.77	89.31
271.002	83.31
271.234	73.31
271.466	86.31
271.698	92.31
271.93	83.31
272.162	81.31
272.394	88.31
272.626	83.31
272.858	89.31
273.09	81.31
273.322	95.31
273.553	83.31
273.785	78.31
274.017	90.31
274.249	82.31
274.481	84.31
274.713	102.31
274.945	87.31
275.176	92.31
275.408	87.31
275.64	88.31
275.872	78.31
276.104	87.31
276.335	89.31
276.567	82.31
276.799	98.31
277.031	98.31
277.262	87.31
277.494	92.31
277.726	82.31
277.957	95.31
278.189	81.31
278.421	81.31
278.652	75.31
278.884	84.31
279.115	87.31
279.347	93.31
279.579	94.31
279.81	78.31
280.042	89.31
280.273	90.31
280.505	82.31
280.736	79.31
280.968	68.31
281.199	74.31
281.431	89.31
281.662	75.31
281.894	83.31
282.125	98.31
282.356	113.31
282.588	130.31
282.819	108.31
283.051	90.31
283.282	85.31
283.513	94.31
283.745	74.31
283.976	86.31
284.207	91.31
284.439	88.31
284.67	93.31
284.901	94.31
285.132	96.31
285.364	80.31
285.595	97.31
285.826	91.31
286.057	81.31
286.288	89.31
286.52	92.31
286.751	90.31
286.982	77.31
287.213	88.31
287.444	93.31
287.675	89.31
287.906	82.31
288.138	85.31
288.369	93.31
288.6	81.31
288.831	80.31
289.062	96.31
289.293	92.31
289.524	88.31
289.755	100.31
289.986	86.31
290.217	86.31
290.448	94.31
290.679	76.31
290.91	82.31
291.141	72.31
291.371	91.31
291.602	94.31
291.833	82.31
292.064	69.31
292.295	72.31
292.526	100.31
292.757	93.31
292.987	86.31
293.218	98.31
293.449	94.31
293.68	93.31
293.91	80.31
294.141	93.31
294.372	90.31
294.603	86.31
294.833	94.31
295.064	98.31
295.295	86.31
295.525	90.31
295.756	101.31
295.987	101.31
296.217	121.31
296.448	99.31
296.679	108.31
296.909	88.31
297.14	81.31
297.37	89.31
297.601	93.31
297.831	96.31
298.062	89.31
298.292	100.31
298.523	91.31
298.753	100.31
298.984	90.31
299.214	96.31
299.445	97.31
299.675	99.31
299.905	93.31
300.136	79.31
300.366	89.31
300.597	102.31
300.827	93.31
301.057	102.31
301.288	104.31
301.518	99.31
301.748	98.31
301.979	105.31
302.209	69.31
302.439	97.31
302.669	100.31
302.9	88.31
303.13	92.31
303.36	90.31
303.59	109.31
303.82	114.31
304.051	94.31
304.281	77.31
304.511	75.31
304.741	104.31
304.971	88.31
305.201	106.31
305.431	96.31
305.661	92.31
305.891	86.31
306.121	105.31
306.352	90.31
306.582	107.31
306.812	94.31
307.042	86.31
307.272	93.31
307.502	99.31
307.731	99.31
307.961	93.31
308.191	73.31
308.421	102.31
308.651	88.31
308.881	94.31
309.111	104.31
309.341	98.31
309.571	93.31
309.8	86.31
310.03	86.31
310.26	109.31
310.49	102.31
310.72	97.31
310.949	93.31
311.179	111.31
311.409	94.31
311.639	91.31
311.868	102.31
312.098	97.31
312.328	97.31
312.557	91.31
312.787	89.31
313.017	87.31
313.246	107.31
313.476	100.31
313.706	93.31
313.935	99.31
314.165	93.31
314.394	101.31
314.624	69.31
314.853	102.31
315.083	103.31
315.312	87.31
315.542	93.31
315.771	94.31
316.001	80.31
316.23	89.31
316.46	85.31
316.689	89.31
316.919	101.31
317.148	109.31
317.377	94.31
317.607	93.31
317.836	89.31
318.065	77.31
318.295	96.31
318.524	83.31
318.753	81.31
318.983	98.31
319.212	114.31
319.441	106.31
319.67	102.31
319.9	73.31
320.129	103.31
320.358	105.31
320.587	95.31
320.816	89.31
321.046	102.31
321.275	105.31
321.504	88.31
321.733	97.31
321.962	109.31
322.191	89.31
322.42	92.31
322.649	109.31
322.878	98.31
323.108	114.31
323.337	122.31
323.566	129.31
323.795	130.31
324.024	173.31
324.253	361.31
324.482	744.31
324.71	1532.31
324.939	2040.31
325.168	751.31
325.397	231.31
325.626	140.31
325.855	118.31
326.084	114.31
326.313	133.31
326.542	144.31
326.77	212.31
326.999	443.31
327.228	854.31
327.457	1613.31
327.686	1270.31
327.914	348.31
328.143	178.31
328.372	128.31
328.6	117.31
328.829	112.31
329.058	111.31
329.287	118.31
329.515	119.31
329.744	110.31
329.972	98.31
330.201	105.31
330.43	108.31
330.658	109.31
330.887	124.31
331.115	119.31
331.344	88.31
331.572	96.31
331.801	98.31
332.03	94.31
332.258	93.31
332.486	84.31
332.715	93.31
332.943	84.31
333.172	107.31
333.4	93.31
333.629	105.31
333.857	120.31
334.085	116.31
334.314	89.31
334.542	98.31
334.771	117.31
334.999	104.31
335.227	88.31
335.455	91.31
335.684	111.31
335.912	99.31
336.14	92.31
336.369	94.31
336.597	104.31
336.825	102.31
337.053	89.31
337.281	95.31
337.51	85.31
337.738	87.31
337.966	89.31
338.194	101.31
338.422	96.31
338.65	88.31
338.878	102.31
339.106	91.31
339.334	102.31
339.562	84.31
339.79	98.31
340.018	104.31
340.246	98.31
340.474	84.31
340.702	93.31
340.93	91.31
341.158	99.31
341.386	96.31
341.614	90.31
341.842	97.31
342.07	89.31
342.298	92.31
342.526	83.31
342.754	88.31
342.981	96.31
343.209	99.31
343.437	100.31
343.665	78.31
343.893	93.31
344.12	82.31
344.348	96.31
344.576	91.31
344.804	83.31
345.031	85.31
345.259	96.31
345.487	85.31
345.714	110.31
345.942	88.31
346.17	85.31
346.397	88.31
346.625	93.31
346.853	88.31
347.08	85.31
347.308	87.31
347.535	88.31
347.763	89.31
347.99	100.31
348.218	97.31
348.445	93.31
348.673	99.31
348.9	110.31
349.128	104.31
349.355	99.31
349.583	103.31
349.81	108.31
350.037	101.31
350.265	97.31
350.492	97.31
350.72	82.31
350.947	101.31
351.174	99.31
351.402	112.31
351.629	111.31
351.856	94.31
352.083	96.31
352.311	102.31
352.538	101.31
352.765	108.31
352.992	102.31
353.22	126.31
353.447	104.31
353.674	88.31
353.901	76.31
354.128	96.31
354.355	86.31
354.583	105.31
354.81	92.31
355.037	105.31
355.264	102.31
355.491	95.31
355.718	86.31
355.945	95.31
356.172	96.31
356.399	86.31
356.626	98.31
356.853	105.31
357.08	86.31
357.307	90.31
357.534	86.31
357.761	87.31
357.988	100.31
358.215	88.31
358.441	92.31
358.668	96.31
358.895	80.31
359.122	95.31
359.349	102.31
359.576	93.31
359.802	98.31
360.029	103.31
360.256	98.31
360.483	92.31
360.709	91.31
360.936	91.31
361.163	85.31
361.39	105.31
361.616	91.31
361.843	93.31
362.07	92.31
362.296	104.31
362.523	84.31
362.749	87.31
362.976	81.31
363.203	76.31
363.429	96.31
363.656	84.31
363.882	100.31
364.109	85.31
364.335	102.31
364.562	82.31
364.788	85.31
365.015	93.31
365.241	91.31
365.468	97.31
365.694	120.31
365.92	108.31
366.147	90.31
366.373	104.31
366.599	86.31
366.826	100.31
367.052	80.31
367.278	87.31
367.505	96.31
367.731	86.31
367.957	84.31
368.184	104.31
368.41	82.31
368.636	119.31
368.862	114.31
369.089	115.31
369.315	93.31
369.541	85.31
369.767	107.31
369.993	87.31
370.219	91.31
370.445	85.31
370.672	84.31
370.898	95.31
371.124	74.31
371.35	79.31
371.576	88.31
371.802	88.31
372.028	72.31
372.254	79.31
372.48	86.31
372.706	94.31
372.932	97.31
373.158	98.31
373.384	77.31
373.61	82.31
373.835	80.31
374.061	92.31
374.287	95.31
374.513	102.31
374.739	85.31
374.965	88.31
375.191	93.31
375.416	86.31
375.642	97.31
375.868	89.31
376.094	100.31
376.319	80.31
376.545	91.31
376.771	102.31
376.997	81.31
377.222	101.31
377.448	94.31
377.674	92.31
377.899	94.31
378.125	82.31
378.35	93.31
378.576	90.31
378.802	72.31
379.027	82.31
379.253	76.31
379.478	94.31
379.704	101.31
379.929	85.31
380.155	86.31
380.38	100.31
380.606	85.31
380.831	98.31
381.057	86.31
381.282	90.31
381.507	81.31
381.733	107.31
381.958	88.31
382.184	88.31
382.409	106.31
382.634	101.31
382.86	101.31
383.085	103.31
383.31	129.31
383.535	108.31
383.761	86.31
383.986	90.31
384.211	92.31
384.436	75.31
384.662	90.31
384.887	84.31
385.112	98.31
385.337	93.31
385.562	103.31
385.787	100.31
386.013	126.31
386.238	107.31
386.463	106.31
386.688	110.31
386.913	106.31
387.138	87.31
387.363	90.31
387.588	93.31
387.813	102.31
388.038	108.31
388.263	112.31
388.488	95.31
388.713	108.31
388.938	96.31
389.163	90.31
389.387	102.31
389.612	86.31
389.837	86.31
390.062	84.31
390.287	92.31
390.512	93.31
390.736	96.31
390.961	100.31
391.186	90.31
391.411	87.31
391.636	100.31
391.86	101.31
392.085	76.31
392.31	100.31
392.534	90.31
392.759	86.31
392.984	82.31
393.208	86.31
393.433	104.31
393.658	103.31
393.882	85.31
394.107	91.31
394.331	86.31
394.556	71.31
394.78	95.31
395.005	86.31
395.229	84.31
395.454	88.31
395.678	88.31
395.903	87.31
396.127	83.31
396.352	80.31
396.576	79.31
396.801	93.31
397.025	94.31
397.249	86.31
397.474	89.31
397.698	83.31
397.922	96.31
398.147	78.31
398.371	69.31
398.595	77.31
398.82	86.31
399.044	93.31
399.268	95.31
399.492	86.31
399.717	83.31
399.941	96.31
400.165	101.31
400.389	92.31
400.613	81.31
400.837	80.31
401.062	99.31
401.286	80.31
401.51	83.31
401.734	86.31
401.958	98.31
402.182	124.31
402.406	140.31
402.63	115.31
402.854	96.31
403.078	98.31
403.302	102.31
403.526	87.31
403.75	89.31
403.974	96.31
404.198	90.31
404.422	88.31
404.645	91.31
404.869	88.31
405.093	108.31
405.317	85.31
405.541	89.31
405.765	94.31
405.988	99.31
406.212	161.31
406.436	200.31
406.66	137.31
406.883	89.31
407.107	95.31
407.331	88.31
407.555	91.31
407.778	92.31
408.002	115.31
408.226	112.31
408.449	86.31
408.673	90.31
408.896	100.31
409.12	110.31
409.344	86.31
409.567	109.31
409.791	100.31
410.014	100.31
410.238	93.31
410.461	96.31
410.685	94.31
410.908	117.31
411.132	101.31
411.355	100.31
411.578	85.31
411.802	76.31
412.025	93.31
412.249	93.31
412.472	94.31
412.695	97.31
412.919	96.31
413.142	87.31
413.365	93.31
413.589	89.31
413.812	91.31
414.035	94.31
414.258	69.31
414.482	82.31
414.705	101.31
414.928	89.31
415.151	92.31
415.374	99.31
415.597	90.31
415.821	86.31
416.044	94.31
416.267	96.31
416.49	89.31
416.713	90.31
416.936	101.31
417.159	90.31
417.382	98.31
417.605	92.31
417.828	90.31
418.051	86.31
418.274	97.31
418.497	96.31
418.72	80.31
418.943	82.31
419.166	89.31
419.389	84.31
419.611	87.31
419.834	78.31
420.057	88.31
420.28	76.31
420.503	88.31
420.726	92.31
420.948	76.31
421.171	90.31
421.394	95.31
421.617	88.31
421.839	86.31
422.062	93.31
422.285	96.31
422.507	96.31
422.73	100.31
422.953	112.31
423.175	89.31
423.398	101.31
423.621	85.31
423.843	89.31
424.066	85.31
424.288	84.31
424.511	81.31
424.733	91.31
424.956	99.31
425.178	92.31
425.401	112.31
425.623	85.31
425.846	96.31
426.068	101.31
426.291	88.31
426.513	94.31
426.735	84.31
426.958	101.31
427.18	99.31
427.402	131.31
427.625	141.31
427.847	106.31
428.069	105.31
428.292	89.31
428.514	100.31
428.736	94.31
428.958	94.31
429.181	85.31
429.403	97.31
429.625	98.31
429.847	78.31
430.069	85.31
430.292	107.31
430.514	75.31
430.736	90.31
430.958	78.31
431.18	84.31
431.402	99.31
431.624	80.31
431.846	73.31
432.068	92.31
432.29	92.31
432.512	101.31
432.734	79.31
432.956	94.31
433.178	96.31
433.4	105.31
433.622	86.31
433.844	77.31
434.066	82.31
434.287	89.31
434.509	86.31
434.731	100.31
434.953	84.31
435.175	98.31
435.397	87.31
435.618	97.31
435.84	96.31
436.062	109.31
436.284	116.31
436.505	106.31
436.727	96.31
436.949	93.31
437.17	74.31
437.392	101.31
437.614	84.31
437.835	94.31
438.057	115.31
438.278	106.31
438.5	93.31
438.721	131.31
438.943	101.31
439.165	86.31
439.386	80.31
439.608	99.31
439.829	98.31
440.05	116.31
440.272	140.31
440.493	69.31
440.715	95.31
440.936	92.31
441.158	83.31
441.379	77.31
441.6	103.31
441.822	85.31
442.043	91.31
442.264	90.31
442.486	94.31
442.707	87.31
442.928	100.31
443.149	130.31
443.371	124.31
443.592	106.31
443.813	114.31
444.034	120.31
444.255	83.31
444.476	73.31
444.698	78.31
444.919	88.31
445.14	128.31
445.361	123.31
445.582	123.31
445.803	129.31
446.024	117.31
446.245	147.31
446.466	108.31
446.687	85.31
446.908	96.31
447.129	87.31
447.35	85.31
447.571	96.31
447.792	91.31
448.013	107.31
448.234	113.31
448.455	92.31
448.675	102.31
448.896	112.31
449.117	101.31
449.338	98.31
449.559	130.31
449.779	131.31
450	96.31
450.221	86.31
450.442	86.31
450.662	92.31
450.883	103.31
451.104	113.31
451.324	101.31
451.545	85.31
451.766	92.31
451.986	80.31
452.207	90.31
452.428	80.31
452.648	103.31
452.869	110.31
453.089	108.31
453.31	92.31
453.53	94.31
453.751	100.31
453.971	107.31
454.192	106.31
454.412	90.31
454.633	93.31
454.853	92.31
455.073	75.31
455.294	93.31
455.514	94.31
455.734	90.31
455.955	93.31
456.175	91.31
456.395	89.31
456.616	76.31
456.836	83.31
457.056	92.31
457.276	98.31
457.497	85.31
457.717	92.31
457.937	80.31
458.157	77.31
458.377	95.31
458.598	91.31
458.818	121.31
459.038	136.31
459.258	105.31
459.478	83.31
459.698	92.31
459.918	76.31
460.138	98.31
460.358	87.31
460.578	84.31
460.798	91.31
461.018	104.31
461.238	84.31
461.458	93.31
461.678	82.31
461.898	83.31
462.118	97.31
462.338	81.31
462.558	86.31
462.777	96.31
462.997	82.31
463.217	76.31
463.437	98.31
463.657	92.31
463.876	90.31
464.096	90.31
464.316	92.31
464.536	100.31
464.755	94.31
464.975	87.31
465.195	134.31
465.414	130.31
465.634	99.31
465.854	94.31
466.073	93.31
466.293	95.31
466.512	98.31
466.732	72.31
466.951	80.31
467.171	96.31
467.391	97.31
467.61	98.31
467.829	101.31
468.049	94.31
468.268	101.31
468.488	68.31
468.707	75.31
468.927	96.31
469.146	91.31
469.365	88.31
469.585	112.31
469.804	107.31
470.023	87.31
470.243	93.31
470.462	96.31
470.681	104.31
470.901	103.31
471.12	89.31
471.339	92.31
471.558	91.31
471.777	91.31
471.997	83.31
472.216	108.31
472.435	108.31
472.654	89.31
472.873	96.31
473.092	96.31
473.311	95.31
473.53	76.31
473.749	90.31
473.968	99.31
474.187	102.31
474.406	92.31
474.625	86.31
474.844	98.31
475.063	85.31
475.282	88.31
475.501	96.31
475.72	88.31
475.939	97.31
476.158	87.31
476.377	93.31
476.596	91.31
476.814	95.31
477.033	85.31
477.252	93.31
477.471	77.31
477.69	78.31
477.908	98.31
478.127	83.31
478.346	97.31
478.564	94.31
478.783	80.31
479.002	106.31
479.22	93.31
479.439	98.31
479.658	104.31
479.876	93.31
480.095	83.31
480.313	87.31
480.532	90.31
480.751	89.31
480.969	102.31
481.188	106.31
481.406	118.31
481.624	90.31
481.843	90.31
482.061	80.31
482.28	80.31
482.498	73.31
482.717	73.31
482.935	84.31
483.153	92.31
483.372	73.31
483.59	110.31
483.808	85.31
484.027	103.31
484.245	76.31
484.463	95.31
484.681	80.31
484.9	97.31
485.118	105.31
485.336	106.31
485.554	98.31
485.772	85.31
485.99	115.31
486.209	84.31
486.427	102.31
486.645	107.31
486.863	110.31
487.081	107.31
487.299	93.31
487.517	102.31
487.735	99.31
487.953	99.31
488.171	93.31
488.389	90.31
488.607	109.31
488.825	106.31
489.043	97.31
489.261	81.31
489.479	79.31
489.696	91.31
489.914	89.31
490.132	85.31
490.35	88.31
490.568	74.31
490.786	98.31
491.003	92.31
491.221	103.31
491.439	112.31
491.657	102.31
491.874	88.31
492.092	79.31
492.31	101.31
492.527	84.31
492.745	91.31
492.963	91.31
493.18	85.31
493.398	96.31
493.615	94.31
493.833	80.31
494.05	97.31
494.268	84.31
494.485	77.31
494.703	83.31
494.92	88.31
495.138	86.31
495.355	98.31
495.573	81.31
495.79	76.31
496.008	106.31
496.225	82.31
496.442	93.31
496.66	100.31
496.877	88.31
497.094	91.31
497.312	93.31
497.529	98.31
497.746	101.31
497.963	85.31
498.181	84.31
498.398	95.31
498.615	106.31
498.832	102.31
499.049	101.31
499.267	96.31
499.484	86.31
499.701	71.31
499.918	107.31
500.135	93.31
500.352	84.31
500.569	91.31
500.786	81.31
501.003	99.31
501.22	98.31
501.437	91.31
501.654	82.31
501.871	101.31
502.088	101.31
502.305	89.31
502.522	90.31
502.739	91.31
502.956	90.31
503.172	87.31
503.389	99.31
503.606	97.31
503.823	88.31
504.04	88.31
504.256	84.31
504.473	80.31
504.69	94.31
504.907	94.31
505.123	101.31
505.34	84.31
505.557	94.31
505.773	100.31
505.99	91.31
506.207	92.31
506.423	96.31
506.64	84.31
506.856	88.31
507.073	84.31
507.289	98.31
507.506	108.31
507.722	116.31
507.939	109.31
508.155	108.31
508.372	93.31
508.588	97.31
508.805	97.31
509.021	95.31
509.238	96.31
509.454	89.31
509.67	104.31
509.887	114.31
510.103	138.31
510.319	205.31
510.536	668.31
510.752	2080.31
510.968	594.31
511.184	142.31
511.401	106.31
511.617	111.31
511.833	95.31
512.049	89.31
512.265	101.31
512.481	107.31
512.698	104.31
512.914	99.31
513.13	94.31
513.346	104.31
513.562	104.31
513.778	98.31
513.994	96.31
514.21	104.31
514.426	128.31
514.642	129.31
514.858	111.31
515.074	166.31
515.29	386.31
515.506	1232.31
