Data from Uncirc_1984_H10_HRD10591_00023.txt Node
Date: Wed Jan 03 12:21:41 EST 2024
User: Yrep
Spectrometer: HR+D1059
Trigger mode: 1
Integration Time (sec): 1.000000E-1
Scans to average: 1
Electric dark correction enabled: true
Nonlinearity correction enabled: false
Boxcar width: 0
XAxis mode: Wavelengths
Number of Pixels in Spectrum: 2048
>>>>>Begin Spectral Data<<<<<
223.165	-18.88
223.4	-18.88
223.635	-18.88
223.869	-19.88
224.104	-14.88
224.338	-13.88
224.573	-9.88
224.808	-15.88
225.042	-9.88
225.277	0.12
225.511	2.12
225.746	1.12
225.98	15.12
226.215	-1.88
226.449	9.12
226.683	24.12
226.918	27.12
227.152	26.12
227.387	30.12
227.621	19.12
227.856	43.12
228.09	41.12
228.324	48.12
228.559	49.12
228.793	64.12
229.027	63.12
229.262	57.12
229.496	69.12
229.73	69.12
229.964	92.12
230.199	58.12
230.433	93.12
230.667	95.12
230.901	67.12
231.136	73.12
231.37	70.12
231.604	63.12
231.838	62.12
232.072	78.12
232.306	74.12
232.541	83.12
232.775	80.12
233.009	73.12
233.243	77.12
233.477	79.12
233.711	86.12
233.945	83.12
234.179	81.12
234.413	85.12
234.647	83.12
234.881	76.12
235.115	89.12
235.349	62.12
235.583	71.12
235.817	78.12
236.051	84.12
236.285	71.12
236.519	92.12
236.753	86.12
236.987	87.12
237.221	87.12
237.455	88.12
237.689	69.12
237.922	87.12
238.156	82.12
238.39	66.12
238.624	78.12
238.858	84.12
239.091	75.12
239.325	73.12
239.559	85.12
239.793	77.12
240.027	95.12
240.26	74.12
240.494	73.12
240.728	70.12
240.961	86.12
241.195	78.12
241.429	67.12
241.662	70.12
241.896	57.12
242.13	70.12
242.363	80.12
242.597	72.12
242.83	78.12
243.064	74.12
243.298	73.12
243.531	93.12
243.765	89.12
243.998	73.12
244.232	60.12
244.465	88.12
244.699	69.12
244.932	77.12
245.166	74.12
245.399	86.12
245.633	86.12
245.866	87.12
246.099	72.12
246.333	87.12
246.566	71.12
246.8	78.12
247.033	73.12
247.266	73.12
247.5	62.12
247.733	78.12
247.966	89.12
248.2	68.12
248.433	59.12
248.666	65.12
248.899	77.12
249.133	80.12
249.366	92.12
249.599	86.12
249.832	93.12
250.066	85.12
250.299	78.12
250.532	88.12
250.765	67.12
250.998	77.12
251.231	67.12
251.465	77.12
251.698	92.12
251.931	85.12
252.164	83.12
252.397	73.12
252.63	77.12
252.863	92.12
253.096	71.12
253.329	83.12
253.562	77.12
253.795	75.12
254.028	91.12
254.261	78.12
254.494	77.12
254.727	87.12
254.96	79.12
255.193	70.12
255.426	73.12
255.659	65.12
255.892	96.12
256.124	83.12
256.357	85.12
256.59	81.12
256.823	85.12
257.056	78.12
257.289	66.12
257.521	92.12
257.754	88.12
257.987	82.12
258.22	79.12
258.452	71.12
258.685	77.12
258.918	79.12
259.151	73.12
259.383	82.12
259.616	70.12
259.849	73.12
260.081	78.12
260.314	85.12
260.547	76.12
260.779	84.12
261.012	80.12
261.244	71.12
261.477	100.12
261.71	99.12
261.942	100.12
262.175	107.12
262.407	90.12
262.64	78.12
262.872	91.12
263.105	81.12
263.337	82.12
263.57	87.12
263.802	88.12
264.035	81.12
264.267	82.12
264.499	94.12
264.732	77.12
264.964	74.12
265.197	86.12
265.429	73.12
265.661	71.12
265.894	76.12
266.126	86.12
266.358	90.12
266.591	88.12
266.823	82.12
267.055	76.12
267.287	86.12
267.52	89.12
267.752	83.12
267.984	87.12
268.216	69.12
268.448	80.12
268.681	79.12
268.913	74.12
269.145	74.12
269.377	77.12
269.609	77.12
269.841	78.12
270.073	73.12
270.306	78.12
270.538	72.12
270.77	79.12
271.002	84.12
271.234	79.12
271.466	88.12
271.698	107.12
271.93	95.12
272.162	87.12
272.394	91.12
272.626	81.12
272.858	94.12
273.09	84.12
273.322	79.12
273.553	99.12
273.785	72.12
274.017	79.12
274.249	84.12
274.481	85.12
274.713	78.12
274.945	81.12
275.176	87.12
275.408	85.12
275.64	70.12
275.872	88.12
276.104	81.12
276.335	72.12
276.567	91.12
276.799	115.12
277.031	81.12
277.262	82.12
277.494	84.12
277.726	83.12
277.957	88.12
278.189	76.12
278.421	87.12
278.652	85.12
278.884	82.12
279.115	86.12
279.347	83.12
279.579	87.12
279.81	87.12
280.042	88.12
280.273	82.12
280.505	84.12
280.736	104.12
280.968	82.12
281.199	71.12
281.431	93.12
281.662	77.12
281.894	91.12
282.125	90.12
282.356	109.12
282.588	128.12
282.819	110.12
283.051	87.12
283.282	88.12
283.513	91.12
283.745	74.12
283.976	72.12
284.207	95.12
284.439	96.12
284.67	108.12
284.901	74.12
285.132	84.12
285.364	81.12
285.595	80.12
285.826	86.12
286.057	77.12
286.288	103.12
286.52	97.12
286.751	81.12
286.982	88.12
287.213	78.12
287.444	95.12
287.675	85.12
287.906	85.12
288.138	96.12
288.369	100.12
288.6	83.12
288.831	83.12
289.062	78.12
289.293	85.12
289.524	94.12
289.755	80.12
289.986	93.12
290.217	102.12
290.448	84.12
290.679	82.12
290.91	77.12
291.141	84.12
291.371	91.12
291.602	83.12
291.833	74.12
292.064	94.12
292.295	88.12
292.526	88.12
292.757	95.12
292.987	89.12
293.218	95.12
293.449	97.12
293.68	75.12
293.91	92.12
294.141	86.12
294.372	94.12
294.603	80.12
294.833	90.12
295.064	93.12
295.295	98.12
295.525	89.12
295.756	90.12
295.987	106.12
296.217	149.12
296.448	111.12
296.679	89.12
296.909	109.12
297.14	85.12
297.37	90.12
297.601	86.12
297.831	74.12
298.062	77.12
298.292	96.12
298.523	86.12
298.753	92.12
298.984	82.12
299.214	88.12
299.445	87.12
299.675	98.12
299.905	84.12
300.136	84.12
300.366	87.12
300.597	83.12
300.827	97.12
301.057	96.12
301.288	101.12
301.518	87.12
301.748	93.12
301.979	104.12
302.209	91.12
302.439	91.12
302.669	94.12
302.9	80.12
303.13	97.12
303.36	86.12
303.59	97.12
303.82	83.12
304.051	87.12
304.281	96.12
304.511	100.12
304.741	88.12
304.971	91.12
305.201	88.12
305.431	75.12
305.661	89.12
305.891	85.12
306.121	94.12
306.352	84.12
306.582	110.12
306.812	98.12
307.042	103.12
307.272	93.12
307.502	83.12
307.731	85.12
307.961	86.12
308.191	88.12
308.421	89.12
308.651	97.12
308.881	88.12
309.111	88.12
309.341	73.12
309.571	85.12
309.8	85.12
310.03	88.12
310.26	103.12
310.49	90.12
310.72	103.12
310.949	102.12
311.179	97.12
311.409	90.12
311.639	91.12
311.868	86.12
312.098	98.12
312.328	105.12
312.557	98.12
312.787	104.12
313.017	91.12
313.246	91.12
313.476	78.12
313.706	81.12
313.935	85.12
314.165	93.12
314.394	108.12
314.624	101.12
314.853	102.12
315.083	102.12
315.312	87.12
315.542	87.12
315.771	88.12
316.001	75.12
316.23	97.12
316.46	101.12
316.689	96.12
316.919	83.12
317.148	99.12
317.377	91.12
317.607	89.12
317.836	73.12
318.065	93.12
318.295	103.12
318.524	89.12
318.753	89.12
318.983	80.12
319.212	107.12
319.441	103.12
319.67	107.12
319.9	95.12
320.129	96.12
320.358	92.12
320.587	94.12
320.816	97.12
321.046	97.12
321.275	95.12
321.504	78.12
321.733	85.12
321.962	97.12
322.191	99.12
322.42	99.12
322.649	103.12
322.878	105.12
323.108	112.12
323.337	114.12
323.566	124.12
323.795	150.12
324.024	170.12
324.253	345.12
324.482	723.12
324.71	1457.12
324.939	1921.12
325.168	716.12
325.397	233.12
325.626	130.12
325.855	125.12
326.084	126.12
326.313	119.12
326.542	141.12
326.77	196.12
326.999	409.12
327.228	815.12
327.457	1491.12
327.686	1190.12
327.914	328.12
328.143	180.12
328.372	147.12
328.6	119.12
328.829	122.12
329.058	114.12
329.287	108.12
329.515	94.12
329.744	106.12
329.972	104.12
330.201	97.12
330.43	93.12
330.658	107.12
330.887	122.12
331.115	98.12
331.344	105.12
331.572	103.12
331.801	99.12
332.03	93.12
332.258	78.12
332.486	93.12
332.715	98.12
332.943	101.12
333.172	91.12
333.4	93.12
333.629	100.12
333.857	104.12
334.085	88.12
334.314	94.12
334.542	86.12
334.771	92.12
334.999	85.12
335.227	91.12
335.455	92.12
335.684	90.12
335.912	96.12
336.14	97.12
336.369	79.12
336.597	73.12
336.825	90.12
337.053	96.12
337.281	90.12
337.51	102.12
337.738	83.12
337.966	85.12
338.194	90.12
338.422	86.12
338.65	93.12
338.878	89.12
339.106	89.12
339.334	93.12
339.562	89.12
339.79	89.12
340.018	79.12
340.246	87.12
340.474	94.12
340.702	88.12
340.93	81.12
341.158	87.12
341.386	98.12
341.614	89.12
341.842	81.12
342.07	87.12
342.298	106.12
342.526	91.12
342.754	85.12
342.981	84.12
343.209	94.12
343.437	111.12
343.665	71.12
343.893	97.12
344.12	89.12
344.348	85.12
344.576	96.12
344.804	83.12
345.031	96.12
345.259	93.12
345.487	88.12
345.714	104.12
345.942	104.12
346.17	81.12
346.397	79.12
346.625	85.12
346.853	84.12
347.08	94.12
347.308	87.12
347.535	101.12
347.763	103.12
347.99	75.12
348.218	105.12
348.445	88.12
348.673	113.12
348.9	93.12
349.128	107.12
349.355	77.12
349.583	100.12
349.81	95.12
350.037	102.12
350.265	104.12
350.492	100.12
350.72	113.12
350.947	94.12
351.174	99.12
351.402	102.12
351.629	103.12
351.856	98.12
352.083	79.12
352.311	102.12
352.538	113.12
352.765	107.12
352.992	128.12
353.22	117.12
353.447	99.12
353.674	95.12
353.901	91.12
354.128	98.12
354.355	108.12
354.583	91.12
354.81	98.12
355.037	91.12
355.264	95.12
355.491	98.12
355.718	103.12
355.945	82.12
356.172	86.12
356.399	80.12
356.626	93.12
356.853	96.12
357.08	90.12
357.307	98.12
357.534	96.12
357.761	100.12
357.988	100.12
358.215	92.12
358.441	95.12
358.668	94.12
358.895	94.12
359.122	100.12
359.349	85.12
359.576	106.12
359.802	88.12
360.029	106.12
360.256	95.12
360.483	89.12
360.709	79.12
360.936	101.12
361.163	86.12
361.39	111.12
361.616	91.12
361.843	92.12
362.07	99.12
362.296	83.12
362.523	98.12
362.749	93.12
362.976	87.12
363.203	85.12
363.429	82.12
363.656	90.12
363.882	82.12
364.109	89.12
364.335	100.12
364.562	82.12
364.788	90.12
365.015	90.12
365.241	102.12
365.468	109.12
365.694	106.12
365.92	104.12
366.147	95.12
366.373	93.12
366.599	98.12
366.826	73.12
367.052	75.12
367.278	83.12
367.505	93.12
367.731	99.12
367.957	87.12
368.184	78.12
368.41	103.12
368.636	97.12
368.862	128.12
369.089	112.12
369.315	95.12
369.541	78.12
369.767	88.12
369.993	78.12
370.219	83.12
370.445	82.12
370.672	78.12
370.898	95.12
371.124	81.12
371.35	75.12
371.576	78.12
371.802	98.12
372.028	82.12
372.254	89.12
372.48	96.12
372.706	93.12
372.932	88.12
373.158	87.12
373.384	98.12
373.61	94.12
373.835	88.12
374.061	90.12
374.287	106.12
374.513	95.12
374.739	99.12
374.965	81.12
375.191	93.12
375.416	84.12
375.642	82.12
375.868	105.12
376.094	86.12
376.319	80.12
376.545	97.12
376.771	89.12
376.997	88.12
377.222	107.12
377.448	89.12
377.674	94.12
377.899	86.12
378.125	98.12
378.35	100.12
378.576	95.12
378.802	84.12
379.027	93.12
379.253	78.12
379.478	81.12
379.704	99.12
379.929	84.12
380.155	61.12
380.38	80.12
380.606	93.12
380.831	106.12
381.057	103.12
381.282	97.12
381.507	110.12
381.733	84.12
381.958	99.12
382.184	93.12
382.409	98.12
382.634	110.12
382.86	90.12
383.085	99.12
383.31	104.12
383.535	97.12
383.761	96.12
383.986	102.12
384.211	91.12
384.436	95.12
384.662	98.12
384.887	94.12
385.112	98.12
385.337	96.12
385.562	103.12
385.787	96.12
386.013	107.12
386.238	108.12
386.463	105.12
386.688	102.12
386.913	93.12
387.138	113.12
387.363	107.12
387.588	104.12
387.813	87.12
388.038	104.12
388.263	111.12
388.488	111.12
388.713	101.12
388.938	92.12
389.163	93.12
389.387	81.12
389.612	87.12
389.837	93.12
390.062	101.12
390.287	95.12
390.512	98.12
390.736	93.12
390.961	88.12
391.186	100.12
391.411	95.12
391.636	91.12
391.86	91.12
392.085	71.12
392.31	85.12
392.534	89.12
392.759	93.12
392.984	106.12
393.208	104.12
393.433	98.12
393.658	115.12
393.882	102.12
394.107	87.12
394.331	94.12
394.556	84.12
394.78	83.12
395.005	72.12
395.229	85.12
395.454	85.12
395.678	93.12
395.903	94.12
396.127	104.12
396.352	82.12
396.576	77.12
396.801	93.12
397.025	91.12
397.249	69.12
397.474	72.12
397.698	95.12
397.922	84.12
398.147	82.12
398.371	74.12
398.595	91.12
398.82	84.12
399.044	79.12
399.268	85.12
399.492	77.12
399.717	95.12
399.941	93.12
400.165	85.12
400.389	99.12
400.613	86.12
400.837	101.12
401.062	98.12
401.286	97.12
401.51	85.12
401.734	82.12
401.958	81.12
402.182	126.12
402.406	145.12
402.63	114.12
402.854	93.12
403.078	91.12
403.302	99.12
403.526	77.12
403.75	86.12
403.974	93.12
404.198	91.12
404.422	95.12
404.645	87.12
404.869	81.12
405.093	95.12
405.317	96.12
405.541	94.12
405.765	102.12
405.988	108.12
406.212	150.12
406.436	193.12
406.66	143.12
406.883	106.12
407.107	91.12
407.331	88.12
407.555	89.12
407.778	94.12
408.002	84.12
408.226	84.12
408.449	89.12
408.673	85.12
408.896	102.12
409.12	97.12
409.344	91.12
409.567	90.12
409.791	86.12
410.014	99.12
410.238	87.12
410.461	85.12
410.685	99.12
410.908	90.12
411.132	97.12
411.355	95.12
411.578	85.12
411.802	89.12
412.025	89.12
412.249	90.12
412.472	85.12
412.695	93.12
412.919	82.12
413.142	84.12
413.365	94.12
413.589	74.12
413.812	87.12
414.035	67.12
414.258	100.12
414.482	89.12
414.705	91.12
414.928	87.12
415.151	91.12
415.374	97.12
415.597	96.12
415.821	90.12
416.044	91.12
416.267	89.12
416.49	94.12
416.713	82.12
416.936	82.12
417.159	86.12
417.382	80.12
417.605	81.12
417.828	95.12
418.051	109.12
418.274	96.12
418.497	91.12
418.72	95.12
418.943	91.12
419.166	82.12
419.389	80.12
419.611	93.12
419.834	87.12
420.057	82.12
420.28	101.12
420.503	84.12
420.726	91.12
420.948	82.12
421.171	93.12
421.394	95.12
421.617	93.12
421.839	82.12
422.062	84.12
422.285	101.12
422.507	97.12
422.73	99.12
422.953	78.12
423.175	95.12
423.398	83.12
423.621	94.12
423.843	78.12
424.066	68.12
424.288	77.12
424.511	95.12
424.733	96.12
424.956	101.12
425.178	94.12
425.401	105.12
425.623	98.12
425.846	89.12
426.068	87.12
426.291	86.12
426.513	88.12
426.735	82.12
426.958	95.12
427.18	101.12
427.402	121.12
427.625	131.12
427.847	117.12
428.069	87.12
428.292	93.12
428.514	91.12
428.736	101.12
428.958	94.12
429.181	81.12
429.403	87.12
429.625	81.12
429.847	81.12
430.069	105.12
430.292	104.12
430.514	87.12
430.736	79.12
430.958	84.12
431.18	79.12
431.402	91.12
431.624	81.12
431.846	66.12
432.068	85.12
432.29	83.12
432.512	78.12
432.734	85.12
432.956	89.12
433.178	104.12
433.4	105.12
433.622	93.12
433.844	96.12
434.066	77.12
434.287	89.12
434.509	84.12
434.731	81.12
434.953	80.12
435.175	96.12
435.397	86.12
435.618	84.12
435.84	101.12
436.062	118.12
436.284	119.12
436.505	89.12
436.727	96.12
436.949	81.12
437.17	87.12
437.392	93.12
437.614	83.12
437.835	103.12
438.057	106.12
438.278	95.12
438.5	111.12
438.721	109.12
438.943	98.12
439.165	70.12
439.386	80.12
439.608	76.12
439.829	88.12
440.05	100.12
440.272	122.12
440.493	97.12
440.715	69.12
440.936	85.12
441.158	85.12
441.379	72.12
441.6	101.12
441.822	83.12
442.043	89.12
442.264	99.12
442.486	98.12
442.707	78.12
442.928	104.12
443.149	116.12
443.371	119.12
443.592	95.12
443.813	114.12
444.034	101.12
444.255	95.12
444.476	85.12
444.698	80.12
444.919	91.12
445.14	125.12
445.361	122.12
445.582	104.12
445.803	125.12
446.024	123.12
446.245	130.12
446.466	105.12
446.687	79.12
446.908	86.12
447.129	82.12
447.35	88.12
447.571	77.12
447.792	86.12
448.013	105.12
448.234	111.12
448.455	86.12
448.675	111.12
448.896	122.12
449.117	96.12
449.338	86.12
449.559	121.12
449.779	123.12
450	91.12
450.221	74.12
450.442	89.12
450.662	86.12
450.883	107.12
451.104	90.12
451.324	98.12
451.545	93.12
451.766	84.12
451.986	67.12
452.207	81.12
452.428	80.12
452.648	78.12
452.869	107.12
453.089	107.12
453.31	105.12
453.53	87.12
453.751	88.12
453.971	100.12
454.192	94.12
454.412	93.12
454.633	65.12
454.853	83.12
455.073	87.12
455.294	89.12
455.514	96.12
455.734	86.12
455.955	78.12
456.175	88.12
456.395	84.12
456.616	65.12
456.836	95.12
457.056	81.12
457.276	91.12
457.497	90.12
457.717	77.12
457.937	82.12
458.157	89.12
458.377	85.12
458.598	115.12
458.818	137.12
459.038	144.12
459.258	98.12
459.478	74.12
459.698	74.12
459.918	95.12
460.138	79.12
460.358	78.12
460.578	83.12
460.798	89.12
461.018	84.12
461.238	101.12
461.458	84.12
461.678	78.12
461.898	74.12
462.118	75.12
462.338	84.12
462.558	81.12
462.777	71.12
462.997	79.12
463.217	85.12
463.437	72.12
463.657	80.12
463.876	70.12
464.096	73.12
464.316	81.12
464.536	90.12
464.755	88.12
464.975	84.12
465.195	169.12
465.414	136.12
465.634	94.12
465.854	80.12
466.073	89.12
466.293	80.12
466.512	71.12
466.732	79.12
466.951	86.12
467.171	92.12
467.391	81.12
467.61	102.12
467.829	92.12
468.049	85.12
468.268	89.12
468.488	75.12
468.707	75.12
468.927	82.12
469.146	82.12
469.365	87.12
469.585	101.12
469.804	102.12
470.023	100.12
470.243	92.12
470.462	100.12
470.681	99.12
470.901	81.12
471.12	81.12
471.339	77.12
471.558	99.12
471.777	84.12
471.997	77.12
472.216	84.12
472.435	85.12
472.654	78.12
472.873	95.12
473.092	93.12
473.311	80.12
473.53	78.12
473.749	89.12
473.968	88.12
474.187	101.12
474.406	109.12
474.625	78.12
474.844	81.12
475.063	82.12
475.282	89.12
475.501	77.12
475.72	96.12
475.939	82.12
476.158	80.12
476.377	86.12
476.596	82.12
476.814	100.12
477.033	94.12
477.252	98.12
477.471	79.12
477.69	89.12
477.908	69.12
478.127	73.12
478.346	94.12
478.564	103.12
478.783	96.12
479.002	91.12
479.22	93.12
479.439	96.12
479.658	101.12
479.876	107.12
480.095	91.12
480.313	97.12
480.532	83.12
480.751	84.12
480.969	94.12
481.188	103.12
481.406	87.12
481.624	83.12
481.843	73.12
482.061	91.12
482.28	72.12
482.498	94.12
482.717	80.12
482.935	96.12
483.153	84.12
483.372	85.12
483.59	90.12
483.808	77.12
484.027	87.12
484.245	99.12
484.463	95.12
484.681	86.12
484.9	113.12
485.118	101.12
485.336	92.12
485.554	87.12
485.772	107.12
485.99	108.12
486.209	99.12
486.427	110.12
486.645	90.12
486.863	113.12
487.081	100.12
487.299	89.12
487.517	92.12
487.735	96.12
487.953	94.12
488.171	95.12
488.389	102.12
488.607	97.12
488.825	95.12
489.043	102.12
489.261	95.12
489.479	103.12
489.696	83.12
489.914	92.12
490.132	80.12
490.35	89.12
490.568	91.12
490.786	90.12
491.003	90.12
491.221	96.12
491.439	85.12
491.657	88.12
491.874	91.12
492.092	91.12
492.31	93.12
492.527	90.12
492.745	87.12
492.963	98.12
493.18	81.12
493.398	107.12
493.615	88.12
493.833	95.12
494.05	113.12
494.268	79.12
494.485	80.12
494.703	77.12
494.92	87.12
495.138	88.12
495.355	87.12
495.573	73.12
495.79	87.12
496.008	93.12
496.225	87.12
496.442	85.12
496.66	99.12
496.877	107.12
497.094	93.12
497.312	87.12
497.529	71.12
497.746	100.12
497.963	95.12
498.181	95.12
498.398	88.12
498.615	105.12
498.832	86.12
499.049	79.12
499.267	103.12
499.484	94.12
499.701	95.12
499.918	100.12
500.135	85.12
500.352	93.12
500.569	77.12
500.786	82.12
501.003	90.12
501.22	91.12
501.437	101.12
501.654	90.12
501.871	95.12
502.088	104.12
502.305	103.12
502.522	91.12
502.739	93.12
502.956	84.12
503.172	82.12
503.389	81.12
503.606	109.12
503.823	86.12
504.04	90.12
504.256	89.12
504.473	92.12
504.69	74.12
504.907	97.12
505.123	81.12
505.34	70.12
505.557	89.12
505.773	98.12
505.99	83.12
506.207	94.12
506.423	100.12
506.64	90.12
506.856	85.12
507.073	99.12
507.289	94.12
507.506	91.12
507.722	113.12
507.939	116.12
508.155	96.12
508.372	89.12
508.588	79.12
508.805	88.12
509.021	88.12
509.238	99.12
509.454	93.12
509.67	93.12
509.887	118.12
510.103	126.12
510.319	215.12
510.536	699.12
510.752	2198.12
510.968	598.12
511.184	143.12
511.401	101.12
511.617	107.12
511.833	86.12
512.049	110.12
512.265	72.12
512.481	91.12
512.698	83.12
512.914	90.12
513.13	106.12
513.346	104.12
513.562	98.12
513.778	101.12
513.994	92.12
514.21	79.12
514.426	122.12
514.642	122.12
514.858	119.12
515.074	146.12
515.29	399.12
515.506	1333.12
515.721	464.12
515.937	124.12
516.153	97.12
516.369	104.12
