Data from Uncirc_1984_H10_HRD10591_00041.txt Node
Date: Wed Jan 03 12:21:45 EST 2024
User: Yrep
Spectrometer: HR+D1059
Trigger mode: 1
Integration Time (sec): 1.000000E-1
Scans to average: 1
Electric dark correction enabled: true
Nonlinearity correction enabled: false
Boxcar width: 0
XAxis mode: Wavelengths
Number of Pixels in Spectrum: 2048
>>>>>Begin Spectral Data<<<<<
223.165	-7.38
223.4	-7.38
223.635	-7.38
223.869	-21.38
224.104	-18.38
224.338	-22.38
224.573	-6.38
224.808	-15.38
225.042	-5.38
225.277	1.62
225.511	-1.38
225.746	-13.38
225.98	2.62
226.215	10.62
226.449	14.62
226.683	28.62
226.918	28.62
227.152	24.62
227.387	35.62
227.621	30.62
227.856	48.62
228.09	42.62
228.324	57.62
228.559	56.62
228.793	75.62
229.027	69.62
229.262	60.62
229.496	66.62
229.73	84.62
229.964	53.62
230.199	65.62
230.433	66.62
230.667	72.62
230.901	71.62
231.136	81.62
231.37	69.62
231.604	80.62
231.838	90.62
232.072	83.62
232.306	71.62
232.541	85.62
232.775	90.62
233.009	80.62
233.243	77.62
233.477	89.62
233.711	76.62
233.945	81.62
234.179	74.62
234.413	83.62
234.647	74.62
234.881	79.62
235.115	79.62
235.349	73.62
235.583	73.62
235.817	65.62
236.051	78.62
236.285	78.62
236.519	76.62
236.753	73.62
236.987	76.62
237.221	67.62
237.455	78.62
237.689	69.62
237.922	75.62
238.156	76.62
238.39	81.62
238.624	82.62
238.858	67.62
239.091	62.62
239.325	79.62
239.559	73.62
239.793	94.62
240.027	86.62
240.26	63.62
240.494	74.62
240.728	65.62
240.961	72.62
241.195	88.62
241.429	84.62
241.662	74.62
241.896	84.62
242.13	71.62
242.363	73.62
242.597	78.62
242.83	68.62
243.064	66.62
243.298	76.62
243.531	68.62
243.765	61.62
243.998	82.62
244.232	84.62
244.465	85.62
244.699	82.62
244.932	67.62
245.166	70.62
245.399	74.62
245.633	84.62
245.866	73.62
246.099	78.62
246.333	70.62
246.566	76.62
246.8	60.62
247.033	69.62
247.266	90.62
247.5	86.62
247.733	74.62
247.966	76.62
248.2	84.62
248.433	74.62
248.666	70.62
248.899	85.62
249.133	80.62
249.366	89.62
249.599	93.62
249.832	82.62
250.066	69.62
250.299	69.62
250.532	80.62
250.765	72.62
250.998	85.62
251.231	90.62
251.465	79.62
251.698	70.62
251.931	80.62
252.164	72.62
252.397	78.62
252.63	79.62
252.863	77.62
253.096	80.62
253.329	89.62
253.562	80.62
253.795	77.62
254.028	84.62
254.261	76.62
254.494	69.62
254.727	77.62
254.96	64.62
255.193	68.62
255.426	83.62
255.659	82.62
255.892	84.62
256.124	78.62
256.357	63.62
256.59	88.62
256.823	68.62
257.056	93.62
257.289	90.62
257.521	84.62
257.754	80.62
257.987	82.62
258.22	79.62
258.452	86.62
258.685	89.62
258.918	85.62
259.151	78.62
259.383	66.62
259.616	80.62
259.849	84.62
260.081	78.62
260.314	78.62
260.547	71.62
260.779	80.62
261.012	71.62
261.244	73.62
261.477	74.62
261.71	104.62
261.942	88.62
262.175	95.62
262.407	88.62
262.64	81.62
262.872	70.62
263.105	88.62
263.337	79.62
263.57	88.62
263.802	85.62
264.035	90.62
264.267	72.62
264.499	100.62
264.732	87.62
264.964	71.62
265.197	83.62
265.429	80.62
265.661	81.62
265.894	82.62
266.126	86.62
266.358	84.62
266.591	83.62
266.823	75.62
267.055	86.62
267.287	86.62
267.52	78.62
267.752	69.62
267.984	96.62
268.216	84.62
268.448	76.62
268.681	85.62
268.913	85.62
269.145	84.62
269.377	88.62
269.609	91.62
269.841	78.62
270.073	90.62
270.306	82.62
270.538	81.62
270.77	82.62
271.002	82.62
271.234	101.62
271.466	92.62
271.698	86.62
271.93	76.62
272.162	88.62
272.394	79.62
272.626	78.62
272.858	69.62
273.09	71.62
273.322	71.62
273.553	86.62
273.785	78.62
274.017	96.62
274.249	86.62
274.481	87.62
274.713	90.62
274.945	88.62
275.176	87.62
275.408	89.62
275.64	86.62
275.872	86.62
276.104	85.62
276.335	82.62
276.567	85.62
276.799	100.62
277.031	77.62
277.262	95.62
277.494	82.62
277.726	88.62
277.957	68.62
278.189	85.62
278.421	84.62
278.652	85.62
278.884	92.62
279.115	86.62
279.347	80.62
279.579	103.62
279.81	95.62
280.042	85.62
280.273	87.62
280.505	92.62
280.736	73.62
280.968	84.62
281.199	87.62
281.431	92.62
281.662	80.62
281.894	84.62
282.125	100.62
282.356	112.62
282.588	128.62
282.819	105.62
283.051	89.62
283.282	79.62
283.513	78.62
283.745	80.62
283.976	93.62
284.207	84.62
284.439	82.62
284.67	92.62
284.901	88.62
285.132	72.62
285.364	80.62
285.595	66.62
285.826	78.62
286.057	80.62
286.288	88.62
286.52	96.62
286.751	90.62
286.982	86.62
287.213	93.62
287.444	88.62
287.675	90.62
287.906	85.62
288.138	99.62
288.369	93.62
288.6	86.62
288.831	86.62
289.062	81.62
289.293	85.62
289.524	89.62
289.755	96.62
289.986	75.62
290.217	84.62
290.448	82.62
290.679	80.62
290.91	93.62
291.141	81.62
291.371	85.62
291.602	85.62
291.833	74.62
292.064	91.62
292.295	90.62
292.526	80.62
292.757	73.62
292.987	70.62
293.218	81.62
293.449	89.62
293.68	80.62
293.91	86.62
294.141	81.62
294.372	82.62
294.603	82.62
294.833	78.62
295.064	90.62
295.295	78.62
295.525	86.62
295.756	90.62
295.987	101.62
296.217	130.62
296.448	116.62
296.679	83.62
296.909	71.62
297.14	82.62
297.37	96.62
297.601	81.62
297.831	84.62
298.062	93.62
298.292	97.62
298.523	80.62
298.753	91.62
298.984	94.62
299.214	84.62
299.445	85.62
299.675	84.62
299.905	89.62
300.136	83.62
300.366	86.62
300.597	90.62
300.827	101.62
301.057	95.62
301.288	106.62
301.518	96.62
301.748	78.62
301.979	104.62
302.209	78.62
302.439	90.62
302.669	83.62
302.9	84.62
303.13	100.62
303.36	89.62
303.59	102.62
303.82	98.62
304.051	83.62
304.281	98.62
304.511	84.62
304.741	81.62
304.971	89.62
305.201	94.62
305.431	81.62
305.661	74.62
305.891	88.62
306.121	83.62
306.352	106.62
306.582	106.62
306.812	94.62
307.042	90.62
307.272	93.62
307.502	77.62
307.731	103.62
307.961	100.62
308.191	73.62
308.421	96.62
308.651	92.62
308.881	84.62
309.111	93.62
309.341	84.62
309.571	86.62
309.8	108.62
310.03	98.62
310.26	101.62
310.49	90.62
310.72	90.62
310.949	80.62
311.179	97.62
311.409	78.62
311.639	80.62
311.868	80.62
312.098	80.62
312.328	96.62
312.557	89.62
312.787	97.62
313.017	104.62
313.246	76.62
313.476	96.62
313.706	106.62
313.935	93.62
314.165	86.62
314.394	92.62
314.624	92.62
314.853	102.62
315.083	92.62
315.312	94.62
315.542	88.62
315.771	99.62
316.001	90.62
316.23	80.62
316.46	93.62
316.689	88.62
316.919	94.62
317.148	99.62
317.377	92.62
317.607	100.62
317.836	97.62
318.065	97.62
318.295	92.62
318.524	96.62
318.753	96.62
318.983	68.62
319.212	96.62
319.441	95.62
319.67	114.62
319.9	96.62
320.129	87.62
320.358	93.62
320.587	99.62
320.816	90.62
321.046	101.62
321.275	98.62
321.504	98.62
321.733	97.62
321.962	97.62
322.191	98.62
322.42	114.62
322.649	118.62
322.878	113.62
323.108	108.62
323.337	119.62
323.566	132.62
323.795	156.62
324.024	196.62
324.253	375.62
324.482	841.62
324.71	1712.62
324.939	2242.62
325.168	783.62
325.397	244.62
325.626	149.62
325.855	145.62
326.084	117.62
326.313	136.62
326.542	156.62
326.77	226.62
326.999	478.62
327.228	963.62
327.457	1760.62
327.686	1388.62
327.914	357.62
328.143	185.62
328.372	135.62
328.6	116.62
328.829	116.62
329.058	113.62
329.287	129.62
329.515	106.62
329.744	95.62
329.972	91.62
330.201	99.62
330.43	109.62
330.658	108.62
330.887	120.62
331.115	123.62
331.344	95.62
331.572	109.62
331.801	96.62
332.03	100.62
332.258	89.62
332.486	102.62
332.715	93.62
332.943	103.62
333.172	106.62
333.4	81.62
333.629	112.62
333.857	99.62
334.085	99.62
334.314	99.62
334.542	99.62
334.771	102.62
334.999	106.62
335.227	92.62
335.455	105.62
335.684	104.62
335.912	101.62
336.14	93.62
336.369	97.62
336.597	114.62
336.825	88.62
337.053	89.62
337.281	87.62
337.51	90.62
337.738	89.62
337.966	81.62
338.194	100.62
338.422	94.62
338.65	101.62
338.878	90.62
339.106	88.62
339.334	96.62
339.562	86.62
339.79	85.62
340.018	79.62
340.246	95.62
340.474	92.62
340.702	88.62
340.93	102.62
341.158	92.62
341.386	88.62
341.614	90.62
341.842	94.62
342.07	90.62
342.298	101.62
342.526	97.62
342.754	80.62
342.981	95.62
343.209	80.62
343.437	103.62
343.665	88.62
343.893	98.62
344.12	90.62
344.348	86.62
344.576	95.62
344.804	119.62
345.031	99.62
345.259	101.62
345.487	93.62
345.714	98.62
345.942	96.62
346.17	84.62
346.397	100.62
346.625	103.62
346.853	108.62
347.08	80.62
347.308	105.62
347.535	97.62
347.763	97.62
347.99	108.62
348.218	107.62
348.445	108.62
348.673	81.62
348.9	90.62
349.128	105.62
349.355	85.62
349.583	88.62
349.81	91.62
350.037	92.62
350.265	88.62
350.492	85.62
350.72	91.62
350.947	99.62
351.174	101.62
351.402	102.62
351.629	113.62
351.856	94.62
352.083	102.62
352.311	93.62
352.538	117.62
352.765	104.62
352.992	116.62
353.22	103.62
353.447	94.62
353.674	105.62
353.901	85.62
354.128	111.62
354.355	85.62
354.583	96.62
354.81	99.62
355.037	106.62
355.264	87.62
355.491	89.62
355.718	89.62
355.945	76.62
356.172	85.62
356.399	97.62
356.626	111.62
356.853	80.62
357.08	88.62
357.307	93.62
357.534	80.62
357.761	87.62
357.988	106.62
358.215	100.62
358.441	78.62
358.668	95.62
358.895	94.62
359.122	96.62
359.349	79.62
359.576	83.62
359.802	105.62
360.029	91.62
360.256	95.62
360.483	118.62
360.709	92.62
360.936	93.62
361.163	93.62
361.39	81.62
361.616	71.62
361.843	103.62
362.07	87.62
362.296	83.62
362.523	84.62
362.749	97.62
362.976	105.62
363.203	90.62
363.429	87.62
363.656	84.62
363.882	93.62
364.109	96.62
364.335	94.62
364.562	85.62
364.788	93.62
365.015	81.62
365.241	95.62
365.468	100.62
365.694	86.62
365.92	96.62
366.147	88.62
366.373	92.62
366.599	88.62
366.826	83.62
367.052	94.62
367.278	89.62
367.505	88.62
367.731	84.62
367.957	96.62
368.184	84.62
368.41	90.62
368.636	102.62
368.862	127.62
369.089	93.62
369.315	92.62
369.541	90.62
369.767	86.62
369.993	84.62
370.219	100.62
370.445	84.62
370.672	87.62
370.898	89.62
371.124	85.62
371.35	93.62
371.576	86.62
371.802	86.62
372.028	86.62
372.254	92.62
372.48	96.62
372.706	98.62
372.932	84.62
373.158	84.62
373.384	96.62
373.61	81.62
373.835	66.62
374.061	91.62
374.287	97.62
374.513	83.62
374.739	78.62
374.965	92.62
375.191	87.62
375.416	95.62
375.642	97.62
375.868	95.62
376.094	87.62
376.319	86.62
376.545	87.62
376.771	97.62
376.997	99.62
377.222	93.62
377.448	88.62
377.674	89.62
377.899	72.62
378.125	85.62
378.35	87.62
378.576	103.62
378.802	96.62
379.027	97.62
379.253	80.62
379.478	97.62
379.704	77.62
379.929	81.62
380.155	86.62
380.38	86.62
380.606	97.62
380.831	98.62
381.057	97.62
381.282	96.62
381.507	72.62
381.733	92.62
381.958	90.62
382.184	93.62
382.409	87.62
382.634	103.62
382.86	91.62
383.085	90.62
383.31	108.62
383.535	100.62
383.761	97.62
383.986	110.62
384.211	104.62
384.436	99.62
384.662	91.62
384.887	96.62
385.112	94.62
385.337	104.62
385.562	98.62
385.787	101.62
386.013	95.62
386.238	98.62
386.463	97.62
386.688	96.62
386.913	105.62
387.138	86.62
387.363	102.62
387.588	87.62
387.813	86.62
388.038	93.62
388.263	95.62
388.488	110.62
388.713	100.62
388.938	97.62
389.163	90.62
389.387	90.62
389.612	88.62
389.837	102.62
390.062	97.62
390.287	86.62
390.512	93.62
390.736	106.62
390.961	98.62
391.186	93.62
391.411	102.62
391.636	98.62
391.86	82.62
392.085	85.62
392.31	82.62
392.534	80.62
392.759	78.62
392.984	79.62
393.208	80.62
393.433	98.62
393.658	88.62
393.882	92.62
394.107	99.62
394.331	88.62
394.556	82.62
394.78	95.62
395.005	76.62
395.229	78.62
395.454	90.62
395.678	74.62
395.903	84.62
396.127	88.62
396.352	88.62
396.576	85.62
396.801	92.62
397.025	99.62
397.249	105.62
397.474	81.62
397.698	95.62
397.922	94.62
398.147	84.62
398.371	86.62
398.595	93.62
398.82	85.62
399.044	73.62
399.268	97.62
399.492	78.62
399.717	93.62
399.941	97.62
400.165	96.62
400.389	96.62
400.613	87.62
400.837	76.62
401.062	87.62
401.286	76.62
401.51	97.62
401.734	71.62
401.958	105.62
402.182	135.62
402.406	148.62
402.63	123.62
402.854	105.62
403.078	89.62
403.302	72.62
403.526	93.62
403.75	69.62
403.974	83.62
404.198	100.62
404.422	101.62
404.645	85.62
404.869	81.62
405.093	90.62
405.317	81.62
405.541	93.62
405.765	94.62
405.988	112.62
406.212	155.62
406.436	211.62
406.66	142.62
406.883	110.62
407.107	96.62
407.331	86.62
407.555	104.62
407.778	88.62
408.002	86.62
408.226	99.62
408.449	79.62
408.673	94.62
408.896	88.62
409.12	101.62
409.344	90.62
409.567	94.62
409.791	103.62
410.014	81.62
410.238	98.62
410.461	94.62
410.685	84.62
410.908	95.62
411.132	110.62
411.355	113.62
411.578	95.62
411.802	94.62
412.025	89.62
412.249	94.62
412.472	88.62
412.695	88.62
412.919	96.62
413.142	85.62
413.365	83.62
413.589	74.62
413.812	84.62
414.035	68.62
414.258	101.62
414.482	88.62
414.705	92.62
414.928	86.62
415.151	90.62
415.374	101.62
415.597	78.62
415.821	89.62
416.044	82.62
416.267	76.62
416.49	92.62
416.713	103.62
416.936	82.62
417.159	93.62
417.382	82.62
417.605	96.62
417.828	88.62
418.051	87.62
418.274	90.62
418.497	90.62
418.72	88.62
418.943	97.62
419.166	82.62
419.389	89.62
419.611	96.62
419.834	102.62
420.057	83.62
420.28	80.62
420.503	86.62
420.726	92.62
420.948	99.62
421.171	100.62
421.394	85.62
421.617	87.62
421.839	88.62
422.062	84.62
422.285	94.62
422.507	97.62
422.73	117.62
422.953	94.62
423.175	80.62
423.398	89.62
423.621	87.62
423.843	72.62
424.066	95.62
424.288	95.62
424.511	93.62
424.733	99.62
424.956	69.62
425.178	90.62
425.401	90.62
425.623	102.62
425.846	100.62
426.068	90.62
426.291	81.62
426.513	103.62
426.735	93.62
426.958	84.62
427.18	93.62
427.402	136.62
427.625	147.62
427.847	108.62
428.069	100.62
428.292	64.62
428.514	88.62
428.736	88.62
428.958	67.62
429.181	97.62
429.403	79.62
429.625	89.62
429.847	73.62
430.069	109.62
430.292	86.62
430.514	85.62
430.736	70.62
430.958	95.62
431.18	74.62
431.402	83.62
431.624	71.62
431.846	95.62
432.068	97.62
432.29	95.62
432.512	89.62
432.734	96.62
432.956	81.62
433.178	94.62
433.4	95.62
433.622	84.62
433.844	87.62
434.066	89.62
434.287	93.62
434.509	92.62
434.731	88.62
434.953	90.62
435.175	84.62
435.397	89.62
435.618	94.62
435.84	89.62
436.062	114.62
436.284	120.62
436.505	100.62
436.727	95.62
436.949	90.62
437.17	85.62
437.392	87.62
437.614	103.62
437.835	105.62
438.057	122.62
438.278	94.62
438.5	105.62
438.721	121.62
438.943	106.62
439.165	83.62
439.386	76.62
439.608	85.62
439.829	97.62
440.05	121.62
440.272	136.62
440.493	98.62
440.715	108.62
440.936	84.62
441.158	90.62
441.379	102.62
441.6	90.62
441.822	100.62
442.043	83.62
442.264	94.62
442.486	95.62
442.707	73.62
442.928	102.62
443.149	129.62
443.371	112.62
443.592	95.62
443.813	109.62
444.034	101.62
444.255	100.62
444.476	83.62
444.698	92.62
444.919	90.62
445.14	132.62
445.361	120.62
445.582	119.62
445.803	122.62
446.024	119.62
446.245	135.62
446.466	104.62
446.687	92.62
446.908	88.62
447.129	97.62
447.35	90.62
447.571	86.62
447.792	96.62
448.013	84.62
448.234	109.62
448.455	101.62
448.675	117.62
448.896	110.62
449.117	105.62
449.338	104.62
449.559	121.62
449.779	151.62
450	94.62
450.221	87.62
450.442	90.62
450.662	92.62
450.883	100.62
451.104	112.62
451.324	100.62
451.545	78.62
451.766	77.62
451.986	93.62
452.207	91.62
452.428	84.62
452.648	103.62
452.869	101.62
453.089	104.62
453.31	105.62
453.53	82.62
453.751	94.62
453.971	107.62
454.192	96.62
454.412	101.62
454.633	89.62
454.853	84.62
455.073	86.62
455.294	87.62
455.514	97.62
455.734	79.62
455.955	89.62
456.175	75.62
456.395	92.62
456.616	88.62
456.836	87.62
457.056	84.62
457.276	81.62
457.497	96.62
457.717	90.62
457.937	81.62
458.157	92.62
458.377	77.62
458.598	112.62
458.818	154.62
459.038	149.62
459.258	110.62
459.478	103.62
459.698	86.62
459.918	82.62
460.138	71.62
460.358	77.62
460.578	85.62
460.798	78.62
461.018	79.62
461.238	81.62
461.458	80.62
461.678	84.62
461.898	85.62
462.118	94.62
462.338	91.62
462.558	78.62
462.777	90.62
462.997	82.62
463.217	94.62
463.437	98.62
463.657	78.62
463.876	79.62
464.096	87.62
464.316	95.62
464.536	95.62
464.755	103.62
464.975	103.62
465.195	146.62
465.414	146.62
465.634	100.62
465.854	92.62
466.073	81.62
466.293	81.62
466.512	97.62
466.732	79.62
466.951	87.62
467.171	97.62
467.391	96.62
467.61	101.62
467.829	84.62
468.049	71.62
468.268	86.62
468.488	85.62
468.707	87.62
468.927	84.62
469.146	79.62
469.365	84.62
469.585	68.62
469.804	89.62
470.023	100.62
470.243	90.62
470.462	92.62
470.681	109.62
470.901	102.62
471.12	93.62
471.339	72.62
471.558	69.62
471.777	86.62
471.997	80.62
472.216	85.62
472.435	71.62
472.654	80.62
472.873	88.62
473.092	90.62
473.311	82.62
473.53	85.62
473.749	88.62
473.968	101.62
474.187	102.62
474.406	81.62
474.625	81.62
474.844	88.62
475.063	85.62
475.282	95.62
475.501	92.62
475.72	86.62
475.939	92.62
476.158	80.62
476.377	82.62
476.596	70.62
476.814	79.62
477.033	85.62
477.252	76.62
477.471	78.62
477.69	79.62
477.908	83.62
478.127	84.62
478.346	90.62
478.564	82.62
478.783	93.62
479.002	93.62
479.22	93.62
479.439	108.62
479.658	100.62
479.876	82.62
480.095	72.62
480.313	87.62
480.532	76.62
480.751	103.62
480.969	100.62
481.188	91.62
481.406	89.62
481.624	89.62
481.843	91.62
482.061	88.62
482.28	76.62
482.498	87.62
482.717	80.62
482.935	88.62
483.153	76.62
483.372	100.62
483.59	95.62
483.808	89.62
484.027	97.62
484.245	85.62
484.463	90.62
484.681	98.62
484.9	84.62
485.118	93.62
485.336	80.62
485.554	88.62
485.772	88.62
485.99	98.62
486.209	104.62
486.427	103.62
486.645	117.62
486.863	111.62
487.081	110.62
487.299	94.62
487.517	92.62
487.735	89.62
487.953	100.62
488.171	105.62
488.389	92.62
488.607	104.62
488.825	85.62
489.043	84.62
489.261	87.62
489.479	81.62
489.696	64.62
489.914	88.62
490.132	80.62
490.35	96.62
490.568	94.62
490.786	84.62
491.003	87.62
491.221	101.62
491.439	103.62
491.657	92.62
491.874	90.62
492.092	86.62
492.31	81.62
492.527	87.62
492.745	77.62
492.963	87.62
493.18	69.62
493.398	88.62
493.615	90.62
493.833	111.62
494.05	95.62
494.268	77.62
494.485	84.62
494.703	78.62
494.92	101.62
495.138	92.62
495.355	80.62
495.573	103.62
495.79	102.62
496.008	94.62
496.225	83.62
496.442	78.62
496.66	102.62
496.877	84.62
497.094	85.62
497.312	79.62
497.529	88.62
497.746	76.62
497.963	100.62
498.181	96.62
498.398	87.62
498.615	113.62
498.832	111.62
499.049	92.62
499.267	94.62
499.484	96.62
499.701	87.62
499.918	92.62
500.135	92.62
500.352	89.62
500.569	92.62
500.786	85.62
501.003	95.62
501.22	88.62
501.437	77.62
501.654	95.62
501.871	97.62
502.088	89.62
502.305	94.62
502.522	95.62
502.739	82.62
502.956	81.62
503.172	82.62
503.389	104.62
503.606	89.62
503.823	98.62
504.04	104.62
504.256	76.62
504.473	71.62
504.69	84.62
504.907	87.62
505.123	88.62
505.34	89.62
505.557	96.62
505.773	95.62
505.99	97.62
506.207	65.62
506.423	79.62
506.64	74.62
506.856	94.62
507.073	79.62
507.289	108.62
507.506	102.62
507.722	109.62
507.939	94.62
508.155	98.62
508.372	97.62
508.588	91.62
508.805	102.62
509.021	90.62
509.238	93.62
509.454	88.62
509.67	90.62
509.887	109.62
510.103	128.62
510.319	210.62
510.536	721.62
510.752	2300.62
510.968	628.62
511.184	155.62
511.401	105.62
511.617	96.62
511.833	80.62
512.049	88.62
512.265	74.62
512.481	89.62
512.698	83.62
512.914	82.62
513.13	90.62
513.346	95.62
513.562	96.62
513.778	79.62
513.994	93.62
514.21	108.62
514.426	122.62
514.642	127.62
514.858	117.62
515.074	143.62
515.29	398.62
515.506	1358.62
515.721	494.62
515.937	147.62
516.153	100.62
516.369	98.62
