Data from Uncirc_1984_H10_HRD10591_00081.txt Node
Date: Wed Jan 03 12:21:53 EST 2024
User: Yrep
Spectrometer: HR+D1059
Trigger mode: 1
Integration Time (sec): 1.000000E-1
Scans to average: 1
Electric dark correction enabled: true
Nonlinearity correction enabled: false
Boxcar width: 0
XAxis mode: Wavelengths
Number of Pixels in Spectrum: 2048
>>>>>Begin Spectral Data<<<<<
223.165	-15.44
223.4	-15.44
223.635	-15.44
223.869	-20.44
224.104	-23.44
224.338	-25.44
224.573	-20.44
224.808	-14.44
225.042	-4.44
225.277	-9.44
225.511	-2.44
225.746	15.56
225.98	-8.44
226.215	7.56
226.449	23.56
226.683	31.56
226.918	24.56
227.152	41.56
227.387	24.56
227.621	29.56
227.856	29.56
228.09	36.56
228.324	55.56
228.559	48.56
228.793	62.56
229.027	59.56
229.262	62.56
229.496	60.56
229.73	62.56
229.964	72.56
230.199	72.56
230.433	66.56
230.667	71.56
230.901	51.56
231.136	84.56
231.37	62.56
231.604	89.56
231.838	70.56
232.072	78.56
232.306	79.56
232.541	86.56
232.775	82.56
233.009	61.56
233.243	78.56
233.477	67.56
233.711	62.56
233.945	71.56
234.179	86.56
234.413	88.56
234.647	78.56
234.881	69.56
235.115	66.56
235.349	66.56
235.583	62.56
235.817	86.56
236.051	70.56
236.285	77.56
236.519	88.56
236.753	55.56
236.987	68.56
237.221	82.56
237.455	79.56
237.689	85.56
237.922	74.56
238.156	75.56
238.39	76.56
238.624	72.56
238.858	58.56
239.091	66.56
239.325	75.56
239.559	66.56
239.793	85.56
240.027	83.56
240.26	76.56
240.494	74.56
240.728	59.56
240.961	74.56
241.195	74.56
241.429	54.56
241.662	83.56
241.896	70.56
242.13	60.56
242.363	78.56
242.597	76.56
242.83	77.56
243.064	76.56
243.298	80.56
243.531	65.56
243.765	81.56
243.998	62.56
244.232	69.56
244.465	79.56
244.699	77.56
244.932	69.56
245.166	63.56
245.399	58.56
245.633	81.56
245.866	78.56
246.099	84.56
246.333	78.56
246.566	78.56
246.8	74.56
247.033	85.56
247.266	65.56
247.5	75.56
247.733	82.56
247.966	85.56
248.2	65.56
248.433	85.56
248.666	77.56
248.899	79.56
249.133	74.56
249.366	78.56
249.599	96.56
249.832	86.56
250.066	81.56
250.299	91.56
250.532	65.56
250.765	71.56
250.998	64.56
251.231	84.56
251.465	86.56
251.698	78.56
251.931	70.56
252.164	88.56
252.397	85.56
252.63	78.56
252.863	67.56
253.096	78.56
253.329	87.56
253.562	92.56
253.795	82.56
254.028	79.56
254.261	67.56
254.494	71.56
254.727	68.56
254.96	71.56
255.193	77.56
255.426	71.56
255.659	77.56
255.892	66.56
256.124	90.56
256.357	86.56
256.59	96.56
256.823	76.56
257.056	75.56
257.289	78.56
257.521	68.56
257.754	88.56
257.987	70.56
258.22	74.56
258.452	83.56
258.685	85.56
258.918	91.56
259.151	73.56
259.383	70.56
259.616	70.56
259.849	78.56
260.081	89.56
260.314	83.56
260.547	81.56
260.779	78.56
261.012	69.56
261.244	82.56
261.477	77.56
261.71	90.56
261.942	112.56
262.175	99.56
262.407	74.56
262.64	82.56
262.872	75.56
263.105	84.56
263.337	80.56
263.57	66.56
263.802	73.56
264.035	87.56
264.267	89.56
264.499	62.56
264.732	85.56
264.964	80.56
265.197	74.56
265.429	65.56
265.661	77.56
265.894	82.56
266.126	85.56
266.358	78.56
266.591	88.56
266.823	75.56
267.055	75.56
267.287	80.56
267.52	81.56
267.752	71.56
267.984	83.56
268.216	89.56
268.448	84.56
268.681	76.56
268.913	84.56
269.145	79.56
269.377	68.56
269.609	82.56
269.841	78.56
270.073	82.56
270.306	80.56
270.538	86.56
270.77	79.56
271.002	87.56
271.234	69.56
271.466	82.56
271.698	78.56
271.93	61.56
272.162	79.56
272.394	68.56
272.626	93.56
272.858	93.56
273.09	82.56
273.322	76.56
273.553	78.56
273.785	92.56
274.017	80.56
274.249	68.56
274.481	74.56
274.713	88.56
274.945	76.56
275.176	78.56
275.408	90.56
275.64	56.56
275.872	70.56
276.104	75.56
276.335	76.56
276.567	90.56
276.799	91.56
277.031	77.56
277.262	87.56
277.494	89.56
277.726	67.56
277.957	84.56
278.189	76.56
278.421	87.56
278.652	82.56
278.884	86.56
279.115	70.56
279.347	81.56
279.579	86.56
279.81	78.56
280.042	84.56
280.273	74.56
280.505	65.56
280.736	79.56
280.968	84.56
281.199	79.56
281.431	76.56
281.662	88.56
281.894	57.56
282.125	83.56
282.356	120.56
282.588	115.56
282.819	100.56
283.051	76.56
283.282	71.56
283.513	71.56
283.745	76.56
283.976	87.56
284.207	80.56
284.439	78.56
284.67	86.56
284.901	87.56
285.132	88.56
285.364	94.56
285.595	80.56
285.826	87.56
286.057	100.56
286.288	93.56
286.52	79.56
286.751	70.56
286.982	78.56
287.213	84.56
287.444	72.56
287.675	88.56
287.906	80.56
288.138	86.56
288.369	78.56
288.6	93.56
288.831	80.56
289.062	86.56
289.293	86.56
289.524	71.56
289.755	86.56
289.986	88.56
290.217	99.56
290.448	80.56
290.679	89.56
290.91	86.56
291.141	77.56
291.371	83.56
291.602	83.56
291.833	74.56
292.064	81.56
292.295	76.56
292.526	91.56
292.757	74.56
292.987	82.56
293.218	81.56
293.449	77.56
293.68	95.56
293.91	96.56
294.141	85.56
294.372	88.56
294.603	84.56
294.833	75.56
295.064	92.56
295.295	98.56
295.525	91.56
295.756	102.56
295.987	103.56
296.217	119.56
296.448	100.56
296.679	78.56
296.909	89.56
297.14	84.56
297.37	86.56
297.601	89.56
297.831	84.56
298.062	80.56
298.292	92.56
298.523	80.56
298.753	87.56
298.984	93.56
299.214	83.56
299.445	83.56
299.675	94.56
299.905	95.56
300.136	84.56
300.366	74.56
300.597	72.56
300.827	88.56
301.057	84.56
301.288	94.56
301.518	82.56
301.748	98.56
301.979	95.56
302.209	90.56
302.439	74.56
302.669	82.56
302.9	84.56
303.13	80.56
303.36	94.56
303.59	95.56
303.82	87.56
304.051	92.56
304.281	76.56
304.511	84.56
304.741	84.56
304.971	76.56
305.201	94.56
305.431	87.56
305.661	83.56
305.891	83.56
306.121	75.56
306.352	88.56
306.582	95.56
306.812	99.56
307.042	96.56
307.272	90.56
307.502	77.56
307.731	76.56
307.961	91.56
308.191	86.56
308.421	70.56
308.651	80.56
308.881	101.56
309.111	83.56
309.341	83.56
309.571	87.56
309.8	95.56
310.03	80.56
310.26	86.56
310.49	104.56
310.72	80.56
310.949	82.56
311.179	87.56
311.409	72.56
311.639	76.56
311.868	78.56
312.098	86.56
312.328	78.56
312.557	83.56
312.787	91.56
313.017	99.56
313.246	85.56
313.476	96.56
313.706	89.56
313.935	78.56
314.165	92.56
314.394	89.56
314.624	91.56
314.853	94.56
315.083	89.56
315.312	83.56
315.542	80.56
315.771	86.56
316.001	80.56
316.23	72.56
316.46	92.56
316.689	85.56
316.919	96.56
317.148	82.56
317.377	91.56
317.607	85.56
317.836	86.56
318.065	82.56
318.295	84.56
318.524	92.56
318.753	81.56
318.983	88.56
319.212	96.56
319.441	95.56
319.67	92.56
319.9	94.56
320.129	84.56
320.358	79.56
320.587	88.56
320.816	93.56
321.046	82.56
321.275	98.56
321.504	88.56
321.733	87.56
321.962	81.56
322.191	91.56
322.42	98.56
322.649	86.56
322.878	90.56
323.108	106.56
323.337	112.56
323.566	126.56
323.795	123.56
324.024	178.56
324.253	314.56
324.482	666.56
324.71	1371.56
324.939	1850.56
325.168	692.56
325.397	218.56
325.626	137.56
325.855	119.56
326.084	114.56
326.313	107.56
326.542	129.56
326.77	198.56
326.999	376.56
327.228	764.56
327.457	1408.56
327.686	1136.56
327.914	302.56
328.143	157.56
328.372	126.56
328.6	115.56
328.829	101.56
329.058	109.56
329.287	113.56
329.515	85.56
329.744	87.56
329.972	98.56
330.201	103.56
330.43	97.56
330.658	106.56
330.887	130.56
331.115	110.56
331.344	93.56
331.572	90.56
331.801	90.56
332.03	98.56
332.258	93.56
332.486	96.56
332.715	96.56
332.943	82.56
333.172	92.56
333.4	94.56
333.629	96.56
333.857	108.56
334.085	99.56
334.314	96.56
334.542	106.56
334.771	95.56
334.999	86.56
335.227	74.56
335.455	96.56
335.684	84.56
335.912	98.56
336.14	98.56
336.369	94.56
336.597	100.56
336.825	106.56
337.053	96.56
337.281	90.56
337.51	100.56
337.738	79.56
337.966	80.56
338.194	89.56
338.422	83.56
338.65	81.56
338.878	84.56
339.106	88.56
339.334	80.56
339.562	77.56
339.79	86.56
340.018	89.56
340.246	87.56
340.474	90.56
340.702	78.56
340.93	85.56
341.158	80.56
341.386	96.56
341.614	97.56
341.842	91.56
342.07	84.56
342.298	93.56
342.526	79.56
342.754	78.56
342.981	97.56
343.209	90.56
343.437	95.56
343.665	87.56
343.893	85.56
344.12	72.56
344.348	75.56
344.576	75.56
344.804	72.56
345.031	103.56
345.259	93.56
345.487	92.56
345.714	98.56
345.942	95.56
346.17	92.56
346.397	95.56
346.625	94.56
346.853	95.56
347.08	83.56
347.308	85.56
347.535	92.56
347.763	89.56
347.99	100.56
348.218	88.56
348.445	94.56
348.673	95.56
348.9	87.56
349.128	83.56
349.355	84.56
349.583	92.56
349.81	87.56
350.037	95.56
350.265	78.56
350.492	88.56
350.72	77.56
350.947	96.56
351.174	105.56
351.402	113.56
351.629	87.56
351.856	99.56
352.083	89.56
352.311	105.56
352.538	110.56
352.765	87.56
352.992	98.56
353.22	107.56
353.447	93.56
353.674	87.56
353.901	91.56
354.128	81.56
354.355	92.56
354.583	102.56
354.81	73.56
355.037	102.56
355.264	93.56
355.491	103.56
355.718	88.56
355.945	93.56
356.172	90.56
356.399	84.56
356.626	92.56
356.853	94.56
357.08	98.56
357.307	83.56
357.534	95.56
357.761	88.56
357.988	97.56
358.215	75.56
358.441	87.56
358.668	80.56
358.895	80.56
359.122	87.56
359.349	87.56
359.576	92.56
359.802	84.56
360.029	113.56
360.256	111.56
360.483	79.56
360.709	93.56
360.936	96.56
361.163	86.56
361.39	91.56
361.616	88.56
361.843	80.56
362.07	82.56
362.296	72.56
362.523	76.56
362.749	84.56
362.976	77.56
363.203	88.56
363.429	93.56
363.656	84.56
363.882	84.56
364.109	92.56
364.335	91.56
364.562	77.56
364.788	80.56
365.015	98.56
365.241	89.56
365.468	93.56
365.694	100.56
365.92	91.56
366.147	102.56
366.373	99.56
366.599	96.56
366.826	71.56
367.052	81.56
367.278	76.56
367.505	77.56
367.731	95.56
367.957	85.56
368.184	99.56
368.41	77.56
368.636	96.56
368.862	112.56
369.089	94.56
369.315	89.56
369.541	78.56
369.767	88.56
369.993	91.56
370.219	92.56
370.445	99.56
370.672	89.56
370.898	83.56
371.124	79.56
371.35	61.56
371.576	71.56
371.802	83.56
372.028	74.56
372.254	84.56
372.48	87.56
372.706	74.56
372.932	88.56
373.158	78.56
373.384	71.56
373.61	79.56
373.835	93.56
374.061	84.56
374.287	91.56
374.513	82.56
374.739	75.56
374.965	78.56
375.191	80.56
375.416	77.56
375.642	82.56
375.868	85.56
376.094	77.56
376.319	78.56
376.545	88.56
376.771	84.56
376.997	86.56
377.222	83.56
377.448	86.56
377.674	83.56
377.899	96.56
378.125	76.56
378.35	83.56
378.576	90.56
378.802	86.56
379.027	82.56
379.253	80.56
379.478	84.56
379.704	101.56
379.929	96.56
380.155	86.56
380.38	91.56
380.606	70.56
380.831	90.56
381.057	104.56
381.282	82.56
381.507	84.56
381.733	94.56
381.958	92.56
382.184	99.56
382.409	103.56
382.634	103.56
382.86	77.56
383.085	83.56
383.31	93.56
383.535	96.56
383.761	97.56
383.986	92.56
384.211	87.56
384.436	93.56
384.662	85.56
384.887	80.56
385.112	98.56
385.337	99.56
385.562	98.56
385.787	95.56
386.013	84.56
386.238	111.56
386.463	93.56
386.688	99.56
386.913	95.56
387.138	90.56
387.363	103.56
387.588	98.56
387.813	94.56
388.038	94.56
388.263	89.56
388.488	82.56
388.713	101.56
388.938	75.56
389.163	88.56
389.387	99.56
389.612	100.56
389.837	92.56
390.062	85.56
390.287	85.56
390.512	98.56
390.736	75.56
390.961	86.56
391.186	99.56
391.411	87.56
391.636	80.56
391.86	80.56
392.085	66.56
392.31	63.56
392.534	87.56
392.759	83.56
392.984	76.56
393.208	61.56
393.433	81.56
393.658	80.56
393.882	80.56
394.107	76.56
394.331	87.56
394.556	83.56
394.78	72.56
395.005	88.56
395.229	80.56
395.454	94.56
395.678	84.56
395.903	77.56
396.127	87.56
396.352	77.56
396.576	72.56
396.801	74.56
397.025	70.56
397.249	84.56
397.474	76.56
397.698	79.56
397.922	91.56
398.147	83.56
398.371	85.56
398.595	77.56
398.82	74.56
399.044	80.56
399.268	75.56
399.492	74.56
399.717	92.56
399.941	86.56
400.165	83.56
400.389	90.56
400.613	91.56
400.837	86.56
401.062	92.56
401.286	67.56
401.51	84.56
401.734	87.56
401.958	97.56
402.182	126.56
402.406	120.56
402.63	95.56
402.854	91.56
403.078	92.56
403.302	78.56
403.526	74.56
403.75	96.56
403.974	83.56
404.198	82.56
404.422	93.56
404.645	81.56
404.869	81.56
405.093	72.56
405.317	90.56
405.541	87.56
405.765	88.56
405.988	94.56
406.212	146.56
406.436	181.56
406.66	122.56
406.883	86.56
407.107	88.56
407.331	86.56
407.555	81.56
407.778	93.56
408.002	91.56
408.226	74.56
408.449	84.56
408.673	79.56
408.896	95.56
409.12	88.56
409.344	85.56
409.567	92.56
409.791	91.56
410.014	87.56
410.238	85.56
410.461	87.56
410.685	86.56
410.908	101.56
411.132	86.56
411.355	97.56
411.578	68.56
411.802	91.56
412.025	85.56
412.249	86.56
412.472	80.56
412.695	93.56
412.919	81.56
413.142	84.56
413.365	82.56
413.589	79.56
413.812	80.56
414.035	81.56
414.258	64.56
414.482	77.56
414.705	81.56
414.928	82.56
415.151	88.56
415.374	79.56
415.597	82.56
415.821	69.56
416.044	99.56
416.267	107.56
416.49	91.56
416.713	86.56
416.936	82.56
417.159	81.56
417.382	79.56
417.605	86.56
417.828	100.56
418.051	87.56
418.274	76.56
418.497	83.56
418.72	86.56
418.943	77.56
419.166	83.56
419.389	78.56
419.611	93.56
419.834	95.56
420.057	79.56
420.28	80.56
420.503	76.56
420.726	80.56
420.948	80.56
421.171	104.56
421.394	75.56
421.617	87.56
421.839	78.56
422.062	67.56
422.285	82.56
422.507	82.56
422.73	101.56
422.953	88.56
423.175	90.56
423.398	85.56
423.621	79.56
423.843	80.56
424.066	86.56
424.288	80.56
424.511	84.56
424.733	82.56
424.956	111.56
425.178	91.56
425.401	97.56
425.623	101.56
425.846	90.56
426.068	80.56
426.291	94.56
426.513	90.56
426.735	85.56
426.958	92.56
427.18	97.56
427.402	131.56
427.625	129.56
427.847	107.56
428.069	101.56
428.292	92.56
428.514	83.56
428.736	68.56
428.958	86.56
429.181	77.56
429.403	92.56
429.625	77.56
429.847	78.56
430.069	99.56
430.292	82.56
430.514	97.56
430.736	90.56
430.958	80.56
431.18	68.56
431.402	86.56
431.624	89.56
431.846	79.56
432.068	75.56
432.29	78.56
432.512	87.56
432.734	91.56
432.956	80.56
433.178	66.56
433.4	88.56
433.622	80.56
433.844	95.56
434.066	99.56
434.287	75.56
434.509	91.56
434.731	76.56
434.953	92.56
435.175	81.56
435.397	90.56
435.618	74.56
435.84	91.56
436.062	112.56
436.284	106.56
436.505	98.56
436.727	74.56
436.949	103.56
437.17	78.56
437.392	86.56
437.614	82.56
437.835	94.56
438.057	98.56
438.278	113.56
438.5	104.56
438.721	108.56
438.943	102.56
439.165	92.56
439.386	75.56
439.608	99.56
439.829	96.56
440.05	105.56
440.272	115.56
440.493	97.56
440.715	80.56
440.936	78.56
441.158	87.56
441.379	72.56
441.6	83.56
441.822	85.56
442.043	92.56
442.264	94.56
442.486	83.56
442.707	76.56
442.928	87.56
443.149	113.56
443.371	111.56
443.592	114.56
443.813	88.56
444.034	93.56
444.255	84.56
444.476	93.56
444.698	81.56
444.919	95.56
445.14	108.56
445.361	116.56
445.582	86.56
445.803	108.56
446.024	121.56
446.245	106.56
446.466	95.56
446.687	75.56
446.908	80.56
447.129	76.56
447.35	85.56
447.571	92.56
447.792	88.56
448.013	88.56
448.234	71.56
448.455	100.56
448.675	108.56
448.896	103.56
449.117	88.56
449.338	96.56
449.559	119.56
449.779	104.56
450	94.56
450.221	90.56
450.442	64.56
450.662	92.56
450.883	90.56
451.104	104.56
451.324	85.56
451.545	83.56
451.766	69.56
451.986	71.56
452.207	86.56
452.428	94.56
452.648	94.56
452.869	103.56
453.089	94.56
453.31	110.56
453.53	87.56
453.751	89.56
453.971	93.56
454.192	115.56
454.412	84.56
454.633	98.56
454.853	78.56
455.073	99.56
455.294	89.56
455.514	103.56
455.734	94.56
455.955	91.56
456.175	89.56
456.395	87.56
456.616	93.56
456.836	79.56
457.056	60.56
457.276	68.56
457.497	72.56
457.717	97.56
457.937	92.56
458.157	81.56
458.377	83.56
458.598	95.56
458.818	116.56
459.038	123.56
459.258	92.56
459.478	79.56
459.698	82.56
459.918	95.56
460.138	74.56
460.358	78.56
460.578	89.56
460.798	74.56
461.018	80.56
461.238	79.56
461.458	84.56
461.678	83.56
461.898	96.56
462.118	83.56
462.338	69.56
462.558	86.56
462.777	78.56
462.997	71.56
463.217	89.56
463.437	82.56
463.657	72.56
463.876	88.56
464.096	79.56
464.316	88.56
464.536	83.56
464.755	87.56
464.975	95.56
465.195	138.56
465.414	135.56
465.634	87.56
465.854	96.56
466.073	88.56
466.293	86.56
466.512	80.56
466.732	94.56
466.951	95.56
467.171	83.56
467.391	96.56
467.61	95.56
467.829	78.56
468.049	82.56
468.268	85.56
468.488	76.56
468.707	92.56
468.927	85.56
469.146	66.56
469.365	70.56
469.585	71.56
469.804	83.56
470.023	91.56
470.243	90.56
470.462	83.56
470.681	94.56
470.901	90.56
471.12	68.56
471.339	65.56
471.558	79.56
471.777	83.56
471.997	86.56
472.216	84.56
472.435	96.56
472.654	82.56
472.873	95.56
473.092	76.56
473.311	92.56
473.53	90.56
473.749	95.56
473.968	89.56
474.187	93.56
474.406	94.56
474.625	68.56
474.844	71.56
475.063	80.56
475.282	91.56
475.501	66.56
475.72	86.56
475.939	81.56
476.158	89.56
476.377	77.56
476.596	98.56
476.814	90.56
477.033	82.56
477.252	78.56
477.471	82.56
477.69	74.56
477.908	79.56
478.127	75.56
478.346	80.56
478.564	76.56
478.783	80.56
479.002	79.56
479.22	99.56
479.439	86.56
479.658	108.56
479.876	87.56
480.095	72.56
480.313	78.56
480.532	90.56
480.751	83.56
480.969	103.56
481.188	98.56
481.406	95.56
481.624	87.56
481.843	78.56
482.061	72.56
482.28	75.56
482.498	76.56
482.717	74.56
482.935	88.56
483.153	94.56
483.372	87.56
483.59	73.56
483.808	86.56
484.027	87.56
484.245	97.56
484.463	92.56
484.681	88.56
484.9	103.56
485.118	99.56
485.336	85.56
485.554	99.56
485.772	96.56
485.99	86.56
486.209	85.56
486.427	88.56
486.645	110.56
486.863	91.56
487.081	98.56
487.299	100.56
487.517	98.56
487.735	86.56
487.953	98.56
488.171	87.56
488.389	83.56
488.607	90.56
488.825	80.56
489.043	88.56
489.261	90.56
489.479	74.56
489.696	79.56
489.914	86.56
490.132	84.56
490.35	91.56
490.568	74.56
490.786	94.56
491.003	91.56
491.221	94.56
491.439	108.56
491.657	79.56
491.874	74.56
492.092	92.56
492.31	92.56
492.527	78.56
492.745	82.56
492.963	91.56
493.18	92.56
493.398	88.56
493.615	99.56
493.833	88.56
494.05	88.56
494.268	83.56
494.485	94.56
494.703	94.56
494.92	85.56
495.138	90.56
495.355	91.56
495.573	77.56
495.79	84.56
496.008	97.56
496.225	85.56
496.442	84.56
496.66	101.56
496.877	71.56
497.094	86.56
497.312	77.56
497.529	79.56
497.746	88.56
497.963	82.56
498.181	91.56
498.398	91.56
498.615	107.56
498.832	93.56
499.049	85.56
499.267	96.56
499.484	78.56
499.701	85.56
499.918	94.56
500.135	86.56
500.352	75.56
500.569	90.56
500.786	85.56
501.003	81.56
501.22	85.56
501.437	71.56
501.654	78.56
501.871	99.56
502.088	98.56
502.305	80.56
502.522	81.56
502.739	101.56
502.956	85.56
503.172	79.56
503.389	93.56
503.606	96.56
503.823	100.56
504.04	91.56
504.256	82.56
504.473	92.56
504.69	89.56
504.907	83.56
505.123	89.56
505.34	90.56
505.557	86.56
505.773	94.56
505.99	94.56
506.207	92.56
506.423	86.56
506.64	89.56
506.856	85.56
507.073	82.56
507.289	86.56
507.506	83.56
507.722	102.56
507.939	100.56
508.155	96.56
508.372	93.56
508.588	102.56
508.805	86.56
509.021	84.56
509.238	98.56
509.454	93.56
509.67	104.56
509.887	110.56
510.103	107.56
510.319	195.56
510.536	624.56
510.752	1947.56
510.968	532.56
511.184	150.56
511.401	96.56
511.617	99.56
511.833	104.56
512.049	87.56
512.265	100.56
512.481	97.56
512.698	79.56
512.914	87.56
513.13	90.56
513.346	80.56
513.562	94.56
513.778	94.56
513.994	103.56
514.21	94.56
514.426	109.56
514.642	117.56
514.858	82.56
515.074	131.56
515.29	354.56
515.506	1100.56
515.721	400.56
515.937	133.56
516.153	90.56
516.369	94.56
516.585	78.56
516.801	94.56
517.016	95.56
517.232	94.56
517.448	88.56
517.664	97.56
517.879	80.56
