Data from Uncirc_1984_H10_HRD10591_00059.txt Node
Date: Wed Jan 03 12:21:49 EST 2024
User: Yrep
Spectrometer: HR+D1059
Trigger mode: 1
Integration Time (sec): 1.000000E-1
Scans to average: 1
Electric dark correction enabled: true
Nonlinearity correction enabled: false
Boxcar width: 0
XAxis mode: Wavelengths
Number of Pixels in Spectrum: 2048
>>>>>Begin Spectral Data<<<<<
223.165	-21.62
223.4	-21.62
223.635	-21.62
223.869	-23.62
224.104	-18.62
224.338	-4.62
224.573	-5.62
224.808	-11.62
225.042	-10.62
225.277	-14.62
225.511	-1.62
225.746	9.38
225.98	6.38
226.215	16.38
226.449	4.38
226.683	15.38
226.918	32.38
227.152	28.38
227.387	34.38
227.621	40.38
227.856	49.38
228.09	36.38
228.324	52.38
228.559	51.38
228.793	64.38
229.027	78.38
229.262	70.38
229.496	80.38
229.73	91.38
229.964	91.38
230.199	65.38
230.433	72.38
230.667	80.38
230.901	92.38
231.136	69.38
231.37	91.38
231.604	77.38
231.838	81.38
232.072	91.38
232.306	81.38
232.541	95.38
232.775	66.38
233.009	79.38
233.243	84.38
233.477	89.38
233.711	83.38
233.945	75.38
234.179	70.38
234.413	73.38
234.647	96.38
234.881	71.38
235.115	80.38
235.349	82.38
235.583	76.38
235.817	84.38
236.051	74.38
236.285	93.38
236.519	77.38
236.753	71.38
236.987	89.38
237.221	84.38
237.455	86.38
237.689	83.38
237.922	72.38
238.156	73.38
238.39	80.38
238.624	77.38
238.858	80.38
239.091	78.38
239.325	80.38
239.559	92.38
239.793	77.38
240.027	83.38
240.26	83.38
240.494	80.38
240.728	76.38
240.961	80.38
241.195	92.38
241.429	81.38
241.662	69.38
241.896	68.38
242.13	91.38
242.363	70.38
242.597	91.38
242.83	77.38
243.064	76.38
243.298	72.38
243.531	82.38
243.765	88.38
243.998	87.38
244.232	67.38
244.465	82.38
244.699	73.38
244.932	73.38
245.166	72.38
245.399	88.38
245.633	76.38
245.866	79.38
246.099	85.38
246.333	58.38
246.566	69.38
246.8	63.38
247.033	80.38
247.266	80.38
247.5	85.38
247.733	87.38
247.966	73.38
248.2	85.38
248.433	81.38
248.666	84.38
248.899	88.38
249.133	86.38
249.366	86.38
249.599	94.38
249.832	69.38
250.066	99.38
250.299	71.38
250.532	90.38
250.765	88.38
250.998	76.38
251.231	101.38
251.465	83.38
251.698	93.38
251.931	91.38
252.164	76.38
252.397	84.38
252.63	85.38
252.863	89.38
253.096	83.38
253.329	84.38
253.562	76.38
253.795	81.38
254.028	91.38
254.261	75.38
254.494	68.38
254.727	74.38
254.96	79.38
255.193	75.38
255.426	78.38
255.659	78.38
255.892	82.38
256.124	82.38
256.357	90.38
256.59	77.38
256.823	86.38
257.056	73.38
257.289	75.38
257.521	101.38
257.754	100.38
257.987	79.38
258.22	91.38
258.452	77.38
258.685	73.38
258.918	84.38
259.151	92.38
259.383	80.38
259.616	88.38
259.849	88.38
260.081	77.38
260.314	87.38
260.547	82.38
260.779	86.38
261.012	74.38
261.244	97.38
261.477	93.38
261.71	80.38
261.942	103.38
262.175	104.38
262.407	92.38
262.64	73.38
262.872	83.38
263.105	75.38
263.337	81.38
263.57	89.38
263.802	88.38
264.035	89.38
264.267	60.38
264.499	94.38
264.732	84.38
264.964	89.38
265.197	102.38
265.429	87.38
265.661	82.38
265.894	87.38
266.126	83.38
266.358	84.38
266.591	83.38
266.823	83.38
267.055	76.38
267.287	93.38
267.52	77.38
267.752	74.38
267.984	90.38
268.216	81.38
268.448	89.38
268.681	90.38
268.913	89.38
269.145	82.38
269.377	88.38
269.609	77.38
269.841	77.38
270.073	87.38
270.306	89.38
270.538	89.38
270.77	73.38
271.002	76.38
271.234	83.38
271.466	89.38
271.698	89.38
271.93	76.38
272.162	92.38
272.394	88.38
272.626	92.38
272.858	87.38
273.09	79.38
273.322	84.38
273.553	78.38
273.785	80.38
274.017	73.38
274.249	101.38
274.481	73.38
274.713	83.38
274.945	84.38
275.176	80.38
275.408	74.38
275.64	89.38
275.872	92.38
276.104	78.38
276.335	98.38
276.567	92.38
276.799	113.38
277.031	100.38
277.262	91.38
277.494	91.38
277.726	84.38
277.957	80.38
278.189	82.38
278.421	76.38
278.652	89.38
278.884	89.38
279.115	80.38
279.347	88.38
279.579	84.38
279.81	85.38
280.042	89.38
280.273	94.38
280.505	84.38
280.736	83.38
280.968	80.38
281.199	92.38
281.431	95.38
281.662	92.38
281.894	90.38
282.125	101.38
282.356	120.38
282.588	124.38
282.819	110.38
283.051	82.38
283.282	78.38
283.513	88.38
283.745	86.38
283.976	86.38
284.207	88.38
284.439	89.38
284.67	85.38
284.901	79.38
285.132	81.38
285.364	87.38
285.595	85.38
285.826	89.38
286.057	99.38
286.288	80.38
286.52	83.38
286.751	86.38
286.982	82.38
287.213	87.38
287.444	88.38
287.675	102.38
287.906	100.38
288.138	81.38
288.369	101.38
288.6	89.38
288.831	96.38
289.062	89.38
289.293	92.38
289.524	75.38
289.755	77.38
289.986	90.38
290.217	85.38
290.448	88.38
290.679	77.38
290.91	102.38
291.141	97.38
291.371	99.38
291.602	68.38
291.833	96.38
292.064	86.38
292.295	93.38
292.526	88.38
292.757	75.38
292.987	81.38
293.218	82.38
293.449	90.38
293.68	91.38
293.91	98.38
294.141	91.38
294.372	94.38
294.603	80.38
294.833	97.38
295.064	97.38
295.295	85.38
295.525	90.38
295.756	104.38
295.987	103.38
296.217	125.38
296.448	107.38
296.679	88.38
296.909	100.38
297.14	86.38
297.37	98.38
297.601	95.38
297.831	74.38
298.062	93.38
298.292	96.38
298.523	86.38
298.753	86.38
298.984	92.38
299.214	86.38
299.445	91.38
299.675	93.38
299.905	88.38
300.136	82.38
300.366	90.38
300.597	81.38
300.827	90.38
301.057	104.38
301.288	98.38
301.518	84.38
301.748	74.38
301.979	100.38
302.209	88.38
302.439	87.38
302.669	78.38
302.9	96.38
303.13	89.38
303.36	90.38
303.59	89.38
303.82	102.38
304.051	96.38
304.281	94.38
304.511	78.38
304.741	86.38
304.971	84.38
305.201	82.38
305.431	93.38
305.661	92.38
305.891	90.38
306.121	97.38
306.352	101.38
306.582	105.38
306.812	95.38
307.042	92.38
307.272	90.38
307.502	83.38
307.731	101.38
307.961	96.38
308.191	98.38
308.421	104.38
308.651	93.38
308.881	82.38
309.111	86.38
309.341	92.38
309.571	89.38
309.8	102.38
310.03	74.38
310.26	93.38
310.49	82.38
310.72	89.38
310.949	101.38
311.179	102.38
311.409	88.38
311.639	93.38
311.868	100.38
312.098	94.38
312.328	88.38
312.557	89.38
312.787	90.38
313.017	101.38
313.246	95.38
313.476	90.38
313.706	91.38
313.935	91.38
314.165	97.38
314.394	93.38
314.624	99.38
314.853	90.38
315.083	92.38
315.312	94.38
315.542	100.38
315.771	90.38
316.001	92.38
316.23	97.38
316.46	88.38
316.689	87.38
316.919	78.38
317.148	83.38
317.377	86.38
317.607	90.38
317.836	100.38
318.065	83.38
318.295	93.38
318.524	83.38
318.753	86.38
318.983	88.38
319.212	85.38
319.441	96.38
319.67	100.38
319.9	99.38
320.129	84.38
320.358	101.38
320.587	90.38
320.816	101.38
321.046	101.38
321.275	104.38
321.504	102.38
321.733	87.38
321.962	89.38
322.191	91.38
322.42	104.38
322.649	100.38
322.878	109.38
323.108	96.38
323.337	124.38
323.566	136.38
323.795	146.38
324.024	186.38
324.253	325.38
324.482	699.38
324.71	1389.38
324.939	1818.38
325.168	677.38
325.397	210.38
325.626	145.38
325.855	122.38
326.084	122.38
326.313	121.38
326.542	149.38
326.77	201.38
326.999	383.38
327.228	750.38
327.457	1420.38
327.686	1099.38
327.914	299.38
328.143	184.38
328.372	135.38
328.6	128.38
328.829	111.38
329.058	106.38
329.287	112.38
329.515	104.38
329.744	99.38
329.972	90.38
330.201	104.38
330.43	93.38
330.658	110.38
330.887	118.38
331.115	119.38
331.344	90.38
331.572	103.38
331.801	108.38
332.03	96.38
332.258	91.38
332.486	93.38
332.715	97.38
332.943	85.38
333.172	90.38
333.4	104.38
333.629	117.38
333.857	102.38
334.085	109.38
334.314	93.38
334.542	100.38
334.771	101.38
334.999	101.38
335.227	99.38
335.455	96.38
335.684	95.38
335.912	110.38
336.14	109.38
336.369	99.38
336.597	100.38
336.825	96.38
337.053	91.38
337.281	101.38
337.51	93.38
337.738	97.38
337.966	80.38
338.194	93.38
338.422	93.38
338.65	86.38
338.878	89.38
339.106	98.38
339.334	106.38
339.562	84.38
339.79	88.38
340.018	100.38
340.246	76.38
340.474	96.38
340.702	80.38
340.93	88.38
341.158	91.38
341.386	77.38
341.614	97.38
341.842	96.38
342.07	85.38
342.298	84.38
342.526	91.38
342.754	99.38
342.981	100.38
343.209	84.38
343.437	113.38
343.665	92.38
343.893	86.38
344.12	96.38
344.348	82.38
344.576	94.38
344.804	90.38
345.031	105.38
345.259	97.38
345.487	103.38
345.714	88.38
345.942	88.38
346.17	109.38
346.397	98.38
346.625	88.38
346.853	97.38
347.08	102.38
347.308	98.38
347.535	92.38
347.763	90.38
347.99	98.38
348.218	91.38
348.445	96.38
348.673	104.38
348.9	101.38
349.128	91.38
349.355	96.38
349.583	96.38
349.81	76.38
350.037	96.38
350.265	103.38
350.492	104.38
350.72	96.38
350.947	105.38
351.174	109.38
351.402	108.38
351.629	102.38
351.856	96.38
352.083	97.38
352.311	103.38
352.538	101.38
352.765	110.38
352.992	106.38
353.22	97.38
353.447	85.38
353.674	84.38
353.901	99.38
354.128	90.38
354.355	97.38
354.583	108.38
354.81	99.38
355.037	111.38
355.264	106.38
355.491	92.38
355.718	92.38
355.945	97.38
356.172	100.38
356.399	96.38
356.626	89.38
356.853	103.38
357.08	97.38
357.307	98.38
357.534	102.38
357.761	104.38
357.988	104.38
358.215	106.38
358.441	86.38
358.668	90.38
358.895	89.38
359.122	86.38
359.349	92.38
359.576	83.38
359.802	97.38
360.029	118.38
360.256	94.38
360.483	104.38
360.709	94.38
360.936	81.38
361.163	82.38
361.39	101.38
361.616	84.38
361.843	96.38
362.07	101.38
362.296	98.38
362.523	76.38
362.749	89.38
362.976	87.38
363.203	98.38
363.429	96.38
363.656	88.38
363.882	96.38
364.109	88.38
364.335	99.38
364.562	97.38
364.788	94.38
365.015	87.38
365.241	103.38
365.468	100.38
365.694	103.38
365.92	98.38
366.147	87.38
366.373	84.38
366.599	82.38
366.826	91.38
367.052	92.38
367.278	92.38
367.505	87.38
367.731	92.38
367.957	101.38
368.184	95.38
368.41	89.38
368.636	109.38
368.862	131.38
369.089	91.38
369.315	99.38
369.541	89.38
369.767	72.38
369.993	89.38
370.219	82.38
370.445	91.38
370.672	88.38
370.898	80.38
371.124	90.38
371.35	86.38
371.576	100.38
371.802	81.38
372.028	75.38
372.254	88.38
372.48	75.38
372.706	103.38
372.932	94.38
373.158	78.38
373.384	102.38
373.61	103.38
373.835	94.38
374.061	73.38
374.287	82.38
374.513	85.38
374.739	84.38
374.965	98.38
375.191	97.38
375.416	100.38
375.642	105.38
375.868	100.38
376.094	94.38
376.319	92.38
376.545	96.38
376.771	98.38
376.997	97.38
377.222	98.38
377.448	82.38
377.674	91.38
377.899	95.38
378.125	102.38
378.35	77.38
378.576	86.38
378.802	86.38
379.027	100.38
379.253	98.38
379.478	91.38
379.704	88.38
379.929	99.38
380.155	94.38
380.38	89.38
380.606	98.38
380.831	83.38
381.057	93.38
381.282	98.38
381.507	96.38
381.733	100.38
381.958	92.38
382.184	94.38
382.409	93.38
382.634	100.38
382.86	104.38
383.085	107.38
383.31	91.38
383.535	81.38
383.761	90.38
383.986	104.38
384.211	88.38
384.436	97.38
384.662	92.38
384.887	91.38
385.112	97.38
385.337	105.38
385.562	107.38
385.787	108.38
386.013	123.38
386.238	107.38
386.463	90.38
386.688	98.38
386.913	107.38
387.138	102.38
387.363	96.38
387.588	87.38
387.813	99.38
388.038	107.38
388.263	90.38
388.488	98.38
388.713	92.38
388.938	101.38
389.163	86.38
389.387	109.38
389.612	89.38
389.837	101.38
390.062	92.38
390.287	107.38
390.512	90.38
390.736	102.38
390.961	98.38
391.186	88.38
391.411	107.38
391.636	78.38
391.86	90.38
392.085	84.38
392.31	84.38
392.534	91.38
392.759	94.38
392.984	77.38
393.208	86.38
393.433	108.38
393.658	92.38
393.882	83.38
394.107	86.38
394.331	89.38
394.556	75.38
394.78	88.38
395.005	85.38
395.229	88.38
395.454	83.38
395.678	92.38
395.903	67.38
396.127	93.38
396.352	95.38
396.576	81.38
396.801	85.38
397.025	84.38
397.249	80.38
397.474	94.38
397.698	88.38
397.922	87.38
398.147	86.38
398.371	77.38
398.595	84.38
398.82	92.38
399.044	93.38
399.268	94.38
399.492	78.38
399.717	101.38
399.941	78.38
400.165	94.38
400.389	94.38
400.613	87.38
400.837	95.38
401.062	102.38
401.286	98.38
401.51	104.38
401.734	91.38
401.958	89.38
402.182	121.38
402.406	150.38
402.63	102.38
402.854	82.38
403.078	103.38
403.302	85.38
403.526	91.38
403.75	88.38
403.974	74.38
404.198	76.38
404.422	87.38
404.645	81.38
404.869	92.38
405.093	100.38
405.317	98.38
405.541	80.38
405.765	101.38
405.988	123.38
406.212	153.38
406.436	185.38
406.66	125.38
406.883	101.38
407.107	101.38
407.331	99.38
407.555	100.38
407.778	103.38
408.002	77.38
408.226	102.38
408.449	82.38
408.673	104.38
408.896	91.38
409.12	108.38
409.344	90.38
409.567	93.38
409.791	90.38
410.014	82.38
410.238	77.38
410.461	90.38
410.685	90.38
410.908	94.38
411.132	104.38
411.355	88.38
411.578	88.38
411.802	94.38
412.025	93.38
412.249	99.38
412.472	88.38
412.695	102.38
412.919	100.38
413.142	99.38
413.365	80.38
413.589	106.38
413.812	97.38
414.035	87.38
414.258	93.38
414.482	82.38
414.705	94.38
414.928	90.38
415.151	86.38
415.374	91.38
415.597	109.38
415.821	85.38
416.044	94.38
416.267	91.38
416.49	92.38
416.713	87.38
416.936	98.38
417.159	89.38
417.382	90.38
417.605	84.38
417.828	88.38
418.051	87.38
418.274	85.38
418.497	79.38
418.72	88.38
418.943	88.38
419.166	83.38
419.389	82.38
419.611	86.38
419.834	86.38
420.057	83.38
420.28	83.38
420.503	90.38
420.726	90.38
420.948	90.38
421.171	112.38
421.394	99.38
421.617	69.38
421.839	88.38
422.062	82.38
422.285	88.38
422.507	89.38
422.73	108.38
422.953	97.38
423.175	88.38
423.398	81.38
423.621	86.38
423.843	89.38
424.066	96.38
424.288	84.38
424.511	70.38
424.733	105.38
424.956	108.38
425.178	86.38
425.401	92.38
425.623	95.38
425.846	97.38
426.068	91.38
426.291	104.38
426.513	98.38
426.735	97.38
426.958	95.38
427.18	94.38
427.402	135.38
427.625	129.38
427.847	116.38
428.069	86.38
428.292	85.38
428.514	100.38
428.736	91.38
428.958	88.38
429.181	85.38
429.403	82.38
429.625	98.38
429.847	74.38
430.069	88.38
430.292	88.38
430.514	107.38
430.736	80.38
430.958	86.38
431.18	92.38
431.402	79.38
431.624	92.38
431.846	73.38
432.068	82.38
432.29	80.38
432.512	85.38
432.734	92.38
432.956	93.38
433.178	92.38
433.4	104.38
433.622	86.38
433.844	80.38
434.066	99.38
434.287	81.38
434.509	80.38
434.731	95.38
434.953	77.38
435.175	78.38
435.397	88.38
435.618	103.38
435.84	105.38
436.062	115.38
436.284	116.38
436.505	101.38
436.727	91.38
436.949	107.38
437.17	86.38
437.392	92.38
437.614	86.38
437.835	105.38
438.057	110.38
438.278	109.38
438.5	106.38
438.721	110.38
438.943	88.38
439.165	93.38
439.386	91.38
439.608	90.38
439.829	109.38
440.05	119.38
440.272	129.38
440.493	100.38
440.715	91.38
440.936	101.38
441.158	77.38
441.379	104.38
441.6	102.38
441.822	104.38
442.043	88.38
442.264	98.38
442.486	97.38
442.707	94.38
442.928	88.38
443.149	114.38
443.371	117.38
443.592	98.38
443.813	95.38
444.034	99.38
444.255	102.38
444.476	83.38
444.698	80.38
444.919	80.38
445.14	136.38
445.361	121.38
445.582	114.38
445.803	125.38
446.024	118.38
446.245	126.38
446.466	109.38
446.687	81.38
446.908	86.38
447.129	96.38
447.35	93.38
447.571	83.38
447.792	86.38
448.013	80.38
448.234	98.38
448.455	105.38
448.675	116.38
448.896	98.38
449.117	96.38
449.338	86.38
449.559	122.38
449.779	120.38
450	77.38
450.221	89.38
450.442	90.38
450.662	86.38
450.883	98.38
451.104	111.38
451.324	101.38
451.545	91.38
451.766	82.38
451.986	102.38
452.207	103.38
452.428	86.38
452.648	87.38
452.869	97.38
453.089	105.38
453.31	109.38
453.53	113.38
453.751	101.38
453.971	105.38
454.192	106.38
454.412	101.38
454.633	76.38
454.853	80.38
455.073	90.38
455.294	94.38
455.514	104.38
455.734	88.38
455.955	93.38
456.175	84.38
456.395	85.38
456.616	82.38
456.836	98.38
457.056	90.38
457.276	76.38
457.497	86.38
457.717	84.38
457.937	92.38
458.157	100.38
458.377	95.38
458.598	106.38
458.818	144.38
459.038	155.38
459.258	105.38
459.478	71.38
459.698	99.38
459.918	101.38
460.138	96.38
460.358	83.38
460.578	89.38
460.798	91.38
461.018	89.38
461.238	92.38
461.458	97.38
461.678	88.38
461.898	75.38
462.118	82.38
462.338	85.38
462.558	81.38
462.777	98.38
462.997	80.38
463.217	86.38
463.437	83.38
463.657	87.38
463.876	90.38
464.096	95.38
464.316	94.38
464.536	98.38
464.755	92.38
464.975	98.38
465.195	163.38
465.414	136.38
465.634	122.38
465.854	92.38
466.073	87.38
466.293	85.38
466.512	81.38
466.732	94.38
466.951	84.38
467.171	98.38
467.391	84.38
467.61	102.38
467.829	99.38
468.049	80.38
468.268	82.38
468.488	84.38
468.707	91.38
468.927	89.38
469.146	89.38
469.365	72.38
469.585	95.38
469.804	80.38
470.023	82.38
470.243	85.38
470.462	89.38
470.681	104.38
470.901	88.38
471.12	80.38
471.339	89.38
471.558	93.38
471.777	75.38
471.997	73.38
472.216	93.38
472.435	89.38
472.654	92.38
472.873	88.38
473.092	95.38
473.311	94.38
473.53	89.38
473.749	80.38
473.968	77.38
474.187	88.38
474.406	100.38
474.625	93.38
474.844	87.38
475.063	89.38
475.282	93.38
475.501	89.38
475.72	84.38
475.939	96.38
476.158	91.38
476.377	105.38
476.596	101.38
476.814	88.38
477.033	90.38
477.252	88.38
477.471	70.38
477.69	82.38
477.908	84.38
478.127	72.38
478.346	93.38
478.564	95.38
478.783	92.38
479.002	91.38
479.22	88.38
479.439	100.38
479.658	108.38
479.876	85.38
480.095	80.38
480.313	73.38
480.532	72.38
480.751	89.38
480.969	96.38
481.188	95.38
481.406	97.38
481.624	93.38
481.843	74.38
482.061	92.38
482.28	86.38
482.498	86.38
482.717	76.38
482.935	86.38
483.153	92.38
483.372	93.38
483.59	89.38
483.808	83.38
484.027	89.38
484.245	91.38
484.463	109.38
484.681	97.38
484.9	100.38
485.118	91.38
485.336	108.38
485.554	101.38
485.772	97.38
485.99	107.38
486.209	91.38
486.427	101.38
486.645	109.38
486.863	123.38
487.081	102.38
487.299	102.38
487.517	85.38
487.735	82.38
487.953	83.38
488.171	86.38
488.389	84.38
488.607	94.38
488.825	93.38
489.043	94.38
489.261	86.38
489.479	76.38
489.696	80.38
489.914	103.38
490.132	93.38
490.35	99.38
490.568	88.38
490.786	93.38
491.003	88.38
491.221	86.38
491.439	85.38
491.657	78.38
491.874	96.38
492.092	75.38
492.31	96.38
492.527	76.38
492.745	86.38
492.963	99.38
493.18	86.38
493.398	81.38
493.615	98.38
493.833	80.38
494.05	88.38
494.268	92.38
494.485	97.38
494.703	92.38
494.92	86.38
495.138	108.38
495.355	94.38
495.573	92.38
495.79	91.38
496.008	80.38
496.225	86.38
496.442	85.38
496.66	90.38
496.877	89.38
497.094	93.38
497.312	120.38
497.529	91.38
497.746	73.38
497.963	104.38
498.181	97.38
498.398	93.38
498.615	117.38
498.832	115.38
499.049	91.38
499.267	90.38
499.484	98.38
499.701	100.38
499.918	100.38
500.135	94.38
500.352	89.38
500.569	93.38
500.786	94.38
501.003	104.38
501.22	102.38
501.437	90.38
501.654	98.38
501.871	118.38
502.088	107.38
502.305	101.38
502.522	84.38
502.739	95.38
502.956	87.38
503.172	93.38
503.389	95.38
503.606	93.38
503.823	78.38
504.04	92.38
504.256	97.38
504.473	91.38
504.69	96.38
504.907	84.38
505.123	92.38
505.34	86.38
505.557	86.38
505.773	80.38
505.99	92.38
506.207	97.38
506.423	91.38
506.64	95.38
506.856	84.38
507.073	88.38
507.289	92.38
507.506	103.38
507.722	111.38
507.939	97.38
508.155	92.38
508.372	88.38
508.588	96.38
508.805	100.38
509.021	97.38
509.238	94.38
509.454	84.38
509.67	93.38
509.887	102.38
510.103	132.38
510.319	194.38
510.536	673.38
510.752	2120.38
510.968	588.38
511.184	146.38
511.401	112.38
511.617	100.38
511.833	102.38
512.049	90.38
512.265	96.38
512.481	93.38
512.698	98.38
512.914	85.38
513.13	92.38
513.346	89.38
513.562	97.38
513.778	90.38
513.994	116.38
514.21	104.38
514.426	105.38
514.642	113.38
514.858	117.38
515.074	145.38
515.29	375.38
515.506	1247.38
515.721	461.38
