Data from Uncirc_1984_H10_HRD10591_00080.txt Node
Date: Wed Jan 03 12:21:53 EST 2024
User: Yrep
Spectrometer: HR+D1059
Trigger mode: 1
Integration Time (sec): 1.000000E-1
Scans to average: 1
Electric dark correction enabled: true
Nonlinearity correction enabled: false
Boxcar width: 0
XAxis mode: Wavelengths
Number of Pixels in Spectrum: 2048
>>>>>Begin Spectral Data<<<<<
223.165	-17.81
223.4	-17.81
223.635	-17.81
223.869	-21.81
224.104	-14.81
224.338	-18.81
224.573	-11.81
224.808	-7.81
225.042	4.19
225.277	-24.81
225.511	1.19
225.746	3.19
225.98	-4.81
226.215	13.19
226.449	22.19
226.683	21.19
226.918	28.19
227.152	29.19
227.387	29.19
227.621	28.19
227.856	56.19
228.09	52.19
228.324	59.19
228.559	65.19
228.793	58.19
229.027	63.19
229.262	74.19
229.496	68.19
229.73	54.19
229.964	92.19
230.199	73.19
230.433	71.19
230.667	82.19
230.901	76.19
231.136	83.19
231.37	82.19
231.604	77.19
231.838	91.19
232.072	83.19
232.306	81.19
232.541	78.19
232.775	87.19
233.009	66.19
233.243	76.19
233.477	95.19
233.711	75.19
233.945	75.19
234.179	86.19
234.413	91.19
234.647	72.19
234.881	89.19
235.115	73.19
235.349	74.19
235.583	71.19
235.817	69.19
236.051	80.19
236.285	74.19
236.519	71.19
236.753	82.19
236.987	86.19
237.221	84.19
237.455	93.19
237.689	75.19
237.922	79.19
238.156	62.19
238.39	72.19
238.624	76.19
238.858	71.19
239.091	83.19
239.325	75.19
239.559	83.19
239.793	80.19
240.027	62.19
240.26	73.19
240.494	82.19
240.728	73.19
240.961	70.19
241.195	80.19
241.429	75.19
241.662	70.19
241.896	60.19
242.13	69.19
242.363	84.19
242.597	84.19
242.83	72.19
243.064	75.19
243.298	74.19
243.531	76.19
243.765	75.19
243.998	65.19
244.232	83.19
244.465	86.19
244.699	76.19
244.932	73.19
245.166	81.19
245.399	83.19
245.633	76.19
245.866	69.19
246.099	69.19
246.333	79.19
246.566	76.19
246.8	88.19
247.033	59.19
247.266	78.19
247.5	80.19
247.733	82.19
247.966	55.19
248.2	75.19
248.433	75.19
248.666	77.19
248.899	83.19
249.133	89.19
249.366	99.19
249.599	89.19
249.832	72.19
250.066	71.19
250.299	93.19
250.532	79.19
250.765	90.19
250.998	71.19
251.231	92.19
251.465	80.19
251.698	89.19
251.931	85.19
252.164	71.19
252.397	76.19
252.63	95.19
252.863	71.19
253.096	73.19
253.329	88.19
253.562	64.19
253.795	82.19
254.028	86.19
254.261	77.19
254.494	82.19
254.727	88.19
254.96	88.19
255.193	83.19
255.426	89.19
255.659	79.19
255.892	85.19
256.124	74.19
256.357	66.19
256.59	75.19
256.823	86.19
257.056	89.19
257.289	83.19
257.521	79.19
257.754	75.19
257.987	79.19
258.22	80.19
258.452	91.19
258.685	83.19
258.918	72.19
259.151	81.19
259.383	90.19
259.616	83.19
259.849	85.19
260.081	89.19
260.314	89.19
260.547	73.19
260.779	77.19
261.012	83.19
261.244	88.19
261.477	96.19
261.71	98.19
261.942	93.19
262.175	88.19
262.407	103.19
262.64	94.19
262.872	91.19
263.105	89.19
263.337	85.19
263.57	88.19
263.802	79.19
264.035	81.19
264.267	73.19
264.499	92.19
264.732	79.19
264.964	83.19
265.197	81.19
265.429	79.19
265.661	81.19
265.894	89.19
266.126	85.19
266.358	73.19
266.591	87.19
266.823	95.19
267.055	79.19
267.287	81.19
267.52	78.19
267.752	95.19
267.984	75.19
268.216	81.19
268.448	99.19
268.681	87.19
268.913	82.19
269.145	74.19
269.377	85.19
269.609	93.19
269.841	73.19
270.073	91.19
270.306	74.19
270.538	85.19
270.77	81.19
271.002	82.19
271.234	81.19
271.466	76.19
271.698	81.19
271.93	99.19
272.162	95.19
272.394	79.19
272.626	66.19
272.858	75.19
273.09	85.19
273.322	85.19
273.553	89.19
273.785	89.19
274.017	93.19
274.249	92.19
274.481	87.19
274.713	84.19
274.945	86.19
275.176	78.19
275.408	101.19
275.64	99.19
275.872	82.19
276.104	101.19
276.335	88.19
276.567	96.19
276.799	115.19
277.031	92.19
277.262	75.19
277.494	81.19
277.726	89.19
277.957	87.19
278.189	85.19
278.421	85.19
278.652	90.19
278.884	96.19
279.115	91.19
279.347	86.19
279.579	76.19
279.81	85.19
280.042	83.19
280.273	90.19
280.505	74.19
280.736	86.19
280.968	81.19
281.199	79.19
281.431	89.19
281.662	93.19
281.894	96.19
282.125	103.19
282.356	117.19
282.588	122.19
282.819	100.19
283.051	98.19
283.282	76.19
283.513	91.19
283.745	75.19
283.976	79.19
284.207	88.19
284.439	91.19
284.67	98.19
284.901	88.19
285.132	83.19
285.364	95.19
285.595	107.19
285.826	96.19
286.057	81.19
286.288	98.19
286.52	95.19
286.751	87.19
286.982	93.19
287.213	83.19
287.444	84.19
287.675	83.19
287.906	87.19
288.138	84.19
288.369	87.19
288.6	78.19
288.831	87.19
289.062	89.19
289.293	86.19
289.524	91.19
289.755	91.19
289.986	83.19
290.217	83.19
290.448	87.19
290.679	79.19
290.91	81.19
291.141	82.19
291.371	86.19
291.602	88.19
291.833	87.19
292.064	83.19
292.295	83.19
292.526	89.19
292.757	75.19
292.987	81.19
293.218	81.19
293.449	86.19
293.68	96.19
293.91	83.19
294.141	80.19
294.372	73.19
294.603	83.19
294.833	91.19
295.064	92.19
295.295	96.19
295.525	106.19
295.756	81.19
295.987	103.19
296.217	115.19
296.448	105.19
296.679	83.19
296.909	76.19
297.14	74.19
297.37	86.19
297.601	87.19
297.831	83.19
298.062	86.19
298.292	85.19
298.523	86.19
298.753	89.19
298.984	73.19
299.214	81.19
299.445	91.19
299.675	105.19
299.905	100.19
300.136	95.19
300.366	79.19
300.597	95.19
300.827	102.19
301.057	107.19
301.288	91.19
301.518	72.19
301.748	87.19
301.979	105.19
302.209	94.19
302.439	88.19
302.669	83.19
302.9	99.19
303.13	89.19
303.36	83.19
303.59	93.19
303.82	79.19
304.051	90.19
304.281	87.19
304.511	101.19
304.741	92.19
304.971	85.19
305.201	79.19
305.431	82.19
305.661	94.19
305.891	76.19
306.121	93.19
306.352	116.19
306.582	106.19
306.812	95.19
307.042	91.19
307.272	78.19
307.502	95.19
307.731	88.19
307.961	90.19
308.191	93.19
308.421	76.19
308.651	104.19
308.881	87.19
309.111	95.19
309.341	103.19
309.571	101.19
309.8	99.19
310.03	89.19
310.26	104.19
310.49	88.19
310.72	81.19
310.949	107.19
311.179	84.19
311.409	83.19
311.639	91.19
311.868	79.19
312.098	105.19
312.328	93.19
312.557	96.19
312.787	108.19
313.017	93.19
313.246	90.19
313.476	92.19
313.706	82.19
313.935	105.19
314.165	108.19
314.394	94.19
314.624	93.19
314.853	103.19
315.083	96.19
315.312	85.19
315.542	80.19
315.771	87.19
316.001	99.19
316.23	91.19
316.46	93.19
316.689	82.19
316.919	97.19
317.148	96.19
317.377	86.19
317.607	93.19
317.836	101.19
318.065	88.19
318.295	87.19
318.524	77.19
318.753	83.19
318.983	102.19
319.212	97.19
319.441	103.19
319.67	105.19
319.9	102.19
320.129	95.19
320.358	96.19
320.587	80.19
320.816	100.19
321.046	105.19
321.275	96.19
321.504	84.19
321.733	89.19
321.962	101.19
322.191	87.19
322.42	93.19
322.649	110.19
322.878	101.19
323.108	107.19
323.337	106.19
323.566	119.19
323.795	143.19
324.024	199.19
324.253	345.19
324.482	719.19
324.71	1484.19
324.939	1934.19
325.168	693.19
325.397	220.19
325.626	133.19
325.855	125.19
326.084	111.19
326.313	124.19
326.542	130.19
326.77	205.19
326.999	447.19
327.228	835.19
327.457	1504.19
327.686	1179.19
327.914	332.19
328.143	174.19
328.372	149.19
328.6	108.19
328.829	129.19
329.058	126.19
329.287	114.19
329.515	101.19
329.744	102.19
329.972	106.19
330.201	109.19
330.43	111.19
330.658	100.19
330.887	116.19
331.115	114.19
331.344	96.19
331.572	103.19
331.801	102.19
332.03	96.19
332.258	96.19
332.486	94.19
332.715	97.19
332.943	105.19
333.172	88.19
333.4	95.19
333.629	93.19
333.857	106.19
334.085	104.19
334.314	97.19
334.542	102.19
334.771	83.19
334.999	108.19
335.227	99.19
335.455	97.19
335.684	88.19
335.912	100.19
336.14	99.19
336.369	90.19
336.597	107.19
336.825	97.19
337.053	98.19
337.281	92.19
337.51	81.19
337.738	91.19
337.966	87.19
338.194	87.19
338.422	108.19
338.65	99.19
338.878	92.19
339.106	91.19
339.334	100.19
339.562	83.19
339.79	93.19
340.018	93.19
340.246	82.19
340.474	77.19
340.702	96.19
340.93	90.19
341.158	92.19
341.386	92.19
341.614	96.19
341.842	90.19
342.07	87.19
342.298	87.19
342.526	93.19
342.754	88.19
342.981	85.19
343.209	73.19
343.437	105.19
343.665	94.19
343.893	99.19
344.12	96.19
344.348	93.19
344.576	85.19
344.804	84.19
345.031	100.19
345.259	101.19
345.487	95.19
345.714	98.19
345.942	101.19
346.17	92.19
346.397	88.19
346.625	97.19
346.853	99.19
347.08	84.19
347.308	107.19
347.535	93.19
347.763	99.19
347.99	102.19
348.218	111.19
348.445	88.19
348.673	84.19
348.9	100.19
349.128	104.19
349.355	97.19
349.583	103.19
349.81	105.19
350.037	91.19
350.265	97.19
350.492	96.19
350.72	90.19
350.947	108.19
351.174	101.19
351.402	103.19
351.629	95.19
351.856	115.19
352.083	104.19
352.311	116.19
352.538	109.19
352.765	107.19
352.992	114.19
353.22	94.19
353.447	100.19
353.674	99.19
353.901	101.19
354.128	96.19
354.355	93.19
354.583	89.19
354.81	100.19
355.037	111.19
355.264	102.19
355.491	89.19
355.718	90.19
355.945	85.19
356.172	94.19
356.399	79.19
356.626	93.19
356.853	99.19
357.08	90.19
357.307	97.19
357.534	74.19
357.761	95.19
357.988	116.19
358.215	73.19
358.441	97.19
358.668	92.19
358.895	96.19
359.122	103.19
359.349	99.19
359.576	93.19
359.802	87.19
360.029	107.19
360.256	103.19
360.483	108.19
360.709	82.19
360.936	105.19
361.163	99.19
361.39	95.19
361.616	92.19
361.843	91.19
362.07	98.19
362.296	84.19
362.523	87.19
362.749	71.19
362.976	95.19
363.203	80.19
363.429	92.19
363.656	73.19
363.882	92.19
364.109	95.19
364.335	87.19
364.562	101.19
364.788	79.19
365.015	85.19
365.241	87.19
365.468	99.19
365.694	81.19
365.92	105.19
366.147	90.19
366.373	76.19
366.599	95.19
366.826	80.19
367.052	88.19
367.278	86.19
367.505	100.19
367.731	96.19
367.957	89.19
368.184	90.19
368.41	88.19
368.636	109.19
368.862	124.19
369.089	95.19
369.315	89.19
369.541	84.19
369.767	91.19
369.993	87.19
370.219	81.19
370.445	85.19
370.672	93.19
370.898	77.19
371.124	79.19
371.35	93.19
371.576	87.19
371.802	79.19
372.028	82.19
372.254	89.19
372.48	76.19
372.706	90.19
372.932	85.19
373.158	93.19
373.384	79.19
373.61	102.19
373.835	97.19
374.061	84.19
374.287	87.19
374.513	80.19
374.739	88.19
374.965	74.19
375.191	74.19
375.416	89.19
375.642	83.19
375.868	90.19
376.094	85.19
376.319	96.19
376.545	91.19
376.771	75.19
376.997	89.19
377.222	73.19
377.448	86.19
377.674	77.19
377.899	91.19
378.125	86.19
378.35	93.19
378.576	90.19
378.802	83.19
379.027	100.19
379.253	84.19
379.478	87.19
379.704	85.19
379.929	89.19
380.155	88.19
380.38	104.19
380.606	95.19
380.831	108.19
381.057	99.19
381.282	107.19
381.507	82.19
381.733	89.19
381.958	103.19
382.184	91.19
382.409	96.19
382.634	106.19
382.86	99.19
383.085	87.19
383.31	98.19
383.535	104.19
383.761	93.19
383.986	109.19
384.211	100.19
384.436	102.19
384.662	100.19
384.887	104.19
385.112	105.19
385.337	91.19
385.562	90.19
385.787	92.19
386.013	96.19
386.238	111.19
386.463	100.19
386.688	115.19
386.913	103.19
387.138	88.19
387.363	87.19
387.588	101.19
387.813	105.19
388.038	108.19
388.263	117.19
388.488	107.19
388.713	97.19
388.938	96.19
389.163	93.19
389.387	107.19
389.612	92.19
389.837	93.19
390.062	75.19
390.287	91.19
390.512	94.19
390.736	87.19
390.961	76.19
391.186	88.19
391.411	100.19
391.636	83.19
391.86	92.19
392.085	82.19
392.31	80.19
392.534	84.19
392.759	84.19
392.984	90.19
393.208	93.19
393.433	95.19
393.658	101.19
393.882	81.19
394.107	78.19
394.331	90.19
394.556	83.19
394.78	95.19
395.005	85.19
395.229	96.19
395.454	77.19
395.678	89.19
395.903	86.19
396.127	90.19
396.352	99.19
396.576	75.19
396.801	80.19
397.025	95.19
397.249	89.19
397.474	87.19
397.698	89.19
397.922	89.19
398.147	95.19
398.371	81.19
398.595	79.19
398.82	83.19
399.044	80.19
399.268	91.19
399.492	88.19
399.717	81.19
399.941	95.19
400.165	80.19
400.389	104.19
400.613	86.19
400.837	79.19
401.062	93.19
401.286	73.19
401.51	91.19
401.734	84.19
401.958	85.19
402.182	121.19
402.406	140.19
402.63	122.19
402.854	85.19
403.078	73.19
403.302	75.19
403.526	91.19
403.75	96.19
403.974	91.19
404.198	102.19
404.422	79.19
404.645	72.19
404.869	100.19
405.093	85.19
405.317	96.19
405.541	97.19
405.765	89.19
405.988	103.19
406.212	143.19
406.436	194.19
406.66	124.19
406.883	99.19
407.107	100.19
407.331	91.19
407.555	95.19
407.778	100.19
408.002	84.19
408.226	84.19
408.449	98.19
408.673	81.19
408.896	101.19
409.12	97.19
409.344	92.19
409.567	91.19
409.791	90.19
410.014	94.19
410.238	84.19
410.461	83.19
410.685	84.19
410.908	90.19
411.132	104.19
411.355	93.19
411.578	100.19
411.802	90.19
412.025	100.19
412.249	82.19
412.472	91.19
412.695	97.19
412.919	95.19
413.142	85.19
413.365	87.19
413.589	95.19
413.812	77.19
414.035	97.19
414.258	86.19
414.482	86.19
414.705	96.19
414.928	94.19
415.151	103.19
415.374	88.19
415.597	79.19
415.821	88.19
416.044	91.19
416.267	108.19
416.49	86.19
416.713	85.19
416.936	98.19
417.159	91.19
417.382	100.19
417.605	83.19
417.828	99.19
418.051	88.19
418.274	79.19
418.497	97.19
418.72	103.19
418.943	100.19
419.166	86.19
419.389	101.19
419.611	98.19
419.834	87.19
420.057	83.19
420.28	85.19
420.503	89.19
420.726	84.19
420.948	79.19
421.171	85.19
421.394	84.19
421.617	98.19
421.839	96.19
422.062	87.19
422.285	90.19
422.507	108.19
422.73	99.19
422.953	86.19
423.175	91.19
423.398	88.19
423.621	83.19
423.843	80.19
424.066	75.19
424.288	100.19
424.511	89.19
424.733	95.19
424.956	99.19
425.178	87.19
425.401	102.19
425.623	103.19
425.846	77.19
426.068	91.19
426.291	96.19
426.513	73.19
426.735	101.19
426.958	91.19
427.18	98.19
427.402	131.19
427.625	140.19
427.847	121.19
428.069	113.19
428.292	85.19
428.514	100.19
428.736	82.19
428.958	89.19
429.181	88.19
429.403	90.19
429.625	85.19
429.847	99.19
430.069	104.19
430.292	92.19
430.514	89.19
430.736	69.19
430.958	83.19
431.18	66.19
431.402	95.19
431.624	83.19
431.846	66.19
432.068	83.19
432.29	74.19
432.512	89.19
432.734	85.19
432.956	75.19
433.178	91.19
433.4	87.19
433.622	94.19
433.844	91.19
434.066	95.19
434.287	95.19
434.509	88.19
434.731	99.19
434.953	95.19
435.175	70.19
435.397	92.19
435.618	85.19
435.84	96.19
436.062	102.19
436.284	117.19
436.505	117.19
436.727	84.19
436.949	98.19
437.17	84.19
437.392	84.19
437.614	83.19
437.835	100.19
438.057	112.19
438.278	108.19
438.5	112.19
438.721	108.19
438.943	99.19
439.165	81.19
439.386	88.19
439.608	100.19
439.829	95.19
440.05	121.19
440.272	130.19
440.493	89.19
440.715	79.19
440.936	107.19
441.158	97.19
441.379	92.19
441.6	83.19
441.822	82.19
442.043	105.19
442.264	110.19
442.486	95.19
442.707	80.19
442.928	110.19
443.149	123.19
443.371	118.19
443.592	108.19
443.813	114.19
444.034	113.19
444.255	66.19
444.476	86.19
444.698	90.19
444.919	85.19
445.14	126.19
445.361	104.19
445.582	119.19
445.803	129.19
446.024	114.19
446.245	123.19
446.466	99.19
446.687	79.19
446.908	96.19
447.129	72.19
447.35	77.19
447.571	87.19
447.792	85.19
448.013	93.19
448.234	105.19
448.455	80.19
448.675	101.19
448.896	113.19
449.117	90.19
449.338	93.19
449.559	115.19
449.779	111.19
450	90.19
450.221	99.19
450.442	102.19
450.662	83.19
450.883	100.19
451.104	103.19
451.324	97.19
451.545	96.19
451.766	86.19
451.986	85.19
452.207	81.19
452.428	98.19
452.648	98.19
452.869	99.19
453.089	96.19
453.31	107.19
453.53	92.19
453.751	92.19
453.971	112.19
454.192	104.19
454.412	102.19
454.633	90.19
454.853	79.19
455.073	89.19
455.294	92.19
455.514	107.19
455.734	84.19
455.955	77.19
456.175	87.19
456.395	81.19
456.616	89.19
456.836	104.19
457.056	78.19
457.276	82.19
457.497	90.19
457.717	76.19
457.937	90.19
458.157	81.19
458.377	101.19
458.598	97.19
458.818	135.19
459.038	144.19
459.258	108.19
459.478	96.19
459.698	73.19
459.918	83.19
460.138	84.19
460.358	99.19
460.578	102.19
460.798	94.19
461.018	83.19
461.238	88.19
461.458	104.19
461.678	96.19
461.898	84.19
462.118	79.19
462.338	80.19
462.558	72.19
462.777	91.19
462.997	98.19
463.217	93.19
463.437	69.19
463.657	98.19
463.876	81.19
464.096	79.19
464.316	95.19
464.536	88.19
464.755	98.19
464.975	107.19
465.195	158.19
465.414	149.19
465.634	89.19
465.854	94.19
466.073	96.19
466.293	77.19
466.512	83.19
466.732	68.19
466.951	90.19
467.171	99.19
467.391	107.19
467.61	104.19
467.829	83.19
468.049	95.19
468.268	90.19
468.488	85.19
468.707	83.19
468.927	83.19
469.146	81.19
469.365	92.19
469.585	83.19
469.804	103.19
470.023	98.19
470.243	86.19
470.462	92.19
470.681	97.19
470.901	96.19
471.12	90.19
471.339	81.19
471.558	95.19
471.777	82.19
471.997	73.19
472.216	93.19
472.435	101.19
472.654	88.19
472.873	92.19
473.092	77.19
473.311	89.19
473.53	79.19
473.749	92.19
473.968	92.19
474.187	113.19
474.406	81.19
474.625	89.19
474.844	93.19
475.063	98.19
475.282	89.19
475.501	81.19
475.72	101.19
475.939	97.19
476.158	79.19
476.377	88.19
476.596	92.19
476.814	93.19
477.033	90.19
477.252	91.19
477.471	94.19
477.69	89.19
477.908	74.19
478.127	91.19
478.346	91.19
478.564	100.19
478.783	91.19
479.002	106.19
479.22	79.19
479.439	102.19
479.658	95.19
479.876	76.19
480.095	105.19
480.313	101.19
480.532	106.19
480.751	84.19
480.969	96.19
481.188	108.19
481.406	96.19
481.624	93.19
481.843	79.19
482.061	104.19
482.28	80.19
482.498	87.19
482.717	90.19
482.935	97.19
483.153	85.19
483.372	88.19
483.59	103.19
483.808	91.19
484.027	93.19
484.245	98.19
484.463	92.19
484.681	87.19
484.9	89.19
485.118	95.19
485.336	95.19
485.554	102.19
485.772	94.19
485.99	106.19
486.209	104.19
486.427	97.19
486.645	109.19
486.863	101.19
487.081	105.19
487.299	107.19
487.517	101.19
487.735	99.19
487.953	105.19
488.171	104.19
488.389	116.19
488.607	87.19
488.825	97.19
489.043	77.19
489.261	99.19
489.479	91.19
489.696	85.19
489.914	98.19
490.132	92.19
490.35	87.19
490.568	85.19
490.786	99.19
491.003	89.19
491.221	79.19
491.439	77.19
491.657	78.19
491.874	92.19
492.092	77.19
492.31	99.19
492.527	108.19
492.745	98.19
492.963	76.19
493.18	72.19
493.398	76.19
493.615	89.19
493.833	88.19
494.05	92.19
494.268	106.19
494.485	81.19
494.703	101.19
494.92	82.19
495.138	95.19
495.355	101.19
495.573	96.19
495.79	81.19
496.008	91.19
496.225	72.19
496.442	79.19
496.66	87.19
496.877	84.19
497.094	91.19
497.312	83.19
497.529	92.19
497.746	93.19
497.963	98.19
498.181	94.19
498.398	85.19
498.615	97.19
498.832	99.19
499.049	88.19
499.267	85.19
499.484	84.19
499.701	80.19
499.918	99.19
500.135	83.19
500.352	92.19
500.569	97.19
500.786	103.19
501.003	92.19
501.22	96.19
501.437	95.19
501.654	93.19
501.871	120.19
502.088	94.19
502.305	69.19
502.522	80.19
502.739	86.19
502.956	86.19
503.172	89.19
503.389	85.19
503.606	90.19
503.823	98.19
504.04	83.19
504.256	89.19
504.473	87.19
504.69	97.19
504.907	91.19
505.123	87.19
505.34	100.19
505.557	101.19
505.773	91.19
505.99	99.19
506.207	81.19
506.423	77.19
506.64	87.19
506.856	96.19
507.073	83.19
507.289	99.19
507.506	95.19
507.722	121.19
507.939	107.19
508.155	88.19
508.372	102.19
508.588	95.19
508.805	85.19
509.021	104.19
509.238	119.19
509.454	93.19
509.67	90.19
509.887	102.19
510.103	135.19
510.319	215.19
510.536	704.19
510.752	2089.19
510.968	589.19
511.184	146.19
511.401	103.19
511.617	101.19
511.833	95.19
512.049	99.19
512.265	84.19
512.481	90.19
512.698	102.19
512.914	97.19
513.13	104.19
513.346	95.19
513.562	83.19
513.778	122.19
513.994	89.19
514.21	96.19
514.426	103.19
514.642	138.19
514.858	122.19
515.074	162.19
515.29	393.19
515.506	1233.19
515.721	455.19
515.937	133.19
