Data from Uncirc_1984_H10_HRD10591_00092.txt Node
Date: Wed Jan 03 12:21:55 EST 2024
User: Yrep
Spectrometer: HR+D1059
Trigger mode: 1
Integration Time (sec): 1.000000E-1
Scans to average: 1
Electric dark correction enabled: true
Nonlinearity correction enabled: false
Boxcar width: 0
XAxis mode: Wavelengths
Number of Pixels in Spectrum: 2048
>>>>>Begin Spectral Data<<<<<
223.165	-12.88
223.4	-12.88
223.635	-12.88
223.869	-26.88
224.104	-12.88
224.338	-13.88
224.573	-11.88
224.808	-13.88
225.042	-13.88
225.277	-1.88
225.511	-5.88
225.746	16.12
225.98	-6.88
226.215	9.12
226.449	12.12
226.683	19.12
226.918	30.12
227.152	34.12
227.387	37.12
227.621	44.12
227.856	42.12
228.09	56.12
228.324	54.12
228.559	47.12
228.793	56.12
229.027	67.12
229.262	70.12
229.496	67.12
229.73	75.12
229.964	72.12
230.199	76.12
230.433	62.12
230.667	76.12
230.901	71.12
231.136	68.12
231.37	79.12
231.604	76.12
231.838	86.12
232.072	73.12
232.306	66.12
232.541	63.12
232.775	78.12
233.009	71.12
233.243	64.12
233.477	81.12
233.711	72.12
233.945	74.12
234.179	88.12
234.413	85.12
234.647	74.12
234.881	77.12
235.115	67.12
235.349	80.12
235.583	88.12
235.817	80.12
236.051	73.12
236.285	72.12
236.519	66.12
236.753	76.12
236.987	84.12
237.221	78.12
237.455	83.12
237.689	78.12
237.922	57.12
238.156	78.12
238.39	65.12
238.624	73.12
238.858	72.12
239.091	77.12
239.325	74.12
239.559	87.12
239.793	68.12
240.027	83.12
240.26	68.12
240.494	81.12
240.728	72.12
240.961	76.12
241.195	76.12
241.429	77.12
241.662	86.12
241.896	69.12
242.13	70.12
242.363	85.12
242.597	73.12
242.83	73.12
243.064	63.12
243.298	78.12
243.531	68.12
243.765	68.12
243.998	86.12
244.232	71.12
244.465	90.12
244.699	92.12
244.932	63.12
245.166	68.12
245.399	73.12
245.633	73.12
245.866	87.12
246.099	77.12
246.333	73.12
246.566	80.12
246.8	73.12
247.033	65.12
247.266	80.12
247.5	90.12
247.733	81.12
247.966	83.12
248.2	89.12
248.433	87.12
248.666	81.12
248.899	84.12
249.133	76.12
249.366	90.12
249.599	93.12
249.832	83.12
250.066	85.12
250.299	77.12
250.532	71.12
250.765	70.12
250.998	73.12
251.231	80.12
251.465	82.12
251.698	82.12
251.931	78.12
252.164	73.12
252.397	77.12
252.63	69.12
252.863	67.12
253.096	81.12
253.329	81.12
253.562	81.12
253.795	68.12
254.028	80.12
254.261	76.12
254.494	79.12
254.727	87.12
254.96	67.12
255.193	72.12
255.426	77.12
255.659	82.12
255.892	85.12
256.124	78.12
256.357	72.12
256.59	62.12
256.823	72.12
257.056	70.12
257.289	88.12
257.521	85.12
257.754	85.12
257.987	70.12
258.22	104.12
258.452	78.12
258.685	83.12
258.918	80.12
259.151	80.12
259.383	76.12
259.616	85.12
259.849	83.12
260.081	95.12
260.314	74.12
260.547	83.12
260.779	84.12
261.012	81.12
261.244	80.12
261.477	79.12
261.71	83.12
261.942	80.12
262.175	113.12
262.407	72.12
262.64	71.12
262.872	71.12
263.105	88.12
263.337	86.12
263.57	96.12
263.802	78.12
264.035	70.12
264.267	88.12
264.499	86.12
264.732	77.12
264.964	82.12
265.197	72.12
265.429	83.12
265.661	78.12
265.894	92.12
266.126	95.12
266.358	87.12
266.591	82.12
266.823	71.12
267.055	81.12
267.287	76.12
267.52	73.12
267.752	78.12
267.984	84.12
268.216	76.12
268.448	81.12
268.681	81.12
268.913	74.12
269.145	93.12
269.377	91.12
269.609	75.12
269.841	69.12
270.073	73.12
270.306	69.12
270.538	76.12
270.77	77.12
271.002	78.12
271.234	92.12
271.466	96.12
271.698	86.12
271.93	79.12
272.162	76.12
272.394	84.12
272.626	87.12
272.858	88.12
273.09	85.12
273.322	88.12
273.553	81.12
273.785	73.12
274.017	78.12
274.249	71.12
274.481	77.12
274.713	81.12
274.945	81.12
275.176	84.12
275.408	89.12
275.64	82.12
275.872	84.12
276.104	90.12
276.335	87.12
276.567	94.12
276.799	82.12
277.031	97.12
277.262	77.12
277.494	76.12
277.726	82.12
277.957	79.12
278.189	65.12
278.421	80.12
278.652	82.12
278.884	86.12
279.115	65.12
279.347	88.12
279.579	78.12
279.81	80.12
280.042	71.12
280.273	83.12
280.505	78.12
280.736	83.12
280.968	90.12
281.199	76.12
281.431	79.12
281.662	96.12
281.894	98.12
282.125	81.12
282.356	113.12
282.588	116.12
282.819	105.12
283.051	86.12
283.282	84.12
283.513	91.12
283.745	77.12
283.976	80.12
284.207	95.12
284.439	89.12
284.67	81.12
284.901	76.12
285.132	76.12
285.364	85.12
285.595	84.12
285.826	72.12
286.057	85.12
286.288	77.12
286.52	81.12
286.751	89.12
286.982	89.12
287.213	79.12
287.444	78.12
287.675	96.12
287.906	82.12
288.138	89.12
288.369	74.12
288.6	76.12
288.831	85.12
289.062	72.12
289.293	88.12
289.524	72.12
289.755	85.12
289.986	78.12
290.217	92.12
290.448	84.12
290.679	97.12
290.91	84.12
291.141	85.12
291.371	83.12
291.602	92.12
291.833	82.12
292.064	83.12
292.295	88.12
292.526	98.12
292.757	89.12
292.987	81.12
293.218	86.12
293.449	101.12
293.68	92.12
293.91	89.12
294.141	97.12
294.372	94.12
294.603	90.12
294.833	89.12
295.064	102.12
295.295	87.12
295.525	101.12
295.756	94.12
295.987	105.12
296.217	125.12
296.448	106.12
296.679	92.12
296.909	77.12
297.14	88.12
297.37	87.12
297.601	84.12
297.831	81.12
298.062	83.12
298.292	96.12
298.523	89.12
298.753	88.12
298.984	94.12
299.214	90.12
299.445	93.12
299.675	108.12
299.905	87.12
300.136	70.12
300.366	75.12
300.597	93.12
300.827	95.12
301.057	88.12
301.288	88.12
301.518	80.12
301.748	84.12
301.979	93.12
302.209	92.12
302.439	91.12
302.669	91.12
302.9	81.12
303.13	86.12
303.36	93.12
303.59	83.12
303.82	100.12
304.051	87.12
304.281	92.12
304.511	107.12
304.741	82.12
304.971	71.12
305.201	76.12
305.431	81.12
305.661	87.12
305.891	78.12
306.121	76.12
306.352	98.12
306.582	94.12
306.812	87.12
307.042	94.12
307.272	94.12
307.502	71.12
307.731	97.12
307.961	88.12
308.191	88.12
308.421	101.12
308.651	90.12
308.881	97.12
309.111	70.12
309.341	112.12
309.571	86.12
309.8	86.12
310.03	94.12
310.26	82.12
310.49	99.12
310.72	84.12
310.949	86.12
311.179	80.12
311.409	86.12
311.639	83.12
311.868	91.12
312.098	104.12
312.328	81.12
312.557	90.12
312.787	87.12
313.017	98.12
313.246	103.12
313.476	103.12
313.706	94.12
313.935	86.12
314.165	82.12
314.394	97.12
314.624	95.12
314.853	96.12
315.083	93.12
315.312	99.12
315.542	94.12
315.771	85.12
316.001	94.12
316.23	108.12
316.46	94.12
316.689	91.12
316.919	95.12
317.148	80.12
317.377	84.12
317.607	81.12
317.836	89.12
318.065	86.12
318.295	104.12
318.524	99.12
318.753	97.12
318.983	102.12
319.212	93.12
319.441	98.12
319.67	104.12
319.9	83.12
320.129	90.12
320.358	88.12
320.587	95.12
320.816	107.12
321.046	86.12
321.275	100.12
321.504	100.12
321.733	93.12
321.962	93.12
322.191	97.12
322.42	93.12
322.649	91.12
322.878	94.12
323.108	94.12
323.337	118.12
323.566	126.12
323.795	128.12
324.024	172.12
324.253	323.12
324.482	692.12
324.71	1400.12
324.939	1838.12
325.168	692.12
325.397	218.12
325.626	143.12
325.855	121.12
326.084	110.12
326.313	121.12
326.542	122.12
326.77	202.12
326.999	389.12
327.228	766.12
327.457	1460.12
327.686	1132.12
327.914	327.12
328.143	168.12
328.372	124.12
328.6	102.12
328.829	103.12
329.058	114.12
329.287	105.12
329.515	96.12
329.744	84.12
329.972	83.12
330.201	93.12
330.43	113.12
330.658	98.12
330.887	97.12
331.115	105.12
331.344	92.12
331.572	95.12
331.801	106.12
332.03	94.12
332.258	104.12
332.486	86.12
332.715	105.12
332.943	86.12
333.172	77.12
333.4	99.12
333.629	88.12
333.857	99.12
334.085	88.12
334.314	100.12
334.542	98.12
334.771	99.12
334.999	104.12
335.227	95.12
335.455	84.12
335.684	100.12
335.912	74.12
336.14	93.12
336.369	96.12
336.597	101.12
336.825	93.12
337.053	74.12
337.281	86.12
337.51	72.12
337.738	92.12
337.966	88.12
338.194	99.12
338.422	79.12
338.65	82.12
338.878	89.12
339.106	92.12
339.334	73.12
339.562	94.12
339.79	100.12
340.018	83.12
340.246	74.12
340.474	90.12
340.702	99.12
340.93	80.12
341.158	94.12
341.386	90.12
341.614	71.12
341.842	86.12
342.07	79.12
342.298	88.12
342.526	84.12
342.754	75.12
342.981	83.12
343.209	83.12
343.437	106.12
343.665	86.12
343.893	108.12
344.12	87.12
344.348	95.12
344.576	80.12
344.804	92.12
345.031	90.12
345.259	108.12
345.487	89.12
345.714	90.12
345.942	92.12
346.17	98.12
346.397	71.12
346.625	78.12
346.853	100.12
347.08	94.12
347.308	100.12
347.535	76.12
347.763	90.12
347.99	90.12
348.218	112.12
348.445	101.12
348.673	84.12
348.9	84.12
349.128	85.12
349.355	86.12
349.583	93.12
349.81	84.12
350.037	75.12
350.265	106.12
350.492	65.12
350.72	92.12
350.947	90.12
351.174	84.12
351.402	81.12
351.629	98.12
351.856	97.12
352.083	87.12
352.311	93.12
352.538	100.12
352.765	89.12
352.992	110.12
353.22	92.12
353.447	113.12
353.674	99.12
353.901	80.12
354.128	96.12
354.355	98.12
354.583	90.12
354.81	98.12
355.037	76.12
355.264	84.12
355.491	81.12
355.718	97.12
355.945	88.12
356.172	82.12
356.399	88.12
356.626	90.12
356.853	73.12
357.08	83.12
357.307	97.12
357.534	84.12
357.761	92.12
357.988	90.12
358.215	92.12
358.441	91.12
358.668	90.12
358.895	86.12
359.122	85.12
359.349	77.12
359.576	89.12
359.802	100.12
360.029	111.12
360.256	95.12
360.483	89.12
360.709	86.12
360.936	93.12
361.163	96.12
361.39	101.12
361.616	99.12
361.843	81.12
362.07	78.12
362.296	90.12
362.523	87.12
362.749	94.12
362.976	77.12
363.203	90.12
363.429	86.12
363.656	81.12
363.882	92.12
364.109	91.12
364.335	86.12
364.562	92.12
364.788	73.12
365.015	83.12
365.241	82.12
365.468	104.12
365.694	94.12
365.92	92.12
366.147	84.12
366.373	78.12
366.599	76.12
366.826	57.12
367.052	87.12
367.278	81.12
367.505	93.12
367.731	90.12
367.957	90.12
368.184	100.12
368.41	90.12
368.636	105.12
368.862	113.12
369.089	110.12
369.315	90.12
369.541	97.12
369.767	97.12
369.993	93.12
370.219	87.12
370.445	88.12
370.672	85.12
370.898	90.12
371.124	91.12
371.35	75.12
371.576	96.12
371.802	87.12
372.028	88.12
372.254	86.12
372.48	87.12
372.706	88.12
372.932	78.12
373.158	85.12
373.384	85.12
373.61	89.12
373.835	82.12
374.061	77.12
374.287	81.12
374.513	84.12
374.739	74.12
374.965	72.12
375.191	88.12
375.416	80.12
375.642	83.12
375.868	80.12
376.094	80.12
376.319	90.12
376.545	80.12
376.771	89.12
376.997	66.12
377.222	80.12
377.448	88.12
377.674	85.12
377.899	84.12
378.125	86.12
378.35	104.12
378.576	90.12
378.802	88.12
379.027	89.12
379.253	90.12
379.478	70.12
379.704	83.12
379.929	100.12
380.155	87.12
380.38	85.12
380.606	96.12
380.831	82.12
381.057	103.12
381.282	86.12
381.507	97.12
381.733	99.12
381.958	84.12
382.184	94.12
382.409	90.12
382.634	92.12
382.86	80.12
383.085	95.12
383.31	93.12
383.535	104.12
383.761	96.12
383.986	94.12
384.211	89.12
384.436	96.12
384.662	80.12
384.887	90.12
385.112	98.12
385.337	105.12
385.562	90.12
385.787	96.12
386.013	99.12
386.238	99.12
386.463	101.12
386.688	105.12
386.913	97.12
387.138	94.12
387.363	91.12
387.588	101.12
387.813	98.12
388.038	105.12
388.263	97.12
388.488	102.12
388.713	98.12
388.938	95.12
389.163	77.12
389.387	96.12
389.612	78.12
389.837	81.12
390.062	88.12
390.287	82.12
390.512	96.12
390.736	93.12
390.961	71.12
391.186	90.12
391.411	107.12
391.636	83.12
391.86	84.12
392.085	77.12
392.31	89.12
392.534	77.12
392.759	93.12
392.984	94.12
393.208	82.12
393.433	99.12
393.658	88.12
393.882	85.12
394.107	85.12
394.331	90.12
394.556	79.12
394.78	89.12
395.005	73.12
395.229	82.12
395.454	87.12
395.678	79.12
395.903	79.12
396.127	93.12
396.352	81.12
396.576	76.12
396.801	85.12
397.025	89.12
397.249	79.12
397.474	99.12
397.698	96.12
397.922	84.12
398.147	97.12
398.371	78.12
398.595	83.12
398.82	85.12
399.044	77.12
399.268	82.12
399.492	86.12
399.717	93.12
399.941	78.12
400.165	99.12
400.389	88.12
400.613	92.12
400.837	94.12
401.062	89.12
401.286	94.12
401.51	98.12
401.734	87.12
401.958	89.12
402.182	116.12
402.406	122.12
402.63	103.12
402.854	95.12
403.078	86.12
403.302	80.12
403.526	93.12
403.75	82.12
403.974	76.12
404.198	91.12
404.422	97.12
404.645	87.12
404.869	98.12
405.093	92.12
405.317	97.12
405.541	96.12
405.765	90.12
405.988	85.12
406.212	153.12
406.436	185.12
406.66	121.12
406.883	82.12
407.107	91.12
407.331	88.12
407.555	102.12
407.778	88.12
408.002	97.12
408.226	88.12
408.449	78.12
408.673	83.12
408.896	86.12
409.12	96.12
409.344	78.12
409.567	78.12
409.791	97.12
410.014	81.12
410.238	86.12
410.461	85.12
410.685	97.12
410.908	113.12
411.132	102.12
411.355	90.12
411.578	106.12
411.802	73.12
412.025	88.12
412.249	99.12
412.472	79.12
412.695	87.12
412.919	93.12
413.142	84.12
413.365	75.12
413.589	87.12
413.812	81.12
414.035	91.12
414.258	74.12
414.482	81.12
414.705	86.12
414.928	87.12
415.151	87.12
415.374	75.12
415.597	93.12
415.821	78.12
416.044	76.12
416.267	91.12
416.49	90.12
416.713	91.12
416.936	76.12
417.159	91.12
417.382	79.12
417.605	89.12
417.828	73.12
418.051	78.12
418.274	80.12
418.497	79.12
418.72	77.12
418.943	97.12
419.166	77.12
419.389	81.12
419.611	79.12
419.834	93.12
420.057	86.12
420.28	74.12
420.503	89.12
420.726	87.12
420.948	76.12
421.171	84.12
421.394	100.12
421.617	100.12
421.839	77.12
422.062	96.12
422.285	91.12
422.507	106.12
422.73	114.12
422.953	88.12
423.175	70.12
423.398	87.12
423.621	95.12
423.843	87.12
424.066	93.12
424.288	82.12
424.511	86.12
424.733	91.12
424.956	98.12
425.178	105.12
425.401	98.12
425.623	102.12
425.846	84.12
426.068	91.12
426.291	92.12
426.513	101.12
426.735	86.12
426.958	98.12
427.18	101.12
427.402	125.12
427.625	125.12
427.847	103.12
428.069	100.12
428.292	99.12
428.514	91.12
428.736	84.12
428.958	75.12
429.181	91.12
429.403	93.12
429.625	71.12
429.847	84.12
430.069	96.12
430.292	99.12
430.514	85.12
430.736	77.12
430.958	88.12
431.18	69.12
431.402	87.12
431.624	82.12
431.846	91.12
432.068	85.12
432.29	76.12
432.512	84.12
432.734	90.12
432.956	72.12
433.178	109.12
433.4	84.12
433.622	88.12
433.844	80.12
434.066	82.12
434.287	87.12
434.509	94.12
434.731	80.12
434.953	94.12
435.175	89.12
435.397	82.12
435.618	97.12
435.84	91.12
436.062	109.12
436.284	111.12
436.505	98.12
436.727	102.12
436.949	101.12
437.17	81.12
437.392	73.12
437.614	82.12
437.835	95.12
438.057	110.12
438.278	103.12
438.5	100.12
438.721	114.12
438.943	84.12
439.165	78.12
439.386	81.12
439.608	91.12
439.829	93.12
440.05	95.12
440.272	124.12
440.493	87.12
440.715	84.12
440.936	81.12
441.158	79.12
441.379	89.12
441.6	85.12
441.822	73.12
442.043	95.12
442.264	95.12
442.486	94.12
442.707	86.12
442.928	104.12
443.149	122.12
443.371	110.12
443.592	107.12
443.813	108.12
444.034	100.12
444.255	82.12
444.476	89.12
444.698	66.12
444.919	86.12
445.14	119.12
445.361	125.12
445.582	108.12
445.803	127.12
446.024	127.12
446.245	117.12
446.466	101.12
446.687	89.12
446.908	94.12
447.129	89.12
447.35	90.12
447.571	89.12
447.792	82.12
448.013	102.12
448.234	104.12
448.455	87.12
448.675	103.12
448.896	104.12
449.117	95.12
449.338	82.12
449.559	113.12
449.779	113.12
450	86.12
450.221	107.12
450.442	70.12
450.662	88.12
450.883	89.12
451.104	102.12
451.324	88.12
451.545	83.12
451.766	86.12
451.986	75.12
452.207	77.12
452.428	80.12
452.648	70.12
452.869	110.12
453.089	103.12
453.31	112.12
453.53	99.12
453.751	88.12
453.971	97.12
454.192	107.12
454.412	85.12
454.633	84.12
454.853	73.12
455.073	90.12
455.294	87.12
455.514	93.12
455.734	90.12
455.955	74.12
456.175	80.12
456.395	84.12
456.616	81.12
456.836	94.12
457.056	73.12
457.276	73.12
457.497	75.12
457.717	84.12
457.937	82.12
458.157	91.12
458.377	86.12
458.598	106.12
458.818	140.12
459.038	126.12
459.258	89.12
459.478	72.12
459.698	84.12
459.918	98.12
460.138	88.12
460.358	81.12
460.578	94.12
460.798	101.12
461.018	80.12
461.238	81.12
461.458	74.12
461.678	82.12
461.898	81.12
462.118	72.12
462.338	89.12
462.558	82.12
462.777	81.12
462.997	88.12
463.217	85.12
463.437	88.12
463.657	72.12
463.876	78.12
464.096	91.12
464.316	94.12
464.536	88.12
464.755	92.12
464.975	97.12
465.195	154.12
465.414	147.12
465.634	90.12
465.854	90.12
466.073	81.12
466.293	79.12
466.512	83.12
466.732	83.12
466.951	73.12
467.171	89.12
467.391	84.12
467.61	91.12
467.829	94.12
468.049	97.12
468.268	93.12
468.488	80.12
468.707	98.12
468.927	88.12
469.146	88.12
469.365	91.12
469.585	97.12
469.804	111.12
470.023	73.12
470.243	89.12
470.462	86.12
470.681	97.12
470.901	81.12
471.12	60.12
471.339	76.12
471.558	88.12
471.777	86.12
471.997	85.12
472.216	103.12
472.435	92.12
472.654	86.12
472.873	95.12
473.092	86.12
473.311	82.12
473.53	89.12
473.749	80.12
473.968	89.12
474.187	93.12
474.406	84.12
474.625	70.12
474.844	83.12
475.063	81.12
475.282	87.12
475.501	82.12
475.72	81.12
475.939	80.12
476.158	95.12
476.377	76.12
476.596	95.12
476.814	100.12
477.033	84.12
477.252	84.12
477.471	84.12
477.69	87.12
477.908	87.12
478.127	87.12
478.346	76.12
478.564	78.12
478.783	90.12
479.002	89.12
479.22	87.12
479.439	95.12
479.658	103.12
479.876	95.12
480.095	99.12
480.313	88.12
480.532	82.12
480.751	78.12
480.969	92.12
481.188	111.12
481.406	101.12
481.624	87.12
481.843	89.12
482.061	96.12
482.28	90.12
482.498	82.12
482.717	80.12
482.935	96.12
483.153	87.12
483.372	97.12
483.59	85.12
483.808	87.12
484.027	86.12
484.245	80.12
484.463	85.12
484.681	96.12
484.9	78.12
485.118	87.12
485.336	86.12
485.554	92.12
485.772	84.12
485.99	102.12
486.209	103.12
486.427	90.12
486.645	112.12
486.863	101.12
487.081	96.12
487.299	100.12
487.517	95.12
487.735	90.12
487.953	97.12
488.171	84.12
488.389	99.12
488.607	97.12
488.825	95.12
489.043	66.12
489.261	89.12
489.479	86.12
489.696	69.12
489.914	87.12
490.132	85.12
490.35	82.12
490.568	93.12
490.786	94.12
491.003	73.12
491.221	80.12
491.439	82.12
491.657	73.12
491.874	80.12
492.092	101.12
492.31	102.12
492.527	89.12
492.745	92.12
492.963	97.12
493.18	85.12
493.398	89.12
493.615	85.12
493.833	80.12
494.05	78.12
494.268	100.12
494.485	90.12
494.703	85.12
494.92	92.12
495.138	91.12
495.355	87.12
495.573	84.12
495.79	88.12
496.008	96.12
496.225	84.12
496.442	82.12
496.66	87.12
496.877	85.12
497.094	87.12
497.312	81.12
497.529	85.12
497.746	87.12
497.963	90.12
498.181	76.12
498.398	90.12
498.615	109.12
498.832	106.12
499.049	69.12
499.267	82.12
499.484	86.12
499.701	96.12
499.918	86.12
500.135	76.12
500.352	88.12
500.569	94.12
500.786	87.12
501.003	91.12
501.22	72.12
501.437	85.12
501.654	84.12
501.871	93.12
502.088	93.12
502.305	84.12
502.522	101.12
502.739	83.12
502.956	87.12
503.172	83.12
503.389	82.12
503.606	108.12
503.823	93.12
504.04	104.12
504.256	92.12
504.473	88.12
504.69	89.12
504.907	79.12
505.123	82.12
505.34	90.12
505.557	94.12
505.773	89.12
505.99	89.12
506.207	72.12
506.423	84.12
506.64	94.12
506.856	85.12
507.073	88.12
507.289	92.12
507.506	87.12
507.722	101.12
507.939	113.12
508.155	104.12
508.372	93.12
508.588	98.12
508.805	84.12
509.021	92.12
509.238	103.12
509.454	96.12
509.67	92.12
509.887	101.12
510.103	116.12
510.319	201.12
510.536	668.12
510.752	2060.12
510.968	574.12
511.184	152.12
511.401	100.12
511.617	86.12
511.833	89.12
512.049	84.12
512.265	90.12
512.481	90.12
512.698	95.12
512.914	98.12
513.13	88.12
513.346	106.12
513.562	89.12
513.778	97.12
513.994	111.12
514.21	90.12
514.426	116.12
514.642	124.12
514.858	108.12
515.074	137.12
515.29	395.12
515.506	1242.12
515.721	446.12
515.937	137.12
516.153	92.12
516.369	103.12
516.585	89.12
516.801	87.12
517.016	93.12
517.232	92.12
