Data from Uncirc_1984_H10_HRD10591_00006.txt Node
Date: Wed Jan 03 12:21:38 EST 2024
User: Yrep
Spectrometer: HR+D1059
Trigger mode: 1
Integration Time (sec): 1.000000E-1
Scans to average: 1
Electric dark correction enabled: true
Nonlinearity correction enabled: false
Boxcar width: 0
XAxis mode: Wavelengths
Number of Pixels in Spectrum: 2048
>>>>>Begin Spectral Data<<<<<
223.165	-13.25
223.4	-13.25
223.635	-13.25
223.869	-22.25
224.104	-17.25
224.338	-9.25
224.573	-21.25
224.808	-23.25
225.042	-11.25
225.277	-1.25
225.511	-14.25
225.746	9.75
225.98	8.75
226.215	13.75
226.449	24.75
226.683	14.75
226.918	34.75
227.152	26.75
227.387	28.75
227.621	34.75
227.856	39.75
228.09	39.75
228.324	54.75
228.559	61.75
228.793	63.75
229.027	77.75
229.262	58.75
229.496	74.75
229.73	66.75
229.964	68.75
230.199	65.75
230.433	82.75
230.667	76.75
230.901	76.75
231.136	68.75
231.37	86.75
231.604	77.75
231.838	72.75
232.072	94.75
232.306	72.75
232.541	79.75
232.775	78.75
233.009	63.75
233.243	79.75
233.477	80.75
233.711	80.75
233.945	72.75
234.179	80.75
234.413	89.75
234.647	83.75
234.881	74.75
235.115	77.75
235.349	80.75
235.583	72.75
235.817	74.75
236.051	79.75
236.285	70.75
236.519	78.75
236.753	80.75
236.987	85.75
237.221	86.75
237.455	89.75
237.689	90.75
237.922	69.75
238.156	68.75
238.39	78.75
238.624	81.75
238.858	74.75
239.091	76.75
239.325	63.75
239.559	78.75
239.793	73.75
240.027	69.75
240.26	64.75
240.494	79.75
240.728	70.75
240.961	80.75
241.195	78.75
241.429	66.75
241.662	77.75
241.896	73.75
242.13	87.75
242.363	76.75
242.597	70.75
242.83	80.75
243.064	71.75
243.298	71.75
243.531	71.75
243.765	93.75
243.998	79.75
244.232	77.75
244.465	69.75
244.699	79.75
244.932	66.75
245.166	68.75
245.399	87.75
245.633	74.75
245.866	71.75
246.099	77.75
246.333	79.75
246.566	76.75
246.8	88.75
247.033	97.75
247.266	64.75
247.5	88.75
247.733	91.75
247.966	79.75
248.2	77.75
248.433	75.75
248.666	80.75
248.899	72.75
249.133	68.75
249.366	92.75
249.599	78.75
249.832	66.75
250.066	76.75
250.299	73.75
250.532	84.75
250.765	66.75
250.998	67.75
251.231	80.75
251.465	86.75
251.698	76.75
251.931	74.75
252.164	80.75
252.397	82.75
252.63	88.75
252.863	71.75
253.096	77.75
253.329	86.75
253.562	90.75
253.795	89.75
254.028	77.75
254.261	77.75
254.494	84.75
254.727	89.75
254.96	63.75
255.193	65.75
255.426	79.75
255.659	58.75
255.892	93.75
256.124	83.75
256.357	72.75
256.59	69.75
256.823	76.75
257.056	81.75
257.289	76.75
257.521	82.75
257.754	78.75
257.987	77.75
258.22	71.75
258.452	68.75
258.685	76.75
258.918	91.75
259.151	65.75
259.383	69.75
259.616	71.75
259.849	65.75
260.081	94.75
260.314	79.75
260.547	85.75
260.779	78.75
261.012	84.75
261.244	90.75
261.477	90.75
261.71	85.75
261.942	92.75
262.175	93.75
262.407	79.75
262.64	78.75
262.872	76.75
263.105	83.75
263.337	72.75
263.57	85.75
263.802	78.75
264.035	80.75
264.267	87.75
264.499	81.75
264.732	82.75
264.964	71.75
265.197	81.75
265.429	77.75
265.661	88.75
265.894	69.75
266.126	92.75
266.358	83.75
266.591	86.75
266.823	80.75
267.055	76.75
267.287	73.75
267.52	86.75
267.752	78.75
267.984	79.75
268.216	68.75
268.448	98.75
268.681	64.75
268.913	92.75
269.145	80.75
269.377	83.75
269.609	65.75
269.841	81.75
270.073	84.75
270.306	94.75
270.538	79.75
270.77	95.75
271.002	82.75
271.234	88.75
271.466	81.75
271.698	77.75
271.93	81.75
272.162	82.75
272.394	101.75
272.626	84.75
272.858	71.75
273.09	83.75
273.322	77.75
273.553	83.75
273.785	79.75
274.017	86.75
274.249	84.75
274.481	70.75
274.713	78.75
274.945	85.75
275.176	83.75
275.408	78.75
275.64	86.75
275.872	81.75
276.104	72.75
276.335	82.75
276.567	102.75
276.799	93.75
277.031	85.75
277.262	80.75
277.494	89.75
277.726	87.75
277.957	76.75
278.189	94.75
278.421	88.75
278.652	88.75
278.884	81.75
279.115	81.75
279.347	68.75
279.579	70.75
279.81	87.75
280.042	77.75
280.273	77.75
280.505	78.75
280.736	78.75
280.968	93.75
281.199	80.75
281.431	86.75
281.662	87.75
281.894	73.75
282.125	92.75
282.356	100.75
282.588	120.75
282.819	95.75
283.051	91.75
283.282	89.75
283.513	82.75
283.745	92.75
283.976	88.75
284.207	80.75
284.439	84.75
284.67	94.75
284.901	93.75
285.132	89.75
285.364	81.75
285.595	85.75
285.826	73.75
286.057	81.75
286.288	89.75
286.52	81.75
286.751	84.75
286.982	78.75
287.213	92.75
287.444	84.75
287.675	85.75
287.906	91.75
288.138	91.75
288.369	81.75
288.6	80.75
288.831	84.75
289.062	60.75
289.293	83.75
289.524	94.75
289.755	85.75
289.986	74.75
290.217	86.75
290.448	89.75
290.679	94.75
290.91	87.75
291.141	73.75
291.371	73.75
291.602	82.75
291.833	104.75
292.064	92.75
292.295	84.75
292.526	81.75
292.757	84.75
292.987	81.75
293.218	84.75
293.449	71.75
293.68	93.75
293.91	100.75
294.141	110.75
294.372	81.75
294.603	79.75
294.833	81.75
295.064	93.75
295.295	78.75
295.525	88.75
295.756	72.75
295.987	114.75
296.217	130.75
296.448	113.75
296.679	99.75
296.909	90.75
297.14	72.75
297.37	75.75
297.601	80.75
297.831	82.75
298.062	83.75
298.292	87.75
298.523	96.75
298.753	91.75
298.984	90.75
299.214	85.75
299.445	74.75
299.675	89.75
299.905	73.75
300.136	94.75
300.366	75.75
300.597	83.75
300.827	89.75
301.057	100.75
301.288	87.75
301.518	92.75
301.748	87.75
301.979	93.75
302.209	85.75
302.439	82.75
302.669	85.75
302.9	76.75
303.13	88.75
303.36	97.75
303.59	92.75
303.82	96.75
304.051	85.75
304.281	99.75
304.511	94.75
304.741	88.75
304.971	87.75
305.201	81.75
305.431	90.75
305.661	87.75
305.891	80.75
306.121	102.75
306.352	90.75
306.582	88.75
306.812	90.75
307.042	86.75
307.272	84.75
307.502	95.75
307.731	81.75
307.961	82.75
308.191	85.75
308.421	89.75
308.651	70.75
308.881	77.75
309.111	96.75
309.341	87.75
309.571	83.75
309.8	87.75
310.03	93.75
310.26	92.75
310.49	93.75
310.72	86.75
310.949	89.75
311.179	76.75
311.409	81.75
311.639	84.75
311.868	92.75
312.098	92.75
312.328	94.75
312.557	87.75
312.787	98.75
313.017	100.75
313.246	72.75
313.476	96.75
313.706	84.75
313.935	84.75
314.165	89.75
314.394	85.75
314.624	94.75
314.853	96.75
315.083	87.75
315.312	98.75
315.542	88.75
315.771	96.75
316.001	90.75
316.23	92.75
316.46	80.75
316.689	89.75
316.919	90.75
317.148	88.75
317.377	94.75
317.607	78.75
317.836	88.75
318.065	93.75
318.295	88.75
318.524	86.75
318.753	81.75
318.983	94.75
319.212	100.75
319.441	92.75
319.67	103.75
319.9	89.75
320.129	74.75
320.358	81.75
320.587	96.75
320.816	88.75
321.046	74.75
321.275	89.75
321.504	89.75
321.733	89.75
321.962	94.75
322.191	84.75
322.42	84.75
322.649	94.75
322.878	106.75
323.108	114.75
323.337	103.75
323.566	126.75
323.795	122.75
324.024	175.75
324.253	319.75
324.482	687.75
324.71	1397.75
324.939	1882.75
325.168	705.75
325.397	206.75
325.626	129.75
325.855	108.75
326.084	105.75
326.313	137.75
326.542	132.75
326.77	204.75
326.999	385.75
327.228	785.75
327.457	1491.75
327.686	1193.75
327.914	315.75
328.143	171.75
328.372	137.75
328.6	100.75
328.829	94.75
329.058	107.75
329.287	109.75
329.515	97.75
329.744	106.75
329.972	87.75
330.201	94.75
330.43	90.75
330.658	97.75
330.887	112.75
331.115	113.75
331.344	91.75
331.572	98.75
331.801	96.75
332.03	103.75
332.258	94.75
332.486	80.75
332.715	92.75
332.943	95.75
333.172	102.75
333.4	85.75
333.629	106.75
333.857	110.75
334.085	87.75
334.314	104.75
334.542	95.75
334.771	80.75
334.999	84.75
335.227	97.75
335.455	86.75
335.684	78.75
335.912	97.75
336.14	84.75
336.369	81.75
336.597	94.75
336.825	90.75
337.053	84.75
337.281	100.75
337.51	93.75
337.738	92.75
337.966	92.75
338.194	79.75
338.422	94.75
338.65	94.75
338.878	89.75
339.106	95.75
339.334	79.75
339.562	80.75
339.79	76.75
340.018	96.75
340.246	88.75
340.474	98.75
340.702	88.75
340.93	89.75
341.158	81.75
341.386	99.75
341.614	97.75
341.842	73.75
342.07	76.75
342.298	85.75
342.526	89.75
342.754	89.75
342.981	93.75
343.209	77.75
343.437	91.75
343.665	87.75
343.893	86.75
344.12	93.75
344.348	86.75
344.576	104.75
344.804	87.75
345.031	77.75
345.259	78.75
345.487	85.75
345.714	82.75
345.942	88.75
346.17	78.75
346.397	91.75
346.625	98.75
346.853	111.75
347.08	100.75
347.308	96.75
347.535	94.75
347.763	94.75
347.99	96.75
348.218	88.75
348.445	96.75
348.673	91.75
348.9	90.75
349.128	98.75
349.355	73.75
349.583	101.75
349.81	91.75
350.037	84.75
350.265	85.75
350.492	82.75
350.72	101.75
350.947	101.75
351.174	92.75
351.402	89.75
351.629	96.75
351.856	95.75
352.083	84.75
352.311	98.75
352.538	94.75
352.765	106.75
352.992	116.75
353.22	106.75
353.447	92.75
353.674	109.75
353.901	90.75
354.128	88.75
354.355	95.75
354.583	91.75
354.81	96.75
355.037	101.75
355.264	82.75
355.491	100.75
355.718	96.75
355.945	85.75
356.172	87.75
356.399	85.75
356.626	96.75
356.853	71.75
357.08	84.75
357.307	99.75
357.534	93.75
357.761	97.75
357.988	91.75
358.215	79.75
358.441	80.75
358.668	96.75
358.895	83.75
359.122	86.75
359.349	81.75
359.576	96.75
359.802	95.75
360.029	102.75
360.256	95.75
360.483	106.75
360.709	71.75
360.936	80.75
361.163	85.75
361.39	80.75
361.616	88.75
361.843	83.75
362.07	81.75
362.296	92.75
362.523	82.75
362.749	72.75
362.976	92.75
363.203	84.75
363.429	86.75
363.656	89.75
363.882	80.75
364.109	79.75
364.335	79.75
364.562	97.75
364.788	78.75
365.015	85.75
365.241	84.75
365.468	101.75
365.694	94.75
365.92	79.75
366.147	84.75
366.373	84.75
366.599	75.75
366.826	94.75
367.052	98.75
367.278	88.75
367.505	89.75
367.731	88.75
367.957	83.75
368.184	89.75
368.41	93.75
368.636	97.75
368.862	102.75
369.089	103.75
369.315	90.75
369.541	89.75
369.767	85.75
369.993	71.75
370.219	90.75
370.445	73.75
370.672	73.75
370.898	73.75
371.124	84.75
371.35	88.75
371.576	92.75
371.802	85.75
372.028	82.75
372.254	82.75
372.48	84.75
372.706	85.75
372.932	94.75
373.158	85.75
373.384	93.75
373.61	87.75
373.835	84.75
374.061	83.75
374.287	82.75
374.513	95.75
374.739	78.75
374.965	77.75
375.191	91.75
375.416	91.75
375.642	90.75
375.868	86.75
376.094	98.75
376.319	90.75
376.545	85.75
376.771	108.75
376.997	90.75
377.222	96.75
377.448	89.75
377.674	95.75
377.899	73.75
378.125	97.75
378.35	82.75
378.576	87.75
378.802	93.75
379.027	81.75
379.253	90.75
379.478	92.75
379.704	91.75
379.929	74.75
380.155	68.75
380.38	94.75
380.606	86.75
380.831	96.75
381.057	94.75
381.282	96.75
381.507	92.75
381.733	96.75
381.958	97.75
382.184	84.75
382.409	96.75
382.634	92.75
382.86	93.75
383.085	100.75
383.31	101.75
383.535	96.75
383.761	99.75
383.986	108.75
384.211	91.75
384.436	107.75
384.662	98.75
384.887	112.75
385.112	110.75
385.337	93.75
385.562	101.75
385.787	94.75
386.013	110.75
386.238	99.75
386.463	106.75
386.688	105.75
386.913	104.75
387.138	94.75
387.363	88.75
387.588	105.75
387.813	98.75
388.038	90.75
388.263	118.75
388.488	116.75
388.713	93.75
388.938	94.75
389.163	89.75
389.387	90.75
389.612	88.75
389.837	87.75
390.062	91.75
390.287	96.75
390.512	81.75
390.736	87.75
390.961	87.75
391.186	86.75
391.411	89.75
391.636	92.75
391.86	84.75
392.085	78.75
392.31	87.75
392.534	89.75
392.759	97.75
392.984	97.75
393.208	88.75
393.433	97.75
393.658	95.75
393.882	82.75
394.107	97.75
394.331	76.75
394.556	84.75
394.78	101.75
395.005	77.75
395.229	85.75
395.454	73.75
395.678	93.75
395.903	87.75
396.127	88.75
396.352	83.75
396.576	89.75
396.801	96.75
397.025	86.75
397.249	69.75
397.474	87.75
397.698	66.75
397.922	86.75
398.147	86.75
398.371	84.75
398.595	84.75
398.82	72.75
399.044	73.75
399.268	105.75
399.492	87.75
399.717	82.75
399.941	78.75
400.165	89.75
400.389	86.75
400.613	79.75
400.837	88.75
401.062	77.75
401.286	74.75
401.51	63.75
401.734	94.75
401.958	83.75
402.182	118.75
402.406	105.75
402.63	105.75
402.854	86.75
403.078	65.75
403.302	72.75
403.526	94.75
403.75	101.75
403.974	69.75
404.198	78.75
404.422	84.75
404.645	80.75
404.869	73.75
405.093	99.75
405.317	87.75
405.541	82.75
405.765	81.75
405.988	85.75
406.212	149.75
406.436	175.75
406.66	123.75
406.883	97.75
407.107	89.75
407.331	86.75
407.555	92.75
407.778	99.75
408.002	84.75
408.226	96.75
408.449	99.75
408.673	76.75
408.896	94.75
409.12	84.75
409.344	76.75
409.567	87.75
409.791	94.75
410.014	86.75
410.238	91.75
410.461	76.75
410.685	100.75
410.908	85.75
411.132	98.75
411.355	96.75
411.578	94.75
411.802	90.75
412.025	97.75
412.249	98.75
412.472	93.75
412.695	94.75
412.919	88.75
413.142	84.75
413.365	84.75
413.589	84.75
413.812	83.75
414.035	84.75
414.258	81.75
414.482	84.75
414.705	94.75
414.928	92.75
415.151	89.75
415.374	95.75
415.597	82.75
415.821	92.75
416.044	82.75
416.267	76.75
416.49	93.75
416.713	76.75
416.936	88.75
417.159	72.75
417.382	90.75
417.605	83.75
417.828	76.75
418.051	87.75
418.274	82.75
418.497	76.75
418.72	88.75
418.943	96.75
419.166	79.75
419.389	84.75
419.611	70.75
419.834	86.75
420.057	81.75
420.28	76.75
420.503	80.75
420.726	86.75
420.948	81.75
421.171	90.75
421.394	89.75
421.617	83.75
421.839	82.75
422.062	84.75
422.285	96.75
422.507	105.75
422.73	104.75
422.953	94.75
423.175	91.75
423.398	85.75
423.621	81.75
423.843	84.75
424.066	88.75
424.288	79.75
424.511	90.75
424.733	83.75
424.956	104.75
425.178	87.75
425.401	88.75
425.623	102.75
425.846	98.75
426.068	92.75
426.291	102.75
426.513	95.75
426.735	78.75
426.958	77.75
427.18	92.75
427.402	117.75
427.625	132.75
427.847	123.75
428.069	88.75
428.292	97.75
428.514	77.75
428.736	69.75
428.958	81.75
429.181	87.75
429.403	88.75
429.625	88.75
429.847	95.75
430.069	88.75
430.292	87.75
430.514	77.75
430.736	76.75
430.958	78.75
431.18	83.75
431.402	76.75
431.624	82.75
431.846	82.75
432.068	85.75
432.29	80.75
432.512	94.75
432.734	71.75
432.956	105.75
433.178	94.75
433.4	88.75
433.622	88.75
433.844	85.75
434.066	86.75
434.287	96.75
434.509	91.75
434.731	93.75
434.953	92.75
435.175	90.75
435.397	83.75
435.618	82.75
435.84	94.75
436.062	106.75
436.284	95.75
436.505	100.75
436.727	99.75
436.949	89.75
437.17	80.75
437.392	78.75
437.614	85.75
437.835	94.75
438.057	95.75
438.278	101.75
438.5	101.75
438.721	119.75
438.943	110.75
439.165	92.75
439.386	104.75
439.608	89.75
439.829	90.75
440.05	109.75
440.272	117.75
440.493	106.75
440.715	90.75
440.936	74.75
441.158	81.75
441.379	78.75
441.6	85.75
441.822	98.75
442.043	76.75
442.264	106.75
442.486	84.75
442.707	97.75
442.928	100.75
443.149	105.75
443.371	109.75
443.592	103.75
443.813	94.75
444.034	110.75
444.255	94.75
444.476	86.75
444.698	83.75
444.919	92.75
445.14	116.75
445.361	121.75
445.582	91.75
445.803	126.75
446.024	129.75
446.245	128.75
446.466	89.75
446.687	90.75
446.908	88.75
447.129	79.75
447.35	92.75
447.571	69.75
447.792	96.75
448.013	84.75
448.234	85.75
448.455	86.75
448.675	88.75
448.896	110.75
449.117	105.75
449.338	90.75
449.559	127.75
449.779	109.75
450	88.75
450.221	85.75
450.442	85.75
450.662	81.75
450.883	104.75
451.104	112.75
451.324	92.75
451.545	88.75
451.766	89.75
451.986	93.75
452.207	92.75
452.428	81.75
452.648	84.75
452.869	114.75
453.089	101.75
453.31	124.75
453.53	91.75
453.751	88.75
453.971	89.75
454.192	106.75
454.412	84.75
454.633	83.75
454.853	76.75
455.073	84.75
455.294	84.75
455.514	112.75
455.734	89.75
455.955	82.75
456.175	82.75
456.395	88.75
456.616	91.75
456.836	69.75
457.056	80.75
457.276	86.75
457.497	80.75
457.717	81.75
457.937	80.75
458.157	79.75
458.377	95.75
458.598	92.75
458.818	140.75
459.038	123.75
459.258	109.75
459.478	99.75
459.698	95.75
459.918	82.75
460.138	84.75
460.358	90.75
460.578	69.75
460.798	84.75
461.018	92.75
461.238	84.75
461.458	91.75
461.678	84.75
461.898	80.75
462.118	88.75
462.338	81.75
462.558	97.75
462.777	97.75
462.997	88.75
463.217	74.75
463.437	88.75
463.657	94.75
463.876	100.75
464.096	93.75
464.316	93.75
464.536	81.75
464.755	78.75
464.975	93.75
465.195	138.75
465.414	140.75
465.634	95.75
465.854	86.75
466.073	83.75
466.293	85.75
466.512	83.75
466.732	82.75
466.951	92.75
467.171	95.75
467.391	97.75
467.61	103.75
467.829	89.75
468.049	98.75
468.268	93.75
468.488	90.75
468.707	100.75
468.927	87.75
469.146	87.75
469.365	86.75
469.585	90.75
469.804	98.75
470.023	90.75
470.243	82.75
470.462	87.75
470.681	92.75
470.901	84.75
471.12	81.75
471.339	92.75
471.558	78.75
471.777	85.75
471.997	80.75
472.216	92.75
472.435	93.75
472.654	82.75
472.873	96.75
473.092	82.75
473.311	97.75
473.53	102.75
473.749	83.75
473.968	89.75
474.187	99.75
474.406	80.75
474.625	86.75
474.844	81.75
475.063	84.75
475.282	88.75
475.501	83.75
475.72	89.75
475.939	72.75
476.158	85.75
476.377	76.75
476.596	89.75
476.814	92.75
477.033	93.75
477.252	93.75
477.471	81.75
477.69	78.75
477.908	96.75
478.127	81.75
478.346	88.75
478.564	88.75
478.783	98.75
479.002	97.75
479.22	83.75
479.439	88.75
479.658	74.75
479.876	100.75
480.095	85.75
480.313	82.75
480.532	99.75
480.751	104.75
480.969	94.75
481.188	95.75
481.406	100.75
481.624	75.75
481.843	87.75
482.061	86.75
482.28	78.75
482.498	72.75
482.717	103.75
482.935	87.75
483.153	99.75
483.372	105.75
483.59	99.75
483.808	101.75
484.027	97.75
484.245	86.75
484.463	71.75
484.681	100.75
484.9	89.75
485.118	84.75
485.336	100.75
485.554	89.75
485.772	94.75
485.99	102.75
486.209	103.75
486.427	105.75
486.645	116.75
486.863	110.75
487.081	109.75
487.299	100.75
487.517	93.75
487.735	96.75
487.953	101.75
488.171	92.75
488.389	92.75
488.607	94.75
488.825	96.75
489.043	90.75
489.261	89.75
489.479	95.75
489.696	92.75
489.914	88.75
490.132	80.75
490.35	85.75
490.568	90.75
490.786	76.75
491.003	92.75
491.221	84.75
491.439	79.75
491.657	92.75
491.874	94.75
492.092	96.75
492.31	68.75
492.527	72.75
492.745	94.75
492.963	83.75
493.18	86.75
493.398	85.75
493.615	102.75
493.833	98.75
494.05	93.75
494.268	95.75
494.485	103.75
494.703	82.75
494.92	89.75
495.138	101.75
495.355	102.75
495.573	80.75
495.79	102.75
496.008	69.75
496.225	79.75
496.442	86.75
496.66	89.75
496.877	92.75
497.094	89.75
497.312	101.75
497.529	83.75
497.746	93.75
497.963	84.75
498.181	86.75
498.398	94.75
498.615	90.75
498.832	99.75
499.049	88.75
499.267	94.75
499.484	91.75
499.701	86.75
499.918	96.75
500.135	95.75
500.352	103.75
500.569	87.75
500.786	83.75
501.003	83.75
501.22	86.75
501.437	82.75
501.654	99.75
501.871	97.75
502.088	81.75
502.305	100.75
502.522	84.75
502.739	84.75
502.956	77.75
503.172	85.75
503.389	89.75
503.606	103.75
503.823	97.75
504.04	83.75
504.256	94.75
504.473	104.75
504.69	104.75
504.907	93.75
505.123	103.75
505.34	84.75
505.557	87.75
505.773	94.75
505.99	90.75
506.207	77.75
506.423	80.75
506.64	86.75
506.856	90.75
507.073	79.75
507.289	92.75
507.506	98.75
507.722	115.75
507.939	105.75
508.155	94.75
508.372	94.75
508.588	78.75
508.805	81.75
509.021	97.75
509.238	99.75
509.454	95.75
509.67	91.75
509.887	106.75
510.103	110.75
510.319	192.75
510.536	588.75
510.752	1792.75
510.968	489.75
511.184	128.75
511.401	103.75
511.617	92.75
511.833	92.75
512.049	92.75
512.265	95.75
512.481	79.75
512.698	82.75
512.914	94.75
513.13	89.75
513.346	90.75
513.562	93.75
513.778	100.75
513.994	88.75
514.21	97.75
514.426	97.75
514.642	114.75
514.858	100.75
515.074	145.75
515.29	334.75
515.506	1036.75
515.721	409.75
515.937	140.75
516.153	106.75
516.369	75.75
516.585	90.75
516.801	82.75
517.016	104.75
517.232	107.75
