Data from Uncirc_1984_H10_HRD10591_00055.txt Node
Date: Wed Jan 03 12:21:48 EST 2024
User: Yrep
Spectrometer: HR+D1059
Trigger mode: 1
Integration Time (sec): 1.000000E-1
Scans to average: 1
Electric dark correction enabled: true
Nonlinearity correction enabled: false
Boxcar width: 0
XAxis mode: Wavelengths
Number of Pixels in Spectrum: 2048
>>>>>Begin Spectral Data<<<<<
223.165	-16.19
223.4	-16.19
223.635	-16.19
223.869	-9.19
224.104	-4.19
224.338	-14.19
224.573	-23.19
224.808	-14.19
225.042	-7.19
225.277	-11.19
225.511	2.81
225.746	11.81
225.98	12.81
226.215	10.81
226.449	-0.19
226.683	22.81
226.918	19.81
227.152	18.81
227.387	17.81
227.621	50.81
227.856	44.81
228.09	55.81
228.324	30.81
228.559	53.81
228.793	53.81
229.027	61.81
229.262	72.81
229.496	57.81
229.73	82.81
229.964	82.81
230.199	74.81
230.433	71.81
230.667	82.81
230.901	70.81
231.136	70.81
231.37	70.81
231.604	74.81
231.838	74.81
232.072	74.81
232.306	81.81
232.541	74.81
232.775	78.81
233.009	86.81
233.243	80.81
233.477	82.81
233.711	75.81
233.945	71.81
234.179	90.81
234.413	80.81
234.647	66.81
234.881	67.81
235.115	77.81
235.349	72.81
235.583	75.81
235.817	84.81
236.051	84.81
236.285	78.81
236.519	75.81
236.753	82.81
236.987	80.81
237.221	77.81
237.455	62.81
237.689	86.81
237.922	79.81
238.156	73.81
238.39	71.81
238.624	75.81
238.858	76.81
239.091	64.81
239.325	72.81
239.559	75.81
239.793	76.81
240.027	78.81
240.26	66.81
240.494	67.81
240.728	71.81
240.961	73.81
241.195	73.81
241.429	65.81
241.662	65.81
241.896	82.81
242.13	78.81
242.363	72.81
242.597	78.81
242.83	72.81
243.064	82.81
243.298	73.81
243.531	78.81
243.765	76.81
243.998	68.81
244.232	76.81
244.465	70.81
244.699	68.81
244.932	78.81
245.166	82.81
245.399	78.81
245.633	93.81
245.866	60.81
246.099	56.81
246.333	72.81
246.566	71.81
246.8	70.81
247.033	83.81
247.266	75.81
247.5	80.81
247.733	78.81
247.966	79.81
248.2	82.81
248.433	70.81
248.666	78.81
248.899	66.81
249.133	82.81
249.366	81.81
249.599	83.81
249.832	80.81
250.066	87.81
250.299	74.81
250.532	68.81
250.765	80.81
250.998	92.81
251.231	93.81
251.465	87.81
251.698	68.81
251.931	84.81
252.164	78.81
252.397	67.81
252.63	90.81
252.863	73.81
253.096	69.81
253.329	87.81
253.562	77.81
253.795	92.81
254.028	79.81
254.261	86.81
254.494	75.81
254.727	86.81
254.96	82.81
255.193	75.81
255.426	83.81
255.659	72.81
255.892	91.81
256.124	74.81
256.357	92.81
256.59	97.81
256.823	83.81
257.056	83.81
257.289	83.81
257.521	70.81
257.754	84.81
257.987	73.81
258.22	90.81
258.452	79.81
258.685	68.81
258.918	80.81
259.151	85.81
259.383	85.81
259.616	82.81
259.849	79.81
260.081	75.81
260.314	91.81
260.547	84.81
260.779	78.81
261.012	84.81
261.244	78.81
261.477	94.81
261.71	94.81
261.942	86.81
262.175	96.81
262.407	98.81
262.64	93.81
262.872	78.81
263.105	83.81
263.337	74.81
263.57	81.81
263.802	72.81
264.035	67.81
264.267	68.81
264.499	87.81
264.732	80.81
264.964	74.81
265.197	78.81
265.429	83.81
265.661	92.81
265.894	71.81
266.126	86.81
266.358	97.81
266.591	83.81
266.823	80.81
267.055	75.81
267.287	79.81
267.52	84.81
267.752	78.81
267.984	87.81
268.216	82.81
268.448	80.81
268.681	100.81
268.913	96.81
269.145	89.81
269.377	76.81
269.609	78.81
269.841	84.81
270.073	71.81
270.306	87.81
270.538	81.81
270.77	69.81
271.002	89.81
271.234	86.81
271.466	68.81
271.698	80.81
271.93	87.81
272.162	87.81
272.394	89.81
272.626	91.81
272.858	79.81
273.09	84.81
273.322	71.81
273.553	74.81
273.785	80.81
274.017	82.81
274.249	75.81
274.481	80.81
274.713	90.81
274.945	85.81
275.176	84.81
275.408	86.81
275.64	75.81
275.872	71.81
276.104	92.81
276.335	86.81
276.567	91.81
276.799	100.81
277.031	98.81
277.262	84.81
277.494	94.81
277.726	85.81
277.957	87.81
278.189	76.81
278.421	79.81
278.652	87.81
278.884	71.81
279.115	84.81
279.347	76.81
279.579	88.81
279.81	93.81
280.042	89.81
280.273	75.81
280.505	80.81
280.736	91.81
280.968	86.81
281.199	81.81
281.431	86.81
281.662	94.81
281.894	87.81
282.125	105.81
282.356	115.81
282.588	124.81
282.819	99.81
283.051	96.81
283.282	80.81
283.513	80.81
283.745	93.81
283.976	80.81
284.207	94.81
284.439	84.81
284.67	86.81
284.901	83.81
285.132	88.81
285.364	86.81
285.595	89.81
285.826	81.81
286.057	86.81
286.288	78.81
286.52	89.81
286.751	82.81
286.982	94.81
287.213	87.81
287.444	91.81
287.675	93.81
287.906	85.81
288.138	86.81
288.369	100.81
288.6	98.81
288.831	82.81
289.062	80.81
289.293	90.81
289.524	88.81
289.755	98.81
289.986	88.81
290.217	91.81
290.448	82.81
290.679	87.81
290.91	73.81
291.141	88.81
291.371	88.81
291.602	85.81
291.833	87.81
292.064	84.81
292.295	64.81
292.526	94.81
292.757	89.81
292.987	85.81
293.218	91.81
293.449	84.81
293.68	82.81
293.91	81.81
294.141	84.81
294.372	92.81
294.603	88.81
294.833	76.81
295.064	86.81
295.295	89.81
295.525	91.81
295.756	108.81
295.987	103.81
296.217	128.81
296.448	96.81
296.679	90.81
296.909	73.81
297.14	84.81
297.37	82.81
297.601	89.81
297.831	85.81
298.062	89.81
298.292	78.81
298.523	82.81
298.753	74.81
298.984	90.81
299.214	87.81
299.445	69.81
299.675	87.81
299.905	88.81
300.136	86.81
300.366	79.81
300.597	85.81
300.827	90.81
301.057	90.81
301.288	92.81
301.518	96.81
301.748	94.81
301.979	111.81
302.209	102.81
302.439	91.81
302.669	88.81
302.9	91.81
303.13	90.81
303.36	98.81
303.59	94.81
303.82	102.81
304.051	91.81
304.281	86.81
304.511	99.81
304.741	92.81
304.971	70.81
305.201	84.81
305.431	93.81
305.661	101.81
305.891	86.81
306.121	100.81
306.352	94.81
306.582	97.81
306.812	91.81
307.042	90.81
307.272	98.81
307.502	98.81
307.731	90.81
307.961	90.81
308.191	81.81
308.421	86.81
308.651	88.81
308.881	84.81
309.111	94.81
309.341	91.81
309.571	84.81
309.8	95.81
310.03	109.81
310.26	106.81
310.49	88.81
310.72	85.81
310.949	84.81
311.179	102.81
311.409	96.81
311.639	96.81
311.868	98.81
312.098	89.81
312.328	85.81
312.557	110.81
312.787	104.81
313.017	94.81
313.246	86.81
313.476	109.81
313.706	96.81
313.935	96.81
314.165	94.81
314.394	96.81
314.624	83.81
314.853	94.81
315.083	93.81
315.312	87.81
315.542	102.81
315.771	107.81
316.001	91.81
316.23	89.81
316.46	87.81
316.689	81.81
316.919	90.81
317.148	88.81
317.377	110.81
317.607	82.81
317.836	98.81
318.065	78.81
318.295	96.81
318.524	83.81
318.753	64.81
318.983	96.81
319.212	88.81
319.441	92.81
319.67	97.81
319.9	90.81
320.129	108.81
320.358	100.81
320.587	94.81
320.816	84.81
321.046	84.81
321.275	106.81
321.504	94.81
321.733	79.81
321.962	86.81
322.191	87.81
322.42	96.81
322.649	105.81
322.878	112.81
323.108	105.81
323.337	103.81
323.566	130.81
323.795	136.81
324.024	172.81
324.253	327.81
324.482	661.81
324.71	1369.81
324.939	1832.81
325.168	682.81
325.397	229.81
325.626	130.81
325.855	111.81
326.084	123.81
326.313	124.81
326.542	148.81
326.77	188.81
326.999	372.81
327.228	783.81
327.457	1425.81
327.686	1143.81
327.914	320.81
328.143	179.81
328.372	130.81
328.6	126.81
328.829	117.81
329.058	111.81
329.287	117.81
329.515	109.81
329.744	87.81
329.972	99.81
330.201	99.81
330.43	89.81
330.658	107.81
330.887	120.81
331.115	104.81
331.344	101.81
331.572	97.81
331.801	100.81
332.03	94.81
332.258	95.81
332.486	75.81
332.715	76.81
332.943	88.81
333.172	84.81
333.4	95.81
333.629	103.81
333.857	103.81
334.085	113.81
334.314	104.81
334.542	91.81
334.771	90.81
334.999	92.81
335.227	99.81
335.455	103.81
335.684	102.81
335.912	87.81
336.14	91.81
336.369	98.81
336.597	97.81
336.825	91.81
337.053	86.81
337.281	82.81
337.51	86.81
337.738	96.81
337.966	91.81
338.194	104.81
338.422	90.81
338.65	90.81
338.878	76.81
339.106	91.81
339.334	90.81
339.562	89.81
339.79	89.81
340.018	90.81
340.246	106.81
340.474	86.81
340.702	87.81
340.93	105.81
341.158	91.81
341.386	94.81
341.614	99.81
341.842	85.81
342.07	103.81
342.298	88.81
342.526	99.81
342.754	90.81
342.981	73.81
343.209	82.81
343.437	92.81
343.665	78.81
343.893	72.81
344.12	94.81
344.348	80.81
344.576	100.81
344.804	96.81
345.031	96.81
345.259	95.81
345.487	98.81
345.714	93.81
345.942	86.81
346.17	101.81
346.397	91.81
346.625	92.81
346.853	99.81
347.08	85.81
347.308	86.81
347.535	105.81
347.763	92.81
347.99	99.81
348.218	83.81
348.445	103.81
348.673	103.81
348.9	95.81
349.128	71.81
349.355	95.81
349.583	92.81
349.81	82.81
350.037	95.81
350.265	93.81
350.492	99.81
350.72	97.81
350.947	86.81
351.174	98.81
351.402	112.81
351.629	96.81
351.856	97.81
352.083	104.81
352.311	100.81
352.538	123.81
352.765	106.81
352.992	99.81
353.22	99.81
353.447	100.81
353.674	98.81
353.901	88.81
354.128	95.81
354.355	96.81
354.583	99.81
354.81	91.81
355.037	99.81
355.264	99.81
355.491	90.81
355.718	84.81
355.945	95.81
356.172	103.81
356.399	96.81
356.626	102.81
356.853	75.81
357.08	97.81
357.307	80.81
357.534	99.81
357.761	106.81
357.988	114.81
358.215	98.81
358.441	111.81
358.668	82.81
358.895	78.81
359.122	84.81
359.349	98.81
359.576	98.81
359.802	90.81
360.029	112.81
360.256	101.81
360.483	85.81
360.709	76.81
360.936	97.81
361.163	86.81
361.39	91.81
361.616	98.81
361.843	98.81
362.07	98.81
362.296	87.81
362.523	96.81
362.749	110.81
362.976	72.81
363.203	102.81
363.429	89.81
363.656	86.81
363.882	99.81
364.109	82.81
364.335	87.81
364.562	95.81
364.788	104.81
365.015	90.81
365.241	108.81
365.468	96.81
365.694	112.81
365.92	88.81
366.147	102.81
366.373	93.81
366.599	88.81
366.826	88.81
367.052	97.81
367.278	84.81
367.505	73.81
367.731	99.81
367.957	107.81
368.184	100.81
368.41	86.81
368.636	87.81
368.862	106.81
369.089	91.81
369.315	90.81
369.541	91.81
369.767	91.81
369.993	86.81
370.219	89.81
370.445	85.81
370.672	83.81
370.898	93.81
371.124	99.81
371.35	75.81
371.576	98.81
371.802	96.81
372.028	84.81
372.254	99.81
372.48	94.81
372.706	90.81
372.932	90.81
373.158	86.81
373.384	100.81
373.61	96.81
373.835	92.81
374.061	76.81
374.287	88.81
374.513	97.81
374.739	86.81
374.965	89.81
375.191	96.81
375.416	86.81
375.642	104.81
375.868	98.81
376.094	97.81
376.319	91.81
376.545	80.81
376.771	105.81
376.997	94.81
377.222	86.81
377.448	92.81
377.674	76.81
377.899	72.81
378.125	90.81
378.35	92.81
378.576	91.81
378.802	96.81
379.027	86.81
379.253	94.81
379.478	102.81
379.704	92.81
379.929	90.81
380.155	98.81
380.38	88.81
380.606	100.81
380.831	85.81
381.057	102.81
381.282	105.81
381.507	101.81
381.733	99.81
381.958	101.81
382.184	82.81
382.409	100.81
382.634	102.81
382.86	103.81
383.085	103.81
383.31	114.81
383.535	98.81
383.761	96.81
383.986	95.81
384.211	87.81
384.436	104.81
384.662	98.81
384.887	86.81
385.112	100.81
385.337	93.81
385.562	94.81
385.787	105.81
386.013	105.81
386.238	106.81
386.463	100.81
386.688	99.81
386.913	97.81
387.138	88.81
387.363	98.81
387.588	90.81
387.813	105.81
388.038	104.81
388.263	98.81
388.488	108.81
388.713	108.81
388.938	98.81
389.163	92.81
389.387	84.81
389.612	101.81
389.837	110.81
390.062	106.81
390.287	95.81
390.512	91.81
390.736	88.81
390.961	100.81
391.186	94.81
391.411	93.81
391.636	89.81
391.86	72.81
392.085	86.81
392.31	88.81
392.534	96.81
392.759	90.81
392.984	91.81
393.208	89.81
393.433	100.81
393.658	93.81
393.882	91.81
394.107	84.81
394.331	84.81
394.556	89.81
394.78	96.81
395.005	97.81
395.229	83.81
395.454	84.81
395.678	96.81
395.903	79.81
396.127	97.81
396.352	88.81
396.576	88.81
396.801	85.81
397.025	83.81
397.249	72.81
397.474	88.81
397.698	88.81
397.922	89.81
398.147	100.81
398.371	88.81
398.595	76.81
398.82	84.81
399.044	83.81
399.268	82.81
399.492	88.81
399.717	90.81
399.941	86.81
400.165	107.81
400.389	91.81
400.613	83.81
400.837	81.81
401.062	81.81
401.286	84.81
401.51	106.81
401.734	84.81
401.958	87.81
402.182	109.81
402.406	146.81
402.63	110.81
402.854	83.81
403.078	72.81
403.302	94.81
403.526	85.81
403.75	82.81
403.974	89.81
404.198	85.81
404.422	90.81
404.645	94.81
404.869	96.81
405.093	89.81
405.317	88.81
405.541	109.81
405.765	89.81
405.988	105.81
406.212	141.81
406.436	185.81
406.66	115.81
406.883	92.81
407.107	94.81
407.331	96.81
407.555	110.81
407.778	97.81
408.002	88.81
408.226	79.81
408.449	88.81
408.673	89.81
408.896	98.81
409.12	98.81
409.344	97.81
409.567	94.81
409.791	89.81
410.014	92.81
410.238	96.81
410.461	80.81
410.685	85.81
410.908	97.81
411.132	119.81
411.355	100.81
411.578	88.81
411.802	93.81
412.025	98.81
412.249	90.81
412.472	86.81
412.695	75.81
412.919	88.81
413.142	99.81
413.365	88.81
413.589	84.81
413.812	97.81
414.035	74.81
414.258	77.81
414.482	101.81
414.705	103.81
414.928	91.81
415.151	73.81
415.374	89.81
415.597	84.81
415.821	86.81
416.044	77.81
416.267	98.81
416.49	88.81
416.713	80.81
416.936	81.81
417.159	99.81
417.382	86.81
417.605	67.81
417.828	86.81
418.051	88.81
418.274	100.81
418.497	100.81
418.72	96.81
418.943	102.81
419.166	79.81
419.389	88.81
419.611	92.81
419.834	89.81
420.057	90.81
420.28	73.81
420.503	91.81
420.726	78.81
420.948	87.81
421.171	90.81
421.394	95.81
421.617	74.81
421.839	96.81
422.062	96.81
422.285	117.81
422.507	96.81
422.73	94.81
422.953	97.81
423.175	107.81
423.398	91.81
423.621	90.81
423.843	91.81
424.066	88.81
424.288	86.81
424.511	90.81
424.733	92.81
424.956	88.81
425.178	95.81
425.401	108.81
425.623	97.81
425.846	92.81
426.068	95.81
426.291	82.81
426.513	82.81
426.735	90.81
426.958	80.81
427.18	101.81
427.402	122.81
427.625	147.81
427.847	108.81
428.069	102.81
428.292	76.81
428.514	90.81
428.736	81.81
428.958	90.81
429.181	85.81
429.403	82.81
429.625	80.81
429.847	102.81
430.069	96.81
430.292	91.81
430.514	95.81
430.736	87.81
430.958	82.81
431.18	86.81
431.402	74.81
431.624	98.81
431.846	111.81
432.068	98.81
432.29	79.81
432.512	93.81
432.734	82.81
432.956	94.81
433.178	96.81
433.4	107.81
433.622	104.81
433.844	98.81
434.066	88.81
434.287	95.81
434.509	96.81
434.731	96.81
434.953	87.81
435.175	86.81
435.397	96.81
435.618	100.81
435.84	108.81
436.062	115.81
436.284	105.81
436.505	99.81
436.727	100.81
436.949	105.81
437.17	91.81
437.392	83.81
437.614	87.81
437.835	105.81
438.057	107.81
438.278	101.81
438.5	101.81
438.721	105.81
438.943	109.81
439.165	86.81
439.386	96.81
439.608	78.81
439.829	91.81
440.05	114.81
440.272	125.81
440.493	96.81
440.715	90.81
440.936	86.81
441.158	94.81
441.379	86.81
441.6	87.81
441.822	82.81
442.043	98.81
442.264	99.81
442.486	101.81
442.707	86.81
442.928	98.81
443.149	103.81
443.371	114.81
443.592	105.81
443.813	108.81
444.034	98.81
444.255	92.81
444.476	71.81
444.698	86.81
444.919	88.81
445.14	127.81
445.361	130.81
445.582	97.81
445.803	113.81
446.024	128.81
446.245	114.81
446.466	94.81
446.687	90.81
446.908	94.81
447.129	98.81
447.35	91.81
447.571	91.81
447.792	90.81
448.013	94.81
448.234	107.81
448.455	100.81
448.675	110.81
448.896	124.81
449.117	94.81
449.338	106.81
449.559	119.81
449.779	108.81
450	91.81
450.221	84.81
450.442	83.81
450.662	92.81
450.883	97.81
451.104	99.81
451.324	88.81
451.545	83.81
451.766	94.81
451.986	98.81
452.207	95.81
452.428	104.81
452.648	98.81
452.869	105.81
453.089	107.81
453.31	96.81
453.53	92.81
453.751	84.81
453.971	95.81
454.192	106.81
454.412	95.81
454.633	74.81
454.853	78.81
455.073	76.81
455.294	88.81
455.514	102.81
455.734	89.81
455.955	81.81
456.175	82.81
456.395	79.81
456.616	89.81
456.836	86.81
457.056	82.81
457.276	82.81
457.497	88.81
457.717	81.81
457.937	98.81
458.157	86.81
458.377	89.81
458.598	104.81
458.818	126.81
459.038	140.81
459.258	101.81
459.478	84.81
459.698	87.81
459.918	84.81
460.138	83.81
460.358	84.81
460.578	73.81
460.798	93.81
461.018	84.81
461.238	82.81
461.458	92.81
461.678	85.81
461.898	73.81
462.118	95.81
462.338	87.81
462.558	103.81
462.777	90.81
462.997	83.81
463.217	83.81
463.437	83.81
463.657	71.81
463.876	100.81
464.096	94.81
464.316	86.81
464.536	81.81
464.755	83.81
464.975	106.81
465.195	137.81
465.414	128.81
465.634	100.81
465.854	88.81
466.073	83.81
466.293	89.81
466.512	95.81
466.732	83.81
466.951	95.81
467.171	75.81
467.391	97.81
467.61	98.81
467.829	96.81
468.049	88.81
468.268	85.81
468.488	81.81
468.707	90.81
468.927	92.81
469.146	79.81
469.365	84.81
469.585	98.81
469.804	88.81
470.023	99.81
470.243	95.81
470.462	97.81
470.681	96.81
470.901	91.81
471.12	85.81
471.339	90.81
471.558	78.81
471.777	90.81
471.997	86.81
472.216	83.81
472.435	110.81
472.654	88.81
472.873	88.81
473.092	68.81
473.311	95.81
473.53	84.81
473.749	85.81
473.968	94.81
474.187	101.81
474.406	98.81
474.625	91.81
474.844	82.81
475.063	96.81
475.282	95.81
475.501	86.81
475.72	95.81
475.939	89.81
476.158	94.81
476.377	93.81
476.596	92.81
476.814	78.81
477.033	97.81
477.252	82.81
477.471	82.81
477.69	91.81
477.908	87.81
478.127	77.81
478.346	87.81
478.564	88.81
478.783	97.81
479.002	75.81
479.22	89.81
479.439	105.81
479.658	82.81
479.876	78.81
480.095	80.81
480.313	94.81
480.532	90.81
480.751	101.81
480.969	89.81
481.188	88.81
481.406	95.81
481.624	85.81
481.843	87.81
482.061	99.81
482.28	78.81
482.498	87.81
482.717	74.81
482.935	84.81
483.153	81.81
483.372	76.81
483.59	88.81
483.808	94.81
484.027	93.81
484.245	92.81
484.463	91.81
484.681	79.81
484.9	96.81
485.118	95.81
485.336	88.81
485.554	99.81
485.772	91.81
485.99	101.81
486.209	104.81
486.427	100.81
486.645	123.81
486.863	103.81
487.081	104.81
487.299	94.81
487.517	96.81
487.735	90.81
487.953	90.81
488.171	82.81
488.389	99.81
488.607	96.81
488.825	81.81
489.043	86.81
489.261	92.81
489.479	69.81
489.696	86.81
489.914	83.81
490.132	96.81
490.35	90.81
490.568	94.81
490.786	97.81
491.003	84.81
491.221	92.81
491.439	84.81
491.657	84.81
491.874	97.81
492.092	92.81
492.31	88.81
492.527	89.81
492.745	89.81
492.963	92.81
493.18	96.81
493.398	88.81
493.615	99.81
493.833	104.81
494.05	98.81
494.268	96.81
494.485	91.81
494.703	83.81
494.92	89.81
495.138	97.81
495.355	91.81
495.573	90.81
495.79	86.81
496.008	98.81
496.225	73.81
496.442	91.81
496.66	89.81
496.877	90.81
497.094	87.81
497.312	91.81
497.529	97.81
497.746	98.81
497.963	87.81
498.181	86.81
498.398	98.81
498.615	113.81
498.832	104.81
499.049	90.81
499.267	104.81
499.484	88.81
499.701	74.81
499.918	82.81
500.135	97.81
500.352	85.81
500.569	87.81
500.786	95.81
501.003	96.81
501.22	82.81
501.437	93.81
501.654	95.81
501.871	92.81
502.088	86.81
502.305	86.81
502.522	90.81
502.739	78.81
502.956	72.81
503.172	91.81
503.389	94.81
503.606	94.81
503.823	87.81
504.04	98.81
504.256	98.81
504.473	80.81
504.69	90.81
504.907	96.81
505.123	91.81
505.34	90.81
505.557	92.81
505.773	88.81
505.99	99.81
506.207	96.81
506.423	87.81
506.64	82.81
506.856	82.81
507.073	89.81
507.289	94.81
507.506	88.81
507.722	97.81
507.939	98.81
508.155	84.81
508.372	97.81
508.588	86.81
508.805	90.81
509.021	96.81
509.238	103.81
509.454	89.81
509.67	92.81
509.887	116.81
510.103	114.81
510.319	199.81
510.536	664.81
510.752	1923.81
510.968	540.81
511.184	131.81
511.401	90.81
511.617	82.81
511.833	89.81
512.049	96.81
512.265	90.81
512.481	102.81
512.698	99.81
512.914	100.81
513.13	94.81
513.346	72.81
513.562	92.81
513.778	87.81
513.994	100.81
514.21	111.81
514.426	100.81
514.642	115.81
514.858	118.81
515.074	153.81
515.29	341.81
515.506	1129.81
515.721	406.81
515.937	148.81
516.153	113.81
516.369	92.81
516.585	90.81
