Data from Uncirc_1984_H10_HRD10591_00054.txt Node
Date: Wed Jan 03 12:21:48 EST 2024
User: Yrep
Spectrometer: HR+D1059
Trigger mode: 1
Integration Time (sec): 1.000000E-1
Scans to average: 1
Electric dark correction enabled: true
Nonlinearity correction enabled: false
Boxcar width: 0
XAxis mode: Wavelengths
Number of Pixels in Spectrum: 2048
>>>>>Begin Spectral Data<<<<<
223.165	-13.06
223.4	-13.06
223.635	-13.06
223.869	-27.06
224.104	-21.06
224.338	-28.06
224.573	-12.06
224.808	-8.06
225.042	-9.06
225.277	-4.06
225.511	-2.06
225.746	-4.06
225.98	3.94
226.215	20.94
226.449	7.94
226.683	34.94
226.918	25.94
227.152	34.94
227.387	34.94
227.621	53.94
227.856	42.94
228.09	45.94
228.324	55.94
228.559	60.94
228.793	61.94
229.027	63.94
229.262	61.94
229.496	67.94
229.73	82.94
229.964	83.94
230.199	80.94
230.433	82.94
230.667	83.94
230.901	75.94
231.136	88.94
231.37	71.94
231.604	69.94
231.838	103.94
232.072	79.94
232.306	73.94
232.541	67.94
232.775	82.94
233.009	79.94
233.243	88.94
233.477	89.94
233.711	91.94
233.945	70.94
234.179	64.94
234.413	82.94
234.647	86.94
234.881	93.94
235.115	88.94
235.349	80.94
235.583	89.94
235.817	79.94
236.051	83.94
236.285	85.94
236.519	84.94
236.753	84.94
236.987	87.94
237.221	87.94
237.455	83.94
237.689	89.94
237.922	84.94
238.156	72.94
238.39	83.94
238.624	87.94
238.858	97.94
239.091	75.94
239.325	72.94
239.559	83.94
239.793	81.94
240.027	88.94
240.26	93.94
240.494	80.94
240.728	72.94
240.961	89.94
241.195	77.94
241.429	71.94
241.662	71.94
241.896	81.94
242.13	75.94
242.363	73.94
242.597	75.94
242.83	82.94
243.064	69.94
243.298	86.94
243.531	72.94
243.765	73.94
243.998	69.94
244.232	72.94
244.465	87.94
244.699	94.94
244.932	79.94
245.166	66.94
245.399	75.94
245.633	83.94
245.866	87.94
246.099	81.94
246.333	83.94
246.566	60.94
246.8	86.94
247.033	90.94
247.266	74.94
247.5	77.94
247.733	83.94
247.966	76.94
248.2	89.94
248.433	87.94
248.666	82.94
248.899	74.94
249.133	88.94
249.366	90.94
249.599	103.94
249.832	64.94
250.066	81.94
250.299	85.94
250.532	76.94
250.765	73.94
250.998	88.94
251.231	69.94
251.465	69.94
251.698	81.94
251.931	84.94
252.164	77.94
252.397	84.94
252.63	85.94
252.863	89.94
253.096	89.94
253.329	82.94
253.562	89.94
253.795	84.94
254.028	56.94
254.261	91.94
254.494	82.94
254.727	76.94
254.96	89.94
255.193	92.94
255.426	79.94
255.659	88.94
255.892	76.94
256.124	65.94
256.357	88.94
256.59	84.94
256.823	95.94
257.056	81.94
257.289	82.94
257.521	76.94
257.754	81.94
257.987	76.94
258.22	74.94
258.452	74.94
258.685	69.94
258.918	88.94
259.151	87.94
259.383	91.94
259.616	92.94
259.849	92.94
260.081	87.94
260.314	90.94
260.547	88.94
260.779	95.94
261.012	90.94
261.244	85.94
261.477	93.94
261.71	92.94
261.942	80.94
262.175	110.94
262.407	77.94
262.64	81.94
262.872	98.94
263.105	95.94
263.337	87.94
263.57	83.94
263.802	79.94
264.035	89.94
264.267	88.94
264.499	76.94
264.732	83.94
264.964	76.94
265.197	73.94
265.429	85.94
265.661	96.94
265.894	96.94
266.126	74.94
266.358	83.94
266.591	87.94
266.823	73.94
267.055	98.94
267.287	96.94
267.52	82.94
267.752	89.94
267.984	93.94
268.216	85.94
268.448	94.94
268.681	94.94
268.913	84.94
269.145	80.94
269.377	72.94
269.609	86.94
269.841	87.94
270.073	77.94
270.306	77.94
270.538	80.94
270.77	79.94
271.002	85.94
271.234	90.94
271.466	97.94
271.698	89.94
271.93	85.94
272.162	84.94
272.394	72.94
272.626	91.94
272.858	85.94
273.09	76.94
273.322	81.94
273.553	83.94
273.785	87.94
274.017	82.94
274.249	85.94
274.481	74.94
274.713	90.94
274.945	78.94
275.176	80.94
275.408	80.94
275.64	86.94
275.872	87.94
276.104	93.94
276.335	84.94
276.567	90.94
276.799	113.94
277.031	98.94
277.262	93.94
277.494	87.94
277.726	89.94
277.957	94.94
278.189	89.94
278.421	71.94
278.652	91.94
278.884	90.94
279.115	97.94
279.347	89.94
279.579	84.94
279.81	99.94
280.042	87.94
280.273	97.94
280.505	80.94
280.736	86.94
280.968	102.94
281.199	98.94
281.431	91.94
281.662	96.94
281.894	87.94
282.125	97.94
282.356	99.94
282.588	129.94
282.819	112.94
283.051	92.94
283.282	92.94
283.513	92.94
283.745	90.94
283.976	98.94
284.207	85.94
284.439	91.94
284.67	79.94
284.901	75.94
285.132	90.94
285.364	96.94
285.595	87.94
285.826	85.94
286.057	74.94
286.288	99.94
286.52	83.94
286.751	84.94
286.982	94.94
287.213	71.94
287.444	84.94
287.675	90.94
287.906	104.94
288.138	83.94
288.369	89.94
288.6	85.94
288.831	95.94
289.062	84.94
289.293	84.94
289.524	93.94
289.755	99.94
289.986	79.94
290.217	92.94
290.448	92.94
290.679	88.94
290.91	84.94
291.141	77.94
291.371	76.94
291.602	95.94
291.833	81.94
292.064	91.94
292.295	98.94
292.526	109.94
292.757	90.94
292.987	95.94
293.218	86.94
293.449	81.94
293.68	79.94
293.91	93.94
294.141	105.94
294.372	89.94
294.603	88.94
294.833	101.94
295.064	96.94
295.295	90.94
295.525	95.94
295.756	95.94
295.987	108.94
296.217	133.94
296.448	121.94
296.679	94.94
296.909	92.94
297.14	94.94
297.37	93.94
297.601	67.94
297.831	98.94
298.062	95.94
298.292	80.94
298.523	81.94
298.753	90.94
298.984	89.94
299.214	80.94
299.445	89.94
299.675	101.94
299.905	98.94
300.136	77.94
300.366	87.94
300.597	83.94
300.827	103.94
301.057	101.94
301.288	104.94
301.518	87.94
301.748	92.94
301.979	113.94
302.209	85.94
302.439	92.94
302.669	101.94
302.9	91.94
303.13	95.94
303.36	88.94
303.59	88.94
303.82	108.94
304.051	93.94
304.281	96.94
304.511	92.94
304.741	76.94
304.971	81.94
305.201	100.94
305.431	99.94
305.661	87.94
305.891	92.94
306.121	92.94
306.352	101.94
306.582	101.94
306.812	78.94
307.042	83.94
307.272	95.94
307.502	76.94
307.731	98.94
307.961	80.94
308.191	105.94
308.421	88.94
308.651	83.94
308.881	92.94
309.111	104.94
309.341	100.94
309.571	98.94
309.8	97.94
310.03	107.94
310.26	99.94
310.49	102.94
310.72	105.94
310.949	109.94
311.179	105.94
311.409	86.94
311.639	104.94
311.868	101.94
312.098	93.94
312.328	89.94
312.557	94.94
312.787	107.94
313.017	86.94
313.246	99.94
313.476	101.94
313.706	101.94
313.935	88.94
314.165	97.94
314.394	109.94
314.624	98.94
314.853	95.94
315.083	97.94
315.312	94.94
315.542	82.94
315.771	102.94
316.001	85.94
316.23	92.94
316.46	97.94
316.689	99.94
316.919	91.94
317.148	89.94
317.377	103.94
317.607	84.94
317.836	89.94
318.065	97.94
318.295	91.94
318.524	95.94
318.753	92.94
318.983	93.94
319.212	86.94
319.441	107.94
319.67	107.94
319.9	88.94
320.129	83.94
320.358	90.94
320.587	105.94
320.816	101.94
321.046	81.94
321.275	106.94
321.504	99.94
321.733	84.94
321.962	95.94
322.191	99.94
322.42	114.94
322.649	113.94
322.878	99.94
323.108	123.94
323.337	136.94
323.566	121.94
323.795	139.94
324.024	207.94
324.253	382.94
324.482	819.94
324.71	1677.94
324.939	2234.94
325.168	799.94
325.397	231.94
325.626	145.94
325.855	126.94
326.084	122.94
326.313	130.94
326.542	139.94
326.77	243.94
326.999	445.94
327.228	935.94
327.457	1719.94
327.686	1346.94
327.914	356.94
328.143	197.94
328.372	130.94
328.6	134.94
328.829	104.94
329.058	118.94
329.287	145.94
329.515	103.94
329.744	105.94
329.972	93.94
330.201	89.94
330.43	108.94
330.658	121.94
330.887	131.94
331.115	124.94
331.344	108.94
331.572	95.94
331.801	100.94
332.03	90.94
332.258	86.94
332.486	103.94
332.715	97.94
332.943	96.94
333.172	86.94
333.4	96.94
333.629	110.94
333.857	107.94
334.085	99.94
334.314	95.94
334.542	104.94
334.771	102.94
334.999	97.94
335.227	103.94
335.455	94.94
335.684	93.94
335.912	89.94
336.14	91.94
336.369	96.94
336.597	104.94
336.825	100.94
337.053	97.94
337.281	75.94
337.51	105.94
337.738	99.94
337.966	83.94
338.194	81.94
338.422	107.94
338.65	82.94
338.878	87.94
339.106	73.94
339.334	92.94
339.562	102.94
339.79	81.94
340.018	81.94
340.246	70.94
340.474	101.94
340.702	98.94
340.93	90.94
341.158	109.94
341.386	105.94
341.614	94.94
341.842	93.94
342.07	89.94
342.298	98.94
342.526	84.94
342.754	99.94
342.981	84.94
343.209	87.94
343.437	93.94
343.665	76.94
343.893	87.94
344.12	87.94
344.348	100.94
344.576	86.94
344.804	72.94
345.031	96.94
345.259	99.94
345.487	91.94
345.714	87.94
345.942	95.94
346.17	89.94
346.397	95.94
346.625	104.94
346.853	108.94
347.08	85.94
347.308	91.94
347.535	92.94
347.763	95.94
347.99	103.94
348.218	105.94
348.445	88.94
348.673	87.94
348.9	93.94
349.128	92.94
349.355	99.94
349.583	99.94
349.81	99.94
350.037	90.94
350.265	92.94
350.492	91.94
350.72	98.94
350.947	104.94
351.174	119.94
351.402	97.94
351.629	103.94
351.856	94.94
352.083	106.94
352.311	121.94
352.538	114.94
352.765	107.94
352.992	114.94
353.22	111.94
353.447	98.94
353.674	106.94
353.901	89.94
354.128	83.94
354.355	97.94
354.583	93.94
354.81	111.94
355.037	86.94
355.264	75.94
355.491	85.94
355.718	90.94
355.945	101.94
356.172	92.94
356.399	98.94
356.626	87.94
356.853	90.94
357.08	91.94
357.307	111.94
357.534	92.94
357.761	91.94
357.988	90.94
358.215	92.94
358.441	96.94
358.668	85.94
358.895	88.94
359.122	95.94
359.349	77.94
359.576	83.94
359.802	102.94
360.029	109.94
360.256	113.94
360.483	97.94
360.709	76.94
360.936	104.94
361.163	94.94
361.39	92.94
361.616	90.94
361.843	75.94
362.07	87.94
362.296	95.94
362.523	93.94
362.749	75.94
362.976	89.94
363.203	85.94
363.429	85.94
363.656	82.94
363.882	98.94
364.109	85.94
364.335	95.94
364.562	105.94
364.788	88.94
365.015	96.94
365.241	90.94
365.468	105.94
365.694	99.94
365.92	93.94
366.147	84.94
366.373	82.94
366.599	91.94
366.826	114.94
367.052	84.94
367.278	85.94
367.505	100.94
367.731	83.94
367.957	78.94
368.184	92.94
368.41	102.94
368.636	110.94
368.862	124.94
369.089	98.94
369.315	89.94
369.541	95.94
369.767	79.94
369.993	95.94
370.219	80.94
370.445	84.94
370.672	87.94
370.898	91.94
371.124	99.94
371.35	95.94
371.576	94.94
371.802	84.94
372.028	93.94
372.254	100.94
372.48	89.94
372.706	80.94
372.932	76.94
373.158	84.94
373.384	83.94
373.61	84.94
373.835	106.94
374.061	91.94
374.287	92.94
374.513	83.94
374.739	98.94
374.965	93.94
375.191	93.94
375.416	101.94
375.642	88.94
375.868	100.94
376.094	95.94
376.319	85.94
376.545	93.94
376.771	106.94
376.997	99.94
377.222	77.94
377.448	100.94
377.674	87.94
377.899	86.94
378.125	70.94
378.35	91.94
378.576	101.94
378.802	76.94
379.027	77.94
379.253	100.94
379.478	100.94
379.704	89.94
379.929	114.94
380.155	102.94
380.38	88.94
380.606	89.94
380.831	93.94
381.057	107.94
381.282	91.94
381.507	85.94
381.733	82.94
381.958	105.94
382.184	85.94
382.409	92.94
382.634	104.94
382.86	102.94
383.085	95.94
383.31	91.94
383.535	100.94
383.761	87.94
383.986	93.94
384.211	98.94
384.436	77.94
384.662	85.94
384.887	82.94
385.112	96.94
385.337	93.94
385.562	101.94
385.787	114.94
386.013	94.94
386.238	113.94
386.463	97.94
386.688	96.94
386.913	93.94
387.138	110.94
387.363	99.94
387.588	101.94
387.813	100.94
388.038	101.94
388.263	104.94
388.488	98.94
388.713	105.94
388.938	100.94
389.163	77.94
389.387	90.94
389.612	88.94
389.837	96.94
390.062	87.94
390.287	81.94
390.512	95.94
390.736	86.94
390.961	83.94
391.186	94.94
391.411	87.94
391.636	87.94
391.86	94.94
392.085	95.94
392.31	99.94
392.534	102.94
392.759	106.94
392.984	100.94
393.208	76.94
393.433	77.94
393.658	83.94
393.882	79.94
394.107	89.94
394.331	98.94
394.556	91.94
394.78	92.94
395.005	78.94
395.229	83.94
395.454	87.94
395.678	98.94
395.903	85.94
396.127	88.94
396.352	76.94
396.576	89.94
396.801	87.94
397.025	81.94
397.249	90.94
397.474	102.94
397.698	68.94
397.922	98.94
398.147	79.94
398.371	93.94
398.595	81.94
398.82	87.94
399.044	80.94
399.268	100.94
399.492	89.94
399.717	84.94
399.941	91.94
400.165	93.94
400.389	79.94
400.613	84.94
400.837	82.94
401.062	103.94
401.286	91.94
401.51	88.94
401.734	97.94
401.958	90.94
402.182	124.94
402.406	149.94
402.63	103.94
402.854	97.94
403.078	84.94
403.302	81.94
403.526	80.94
403.75	80.94
403.974	89.94
404.198	69.94
404.422	75.94
404.645	92.94
404.869	93.94
405.093	90.94
405.317	103.94
405.541	91.94
405.765	88.94
405.988	95.94
406.212	170.94
406.436	230.94
406.66	137.94
406.883	95.94
407.107	94.94
407.331	95.94
407.555	105.94
407.778	99.94
408.002	78.94
408.226	98.94
408.449	81.94
408.673	87.94
408.896	80.94
409.12	80.94
409.344	99.94
409.567	96.94
409.791	91.94
410.014	97.94
410.238	94.94
410.461	85.94
410.685	102.94
410.908	99.94
411.132	105.94
411.355	96.94
411.578	91.94
411.802	82.94
412.025	86.94
412.249	80.94
412.472	92.94
412.695	88.94
412.919	89.94
413.142	71.94
413.365	83.94
413.589	89.94
413.812	96.94
414.035	92.94
414.258	96.94
414.482	85.94
414.705	82.94
414.928	91.94
415.151	97.94
415.374	93.94
415.597	99.94
415.821	97.94
416.044	88.94
416.267	95.94
416.49	88.94
416.713	89.94
416.936	96.94
417.159	79.94
417.382	76.94
417.605	90.94
417.828	101.94
418.051	89.94
418.274	91.94
418.497	76.94
418.72	96.94
418.943	95.94
419.166	93.94
419.389	96.94
419.611	86.94
419.834	93.94
420.057	97.94
420.28	88.94
420.503	90.94
420.726	76.94
420.948	87.94
421.171	87.94
421.394	83.94
421.617	101.94
421.839	104.94
422.062	93.94
422.285	93.94
422.507	103.94
422.73	92.94
422.953	81.94
423.175	96.94
423.398	85.94
423.621	76.94
423.843	92.94
424.066	84.94
424.288	92.94
424.511	86.94
424.733	89.94
424.956	108.94
425.178	108.94
425.401	93.94
425.623	93.94
425.846	91.94
426.068	92.94
426.291	90.94
426.513	86.94
426.735	90.94
426.958	92.94
427.18	106.94
427.402	143.94
427.625	159.94
427.847	118.94
428.069	88.94
428.292	90.94
428.514	92.94
428.736	83.94
428.958	97.94
429.181	90.94
429.403	95.94
429.625	83.94
429.847	86.94
430.069	109.94
430.292	89.94
430.514	84.94
430.736	94.94
430.958	102.94
431.18	96.94
431.402	97.94
431.624	101.94
431.846	94.94
432.068	96.94
432.29	89.94
432.512	107.94
432.734	74.94
432.956	98.94
433.178	95.94
433.4	95.94
433.622	89.94
433.844	84.94
434.066	92.94
434.287	91.94
434.509	91.94
434.731	107.94
434.953	93.94
435.175	102.94
435.397	85.94
435.618	86.94
435.84	93.94
436.062	117.94
436.284	101.94
436.505	101.94
436.727	95.94
436.949	91.94
437.17	99.94
437.392	86.94
437.614	98.94
437.835	113.94
438.057	127.94
438.278	96.94
438.5	101.94
438.721	121.94
438.943	108.94
439.165	86.94
439.386	90.94
439.608	101.94
439.829	104.94
440.05	110.94
440.272	129.94
440.493	108.94
440.715	80.94
440.936	76.94
441.158	106.94
441.379	89.94
441.6	99.94
441.822	99.94
442.043	81.94
442.264	76.94
442.486	95.94
442.707	93.94
442.928	116.94
443.149	117.94
443.371	120.94
443.592	106.94
443.813	108.94
444.034	92.94
444.255	97.94
444.476	95.94
444.698	80.94
444.919	87.94
445.14	138.94
445.361	108.94
445.582	119.94
445.803	133.94
446.024	125.94
446.245	131.94
446.466	123.94
446.687	79.94
446.908	78.94
447.129	80.94
447.35	88.94
447.571	85.94
447.792	93.94
448.013	93.94
448.234	107.94
448.455	99.94
448.675	112.94
448.896	114.94
449.117	118.94
449.338	94.94
449.559	137.94
449.779	134.94
450	83.94
450.221	84.94
450.442	95.94
450.662	90.94
450.883	108.94
451.104	100.94
451.324	97.94
451.545	99.94
451.766	84.94
451.986	92.94
452.207	81.94
452.428	89.94
452.648	99.94
452.869	100.94
453.089	116.94
453.31	127.94
453.53	102.94
453.751	78.94
453.971	87.94
454.192	111.94
454.412	75.94
454.633	99.94
454.853	88.94
455.073	96.94
455.294	86.94
455.514	97.94
455.734	101.94
455.955	83.94
456.175	75.94
456.395	88.94
456.616	89.94
456.836	81.94
457.056	93.94
457.276	75.94
457.497	89.94
457.717	85.94
457.937	93.94
458.157	93.94
458.377	92.94
458.598	98.94
458.818	126.94
459.038	169.94
459.258	103.94
459.478	83.94
459.698	89.94
459.918	87.94
460.138	91.94
460.358	81.94
460.578	101.94
460.798	80.94
461.018	99.94
461.238	88.94
461.458	88.94
461.678	81.94
461.898	82.94
462.118	100.94
462.338	77.94
462.558	84.94
462.777	89.94
462.997	85.94
463.217	96.94
463.437	86.94
463.657	75.94
463.876	83.94
464.096	97.94
464.316	82.94
464.536	93.94
464.755	97.94
464.975	94.94
465.195	148.94
465.414	159.94
465.634	109.94
465.854	89.94
466.073	83.94
466.293	82.94
466.512	88.94
466.732	100.94
466.951	87.94
467.171	92.94
467.391	84.94
467.61	92.94
467.829	96.94
468.049	91.94
468.268	90.94
468.488	87.94
468.707	91.94
468.927	75.94
469.146	84.94
469.365	86.94
469.585	92.94
469.804	102.94
470.023	93.94
470.243	91.94
470.462	105.94
470.681	99.94
470.901	102.94
471.12	101.94
471.339	88.94
471.558	89.94
471.777	78.94
471.997	92.94
472.216	82.94
472.435	90.94
472.654	94.94
472.873	93.94
473.092	83.94
473.311	92.94
473.53	82.94
473.749	81.94
473.968	105.94
474.187	104.94
474.406	102.94
474.625	91.94
474.844	85.94
475.063	97.94
475.282	89.94
475.501	85.94
475.72	95.94
475.939	100.94
476.158	83.94
476.377	83.94
476.596	91.94
476.814	88.94
477.033	87.94
477.252	65.94
477.471	89.94
477.69	88.94
477.908	92.94
478.127	77.94
478.346	99.94
478.564	90.94
478.783	103.94
479.002	96.94
479.22	92.94
479.439	91.94
479.658	88.94
479.876	92.94
480.095	103.94
480.313	97.94
480.532	102.94
480.751	87.94
480.969	86.94
481.188	87.94
481.406	74.94
481.624	94.94
481.843	89.94
482.061	73.94
482.28	94.94
482.498	90.94
482.717	88.94
482.935	82.94
483.153	93.94
483.372	89.94
483.59	89.94
483.808	96.94
484.027	86.94
484.245	88.94
484.463	100.94
484.681	114.94
484.9	86.94
485.118	97.94
485.336	88.94
485.554	97.94
485.772	105.94
485.99	94.94
486.209	96.94
486.427	87.94
486.645	109.94
486.863	96.94
487.081	92.94
487.299	96.94
487.517	96.94
487.735	96.94
487.953	100.94
488.171	85.94
488.389	110.94
488.607	98.94
488.825	90.94
489.043	86.94
489.261	93.94
489.479	83.94
489.696	98.94
489.914	96.94
490.132	89.94
490.35	95.94
490.568	100.94
490.786	96.94
491.003	84.94
491.221	89.94
491.439	83.94
491.657	84.94
491.874	74.94
492.092	100.94
492.31	93.94
492.527	83.94
492.745	84.94
492.963	96.94
493.18	97.94
493.398	93.94
493.615	114.94
493.833	89.94
494.05	93.94
494.268	84.94
494.485	93.94
494.703	88.94
494.92	80.94
495.138	83.94
495.355	98.94
495.573	101.94
495.79	93.94
496.008	91.94
496.225	101.94
496.442	93.94
496.66	108.94
496.877	101.94
497.094	90.94
497.312	87.94
497.529	90.94
497.746	102.94
497.963	95.94
498.181	92.94
498.398	93.94
498.615	97.94
498.832	89.94
499.049	106.94
499.267	90.94
499.484	108.94
499.701	99.94
499.918	100.94
500.135	80.94
500.352	76.94
500.569	87.94
500.786	100.94
501.003	87.94
501.22	74.94
501.437	91.94
501.654	109.94
501.871	114.94
502.088	85.94
502.305	98.94
502.522	91.94
502.739	85.94
502.956	96.94
503.172	98.94
503.389	90.94
503.606	113.94
503.823	105.94
504.04	90.94
504.256	91.94
504.473	95.94
504.69	81.94
504.907	101.94
505.123	87.94
505.34	93.94
505.557	95.94
505.773	88.94
505.99	88.94
506.207	83.94
506.423	83.94
506.64	87.94
506.856	87.94
507.073	83.94
507.289	104.94
507.506	95.94
507.722	103.94
507.939	111.94
508.155	106.94
508.372	99.94
508.588	98.94
508.805	104.94
509.021	113.94
509.238	115.94
509.454	84.94
509.67	89.94
509.887	101.94
510.103	118.94
510.319	211.94
510.536	749.94
510.752	2341.94
510.968	649.94
511.184	165.94
511.401	121.94
511.617	109.94
511.833	109.94
512.049	84.94
512.265	101.94
512.481	85.94
512.698	88.94
512.914	97.94
513.13	95.94
513.346	101.94
513.562	94.94
513.778	85.94
513.994	100.94
514.21	98.94
514.426	120.94
514.642	151.94
514.858	118.94
515.074	156.94
515.29	442.94
515.506	1428.94
515.721	529.94
515.937	146.94
