Data from Uncirc_1984_H10_HRD10591_00014.txt Node
Date: Wed Jan 03 12:21:40 EST 2024
User: Yrep
Spectrometer: HR+D1059
Trigger mode: 1
Integration Time (sec): 1.000000E-1
Scans to average: 1
Electric dark correction enabled: true
Nonlinearity correction enabled: false
Boxcar width: 0
XAxis mode: Wavelengths
Number of Pixels in Spectrum: 2048
>>>>>Begin Spectral Data<<<<<
223.165	-22.06
223.4	-22.06
223.635	-22.06
223.869	-0.06
224.104	-6.06
224.338	-17.06
224.573	-19.06
224.808	-17.06
225.042	-2.06
225.277	-5.06
225.511	-2.06
225.746	5.94
225.98	17.94
226.215	-1.06
226.449	21.94
226.683	9.94
226.918	26.94
227.152	8.94
227.387	29.94
227.621	29.94
227.856	39.94
228.09	42.94
228.324	42.94
228.559	54.94
228.793	55.94
229.027	74.94
229.262	51.94
229.496	70.94
229.73	90.94
229.964	74.94
230.199	67.94
230.433	76.94
230.667	70.94
230.901	81.94
231.136	81.94
231.37	73.94
231.604	71.94
231.838	74.94
232.072	78.94
232.306	89.94
232.541	71.94
232.775	83.94
233.009	72.94
233.243	65.94
233.477	74.94
233.711	94.94
233.945	85.94
234.179	91.94
234.413	79.94
234.647	71.94
234.881	94.94
235.115	74.94
235.349	83.94
235.583	88.94
235.817	80.94
236.051	81.94
236.285	70.94
236.519	69.94
236.753	73.94
236.987	86.94
237.221	71.94
237.455	93.94
237.689	79.94
237.922	63.94
238.156	81.94
238.39	68.94
238.624	59.94
238.858	69.94
239.091	73.94
239.325	67.94
239.559	70.94
239.793	83.94
240.027	78.94
240.26	72.94
240.494	59.94
240.728	59.94
240.961	68.94
241.195	72.94
241.429	81.94
241.662	88.94
241.896	85.94
242.13	69.94
242.363	58.94
242.597	68.94
242.83	78.94
243.064	82.94
243.298	77.94
243.531	80.94
243.765	69.94
243.998	82.94
244.232	80.94
244.465	90.94
244.699	74.94
244.932	68.94
245.166	70.94
245.399	79.94
245.633	81.94
245.866	79.94
246.099	72.94
246.333	83.94
246.566	77.94
246.8	70.94
247.033	85.94
247.266	73.94
247.5	96.94
247.733	84.94
247.966	102.94
248.2	69.94
248.433	81.94
248.666	81.94
248.899	78.94
249.133	99.94
249.366	89.94
249.599	101.94
249.832	83.94
250.066	85.94
250.299	81.94
250.532	83.94
250.765	79.94
250.998	72.94
251.231	80.94
251.465	87.94
251.698	64.94
251.931	79.94
252.164	73.94
252.397	79.94
252.63	84.94
252.863	86.94
253.096	71.94
253.329	80.94
253.562	77.94
253.795	80.94
254.028	81.94
254.261	75.94
254.494	88.94
254.727	82.94
254.96	67.94
255.193	66.94
255.426	69.94
255.659	78.94
255.892	87.94
256.124	75.94
256.357	84.94
256.59	89.94
256.823	74.94
257.056	82.94
257.289	80.94
257.521	76.94
257.754	95.94
257.987	93.94
258.22	89.94
258.452	70.94
258.685	68.94
258.918	74.94
259.151	86.94
259.383	89.94
259.616	68.94
259.849	79.94
260.081	91.94
260.314	83.94
260.547	81.94
260.779	84.94
261.012	85.94
261.244	77.94
261.477	81.94
261.71	90.94
261.942	106.94
262.175	112.94
262.407	89.94
262.64	74.94
262.872	78.94
263.105	55.94
263.337	77.94
263.57	73.94
263.802	77.94
264.035	73.94
264.267	89.94
264.499	71.94
264.732	85.94
264.964	85.94
265.197	86.94
265.429	89.94
265.661	74.94
265.894	90.94
266.126	79.94
266.358	70.94
266.591	77.94
266.823	83.94
267.055	86.94
267.287	78.94
267.52	81.94
267.752	90.94
267.984	89.94
268.216	75.94
268.448	81.94
268.681	71.94
268.913	90.94
269.145	71.94
269.377	85.94
269.609	86.94
269.841	84.94
270.073	86.94
270.306	75.94
270.538	85.94
270.77	95.94
271.002	83.94
271.234	89.94
271.466	87.94
271.698	83.94
271.93	83.94
272.162	98.94
272.394	100.94
272.626	97.94
272.858	72.94
273.09	81.94
273.322	75.94
273.553	85.94
273.785	80.94
274.017	93.94
274.249	101.94
274.481	76.94
274.713	89.94
274.945	94.94
275.176	92.94
275.408	72.94
275.64	74.94
275.872	83.94
276.104	80.94
276.335	72.94
276.567	101.94
276.799	106.94
277.031	104.94
277.262	82.94
277.494	86.94
277.726	83.94
277.957	73.94
278.189	83.94
278.421	73.94
278.652	82.94
278.884	82.94
279.115	73.94
279.347	74.94
279.579	85.94
279.81	77.94
280.042	85.94
280.273	84.94
280.505	95.94
280.736	89.94
280.968	84.94
281.199	82.94
281.431	99.94
281.662	101.94
281.894	81.94
282.125	100.94
282.356	97.94
282.588	121.94
282.819	103.94
283.051	99.94
283.282	83.94
283.513	85.94
283.745	86.94
283.976	82.94
284.207	81.94
284.439	93.94
284.67	94.94
284.901	76.94
285.132	82.94
285.364	98.94
285.595	74.94
285.826	100.94
286.057	79.94
286.288	85.94
286.52	89.94
286.751	87.94
286.982	89.94
287.213	87.94
287.444	87.94
287.675	82.94
287.906	82.94
288.138	93.94
288.369	83.94
288.6	102.94
288.831	84.94
289.062	92.94
289.293	94.94
289.524	93.94
289.755	89.94
289.986	93.94
290.217	84.94
290.448	84.94
290.679	95.94
290.91	104.94
291.141	90.94
291.371	86.94
291.602	95.94
291.833	88.94
292.064	81.94
292.295	87.94
292.526	85.94
292.757	84.94
292.987	80.94
293.218	96.94
293.449	88.94
293.68	96.94
293.91	79.94
294.141	93.94
294.372	71.94
294.603	87.94
294.833	85.94
295.064	93.94
295.295	95.94
295.525	81.94
295.756	92.94
295.987	100.94
296.217	121.94
296.448	119.94
296.679	94.94
296.909	90.94
297.14	79.94
297.37	89.94
297.601	88.94
297.831	93.94
298.062	91.94
298.292	84.94
298.523	78.94
298.753	95.94
298.984	82.94
299.214	93.94
299.445	92.94
299.675	96.94
299.905	89.94
300.136	99.94
300.366	78.94
300.597	75.94
300.827	85.94
301.057	104.94
301.288	84.94
301.518	87.94
301.748	95.94
301.979	94.94
302.209	63.94
302.439	93.94
302.669	91.94
302.9	87.94
303.13	79.94
303.36	96.94
303.59	94.94
303.82	105.94
304.051	99.94
304.281	87.94
304.511	95.94
304.741	81.94
304.971	94.94
305.201	91.94
305.431	87.94
305.661	80.94
305.891	91.94
306.121	99.94
306.352	98.94
306.582	97.94
306.812	101.94
307.042	86.94
307.272	96.94
307.502	101.94
307.731	86.94
307.961	90.94
308.191	83.94
308.421	83.94
308.651	81.94
308.881	93.94
309.111	82.94
309.341	109.94
309.571	81.94
309.8	85.94
310.03	91.94
310.26	89.94
310.49	89.94
310.72	105.94
310.949	90.94
311.179	93.94
311.409	91.94
311.639	106.94
311.868	95.94
312.098	83.94
312.328	88.94
312.557	79.94
312.787	95.94
313.017	96.94
313.246	101.94
313.476	73.94
313.706	86.94
313.935	81.94
314.165	95.94
314.394	102.94
314.624	86.94
314.853	89.94
315.083	98.94
315.312	83.94
315.542	100.94
315.771	95.94
316.001	107.94
316.23	100.94
316.46	88.94
316.689	97.94
316.919	87.94
317.148	85.94
317.377	89.94
317.607	89.94
317.836	86.94
318.065	95.94
318.295	81.94
318.524	93.94
318.753	83.94
318.983	74.94
319.212	88.94
319.441	115.94
319.67	94.94
319.9	74.94
320.129	93.94
320.358	90.94
320.587	87.94
320.816	82.94
321.046	103.94
321.275	81.94
321.504	103.94
321.733	89.94
321.962	97.94
322.191	84.94
322.42	83.94
322.649	92.94
322.878	107.94
323.108	114.94
323.337	111.94
323.566	109.94
323.795	125.94
324.024	179.94
324.253	349.94
324.482	701.94
324.71	1508.94
324.939	1967.94
325.168	731.94
325.397	218.94
325.626	131.94
325.855	127.94
326.084	116.94
326.313	137.94
326.542	134.94
326.77	210.94
326.999	403.94
327.228	859.94
327.457	1529.94
327.686	1223.94
327.914	334.94
328.143	181.94
328.372	133.94
328.6	114.94
328.829	109.94
329.058	123.94
329.287	118.94
329.515	103.94
329.744	105.94
329.972	102.94
330.201	81.94
330.43	96.94
330.658	115.94
330.887	136.94
331.115	114.94
331.344	95.94
331.572	93.94
331.801	85.94
332.03	103.94
332.258	102.94
332.486	85.94
332.715	82.94
332.943	89.94
333.172	87.94
333.4	102.94
333.629	100.94
333.857	100.94
334.085	99.94
334.314	94.94
334.542	85.94
334.771	92.94
334.999	107.94
335.227	93.94
335.455	90.94
335.684	86.94
335.912	101.94
336.14	90.94
336.369	98.94
336.597	93.94
336.825	94.94
337.053	81.94
337.281	103.94
337.51	91.94
337.738	78.94
337.966	81.94
338.194	93.94
338.422	93.94
338.65	88.94
338.878	89.94
339.106	106.94
339.334	90.94
339.562	85.94
339.79	89.94
340.018	78.94
340.246	101.94
340.474	90.94
340.702	96.94
340.93	81.94
341.158	75.94
341.386	95.94
341.614	111.94
341.842	85.94
342.07	74.94
342.298	87.94
342.526	89.94
342.754	79.94
342.981	90.94
343.209	92.94
343.437	107.94
343.665	96.94
343.893	84.94
344.12	88.94
344.348	86.94
344.576	90.94
344.804	90.94
345.031	92.94
345.259	103.94
345.487	90.94
345.714	88.94
345.942	99.94
346.17	85.94
346.397	85.94
346.625	85.94
346.853	85.94
347.08	88.94
347.308	86.94
347.535	91.94
347.763	95.94
347.99	90.94
348.218	89.94
348.445	106.94
348.673	80.94
348.9	79.94
349.128	90.94
349.355	111.94
349.583	94.94
349.81	95.94
350.037	95.94
350.265	91.94
350.492	91.94
350.72	100.94
350.947	99.94
351.174	118.94
351.402	111.94
351.629	97.94
351.856	100.94
352.083	96.94
352.311	107.94
352.538	102.94
352.765	116.94
352.992	114.94
353.22	90.94
353.447	102.94
353.674	90.94
353.901	82.94
354.128	89.94
354.355	95.94
354.583	86.94
354.81	102.94
355.037	87.94
355.264	103.94
355.491	102.94
355.718	86.94
355.945	100.94
356.172	93.94
356.399	77.94
356.626	95.94
356.853	95.94
357.08	80.94
357.307	95.94
357.534	87.94
357.761	101.94
357.988	94.94
358.215	98.94
358.441	91.94
358.668	96.94
358.895	76.94
359.122	90.94
359.349	88.94
359.576	97.94
359.802	94.94
360.029	85.94
360.256	89.94
360.483	94.94
360.709	97.94
360.936	98.94
361.163	100.94
361.39	106.94
361.616	90.94
361.843	89.94
362.07	83.94
362.296	91.94
362.523	89.94
362.749	90.94
362.976	89.94
363.203	79.94
363.429	80.94
363.656	98.94
363.882	100.94
364.109	106.94
364.335	89.94
364.562	88.94
364.788	97.94
365.015	81.94
365.241	87.94
365.468	101.94
365.694	99.94
365.92	80.94
366.147	94.94
366.373	89.94
366.599	83.94
366.826	95.94
367.052	97.94
367.278	82.94
367.505	73.94
367.731	96.94
367.957	98.94
368.184	83.94
368.41	101.94
368.636	93.94
368.862	107.94
369.089	110.94
369.315	78.94
369.541	82.94
369.767	82.94
369.993	96.94
370.219	86.94
370.445	77.94
370.672	81.94
370.898	96.94
371.124	87.94
371.35	85.94
371.576	90.94
371.802	95.94
372.028	92.94
372.254	79.94
372.48	74.94
372.706	87.94
372.932	81.94
373.158	89.94
373.384	90.94
373.61	85.94
373.835	75.94
374.061	100.94
374.287	85.94
374.513	74.94
374.739	95.94
374.965	81.94
375.191	104.94
375.416	87.94
375.642	80.94
375.868	98.94
376.094	87.94
376.319	90.94
376.545	91.94
376.771	95.94
376.997	86.94
377.222	81.94
377.448	74.94
377.674	88.94
377.899	92.94
378.125	94.94
378.35	73.94
378.576	90.94
378.802	87.94
379.027	84.94
379.253	99.94
379.478	89.94
379.704	104.94
379.929	106.94
380.155	87.94
380.38	94.94
380.606	100.94
380.831	94.94
381.057	110.94
381.282	90.94
381.507	81.94
381.733	92.94
381.958	97.94
382.184	95.94
382.409	88.94
382.634	111.94
382.86	93.94
383.085	87.94
383.31	98.94
383.535	100.94
383.761	93.94
383.986	96.94
384.211	95.94
384.436	98.94
384.662	98.94
384.887	110.94
385.112	99.94
385.337	117.94
385.562	107.94
385.787	104.94
386.013	108.94
386.238	113.94
386.463	103.94
386.688	114.94
386.913	95.94
387.138	114.94
387.363	100.94
387.588	106.94
387.813	107.94
388.038	104.94
388.263	113.94
388.488	107.94
388.713	101.94
388.938	103.94
389.163	79.94
389.387	80.94
389.612	102.94
389.837	89.94
390.062	101.94
390.287	87.94
390.512	87.94
390.736	96.94
390.961	81.94
391.186	89.94
391.411	88.94
391.636	93.94
391.86	82.94
392.085	92.94
392.31	74.94
392.534	97.94
392.759	86.94
392.984	94.94
393.208	86.94
393.433	117.94
393.658	80.94
393.882	90.94
394.107	92.94
394.331	81.94
394.556	69.94
394.78	71.94
395.005	88.94
395.229	89.94
395.454	86.94
395.678	87.94
395.903	97.94
396.127	94.94
396.352	79.94
396.576	97.94
396.801	88.94
397.025	92.94
397.249	94.94
397.474	101.94
397.698	93.94
397.922	97.94
398.147	88.94
398.371	98.94
398.595	83.94
398.82	77.94
399.044	87.94
399.268	90.94
399.492	87.94
399.717	74.94
399.941	92.94
400.165	81.94
400.389	86.94
400.613	88.94
400.837	84.94
401.062	88.94
401.286	88.94
401.51	88.94
401.734	80.94
401.958	87.94
402.182	115.94
402.406	138.94
402.63	120.94
402.854	87.94
403.078	81.94
403.302	82.94
403.526	80.94
403.75	90.94
403.974	95.94
404.198	75.94
404.422	89.94
404.645	93.94
404.869	76.94
405.093	89.94
405.317	103.94
405.541	85.94
405.765	92.94
405.988	104.94
406.212	152.94
406.436	202.94
406.66	130.94
406.883	86.94
407.107	102.94
407.331	86.94
407.555	93.94
407.778	83.94
408.002	87.94
408.226	86.94
408.449	86.94
408.673	89.94
408.896	107.94
409.12	97.94
409.344	74.94
409.567	93.94
409.791	104.94
410.014	98.94
410.238	90.94
410.461	92.94
410.685	85.94
410.908	88.94
411.132	94.94
411.355	98.94
411.578	85.94
411.802	89.94
412.025	85.94
412.249	82.94
412.472	88.94
412.695	87.94
412.919	87.94
413.142	91.94
413.365	92.94
413.589	80.94
413.812	103.94
414.035	94.94
414.258	95.94
414.482	81.94
414.705	85.94
414.928	86.94
415.151	81.94
415.374	98.94
415.597	91.94
415.821	92.94
416.044	89.94
416.267	79.94
416.49	84.94
416.713	93.94
416.936	95.94
417.159	85.94
417.382	87.94
417.605	86.94
417.828	82.94
418.051	90.94
418.274	93.94
418.497	90.94
418.72	94.94
418.943	88.94
419.166	81.94
419.389	70.94
419.611	90.94
419.834	86.94
420.057	85.94
420.28	100.94
420.503	83.94
420.726	82.94
420.948	91.94
421.171	104.94
421.394	88.94
421.617	98.94
421.839	68.94
422.062	81.94
422.285	79.94
422.507	102.94
422.73	89.94
422.953	94.94
423.175	97.94
423.398	88.94
423.621	71.94
423.843	76.94
424.066	87.94
424.288	87.94
424.511	91.94
424.733	100.94
424.956	98.94
425.178	99.94
425.401	98.94
425.623	99.94
425.846	91.94
426.068	89.94
426.291	96.94
426.513	86.94
426.735	81.94
426.958	81.94
427.18	95.94
427.402	134.94
427.625	153.94
427.847	120.94
428.069	93.94
428.292	88.94
428.514	88.94
428.736	73.94
428.958	86.94
429.181	91.94
429.403	85.94
429.625	91.94
429.847	91.94
430.069	80.94
430.292	86.94
430.514	85.94
430.736	70.94
430.958	99.94
431.18	84.94
431.402	81.94
431.624	90.94
431.846	94.94
432.068	87.94
432.29	94.94
432.512	89.94
432.734	85.94
432.956	89.94
433.178	105.94
433.4	103.94
433.622	81.94
433.844	94.94
434.066	95.94
434.287	86.94
434.509	85.94
434.731	91.94
434.953	74.94
435.175	90.94
435.397	94.94
435.618	80.94
435.84	98.94
436.062	120.94
436.284	105.94
436.505	96.94
436.727	90.94
436.949	112.94
437.17	81.94
437.392	79.94
437.614	75.94
437.835	113.94
438.057	101.94
438.278	106.94
438.5	108.94
438.721	112.94
438.943	87.94
439.165	75.94
439.386	93.94
439.608	88.94
439.829	90.94
440.05	111.94
440.272	102.94
440.493	96.94
440.715	90.94
440.936	80.94
441.158	92.94
441.379	74.94
441.6	79.94
441.822	89.94
442.043	83.94
442.264	84.94
442.486	89.94
442.707	97.94
442.928	94.94
443.149	119.94
443.371	103.94
443.592	98.94
443.813	105.94
444.034	93.94
444.255	99.94
444.476	82.94
444.698	79.94
444.919	82.94
445.14	132.94
445.361	110.94
445.582	113.94
445.803	114.94
446.024	124.94
446.245	126.94
446.466	98.94
446.687	89.94
446.908	90.94
447.129	87.94
447.35	86.94
447.571	96.94
447.792	88.94
448.013	89.94
448.234	73.94
448.455	105.94
448.675	103.94
448.896	111.94
449.117	103.94
449.338	97.94
449.559	113.94
449.779	119.94
450	101.94
450.221	73.94
450.442	81.94
450.662	90.94
450.883	89.94
451.104	113.94
451.324	90.94
451.545	81.94
451.766	87.94
451.986	86.94
452.207	84.94
452.428	100.94
452.648	96.94
452.869	98.94
453.089	94.94
453.31	112.94
453.53	83.94
453.751	82.94
453.971	103.94
454.192	113.94
454.412	89.94
454.633	80.94
454.853	77.94
455.073	87.94
455.294	93.94
455.514	102.94
455.734	85.94
455.955	84.94
456.175	87.94
456.395	93.94
456.616	70.94
456.836	84.94
457.056	87.94
457.276	82.94
457.497	93.94
457.717	83.94
457.937	79.94
458.157	85.94
458.377	90.94
458.598	101.94
458.818	128.94
459.038	129.94
459.258	95.94
459.478	85.94
459.698	78.94
459.918	89.94
460.138	78.94
460.358	77.94
460.578	75.94
460.798	80.94
461.018	88.94
461.238	71.94
461.458	87.94
461.678	74.94
461.898	84.94
462.118	79.94
462.338	91.94
462.558	87.94
462.777	90.94
462.997	88.94
463.217	85.94
463.437	86.94
463.657	63.94
463.876	81.94
464.096	93.94
464.316	86.94
464.536	94.94
464.755	73.94
464.975	106.94
465.195	126.94
465.414	134.94
465.634	95.94
465.854	102.94
466.073	77.94
466.293	95.94
466.512	91.94
466.732	94.94
466.951	85.94
467.171	90.94
467.391	97.94
467.61	96.94
467.829	90.94
468.049	88.94
468.268	74.94
468.488	81.94
468.707	87.94
468.927	87.94
469.146	98.94
469.365	86.94
469.585	105.94
469.804	81.94
470.023	86.94
470.243	87.94
470.462	95.94
470.681	107.94
470.901	90.94
471.12	80.94
471.339	73.94
471.558	86.94
471.777	90.94
471.997	80.94
472.216	110.94
472.435	102.94
472.654	87.94
472.873	84.94
473.092	80.94
473.311	79.94
473.53	90.94
473.749	89.94
473.968	88.94
474.187	94.94
474.406	97.94
474.625	94.94
474.844	91.94
475.063	103.94
475.282	73.94
475.501	77.94
475.72	89.94
475.939	82.94
476.158	69.94
476.377	84.94
476.596	72.94
476.814	94.94
477.033	87.94
477.252	98.94
477.471	98.94
477.69	81.94
477.908	85.94
478.127	81.94
478.346	88.94
478.564	88.94
478.783	88.94
479.002	89.94
479.22	78.94
479.439	96.94
479.658	107.94
479.876	100.94
480.095	85.94
480.313	90.94
480.532	89.94
480.751	91.94
480.969	76.94
481.188	103.94
481.406	92.94
481.624	75.94
481.843	90.94
482.061	99.94
482.28	87.94
482.498	92.94
482.717	93.94
482.935	104.94
483.153	89.94
483.372	87.94
483.59	100.94
483.808	87.94
484.027	91.94
484.245	100.94
484.463	95.94
484.681	95.94
484.9	73.94
485.118	110.94
485.336	96.94
485.554	101.94
485.772	94.94
485.99	88.94
486.209	98.94
486.427	101.94
486.645	100.94
486.863	110.94
487.081	94.94
487.299	95.94
487.517	89.94
487.735	94.94
487.953	92.94
488.171	99.94
488.389	93.94
488.607	95.94
488.825	92.94
489.043	92.94
489.261	96.94
489.479	79.94
489.696	89.94
489.914	78.94
490.132	88.94
490.35	80.94
490.568	90.94
490.786	86.94
491.003	73.94
491.221	83.94
491.439	98.94
491.657	95.94
491.874	95.94
492.092	87.94
492.31	99.94
492.527	88.94
492.745	69.94
492.963	82.94
493.18	95.94
493.398	87.94
493.615	98.94
493.833	85.94
494.05	96.94
494.268	83.94
494.485	87.94
494.703	84.94
494.92	78.94
495.138	89.94
495.355	81.94
495.573	84.94
495.79	84.94
496.008	96.94
496.225	83.94
496.442	91.94
496.66	80.94
496.877	97.94
497.094	93.94
497.312	96.94
497.529	83.94
497.746	93.94
497.963	82.94
498.181	70.94
498.398	102.94
498.615	116.94
498.832	100.94
499.049	69.94
499.267	83.94
499.484	77.94
499.701	82.94
499.918	99.94
500.135	79.94
500.352	82.94
500.569	90.94
500.786	89.94
501.003	89.94
501.22	87.94
501.437	93.94
501.654	96.94
501.871	92.94
502.088	98.94
502.305	102.94
502.522	97.94
502.739	91.94
502.956	101.94
503.172	82.94
503.389	75.94
503.606	103.94
503.823	91.94
504.04	97.94
504.256	84.94
504.473	83.94
504.69	96.94
504.907	90.94
505.123	88.94
505.34	92.94
505.557	86.94
505.773	86.94
505.99	89.94
506.207	89.94
506.423	91.94
506.64	85.94
506.856	84.94
507.073	89.94
507.289	102.94
507.506	93.94
507.722	94.94
507.939	87.94
508.155	95.94
508.372	100.94
508.588	61.94
508.805	99.94
509.021	91.94
509.238	97.94
509.454	99.94
509.67	102.94
509.887	94.94
510.103	125.94
510.319	179.94
510.536	640.94
510.752	1957.94
510.968	561.94
511.184	146.94
511.401	111.94
511.617	98.94
511.833	91.94
512.049	95.94
512.265	90.94
512.481	83.94
512.698	84.94
512.914	96.94
513.13	88.94
513.346	90.94
513.562	90.94
513.778	97.94
513.994	105.94
514.21	101.94
514.426	119.94
514.642	113.94
514.858	110.94
515.074	147.94
515.29	364.94
515.506	1155.94
515.721	431.94
515.937	136.94
516.153	99.94
516.369	99.94
516.585	93.94
516.801	81.94
