Data from Uncirc_1984_H10_HRD10591_00087.txt Node
Date: Wed Jan 03 12:21:54 EST 2024
User: Yrep
Spectrometer: HR+D1059
Trigger mode: 1
Integration Time (sec): 1.000000E-1
Scans to average: 1
Electric dark correction enabled: true
Nonlinearity correction enabled: false
Boxcar width: 0
XAxis mode: Wavelengths
Number of Pixels in Spectrum: 2048
>>>>>Begin Spectral Data<<<<<
223.165	-16.19
223.4	-16.19
223.635	-16.19
223.869	-22.19
224.104	-17.19
224.338	-16.19
224.573	-20.19
224.808	-3.19
225.042	-12.19
225.277	-6.19
225.511	-11.19
225.746	4.81
225.98	11.81
226.215	4.81
226.449	15.81
226.683	33.81
226.918	27.81
227.152	25.81
227.387	26.81
227.621	33.81
227.856	45.81
228.09	47.81
228.324	41.81
228.559	64.81
228.793	43.81
229.027	65.81
229.262	63.81
229.496	74.81
229.73	67.81
229.964	65.81
230.199	63.81
230.433	72.81
230.667	92.81
230.901	83.81
231.136	81.81
231.37	87.81
231.604	85.81
231.838	87.81
232.072	75.81
232.306	85.81
232.541	86.81
232.775	75.81
233.009	90.81
233.243	80.81
233.477	83.81
233.711	75.81
233.945	75.81
234.179	84.81
234.413	79.81
234.647	79.81
234.881	85.81
235.115	81.81
235.349	91.81
235.583	88.81
235.817	81.81
236.051	80.81
236.285	88.81
236.519	91.81
236.753	75.81
236.987	73.81
237.221	74.81
237.455	83.81
237.689	73.81
237.922	83.81
238.156	81.81
238.39	79.81
238.624	90.81
238.858	77.81
239.091	74.81
239.325	83.81
239.559	85.81
239.793	88.81
240.027	83.81
240.26	65.81
240.494	71.81
240.728	66.81
240.961	77.81
241.195	103.81
241.429	69.81
241.662	81.81
241.896	68.81
242.13	72.81
242.363	71.81
242.597	91.81
242.83	69.81
243.064	66.81
243.298	68.81
243.531	83.81
243.765	88.81
243.998	75.81
244.232	75.81
244.465	97.81
244.699	76.81
244.932	92.81
245.166	84.81
245.399	80.81
245.633	76.81
245.866	78.81
246.099	95.81
246.333	80.81
246.566	73.81
246.8	75.81
247.033	92.81
247.266	66.81
247.5	86.81
247.733	75.81
247.966	89.81
248.2	79.81
248.433	81.81
248.666	75.81
248.899	76.81
249.133	91.81
249.366	100.81
249.599	103.81
249.832	72.81
250.066	88.81
250.299	81.81
250.532	66.81
250.765	72.81
250.998	85.81
251.231	76.81
251.465	90.81
251.698	77.81
251.931	87.81
252.164	79.81
252.397	85.81
252.63	75.81
252.863	79.81
253.096	92.81
253.329	91.81
253.562	85.81
253.795	88.81
254.028	75.81
254.261	72.81
254.494	75.81
254.727	72.81
254.96	93.81
255.193	83.81
255.426	97.81
255.659	85.81
255.892	81.81
256.124	74.81
256.357	83.81
256.59	83.81
256.823	92.81
257.056	87.81
257.289	84.81
257.521	88.81
257.754	84.81
257.987	72.81
258.22	93.81
258.452	73.81
258.685	84.81
258.918	71.81
259.151	75.81
259.383	72.81
259.616	70.81
259.849	76.81
260.081	73.81
260.314	90.81
260.547	87.81
260.779	83.81
261.012	87.81
261.244	89.81
261.477	87.81
261.71	95.81
261.942	119.81
262.175	109.81
262.407	90.81
262.64	81.81
262.872	93.81
263.105	75.81
263.337	85.81
263.57	85.81
263.802	87.81
264.035	89.81
264.267	88.81
264.499	86.81
264.732	87.81
264.964	84.81
265.197	72.81
265.429	76.81
265.661	81.81
265.894	81.81
266.126	94.81
266.358	89.81
266.591	86.81
266.823	80.81
267.055	85.81
267.287	98.81
267.52	85.81
267.752	96.81
267.984	77.81
268.216	80.81
268.448	75.81
268.681	81.81
268.913	89.81
269.145	88.81
269.377	85.81
269.609	85.81
269.841	87.81
270.073	103.81
270.306	80.81
270.538	91.81
270.77	88.81
271.002	75.81
271.234	97.81
271.466	75.81
271.698	80.81
271.93	83.81
272.162	84.81
272.394	83.81
272.626	83.81
272.858	84.81
273.09	89.81
273.322	95.81
273.553	91.81
273.785	87.81
274.017	97.81
274.249	97.81
274.481	88.81
274.713	94.81
274.945	108.81
275.176	84.81
275.408	85.81
275.64	83.81
275.872	96.81
276.104	73.81
276.335	85.81
276.567	107.81
276.799	96.81
277.031	96.81
277.262	92.81
277.494	87.81
277.726	77.81
277.957	79.81
278.189	74.81
278.421	92.81
278.652	95.81
278.884	83.81
279.115	86.81
279.347	94.81
279.579	80.81
279.81	66.81
280.042	83.81
280.273	85.81
280.505	93.81
280.736	92.81
280.968	86.81
281.199	94.81
281.431	81.81
281.662	79.81
281.894	90.81
282.125	99.81
282.356	119.81
282.588	128.81
282.819	107.81
283.051	90.81
283.282	92.81
283.513	92.81
283.745	87.81
283.976	81.81
284.207	87.81
284.439	87.81
284.67	91.81
284.901	97.81
285.132	73.81
285.364	83.81
285.595	82.81
285.826	83.81
286.057	92.81
286.288	89.81
286.52	81.81
286.751	84.81
286.982	95.81
287.213	69.81
287.444	87.81
287.675	83.81
287.906	80.81
288.138	92.81
288.369	100.81
288.6	98.81
288.831	95.81
289.062	90.81
289.293	86.81
289.524	73.81
289.755	80.81
289.986	88.81
290.217	95.81
290.448	87.81
290.679	79.81
290.91	89.81
291.141	90.81
291.371	88.81
291.602	93.81
291.833	91.81
292.064	105.81
292.295	88.81
292.526	98.81
292.757	94.81
292.987	79.81
293.218	100.81
293.449	81.81
293.68	70.81
293.91	95.81
294.141	91.81
294.372	87.81
294.603	89.81
294.833	84.81
295.064	82.81
295.295	109.81
295.525	98.81
295.756	100.81
295.987	112.81
296.217	136.81
296.448	112.81
296.679	109.81
296.909	85.81
297.14	94.81
297.37	96.81
297.601	84.81
297.831	80.81
298.062	94.81
298.292	87.81
298.523	86.81
298.753	87.81
298.984	99.81
299.214	86.81
299.445	101.81
299.675	88.81
299.905	99.81
300.136	87.81
300.366	87.81
300.597	77.81
300.827	75.81
301.057	115.81
301.288	82.81
301.518	100.81
301.748	81.81
301.979	100.81
302.209	85.81
302.439	97.81
302.669	85.81
302.9	100.81
303.13	101.81
303.36	93.81
303.59	94.81
303.82	85.81
304.051	73.81
304.281	83.81
304.511	111.81
304.741	96.81
304.971	95.81
305.201	98.81
305.431	91.81
305.661	90.81
305.891	86.81
306.121	93.81
306.352	106.81
306.582	116.81
306.812	91.81
307.042	83.81
307.272	92.81
307.502	91.81
307.731	93.81
307.961	97.81
308.191	92.81
308.421	93.81
308.651	83.81
308.881	93.81
309.111	88.81
309.341	95.81
309.571	107.81
309.8	83.81
310.03	98.81
310.26	90.81
310.49	91.81
310.72	88.81
310.949	99.81
311.179	91.81
311.409	91.81
311.639	99.81
311.868	93.81
312.098	93.81
312.328	90.81
312.557	106.81
312.787	100.81
313.017	105.81
313.246	96.81
313.476	103.81
313.706	86.81
313.935	98.81
314.165	96.81
314.394	91.81
314.624	87.81
314.853	108.81
315.083	93.81
315.312	96.81
315.542	99.81
315.771	92.81
316.001	74.81
316.23	100.81
316.46	92.81
316.689	81.81
316.919	89.81
317.148	94.81
317.377	102.81
317.607	76.81
317.836	97.81
318.065	92.81
318.295	95.81
318.524	100.81
318.753	85.81
318.983	93.81
319.212	90.81
319.441	105.81
319.67	105.81
319.9	99.81
320.129	87.81
320.358	92.81
320.587	105.81
320.816	93.81
321.046	104.81
321.275	88.81
321.504	101.81
321.733	104.81
321.962	106.81
322.191	106.81
322.42	107.81
322.649	109.81
322.878	107.81
323.108	102.81
323.337	112.81
323.566	122.81
323.795	137.81
324.024	186.81
324.253	333.81
324.482	723.81
324.71	1453.81
324.939	1939.81
325.168	731.81
325.397	230.81
325.626	161.81
325.855	121.81
326.084	119.81
326.313	120.81
326.542	140.81
326.77	215.81
326.999	419.81
327.228	851.81
327.457	1507.81
327.686	1194.81
327.914	322.81
328.143	171.81
328.372	149.81
328.6	121.81
328.829	115.81
329.058	128.81
329.287	113.81
329.515	102.81
329.744	95.81
329.972	92.81
330.201	90.81
330.43	97.81
330.658	119.81
330.887	129.81
331.115	123.81
331.344	99.81
331.572	94.81
331.801	103.81
332.03	87.81
332.258	93.81
332.486	96.81
332.715	88.81
332.943	94.81
333.172	104.81
333.4	97.81
333.629	98.81
333.857	104.81
334.085	95.81
334.314	93.81
334.542	104.81
334.771	99.81
334.999	89.81
335.227	110.81
335.455	91.81
335.684	94.81
335.912	95.81
336.14	95.81
336.369	95.81
336.597	88.81
336.825	112.81
337.053	107.81
337.281	97.81
337.51	89.81
337.738	94.81
337.966	92.81
338.194	95.81
338.422	86.81
338.65	90.81
338.878	104.81
339.106	102.81
339.334	97.81
339.562	96.81
339.79	92.81
340.018	91.81
340.246	103.81
340.474	106.81
340.702	107.81
340.93	87.81
341.158	100.81
341.386	90.81
341.614	85.81
341.842	101.81
342.07	89.81
342.298	82.81
342.526	93.81
342.754	91.81
342.981	70.81
343.209	83.81
343.437	103.81
343.665	83.81
343.893	81.81
344.12	91.81
344.348	92.81
344.576	87.81
344.804	83.81
345.031	90.81
345.259	102.81
345.487	106.81
345.714	92.81
345.942	92.81
346.17	101.81
346.397	99.81
346.625	87.81
346.853	95.81
347.08	73.81
347.308	81.81
347.535	91.81
347.763	100.81
347.99	107.81
348.218	92.81
348.445	101.81
348.673	93.81
348.9	97.81
349.128	103.81
349.355	87.81
349.583	89.81
349.81	111.81
350.037	102.81
350.265	88.81
350.492	87.81
350.72	89.81
350.947	109.81
351.174	95.81
351.402	99.81
351.629	102.81
351.856	107.81
352.083	105.81
352.311	107.81
352.538	118.81
352.765	111.81
352.992	113.81
353.22	107.81
353.447	87.81
353.674	106.81
353.901	100.81
354.128	95.81
354.355	105.81
354.583	88.81
354.81	105.81
355.037	87.81
355.264	117.81
355.491	93.81
355.718	89.81
355.945	100.81
356.172	109.81
356.399	110.81
356.626	97.81
356.853	89.81
357.08	100.81
357.307	85.81
357.534	97.81
357.761	101.81
357.988	99.81
358.215	92.81
358.441	86.81
358.668	86.81
358.895	92.81
359.122	83.81
359.349	95.81
359.576	95.81
359.802	93.81
360.029	109.81
360.256	105.81
360.483	104.81
360.709	85.81
360.936	99.81
361.163	103.81
361.39	107.81
361.616	91.81
361.843	92.81
362.07	96.81
362.296	96.81
362.523	89.81
362.749	89.81
362.976	108.81
363.203	94.81
363.429	76.81
363.656	85.81
363.882	92.81
364.109	93.81
364.335	84.81
364.562	85.81
364.788	92.81
365.015	99.81
365.241	92.81
365.468	116.81
365.694	92.81
365.92	110.81
366.147	87.81
366.373	91.81
366.599	77.81
366.826	81.81
367.052	103.81
367.278	78.81
367.505	96.81
367.731	116.81
367.957	77.81
368.184	85.81
368.41	110.81
368.636	103.81
368.862	106.81
369.089	100.81
369.315	96.81
369.541	98.81
369.767	88.81
369.993	102.81
370.219	80.81
370.445	85.81
370.672	88.81
370.898	89.81
371.124	89.81
371.35	74.81
371.576	95.81
371.802	84.81
372.028	86.81
372.254	91.81
372.48	96.81
372.706	92.81
372.932	90.81
373.158	69.81
373.384	79.81
373.61	97.81
373.835	76.81
374.061	87.81
374.287	88.81
374.513	87.81
374.739	87.81
374.965	91.81
375.191	102.81
375.416	92.81
375.642	79.81
375.868	83.81
376.094	82.81
376.319	96.81
376.545	117.81
376.771	93.81
376.997	101.81
377.222	91.81
377.448	91.81
377.674	82.81
377.899	89.81
378.125	100.81
378.35	89.81
378.576	83.81
378.802	98.81
379.027	99.81
379.253	101.81
379.478	95.81
379.704	98.81
379.929	93.81
380.155	92.81
380.38	94.81
380.606	99.81
380.831	94.81
381.057	102.81
381.282	83.81
381.507	102.81
381.733	101.81
381.958	104.81
382.184	87.81
382.409	116.81
382.634	105.81
382.86	104.81
383.085	96.81
383.31	97.81
383.535	109.81
383.761	95.81
383.986	95.81
384.211	94.81
384.436	97.81
384.662	89.81
384.887	91.81
385.112	106.81
385.337	104.81
385.562	98.81
385.787	92.81
386.013	106.81
386.238	103.81
386.463	103.81
386.688	104.81
386.913	105.81
387.138	98.81
387.363	112.81
387.588	92.81
387.813	105.81
388.038	106.81
388.263	98.81
388.488	95.81
388.713	96.81
388.938	102.81
389.163	86.81
389.387	107.81
389.612	100.81
389.837	91.81
390.062	93.81
390.287	99.81
390.512	83.81
390.736	87.81
390.961	84.81
391.186	100.81
391.411	103.81
391.636	95.81
391.86	93.81
392.085	104.81
392.31	89.81
392.534	90.81
392.759	106.81
392.984	88.81
393.208	91.81
393.433	89.81
393.658	99.81
393.882	92.81
394.107	83.81
394.331	89.81
394.556	89.81
394.78	73.81
395.005	87.81
395.229	84.81
395.454	92.81
395.678	73.81
395.903	81.81
396.127	87.81
396.352	95.81
396.576	98.81
396.801	86.81
397.025	98.81
397.249	79.81
397.474	96.81
397.698	81.81
397.922	91.81
398.147	85.81
398.371	97.81
398.595	99.81
398.82	85.81
399.044	90.81
399.268	94.81
399.492	86.81
399.717	89.81
399.941	90.81
400.165	96.81
400.389	82.81
400.613	100.81
400.837	85.81
401.062	93.81
401.286	104.81
401.51	82.81
401.734	84.81
401.958	103.81
402.182	115.81
402.406	135.81
402.63	113.81
402.854	81.81
403.078	92.81
403.302	97.81
403.526	92.81
403.75	91.81
403.974	87.81
404.198	99.81
404.422	86.81
404.645	88.81
404.869	85.81
405.093	91.81
405.317	99.81
405.541	83.81
405.765	91.81
405.988	105.81
406.212	163.81
406.436	201.81
406.66	122.81
406.883	98.81
407.107	96.81
407.331	91.81
407.555	88.81
407.778	97.81
408.002	87.81
408.226	87.81
408.449	85.81
408.673	86.81
408.896	88.81
409.12	91.81
409.344	89.81
409.567	84.81
409.791	88.81
410.014	95.81
410.238	95.81
410.461	99.81
410.685	93.81
410.908	103.81
411.132	104.81
411.355	87.81
411.578	97.81
411.802	79.81
412.025	92.81
412.249	95.81
412.472	75.81
412.695	85.81
412.919	91.81
413.142	76.81
413.365	84.81
413.589	107.81
413.812	79.81
414.035	91.81
414.258	93.81
414.482	98.81
414.705	83.81
414.928	82.81
415.151	75.81
415.374	85.81
415.597	90.81
415.821	94.81
416.044	92.81
416.267	95.81
416.49	96.81
416.713	90.81
416.936	93.81
417.159	73.81
417.382	91.81
417.605	88.81
417.828	92.81
418.051	82.81
418.274	70.81
418.497	95.81
418.72	93.81
418.943	89.81
419.166	89.81
419.389	98.81
419.611	93.81
419.834	81.81
420.057	89.81
420.28	79.81
420.503	89.81
420.726	93.81
420.948	90.81
421.171	81.81
421.394	95.81
421.617	80.81
421.839	96.81
422.062	95.81
422.285	98.81
422.507	92.81
422.73	102.81
422.953	93.81
423.175	91.81
423.398	98.81
423.621	95.81
423.843	85.81
424.066	83.81
424.288	94.81
424.511	85.81
424.733	103.81
424.956	92.81
425.178	98.81
425.401	91.81
425.623	96.81
425.846	94.81
426.068	89.81
426.291	92.81
426.513	87.81
426.735	92.81
426.958	87.81
427.18	110.81
427.402	133.81
427.625	146.81
427.847	120.81
428.069	89.81
428.292	97.81
428.514	91.81
428.736	75.81
428.958	90.81
429.181	97.81
429.403	93.81
429.625	83.81
429.847	90.81
430.069	95.81
430.292	93.81
430.514	86.81
430.736	91.81
430.958	93.81
431.18	75.81
431.402	84.81
431.624	87.81
431.846	82.81
432.068	91.81
432.29	84.81
432.512	83.81
432.734	87.81
432.956	91.81
433.178	101.81
433.4	104.81
433.622	88.81
433.844	95.81
434.066	99.81
434.287	84.81
434.509	83.81
434.731	83.81
434.953	90.81
435.175	88.81
435.397	76.81
435.618	101.81
435.84	93.81
436.062	118.81
436.284	113.81
436.505	113.81
436.727	100.81
436.949	105.81
437.17	92.81
437.392	89.81
437.614	89.81
437.835	100.81
438.057	120.81
438.278	98.81
438.5	105.81
438.721	121.81
438.943	94.81
439.165	98.81
439.386	92.81
439.608	87.81
439.829	97.81
440.05	115.81
440.272	134.81
440.493	93.81
440.715	96.81
440.936	95.81
441.158	86.81
441.379	90.81
441.6	93.81
441.822	101.81
442.043	96.81
442.264	96.81
442.486	90.81
442.707	102.81
442.928	101.81
443.149	108.81
443.371	128.81
443.592	93.81
443.813	97.81
444.034	98.81
444.255	103.81
444.476	91.81
444.698	80.81
444.919	103.81
445.14	137.81
445.361	122.81
445.582	116.81
445.803	132.81
446.024	121.81
446.245	119.81
446.466	112.81
446.687	85.81
446.908	95.81
447.129	89.81
447.35	96.81
447.571	104.81
447.792	88.81
448.013	91.81
448.234	117.81
448.455	99.81
448.675	111.81
448.896	111.81
449.117	97.81
449.338	99.81
449.559	117.81
449.779	116.81
450	87.81
450.221	86.81
450.442	84.81
450.662	93.81
450.883	104.81
451.104	103.81
451.324	100.81
451.545	93.81
451.766	74.81
451.986	92.81
452.207	98.81
452.428	99.81
452.648	76.81
452.869	113.81
453.089	106.81
453.31	105.81
453.53	101.81
453.751	96.81
453.971	91.81
454.192	94.81
454.412	87.81
454.633	74.81
454.853	93.81
455.073	99.81
455.294	85.81
455.514	106.81
455.734	86.81
455.955	83.81
456.175	87.81
456.395	73.81
456.616	88.81
456.836	90.81
457.056	80.81
457.276	74.81
457.497	87.81
457.717	83.81
457.937	94.81
458.157	93.81
458.377	85.81
458.598	105.81
458.818	129.81
459.038	157.81
459.258	113.81
459.478	105.81
459.698	91.81
459.918	91.81
460.138	91.81
460.358	86.81
460.578	97.81
460.798	88.81
461.018	96.81
461.238	84.81
461.458	73.81
461.678	96.81
461.898	91.81
462.118	85.81
462.338	82.81
462.558	87.81
462.777	96.81
462.997	81.81
463.217	83.81
463.437	68.81
463.657	93.81
463.876	83.81
464.096	96.81
464.316	89.81
464.536	82.81
464.755	75.81
464.975	108.81
465.195	137.81
465.414	147.81
465.634	89.81
465.854	63.81
466.073	87.81
466.293	91.81
466.512	96.81
466.732	92.81
466.951	93.81
467.171	87.81
467.391	90.81
467.61	95.81
467.829	101.81
468.049	87.81
468.268	88.81
468.488	92.81
468.707	99.81
468.927	87.81
469.146	95.81
469.365	92.81
469.585	89.81
469.804	87.81
470.023	108.81
470.243	91.81
470.462	87.81
470.681	103.81
470.901	91.81
471.12	88.81
471.339	96.81
471.558	95.81
471.777	86.81
471.997	90.81
472.216	102.81
472.435	100.81
472.654	80.81
472.873	80.81
473.092	91.81
473.311	75.81
473.53	99.81
473.749	89.81
473.968	100.81
474.187	92.81
474.406	106.81
474.625	80.81
474.844	78.81
475.063	80.81
475.282	96.81
475.501	100.81
475.72	87.81
475.939	84.81
476.158	80.81
476.377	81.81
476.596	100.81
476.814	95.81
477.033	104.81
477.252	111.81
477.471	97.81
477.69	81.81
477.908	77.81
478.127	95.81
478.346	97.81
478.564	84.81
478.783	89.81
479.002	88.81
479.22	89.81
479.439	104.81
479.658	106.81
479.876	88.81
480.095	95.81
480.313	101.81
480.532	77.81
480.751	83.81
480.969	99.81
481.188	100.81
481.406	104.81
481.624	97.81
481.843	83.81
482.061	90.81
482.28	95.81
482.498	89.81
482.717	86.81
482.935	83.81
483.153	66.81
483.372	94.81
483.59	88.81
483.808	83.81
484.027	85.81
484.245	85.81
484.463	86.81
484.681	99.81
484.9	95.81
485.118	88.81
485.336	80.81
485.554	96.81
485.772	86.81
485.99	91.81
486.209	102.81
486.427	105.81
486.645	106.81
486.863	107.81
487.081	101.81
487.299	99.81
487.517	88.81
487.735	83.81
487.953	76.81
488.171	80.81
488.389	89.81
488.607	117.81
488.825	96.81
489.043	85.81
489.261	96.81
489.479	90.81
489.696	82.81
489.914	80.81
490.132	81.81
490.35	87.81
490.568	92.81
490.786	103.81
491.003	85.81
491.221	92.81
491.439	96.81
491.657	81.81
491.874	84.81
492.092	96.81
492.31	83.81
492.527	95.81
492.745	95.81
492.963	90.81
493.18	92.81
493.398	95.81
493.615	88.81
493.833	93.81
494.05	96.81
494.268	100.81
494.485	88.81
494.703	94.81
494.92	101.81
495.138	95.81
495.355	81.81
495.573	111.81
495.79	100.81
496.008	81.81
496.225	85.81
496.442	83.81
496.66	96.81
496.877	91.81
497.094	87.81
497.312	85.81
497.529	92.81
497.746	87.81
497.963	86.81
498.181	82.81
498.398	89.81
498.615	104.81
498.832	100.81
499.049	74.81
499.267	83.81
499.484	83.81
499.701	82.81
499.918	93.81
500.135	100.81
500.352	89.81
500.569	93.81
500.786	85.81
501.003	98.81
501.22	91.81
501.437	91.81
501.654	92.81
501.871	100.81
502.088	101.81
502.305	93.81
502.522	94.81
502.739	83.81
502.956	82.81
503.172	88.81
503.389	100.81
503.606	107.81
503.823	100.81
504.04	104.81
504.256	96.81
504.473	77.81
504.69	91.81
504.907	102.81
505.123	88.81
505.34	95.81
505.557	85.81
505.773	101.81
505.99	93.81
506.207	87.81
506.423	65.81
506.64	104.81
506.856	103.81
507.073	92.81
507.289	93.81
507.506	107.81
507.722	98.81
507.939	110.81
508.155	105.81
508.372	96.81
508.588	111.81
508.805	77.81
509.021	87.81
509.238	106.81
509.454	90.81
509.67	108.81
509.887	108.81
510.103	116.81
510.319	193.81
510.536	692.81
510.752	2119.81
510.968	593.81
511.184	154.81
511.401	105.81
511.617	99.81
511.833	89.81
512.049	104.81
512.265	95.81
512.481	94.81
512.698	101.81
512.914	96.81
513.13	96.81
513.346	97.81
513.562	102.81
513.778	106.81
513.994	85.81
514.21	102.81
514.426	113.81
514.642	121.81
514.858	116.81
515.074	141.81
515.29	398.81
515.506	1258.81
515.721	456.81
