Data from Uncirc_1984_H10_HRD10591_00089.txt Node
Date: Wed Jan 03 12:21:55 EST 2024
User: Yrep
Spectrometer: HR+D1059
Trigger mode: 1
Integration Time (sec): 1.000000E-1
Scans to average: 1
Electric dark correction enabled: true
Nonlinearity correction enabled: false
Boxcar width: 0
XAxis mode: Wavelengths
Number of Pixels in Spectrum: 2048
>>>>>Begin Spectral Data<<<<<
223.165	-19.25
223.4	-19.25
223.635	-19.25
223.869	-19.25
224.104	-19.25
224.338	-14.25
224.573	-13.25
224.808	-2.25
225.042	-3.25
225.277	3.75
225.511	10.75
225.746	-5.25
225.98	4.75
226.215	6.75
226.449	-7.25
226.683	15.75
226.918	23.75
227.152	37.75
227.387	25.75
227.621	41.75
227.856	43.75
228.09	34.75
228.324	52.75
228.559	40.75
228.793	51.75
229.027	60.75
229.262	62.75
229.496	71.75
229.73	85.75
229.964	87.75
230.199	87.75
230.433	85.75
230.667	76.75
230.901	74.75
231.136	74.75
231.37	77.75
231.604	79.75
231.838	88.75
232.072	71.75
232.306	77.75
232.541	72.75
232.775	67.75
233.009	87.75
233.243	83.75
233.477	92.75
233.711	75.75
233.945	68.75
234.179	82.75
234.413	74.75
234.647	88.75
234.881	84.75
235.115	83.75
235.349	67.75
235.583	76.75
235.817	80.75
236.051	79.75
236.285	92.75
236.519	93.75
236.753	88.75
236.987	81.75
237.221	79.75
237.455	76.75
237.689	87.75
237.922	81.75
238.156	79.75
238.39	72.75
238.624	86.75
238.858	93.75
239.091	88.75
239.325	78.75
239.559	84.75
239.793	73.75
240.027	83.75
240.26	81.75
240.494	69.75
240.728	83.75
240.961	81.75
241.195	80.75
241.429	68.75
241.662	88.75
241.896	87.75
242.13	70.75
242.363	79.75
242.597	75.75
242.83	77.75
243.064	70.75
243.298	75.75
243.531	75.75
243.765	87.75
243.998	87.75
244.232	69.75
244.465	71.75
244.699	73.75
244.932	64.75
245.166	89.75
245.399	71.75
245.633	77.75
245.866	76.75
246.099	79.75
246.333	84.75
246.566	70.75
246.8	77.75
247.033	94.75
247.266	84.75
247.5	79.75
247.733	61.75
247.966	91.75
248.2	81.75
248.433	84.75
248.666	75.75
248.899	71.75
249.133	67.75
249.366	84.75
249.599	87.75
249.832	88.75
250.066	71.75
250.299	89.75
250.532	84.75
250.765	67.75
250.998	68.75
251.231	74.75
251.465	83.75
251.698	92.75
251.931	84.75
252.164	70.75
252.397	81.75
252.63	76.75
252.863	68.75
253.096	82.75
253.329	80.75
253.562	72.75
253.795	85.75
254.028	77.75
254.261	74.75
254.494	79.75
254.727	93.75
254.96	98.75
255.193	86.75
255.426	76.75
255.659	81.75
255.892	92.75
256.124	71.75
256.357	79.75
256.59	90.75
256.823	75.75
257.056	55.75
257.289	89.75
257.521	85.75
257.754	83.75
257.987	68.75
258.22	90.75
258.452	92.75
258.685	85.75
258.918	72.75
259.151	73.75
259.383	96.75
259.616	84.75
259.849	85.75
260.081	71.75
260.314	87.75
260.547	78.75
260.779	88.75
261.012	99.75
261.244	90.75
261.477	95.75
261.71	99.75
261.942	99.75
262.175	95.75
262.407	70.75
262.64	79.75
262.872	72.75
263.105	83.75
263.337	80.75
263.57	75.75
263.802	89.75
264.035	89.75
264.267	74.75
264.499	84.75
264.732	86.75
264.964	84.75
265.197	74.75
265.429	72.75
265.661	69.75
265.894	85.75
266.126	74.75
266.358	92.75
266.591	74.75
266.823	97.75
267.055	74.75
267.287	79.75
267.52	74.75
267.752	69.75
267.984	89.75
268.216	76.75
268.448	79.75
268.681	85.75
268.913	88.75
269.145	91.75
269.377	72.75
269.609	85.75
269.841	68.75
270.073	95.75
270.306	77.75
270.538	97.75
270.77	86.75
271.002	84.75
271.234	79.75
271.466	90.75
271.698	77.75
271.93	90.75
272.162	96.75
272.394	97.75
272.626	108.75
272.858	85.75
273.09	70.75
273.322	83.75
273.553	91.75
273.785	76.75
274.017	87.75
274.249	93.75
274.481	92.75
274.713	89.75
274.945	81.75
275.176	84.75
275.408	97.75
275.64	77.75
275.872	71.75
276.104	96.75
276.335	83.75
276.567	93.75
276.799	108.75
277.031	106.75
277.262	88.75
277.494	80.75
277.726	90.75
277.957	100.75
278.189	93.75
278.421	84.75
278.652	90.75
278.884	95.75
279.115	98.75
279.347	90.75
279.579	75.75
279.81	68.75
280.042	87.75
280.273	73.75
280.505	93.75
280.736	86.75
280.968	83.75
281.199	85.75
281.431	85.75
281.662	91.75
281.894	94.75
282.125	92.75
282.356	105.75
282.588	116.75
282.819	106.75
283.051	92.75
283.282	83.75
283.513	91.75
283.745	79.75
283.976	95.75
284.207	88.75
284.439	86.75
284.67	103.75
284.901	91.75
285.132	87.75
285.364	83.75
285.595	82.75
285.826	69.75
286.057	95.75
286.288	79.75
286.52	86.75
286.751	89.75
286.982	83.75
287.213	76.75
287.444	83.75
287.675	93.75
287.906	92.75
288.138	99.75
288.369	99.75
288.6	88.75
288.831	76.75
289.062	99.75
289.293	85.75
289.524	86.75
289.755	90.75
289.986	73.75
290.217	87.75
290.448	97.75
290.679	104.75
290.91	92.75
291.141	90.75
291.371	70.75
291.602	84.75
291.833	84.75
292.064	91.75
292.295	75.75
292.526	100.75
292.757	95.75
292.987	67.75
293.218	84.75
293.449	84.75
293.68	99.75
293.91	78.75
294.141	75.75
294.372	90.75
294.603	93.75
294.833	85.75
295.064	82.75
295.295	90.75
295.525	87.75
295.756	97.75
295.987	100.75
296.217	127.75
296.448	103.75
296.679	102.75
296.909	86.75
297.14	90.75
297.37	89.75
297.601	87.75
297.831	88.75
298.062	87.75
298.292	87.75
298.523	98.75
298.753	86.75
298.984	87.75
299.214	85.75
299.445	93.75
299.675	90.75
299.905	87.75
300.136	85.75
300.366	87.75
300.597	81.75
300.827	77.75
301.057	96.75
301.288	110.75
301.518	97.75
301.748	84.75
301.979	104.75
302.209	93.75
302.439	91.75
302.669	91.75
302.9	82.75
303.13	79.75
303.36	103.75
303.59	97.75
303.82	90.75
304.051	87.75
304.281	98.75
304.511	80.75
304.741	86.75
304.971	91.75
305.201	92.75
305.431	72.75
305.661	98.75
305.891	87.75
306.121	85.75
306.352	82.75
306.582	98.75
306.812	97.75
307.042	95.75
307.272	87.75
307.502	98.75
307.731	86.75
307.961	95.75
308.191	96.75
308.421	91.75
308.651	81.75
308.881	97.75
309.111	88.75
309.341	104.75
309.571	87.75
309.8	97.75
310.03	100.75
310.26	81.75
310.49	100.75
310.72	105.75
310.949	91.75
311.179	108.75
311.409	97.75
311.639	101.75
311.868	118.75
312.098	93.75
312.328	69.75
312.557	93.75
312.787	105.75
313.017	103.75
313.246	88.75
313.476	100.75
313.706	83.75
313.935	91.75
314.165	101.75
314.394	106.75
314.624	91.75
314.853	87.75
315.083	95.75
315.312	81.75
315.542	79.75
315.771	88.75
316.001	80.75
316.23	89.75
316.46	98.75
316.689	87.75
316.919	93.75
317.148	96.75
317.377	101.75
317.607	102.75
317.836	106.75
318.065	96.75
318.295	89.75
318.524	97.75
318.753	83.75
318.983	100.75
319.212	106.75
319.441	100.75
319.67	103.75
319.9	99.75
320.129	86.75
320.358	109.75
320.587	95.75
320.816	101.75
321.046	90.75
321.275	92.75
321.504	99.75
321.733	94.75
321.962	95.75
322.191	97.75
322.42	122.75
322.649	100.75
322.878	113.75
323.108	114.75
323.337	109.75
323.566	135.75
323.795	151.75
324.024	196.75
324.253	359.75
324.482	748.75
324.71	1499.75
324.939	1994.75
325.168	743.75
325.397	232.75
325.626	139.75
325.855	135.75
326.084	123.75
326.313	133.75
326.542	137.75
326.77	203.75
326.999	440.75
327.228	834.75
327.457	1540.75
327.686	1269.75
327.914	349.75
328.143	167.75
328.372	127.75
328.6	116.75
328.829	101.75
329.058	103.75
329.287	126.75
329.515	113.75
329.744	104.75
329.972	98.75
330.201	99.75
330.43	99.75
330.658	121.75
330.887	119.75
331.115	116.75
331.344	97.75
331.572	95.75
331.801	99.75
332.03	122.75
332.258	98.75
332.486	96.75
332.715	107.75
332.943	95.75
333.172	84.75
333.4	102.75
333.629	95.75
333.857	99.75
334.085	112.75
334.314	91.75
334.542	87.75
334.771	110.75
334.999	104.75
335.227	93.75
335.455	96.75
335.684	94.75
335.912	106.75
336.14	84.75
336.369	97.75
336.597	96.75
336.825	95.75
337.053	101.75
337.281	96.75
337.51	95.75
337.738	104.75
337.966	111.75
338.194	101.75
338.422	99.75
338.65	85.75
338.878	96.75
339.106	73.75
339.334	104.75
339.562	90.75
339.79	107.75
340.018	75.75
340.246	96.75
340.474	103.75
340.702	91.75
340.93	72.75
341.158	92.75
341.386	98.75
341.614	90.75
341.842	108.75
342.07	86.75
342.298	91.75
342.526	86.75
342.754	84.75
342.981	81.75
343.209	88.75
343.437	91.75
343.665	77.75
343.893	99.75
344.12	95.75
344.348	103.75
344.576	83.75
344.804	97.75
345.031	88.75
345.259	95.75
345.487	91.75
345.714	93.75
345.942	98.75
346.17	97.75
346.397	87.75
346.625	97.75
346.853	94.75
347.08	94.75
347.308	92.75
347.535	110.75
347.763	99.75
347.99	91.75
348.218	97.75
348.445	111.75
348.673	86.75
348.9	94.75
349.128	79.75
349.355	88.75
349.583	105.75
349.81	96.75
350.037	97.75
350.265	100.75
350.492	107.75
350.72	89.75
350.947	119.75
351.174	117.75
351.402	108.75
351.629	109.75
351.856	96.75
352.083	97.75
352.311	101.75
352.538	99.75
352.765	101.75
352.992	105.75
353.22	113.75
353.447	100.75
353.674	98.75
353.901	87.75
354.128	83.75
354.355	101.75
354.583	84.75
354.81	92.75
355.037	103.75
355.264	112.75
355.491	103.75
355.718	109.75
355.945	91.75
356.172	89.75
356.399	83.75
356.626	95.75
356.853	95.75
357.08	94.75
357.307	79.75
357.534	86.75
357.761	104.75
357.988	96.75
358.215	102.75
358.441	85.75
358.668	91.75
358.895	90.75
359.122	80.75
359.349	88.75
359.576	89.75
359.802	91.75
360.029	101.75
360.256	97.75
360.483	89.75
360.709	87.75
360.936	89.75
361.163	101.75
361.39	88.75
361.616	85.75
361.843	96.75
362.07	97.75
362.296	93.75
362.523	95.75
362.749	92.75
362.976	103.75
363.203	81.75
363.429	86.75
363.656	80.75
363.882	100.75
364.109	95.75
364.335	88.75
364.562	94.75
364.788	91.75
365.015	84.75
365.241	98.75
365.468	95.75
365.694	101.75
365.92	102.75
366.147	80.75
366.373	93.75
366.599	79.75
366.826	98.75
367.052	86.75
367.278	82.75
367.505	69.75
367.731	104.75
367.957	93.75
368.184	89.75
368.41	88.75
368.636	113.75
368.862	104.75
369.089	118.75
369.315	88.75
369.541	99.75
369.767	88.75
369.993	96.75
370.219	91.75
370.445	95.75
370.672	97.75
370.898	86.75
371.124	92.75
371.35	69.75
371.576	85.75
371.802	91.75
372.028	101.75
372.254	92.75
372.48	90.75
372.706	97.75
372.932	81.75
373.158	95.75
373.384	100.75
373.61	100.75
373.835	83.75
374.061	79.75
374.287	88.75
374.513	107.75
374.739	99.75
374.965	79.75
375.191	97.75
375.416	89.75
375.642	83.75
375.868	90.75
376.094	95.75
376.319	80.75
376.545	83.75
376.771	93.75
376.997	92.75
377.222	86.75
377.448	103.75
377.674	99.75
377.899	90.75
378.125	88.75
378.35	101.75
378.576	101.75
378.802	92.75
379.027	96.75
379.253	89.75
379.478	89.75
379.704	77.75
379.929	77.75
380.155	99.75
380.38	100.75
380.606	95.75
380.831	87.75
381.057	100.75
381.282	98.75
381.507	92.75
381.733	92.75
381.958	102.75
382.184	90.75
382.409	96.75
382.634	89.75
382.86	96.75
383.085	106.75
383.31	98.75
383.535	99.75
383.761	103.75
383.986	101.75
384.211	101.75
384.436	96.75
384.662	99.75
384.887	100.75
385.112	95.75
385.337	104.75
385.562	91.75
385.787	108.75
386.013	115.75
386.238	107.75
386.463	111.75
386.688	96.75
386.913	96.75
387.138	115.75
387.363	108.75
387.588	106.75
387.813	93.75
388.038	98.75
388.263	108.75
388.488	105.75
388.713	95.75
388.938	91.75
389.163	109.75
389.387	92.75
389.612	92.75
389.837	99.75
390.062	103.75
390.287	93.75
390.512	97.75
390.736	95.75
390.961	84.75
391.186	96.75
391.411	95.75
391.636	104.75
391.86	100.75
392.085	89.75
392.31	94.75
392.534	89.75
392.759	87.75
392.984	72.75
393.208	77.75
393.433	80.75
393.658	97.75
393.882	88.75
394.107	91.75
394.331	92.75
394.556	86.75
394.78	76.75
395.005	83.75
395.229	93.75
395.454	87.75
395.678	91.75
395.903	92.75
396.127	87.75
396.352	83.75
396.576	76.75
396.801	85.75
397.025	81.75
397.249	94.75
397.474	77.75
397.698	89.75
397.922	88.75
398.147	85.75
398.371	89.75
398.595	92.75
398.82	76.75
399.044	91.75
399.268	90.75
399.492	88.75
399.717	91.75
399.941	107.75
400.165	98.75
400.389	83.75
400.613	81.75
400.837	83.75
401.062	84.75
401.286	99.75
401.51	90.75
401.734	88.75
401.958	111.75
402.182	118.75
402.406	145.75
402.63	117.75
402.854	101.75
403.078	87.75
403.302	100.75
403.526	99.75
403.75	95.75
403.974	95.75
404.198	104.75
404.422	55.75
404.645	91.75
404.869	78.75
405.093	96.75
405.317	108.75
405.541	96.75
405.765	95.75
405.988	114.75
406.212	156.75
406.436	217.75
406.66	125.75
406.883	88.75
407.107	86.75
407.331	79.75
407.555	108.75
407.778	87.75
408.002	98.75
408.226	87.75
408.449	98.75
408.673	106.75
408.896	92.75
409.12	101.75
409.344	90.75
409.567	99.75
409.791	90.75
410.014	88.75
410.238	105.75
410.461	92.75
410.685	101.75
410.908	94.75
411.132	113.75
411.355	82.75
411.578	87.75
411.802	85.75
412.025	92.75
412.249	88.75
412.472	98.75
412.695	95.75
412.919	96.75
413.142	88.75
413.365	104.75
413.589	102.75
413.812	104.75
414.035	83.75
414.258	91.75
414.482	91.75
414.705	90.75
414.928	92.75
415.151	94.75
415.374	85.75
415.597	91.75
415.821	88.75
416.044	92.75
416.267	92.75
416.49	93.75
416.713	92.75
416.936	101.75
417.159	97.75
417.382	87.75
417.605	99.75
417.828	80.75
418.051	89.75
418.274	83.75
418.497	92.75
418.72	91.75
418.943	99.75
419.166	84.75
419.389	100.75
419.611	93.75
419.834	83.75
420.057	100.75
420.28	81.75
420.503	100.75
420.726	87.75
420.948	99.75
421.171	100.75
421.394	101.75
421.617	85.75
421.839	95.75
422.062	78.75
422.285	93.75
422.507	95.75
422.73	100.75
422.953	91.75
423.175	92.75
423.398	97.75
423.621	92.75
423.843	83.75
424.066	93.75
424.288	99.75
424.511	98.75
424.733	93.75
424.956	117.75
425.178	99.75
425.401	98.75
425.623	85.75
425.846	89.75
426.068	94.75
426.291	79.75
426.513	97.75
426.735	93.75
426.958	100.75
427.18	111.75
427.402	127.75
427.625	143.75
427.847	113.75
428.069	103.75
428.292	87.75
428.514	81.75
428.736	95.75
428.958	85.75
429.181	83.75
429.403	92.75
429.625	87.75
429.847	95.75
430.069	99.75
430.292	89.75
430.514	85.75
430.736	104.75
430.958	88.75
431.18	88.75
431.402	98.75
431.624	86.75
431.846	92.75
432.068	73.75
432.29	99.75
432.512	90.75
432.734	78.75
432.956	85.75
433.178	91.75
433.4	97.75
433.622	94.75
433.844	94.75
434.066	82.75
434.287	102.75
434.509	92.75
434.731	95.75
434.953	96.75
435.175	87.75
435.397	90.75
435.618	87.75
435.84	96.75
436.062	120.75
436.284	97.75
436.505	104.75
436.727	89.75
436.949	89.75
437.17	99.75
437.392	96.75
437.614	100.75
437.835	91.75
438.057	127.75
438.278	101.75
438.5	95.75
438.721	136.75
438.943	108.75
439.165	85.75
439.386	88.75
439.608	86.75
439.829	79.75
440.05	120.75
440.272	117.75
440.493	90.75
440.715	85.75
440.936	96.75
441.158	102.75
441.379	98.75
441.6	95.75
441.822	101.75
442.043	89.75
442.264	85.75
442.486	90.75
442.707	89.75
442.928	89.75
443.149	128.75
443.371	121.75
443.592	120.75
443.813	107.75
444.034	100.75
444.255	97.75
444.476	93.75
444.698	94.75
444.919	93.75
445.14	157.75
445.361	119.75
445.582	122.75
445.803	136.75
446.024	143.75
446.245	155.75
446.466	102.75
446.687	90.75
446.908	105.75
447.129	97.75
447.35	98.75
447.571	77.75
447.792	102.75
448.013	93.75
448.234	93.75
448.455	100.75
448.675	111.75
448.896	109.75
449.117	100.75
449.338	115.75
449.559	133.75
449.779	139.75
450	91.75
450.221	90.75
450.442	87.75
450.662	96.75
450.883	99.75
451.104	105.75
451.324	93.75
451.545	79.75
451.766	91.75
451.986	81.75
452.207	105.75
452.428	91.75
452.648	99.75
452.869	86.75
453.089	113.75
453.31	113.75
453.53	113.75
453.751	96.75
453.971	93.75
454.192	97.75
454.412	89.75
454.633	97.75
454.853	96.75
455.073	94.75
455.294	94.75
455.514	81.75
455.734	98.75
455.955	95.75
456.175	95.75
456.395	89.75
456.616	91.75
456.836	80.75
457.056	72.75
457.276	85.75
457.497	90.75
457.717	85.75
457.937	80.75
458.157	84.75
458.377	94.75
458.598	109.75
458.818	143.75
459.038	143.75
459.258	101.75
459.478	105.75
459.698	89.75
459.918	101.75
460.138	101.75
460.358	88.75
460.578	94.75
460.798	92.75
461.018	103.75
461.238	79.75
461.458	87.75
461.678	88.75
461.898	88.75
462.118	98.75
462.338	88.75
462.558	97.75
462.777	96.75
462.997	96.75
463.217	92.75
463.437	73.75
463.657	90.75
463.876	92.75
464.096	96.75
464.316	96.75
464.536	96.75
464.755	88.75
464.975	106.75
465.195	146.75
465.414	153.75
465.634	99.75
465.854	94.75
466.073	99.75
466.293	91.75
466.512	83.75
466.732	87.75
466.951	97.75
467.171	93.75
467.391	89.75
467.61	97.75
467.829	105.75
468.049	94.75
468.268	91.75
468.488	94.75
468.707	101.75
468.927	72.75
469.146	83.75
469.365	77.75
469.585	85.75
469.804	96.75
470.023	92.75
470.243	100.75
470.462	100.75
470.681	107.75
470.901	95.75
471.12	91.75
471.339	88.75
471.558	86.75
471.777	96.75
471.997	100.75
472.216	98.75
472.435	92.75
472.654	83.75
472.873	90.75
473.092	86.75
473.311	83.75
473.53	99.75
473.749	94.75
473.968	92.75
474.187	93.75
474.406	79.75
474.625	94.75
474.844	81.75
475.063	86.75
475.282	93.75
475.501	88.75
475.72	95.75
475.939	87.75
476.158	90.75
476.377	80.75
476.596	90.75
476.814	96.75
477.033	96.75
477.252	101.75
477.471	85.75
477.69	96.75
477.908	104.75
478.127	91.75
478.346	89.75
478.564	91.75
478.783	84.75
479.002	89.75
479.22	96.75
479.439	88.75
479.658	89.75
479.876	96.75
480.095	107.75
480.313	103.75
480.532	97.75
480.751	105.75
480.969	109.75
481.188	111.75
481.406	97.75
481.624	92.75
481.843	85.75
482.061	93.75
482.28	87.75
482.498	97.75
482.717	85.75
482.935	88.75
483.153	86.75
483.372	89.75
483.59	96.75
483.808	87.75
484.027	90.75
484.245	94.75
484.463	87.75
484.681	89.75
484.9	90.75
485.118	98.75
485.336	108.75
485.554	101.75
485.772	96.75
485.99	103.75
486.209	92.75
486.427	98.75
486.645	115.75
486.863	102.75
487.081	79.75
487.299	108.75
487.517	89.75
487.735	93.75
487.953	93.75
488.171	101.75
488.389	92.75
488.607	89.75
488.825	87.75
489.043	82.75
489.261	95.75
489.479	87.75
489.696	98.75
489.914	86.75
490.132	74.75
490.35	92.75
490.568	84.75
490.786	96.75
491.003	89.75
491.221	83.75
491.439	89.75
491.657	90.75
491.874	91.75
492.092	93.75
492.31	97.75
492.527	98.75
492.745	95.75
492.963	89.75
493.18	101.75
493.398	87.75
493.615	93.75
493.833	101.75
494.05	77.75
494.268	91.75
494.485	97.75
494.703	105.75
494.92	79.75
495.138	108.75
495.355	87.75
495.573	87.75
495.79	96.75
496.008	83.75
496.225	104.75
496.442	86.75
496.66	92.75
496.877	108.75
497.094	95.75
497.312	97.75
497.529	97.75
497.746	91.75
497.963	105.75
498.181	97.75
498.398	101.75
498.615	108.75
498.832	102.75
499.049	111.75
499.267	105.75
499.484	91.75
499.701	88.75
499.918	77.75
500.135	80.75
500.352	94.75
500.569	97.75
500.786	98.75
501.003	84.75
501.22	87.75
501.437	88.75
501.654	82.75
501.871	108.75
502.088	88.75
502.305	90.75
502.522	87.75
502.739	93.75
502.956	88.75
503.172	104.75
503.389	91.75
503.606	99.75
503.823	88.75
504.04	93.75
504.256	82.75
504.473	82.75
504.69	96.75
504.907	99.75
505.123	93.75
505.34	75.75
505.557	90.75
505.773	98.75
505.99	77.75
506.207	95.75
506.423	85.75
506.64	96.75
506.856	99.75
507.073	91.75
507.289	85.75
507.506	96.75
507.722	101.75
507.939	105.75
508.155	94.75
508.372	88.75
508.588	80.75
508.805	109.75
509.021	90.75
509.238	97.75
509.454	111.75
509.67	98.75
509.887	111.75
510.103	118.75
510.319	200.75
510.536	687.75
510.752	2133.75
510.968	603.75
511.184	152.75
511.401	111.75
511.617	103.75
511.833	107.75
512.049	99.75
512.265	101.75
512.481	108.75
512.698	92.75
512.914	100.75
513.13	92.75
513.346	91.75
513.562	89.75
513.778	104.75
513.994	99.75
514.21	100.75
514.426	115.75
514.642	124.75
514.858	119.75
515.074	152.75
515.29	385.75
515.506	1284.75
515.721	487.75
515.937	144.75
