Data from Uncirc_1984_H10_HRD10591_00086.txt Node
Date: Wed Jan 03 12:21:54 EST 2024
User: Yrep
Spectrometer: HR+D1059
Trigger mode: 1
Integration Time (sec): 1.000000E-1
Scans to average: 1
Electric dark correction enabled: true
Nonlinearity correction enabled: false
Boxcar width: 0
XAxis mode: Wavelengths
Number of Pixels in Spectrum: 2048
>>>>>Begin Spectral Data<<<<<
223.165	-20.5
223.4	-20.5
223.635	-20.5
223.869	-22.5
224.104	-15.5
224.338	-29.5
224.573	-15.5
224.808	-19.5
225.042	-3.5
225.277	-2.5
225.511	-12.5
225.746	20.5
225.98	6.5
226.215	14.5
226.449	15.5
226.683	38.5
226.918	22.5
227.152	23.5
227.387	32.5
227.621	54.5
227.856	51.5
228.09	56.5
228.324	54.5
228.559	61.5
228.793	55.5
229.027	71.5
229.262	65.5
229.496	78.5
229.73	89.5
229.964	79.5
230.199	84.5
230.433	66.5
230.667	79.5
230.901	86.5
231.136	87.5
231.37	75.5
231.604	69.5
231.838	80.5
232.072	92.5
232.306	108.5
232.541	81.5
232.775	79.5
233.009	78.5
233.243	75.5
233.477	78.5
233.711	79.5
233.945	73.5
234.179	96.5
234.413	100.5
234.647	77.5
234.881	78.5
235.115	88.5
235.349	79.5
235.583	81.5
235.817	71.5
236.051	84.5
236.285	71.5
236.519	70.5
236.753	82.5
236.987	90.5
237.221	76.5
237.455	90.5
237.689	76.5
237.922	88.5
238.156	79.5
238.39	91.5
238.624	80.5
238.858	54.5
239.091	83.5
239.325	80.5
239.559	98.5
239.793	67.5
240.027	89.5
240.26	84.5
240.494	90.5
240.728	92.5
240.961	71.5
241.195	79.5
241.429	75.5
241.662	87.5
241.896	84.5
242.13	88.5
242.363	78.5
242.597	70.5
242.83	90.5
243.064	82.5
243.298	74.5
243.531	80.5
243.765	82.5
243.998	77.5
244.232	88.5
244.465	73.5
244.699	84.5
244.932	94.5
245.166	68.5
245.399	84.5
245.633	80.5
245.866	86.5
246.099	70.5
246.333	61.5
246.566	81.5
246.8	66.5
247.033	89.5
247.266	74.5
247.5	86.5
247.733	92.5
247.966	89.5
248.2	94.5
248.433	88.5
248.666	87.5
248.899	100.5
249.133	92.5
249.366	101.5
249.599	99.5
249.832	82.5
250.066	71.5
250.299	102.5
250.532	92.5
250.765	95.5
250.998	89.5
251.231	76.5
251.465	65.5
251.698	87.5
251.931	86.5
252.164	75.5
252.397	77.5
252.63	88.5
252.863	84.5
253.096	78.5
253.329	72.5
253.562	92.5
253.795	88.5
254.028	80.5
254.261	100.5
254.494	94.5
254.727	87.5
254.96	76.5
255.193	90.5
255.426	84.5
255.659	79.5
255.892	74.5
256.124	86.5
256.357	95.5
256.59	79.5
256.823	90.5
257.056	82.5
257.289	86.5
257.521	90.5
257.754	78.5
257.987	72.5
258.22	92.5
258.452	86.5
258.685	99.5
258.918	76.5
259.151	92.5
259.383	84.5
259.616	89.5
259.849	95.5
260.081	92.5
260.314	82.5
260.547	76.5
260.779	76.5
261.012	87.5
261.244	82.5
261.477	75.5
261.71	87.5
261.942	114.5
262.175	112.5
262.407	94.5
262.64	103.5
262.872	100.5
263.105	92.5
263.337	89.5
263.57	88.5
263.802	84.5
264.035	87.5
264.267	79.5
264.499	89.5
264.732	90.5
264.964	76.5
265.197	79.5
265.429	92.5
265.661	96.5
265.894	94.5
266.126	110.5
266.358	103.5
266.591	74.5
266.823	76.5
267.055	84.5
267.287	90.5
267.52	95.5
267.752	83.5
267.984	84.5
268.216	96.5
268.448	83.5
268.681	106.5
268.913	86.5
269.145	92.5
269.377	74.5
269.609	92.5
269.841	76.5
270.073	83.5
270.306	79.5
270.538	95.5
270.77	79.5
271.002	83.5
271.234	89.5
271.466	88.5
271.698	84.5
271.93	90.5
272.162	82.5
272.394	101.5
272.626	86.5
272.858	89.5
273.09	108.5
273.322	91.5
273.553	82.5
273.785	92.5
274.017	80.5
274.249	79.5
274.481	88.5
274.713	96.5
274.945	91.5
275.176	93.5
275.408	112.5
275.64	78.5
275.872	79.5
276.104	93.5
276.335	93.5
276.567	102.5
276.799	108.5
277.031	101.5
277.262	91.5
277.494	90.5
277.726	74.5
277.957	82.5
278.189	84.5
278.421	73.5
278.652	82.5
278.884	97.5
279.115	92.5
279.347	76.5
279.579	87.5
279.81	87.5
280.042	94.5
280.273	84.5
280.505	71.5
280.736	84.5
280.968	86.5
281.199	97.5
281.431	93.5
281.662	93.5
281.894	97.5
282.125	112.5
282.356	111.5
282.588	129.5
282.819	100.5
283.051	98.5
283.282	94.5
283.513	83.5
283.745	90.5
283.976	106.5
284.207	87.5
284.439	105.5
284.67	87.5
284.901	96.5
285.132	93.5
285.364	103.5
285.595	90.5
285.826	88.5
286.057	88.5
286.288	83.5
286.52	91.5
286.751	87.5
286.982	84.5
287.213	99.5
287.444	95.5
287.675	88.5
287.906	99.5
288.138	99.5
288.369	98.5
288.6	83.5
288.831	101.5
289.062	79.5
289.293	89.5
289.524	90.5
289.755	102.5
289.986	85.5
290.217	86.5
290.448	76.5
290.679	85.5
290.91	86.5
291.141	100.5
291.371	83.5
291.602	94.5
291.833	78.5
292.064	99.5
292.295	94.5
292.526	84.5
292.757	79.5
292.987	95.5
293.218	86.5
293.449	94.5
293.68	97.5
293.91	75.5
294.141	86.5
294.372	90.5
294.603	94.5
294.833	91.5
295.064	96.5
295.295	98.5
295.525	98.5
295.756	98.5
295.987	115.5
296.217	118.5
296.448	131.5
296.679	99.5
296.909	97.5
297.14	88.5
297.37	91.5
297.601	82.5
297.831	83.5
298.062	96.5
298.292	89.5
298.523	102.5
298.753	99.5
298.984	86.5
299.214	100.5
299.445	86.5
299.675	83.5
299.905	95.5
300.136	86.5
300.366	91.5
300.597	97.5
300.827	95.5
301.057	99.5
301.288	110.5
301.518	95.5
301.748	91.5
301.979	110.5
302.209	85.5
302.439	93.5
302.669	87.5
302.9	91.5
303.13	91.5
303.36	82.5
303.59	92.5
303.82	117.5
304.051	95.5
304.281	78.5
304.511	77.5
304.741	105.5
304.971	94.5
305.201	89.5
305.431	94.5
305.661	84.5
305.891	95.5
306.121	84.5
306.352	95.5
306.582	116.5
306.812	117.5
307.042	96.5
307.272	87.5
307.502	111.5
307.731	98.5
307.961	90.5
308.191	99.5
308.421	95.5
308.651	91.5
308.881	87.5
309.111	88.5
309.341	103.5
309.571	97.5
309.8	95.5
310.03	100.5
310.26	98.5
310.49	113.5
310.72	110.5
310.949	97.5
311.179	109.5
311.409	87.5
311.639	100.5
311.868	102.5
312.098	107.5
312.328	92.5
312.557	97.5
312.787	112.5
313.017	99.5
313.246	94.5
313.476	97.5
313.706	115.5
313.935	92.5
314.165	85.5
314.394	92.5
314.624	101.5
314.853	109.5
315.083	95.5
315.312	94.5
315.542	106.5
315.771	94.5
316.001	89.5
316.23	87.5
316.46	95.5
316.689	86.5
316.919	82.5
317.148	100.5
317.377	92.5
317.607	95.5
317.836	84.5
318.065	84.5
318.295	94.5
318.524	94.5
318.753	96.5
318.983	94.5
319.212	95.5
319.441	113.5
319.67	107.5
319.9	95.5
320.129	91.5
320.358	102.5
320.587	93.5
320.816	101.5
321.046	90.5
321.275	102.5
321.504	91.5
321.733	92.5
321.962	101.5
322.191	100.5
322.42	98.5
322.649	102.5
322.878	117.5
323.108	96.5
323.337	109.5
323.566	127.5
323.795	124.5
324.024	187.5
324.253	359.5
324.482	774.5
324.71	1544.5
324.939	2047.5
325.168	769.5
325.397	238.5
325.626	143.5
325.855	134.5
326.084	112.5
326.313	138.5
326.542	150.5
326.77	213.5
326.999	423.5
327.228	867.5
327.457	1548.5
327.686	1255.5
327.914	340.5
328.143	174.5
328.372	148.5
328.6	127.5
328.829	116.5
329.058	117.5
329.287	133.5
329.515	101.5
329.744	98.5
329.972	96.5
330.201	111.5
330.43	113.5
330.658	124.5
330.887	131.5
331.115	118.5
331.344	111.5
331.572	111.5
331.801	120.5
332.03	108.5
332.258	103.5
332.486	88.5
332.715	100.5
332.943	104.5
333.172	99.5
333.4	101.5
333.629	119.5
333.857	105.5
334.085	108.5
334.314	98.5
334.542	101.5
334.771	101.5
334.999	100.5
335.227	94.5
335.455	99.5
335.684	107.5
335.912	103.5
336.14	111.5
336.369	90.5
336.597	90.5
336.825	103.5
337.053	104.5
337.281	92.5
337.51	90.5
337.738	89.5
337.966	85.5
338.194	91.5
338.422	94.5
338.65	75.5
338.878	79.5
339.106	82.5
339.334	90.5
339.562	95.5
339.79	92.5
340.018	113.5
340.246	99.5
340.474	96.5
340.702	80.5
340.93	80.5
341.158	94.5
341.386	92.5
341.614	95.5
341.842	112.5
342.07	90.5
342.298	82.5
342.526	103.5
342.754	86.5
342.981	82.5
343.209	91.5
343.437	111.5
343.665	99.5
343.893	91.5
344.12	103.5
344.348	90.5
344.576	94.5
344.804	90.5
345.031	89.5
345.259	102.5
345.487	97.5
345.714	102.5
345.942	94.5
346.17	93.5
346.397	96.5
346.625	90.5
346.853	92.5
347.08	96.5
347.308	108.5
347.535	91.5
347.763	107.5
347.99	96.5
348.218	112.5
348.445	107.5
348.673	109.5
348.9	99.5
349.128	102.5
349.355	96.5
349.583	94.5
349.81	104.5
350.037	104.5
350.265	86.5
350.492	93.5
350.72	90.5
350.947	101.5
351.174	111.5
351.402	112.5
351.629	86.5
351.856	109.5
352.083	118.5
352.311	111.5
352.538	96.5
352.765	112.5
352.992	111.5
353.22	123.5
353.447	103.5
353.674	109.5
353.901	101.5
354.128	96.5
354.355	78.5
354.583	103.5
354.81	96.5
355.037	90.5
355.264	102.5
355.491	104.5
355.718	92.5
355.945	103.5
356.172	104.5
356.399	98.5
356.626	88.5
356.853	97.5
357.08	95.5
357.307	99.5
357.534	99.5
357.761	91.5
357.988	101.5
358.215	89.5
358.441	99.5
358.668	102.5
358.895	90.5
359.122	90.5
359.349	98.5
359.576	101.5
359.802	95.5
360.029	120.5
360.256	122.5
360.483	88.5
360.709	96.5
360.936	104.5
361.163	98.5
361.39	98.5
361.616	102.5
361.843	82.5
362.07	92.5
362.296	98.5
362.523	86.5
362.749	101.5
362.976	105.5
363.203	92.5
363.429	98.5
363.656	87.5
363.882	82.5
364.109	98.5
364.335	90.5
364.562	107.5
364.788	94.5
365.015	94.5
365.241	114.5
365.468	111.5
365.694	103.5
365.92	102.5
366.147	106.5
366.373	101.5
366.599	102.5
366.826	94.5
367.052	93.5
367.278	101.5
367.505	99.5
367.731	91.5
367.957	99.5
368.184	108.5
368.41	107.5
368.636	117.5
368.862	126.5
369.089	111.5
369.315	103.5
369.541	95.5
369.767	109.5
369.993	106.5
370.219	89.5
370.445	104.5
370.672	107.5
370.898	82.5
371.124	99.5
371.35	82.5
371.576	92.5
371.802	87.5
372.028	88.5
372.254	76.5
372.48	76.5
372.706	83.5
372.932	96.5
373.158	91.5
373.384	87.5
373.61	87.5
373.835	97.5
374.061	95.5
374.287	84.5
374.513	92.5
374.739	95.5
374.965	79.5
375.191	101.5
375.416	98.5
375.642	84.5
375.868	98.5
376.094	95.5
376.319	92.5
376.545	86.5
376.771	85.5
376.997	93.5
377.222	94.5
377.448	103.5
377.674	92.5
377.899	90.5
378.125	92.5
378.35	90.5
378.576	91.5
378.802	100.5
379.027	101.5
379.253	92.5
379.478	87.5
379.704	97.5
379.929	95.5
380.155	88.5
380.38	98.5
380.606	97.5
380.831	100.5
381.057	103.5
381.282	84.5
381.507	104.5
381.733	104.5
381.958	107.5
382.184	102.5
382.409	103.5
382.634	114.5
382.86	107.5
383.085	79.5
383.31	87.5
383.535	104.5
383.761	109.5
383.986	83.5
384.211	96.5
384.436	92.5
384.662	90.5
384.887	108.5
385.112	111.5
385.337	93.5
385.562	96.5
385.787	96.5
386.013	131.5
386.238	128.5
386.463	106.5
386.688	100.5
386.913	100.5
387.138	97.5
387.363	99.5
387.588	115.5
387.813	93.5
388.038	98.5
388.263	102.5
388.488	103.5
388.713	104.5
388.938	92.5
389.163	98.5
389.387	90.5
389.612	79.5
389.837	93.5
390.062	70.5
390.287	86.5
390.512	100.5
390.736	101.5
390.961	112.5
391.186	107.5
391.411	90.5
391.636	101.5
391.86	98.5
392.085	107.5
392.31	93.5
392.534	92.5
392.759	94.5
392.984	98.5
393.208	93.5
393.433	84.5
393.658	104.5
393.882	75.5
394.107	95.5
394.331	86.5
394.556	96.5
394.78	91.5
395.005	91.5
395.229	98.5
395.454	86.5
395.678	82.5
395.903	85.5
396.127	83.5
396.352	89.5
396.576	92.5
396.801	87.5
397.025	87.5
397.249	95.5
397.474	90.5
397.698	91.5
397.922	90.5
398.147	87.5
398.371	87.5
398.595	74.5
398.82	92.5
399.044	108.5
399.268	90.5
399.492	84.5
399.717	99.5
399.941	102.5
400.165	77.5
400.389	89.5
400.613	98.5
400.837	90.5
401.062	82.5
401.286	95.5
401.51	106.5
401.734	100.5
401.958	97.5
402.182	123.5
402.406	141.5
402.63	113.5
402.854	88.5
403.078	90.5
403.302	90.5
403.526	91.5
403.75	93.5
403.974	82.5
404.198	83.5
404.422	85.5
404.645	94.5
404.869	101.5
405.093	101.5
405.317	107.5
405.541	104.5
405.765	92.5
405.988	110.5
406.212	165.5
406.436	208.5
406.66	136.5
406.883	98.5
407.107	98.5
407.331	97.5
407.555	91.5
407.778	104.5
408.002	95.5
408.226	96.5
408.449	90.5
408.673	95.5
408.896	104.5
409.12	102.5
409.344	93.5
409.567	88.5
409.791	85.5
410.014	99.5
410.238	93.5
410.461	100.5
410.685	89.5
410.908	100.5
411.132	95.5
411.355	92.5
411.578	93.5
411.802	86.5
412.025	90.5
412.249	75.5
412.472	77.5
412.695	86.5
412.919	95.5
413.142	95.5
413.365	92.5
413.589	75.5
413.812	89.5
414.035	76.5
414.258	86.5
414.482	79.5
414.705	90.5
414.928	79.5
415.151	87.5
415.374	91.5
415.597	84.5
415.821	82.5
416.044	88.5
416.267	92.5
416.49	80.5
416.713	99.5
416.936	87.5
417.159	93.5
417.382	79.5
417.605	88.5
417.828	88.5
418.051	101.5
418.274	88.5
418.497	79.5
418.72	95.5
418.943	88.5
419.166	74.5
419.389	95.5
419.611	84.5
419.834	71.5
420.057	86.5
420.28	98.5
420.503	99.5
420.726	99.5
420.948	84.5
421.171	95.5
421.394	105.5
421.617	85.5
421.839	94.5
422.062	105.5
422.285	92.5
422.507	99.5
422.73	95.5
422.953	92.5
423.175	87.5
423.398	95.5
423.621	100.5
423.843	85.5
424.066	92.5
424.288	86.5
424.511	90.5
424.733	107.5
424.956	102.5
425.178	83.5
425.401	84.5
425.623	94.5
425.846	98.5
426.068	96.5
426.291	90.5
426.513	90.5
426.735	90.5
426.958	98.5
427.18	91.5
427.402	128.5
427.625	155.5
427.847	122.5
428.069	111.5
428.292	89.5
428.514	97.5
428.736	89.5
428.958	90.5
429.181	71.5
429.403	102.5
429.625	85.5
429.847	82.5
430.069	106.5
430.292	103.5
430.514	86.5
430.736	98.5
430.958	100.5
431.18	91.5
431.402	92.5
431.624	80.5
431.846	92.5
432.068	92.5
432.29	90.5
432.512	94.5
432.734	92.5
432.956	109.5
433.178	107.5
433.4	99.5
433.622	103.5
433.844	99.5
434.066	94.5
434.287	94.5
434.509	86.5
434.731	74.5
434.953	100.5
435.175	99.5
435.397	92.5
435.618	107.5
435.84	106.5
436.062	122.5
436.284	118.5
436.505	96.5
436.727	111.5
436.949	96.5
437.17	89.5
437.392	97.5
437.614	82.5
437.835	108.5
438.057	117.5
438.278	112.5
438.5	110.5
438.721	112.5
438.943	102.5
439.165	92.5
439.386	78.5
439.608	91.5
439.829	94.5
440.05	119.5
440.272	139.5
440.493	103.5
440.715	92.5
440.936	99.5
441.158	88.5
441.379	83.5
441.6	105.5
441.822	104.5
442.043	102.5
442.264	86.5
442.486	98.5
442.707	83.5
442.928	103.5
443.149	130.5
443.371	117.5
443.592	103.5
443.813	115.5
444.034	107.5
444.255	83.5
444.476	90.5
444.698	105.5
444.919	97.5
445.14	136.5
445.361	115.5
445.582	133.5
445.803	127.5
446.024	133.5
446.245	156.5
446.466	88.5
446.687	96.5
446.908	88.5
447.129	94.5
447.35	85.5
447.571	88.5
447.792	103.5
448.013	96.5
448.234	89.5
448.455	84.5
448.675	86.5
448.896	114.5
449.117	96.5
449.338	121.5
449.559	115.5
449.779	126.5
450	103.5
450.221	95.5
450.442	95.5
450.662	94.5
450.883	103.5
451.104	115.5
451.324	97.5
451.545	96.5
451.766	95.5
451.986	88.5
452.207	94.5
452.428	87.5
452.648	107.5
452.869	90.5
453.089	107.5
453.31	125.5
453.53	102.5
453.751	106.5
453.971	90.5
454.192	112.5
454.412	98.5
454.633	82.5
454.853	88.5
455.073	95.5
455.294	88.5
455.514	104.5
455.734	106.5
455.955	82.5
456.175	96.5
456.395	92.5
456.616	106.5
456.836	89.5
457.056	85.5
457.276	88.5
457.497	83.5
457.717	92.5
457.937	81.5
458.157	100.5
458.377	94.5
458.598	92.5
458.818	129.5
459.038	138.5
459.258	116.5
459.478	98.5
459.698	105.5
459.918	93.5
460.138	85.5
460.358	82.5
460.578	88.5
460.798	78.5
461.018	100.5
461.238	90.5
461.458	79.5
461.678	93.5
461.898	77.5
462.118	98.5
462.338	88.5
462.558	89.5
462.777	84.5
462.997	83.5
463.217	86.5
463.437	102.5
463.657	107.5
463.876	95.5
464.096	96.5
464.316	92.5
464.536	105.5
464.755	93.5
464.975	112.5
465.195	151.5
465.414	142.5
465.634	94.5
465.854	82.5
466.073	93.5
466.293	84.5
466.512	84.5
466.732	83.5
466.951	77.5
467.171	97.5
467.391	95.5
467.61	108.5
467.829	105.5
468.049	90.5
468.268	96.5
468.488	84.5
468.707	90.5
468.927	83.5
469.146	86.5
469.365	90.5
469.585	95.5
469.804	86.5
470.023	98.5
470.243	109.5
470.462	103.5
470.681	101.5
470.901	91.5
471.12	84.5
471.339	88.5
471.558	82.5
471.777	82.5
471.997	101.5
472.216	85.5
472.435	103.5
472.654	86.5
472.873	91.5
473.092	84.5
473.311	83.5
473.53	91.5
473.749	95.5
473.968	92.5
474.187	87.5
474.406	86.5
474.625	79.5
474.844	78.5
475.063	92.5
475.282	113.5
475.501	91.5
475.72	88.5
475.939	74.5
476.158	79.5
476.377	81.5
476.596	76.5
476.814	105.5
477.033	99.5
477.252	102.5
477.471	88.5
477.69	98.5
477.908	90.5
478.127	89.5
478.346	94.5
478.564	85.5
478.783	96.5
479.002	92.5
479.22	86.5
479.439	91.5
479.658	111.5
479.876	91.5
480.095	92.5
480.313	90.5
480.532	87.5
480.751	97.5
480.969	110.5
481.188	115.5
481.406	106.5
481.624	93.5
481.843	86.5
482.061	90.5
482.28	76.5
482.498	83.5
482.717	78.5
482.935	109.5
483.153	84.5
483.372	90.5
483.59	111.5
483.808	103.5
484.027	91.5
484.245	86.5
484.463	103.5
484.681	99.5
484.9	86.5
485.118	111.5
485.336	99.5
485.554	88.5
485.772	105.5
485.99	101.5
486.209	103.5
486.427	106.5
486.645	113.5
486.863	124.5
487.081	115.5
487.299	100.5
487.517	97.5
487.735	99.5
487.953	80.5
488.171	95.5
488.389	92.5
488.607	99.5
488.825	101.5
489.043	96.5
489.261	92.5
489.479	78.5
489.696	89.5
489.914	78.5
490.132	92.5
490.35	88.5
490.568	96.5
490.786	95.5
491.003	112.5
491.221	88.5
491.439	88.5
491.657	93.5
491.874	83.5
492.092	92.5
492.31	97.5
492.527	102.5
492.745	90.5
492.963	100.5
493.18	102.5
493.398	86.5
493.615	106.5
493.833	104.5
494.05	86.5
494.268	94.5
494.485	100.5
494.703	86.5
494.92	87.5
495.138	87.5
495.355	97.5
495.573	97.5
495.79	99.5
496.008	101.5
496.225	96.5
496.442	92.5
496.66	101.5
496.877	100.5
497.094	87.5
497.312	92.5
497.529	86.5
497.746	86.5
497.963	88.5
498.181	84.5
498.398	100.5
498.615	102.5
498.832	104.5
499.049	70.5
499.267	101.5
499.484	99.5
499.701	88.5
499.918	100.5
500.135	98.5
500.352	101.5
500.569	86.5
500.786	101.5
501.003	95.5
501.22	79.5
501.437	106.5
501.654	98.5
501.871	99.5
502.088	92.5
502.305	87.5
502.522	100.5
502.739	87.5
502.956	90.5
503.172	94.5
503.389	90.5
503.606	99.5
503.823	102.5
504.04	100.5
504.256	101.5
504.473	88.5
504.69	89.5
504.907	94.5
505.123	87.5
505.34	106.5
505.557	95.5
505.773	94.5
505.99	103.5
506.207	86.5
506.423	86.5
506.64	78.5
506.856	112.5
507.073	102.5
507.289	90.5
507.506	93.5
507.722	106.5
507.939	98.5
508.155	95.5
508.372	107.5
508.588	93.5
508.805	102.5
509.021	79.5
509.238	90.5
509.454	101.5
509.67	99.5
509.887	106.5
510.103	139.5
510.319	210.5
510.536	724.5
510.752	2265.5
510.968	624.5
511.184	150.5
511.401	123.5
511.617	98.5
511.833	104.5
512.049	100.5
512.265	100.5
512.481	98.5
512.698	90.5
512.914	88.5
513.13	77.5
513.346	98.5
513.562	109.5
513.778	93.5
513.994	92.5
514.21	107.5
514.426	115.5
514.642	121.5
514.858	109.5
515.074	127.5
515.29	404.5
515.506	1303.5
515.721	490.5
515.937	153.5
516.153	112.5
516.369	109.5
516.585	104.5
516.801	87.5
517.016	92.5
517.232	100.5
517.448	94.5
517.664	112.5
517.879	99.5
518.095	95.5
518.311	85.5
518.527	107.5
518.742	82.5
518.958	85.5
519.173	98.5
519.389	106.5
519.605	102.5
519.82	106.5
520.036	111.5
520.251	125.5
520.467	124.5
520.682	109.5
520.898	100.5
521.113	115.5
521.329	134.5
521.544	183.5
521.76	530.5
521.975	2130.5
522.19	1301.5
522.406	286.5
522.621	127.5
522.836	104.5
523.052	110.5
523.267	106.5
523.482	99.5
523.698	102.5
523.913	126.5
524.128	125.5
524.343	106.5
524.559	108.5
524.774	84.5
524.989	100.5
525.204	96.5
525.419	101.5
525.634	93.5
525.849	86.5
526.064	94.5
526.28	94.5
526.495	96.5
526.71	86.5
526.925	98.5
527.14	102.5
527.355	103.5
527.57	92.5
527.785	94.5
527.999	95.5
528.214	83.5
528.429	105.5
528.644	97.5
528.859	104.5
529.074	97.5
529.289	123.5
529.503	164.5
529.718	96.5
529.933	72.5
530.148	81.5
530.363	94.5
530.577	94.5
530.792	115.5
531.007	108.5
531.221	93.5
531.436	92.5
531.651	95.5
531.865	90.5
532.08	92.5
532.295	108.5
532.509	93.5
532.724	84.5
532.938	98.5
533.153	103.5
533.367	109.5
533.582	96.5
533.796	94.5
