Data from Uncirc_1984_H10_HRD10591_00037.txt Node
Date: Wed Jan 03 12:21:44 EST 2024
User: Yrep
Spectrometer: HR+D1059
Trigger mode: 1
Integration Time (sec): 1.000000E-1
Scans to average: 1
Electric dark correction enabled: true
Nonlinearity correction enabled: false
Boxcar width: 0
XAxis mode: Wavelengths
Number of Pixels in Spectrum: 2048
>>>>>Begin Spectral Data<<<<<
223.165	-9.56
223.4	-9.56
223.635	-9.56
223.869	-27.56
224.104	-16.56
224.338	-5.56
224.573	-17.56
224.808	-6.56
225.042	-11.56
225.277	0.44
225.511	-3.56
225.746	12.44
225.98	8.44
226.215	18.44
226.449	11.44
226.683	0.44
226.918	20.44
227.152	26.44
227.387	33.44
227.621	37.44
227.856	35.44
228.09	52.44
228.324	46.44
228.559	63.44
228.793	60.44
229.027	61.44
229.262	73.44
229.496	87.44
229.73	74.44
229.964	71.44
230.199	78.44
230.433	60.44
230.667	78.44
230.901	87.44
231.136	75.44
231.37	80.44
231.604	81.44
231.838	67.44
232.072	81.44
232.306	72.44
232.541	87.44
232.775	89.44
233.009	70.44
233.243	94.44
233.477	98.44
233.711	93.44
233.945	74.44
234.179	78.44
234.413	105.44
234.647	86.44
234.881	91.44
235.115	78.44
235.349	72.44
235.583	94.44
235.817	68.44
236.051	78.44
236.285	85.44
236.519	81.44
236.753	83.44
236.987	84.44
237.221	92.44
237.455	69.44
237.689	83.44
237.922	70.44
238.156	88.44
238.39	84.44
238.624	75.44
238.858	86.44
239.091	85.44
239.325	82.44
239.559	66.44
239.793	72.44
240.027	89.44
240.26	66.44
240.494	65.44
240.728	73.44
240.961	79.44
241.195	83.44
241.429	75.44
241.662	80.44
241.896	75.44
242.13	89.44
242.363	71.44
242.597	70.44
242.83	74.44
243.064	83.44
243.298	73.44
243.531	74.44
243.765	88.44
243.998	85.44
244.232	87.44
244.465	87.44
244.699	72.44
244.932	79.44
245.166	85.44
245.399	88.44
245.633	83.44
245.866	74.44
246.099	95.44
246.333	76.44
246.566	83.44
246.8	92.44
247.033	82.44
247.266	79.44
247.5	81.44
247.733	71.44
247.966	75.44
248.2	82.44
248.433	79.44
248.666	87.44
248.899	77.44
249.133	89.44
249.366	86.44
249.599	89.44
249.832	88.44
250.066	82.44
250.299	88.44
250.532	93.44
250.765	78.44
250.998	91.44
251.231	75.44
251.465	88.44
251.698	92.44
251.931	82.44
252.164	84.44
252.397	84.44
252.63	82.44
252.863	81.44
253.096	84.44
253.329	88.44
253.562	62.44
253.795	90.44
254.028	84.44
254.261	87.44
254.494	86.44
254.727	78.44
254.96	86.44
255.193	84.44
255.426	93.44
255.659	76.44
255.892	83.44
256.124	75.44
256.357	70.44
256.59	81.44
256.823	81.44
257.056	63.44
257.289	87.44
257.521	83.44
257.754	87.44
257.987	78.44
258.22	74.44
258.452	96.44
258.685	95.44
258.918	84.44
259.151	94.44
259.383	71.44
259.616	89.44
259.849	77.44
260.081	81.44
260.314	90.44
260.547	82.44
260.779	82.44
261.012	89.44
261.244	80.44
261.477	103.44
261.71	87.44
261.942	101.44
262.175	87.44
262.407	77.44
262.64	83.44
262.872	91.44
263.105	106.44
263.337	81.44
263.57	89.44
263.802	99.44
264.035	83.44
264.267	92.44
264.499	84.44
264.732	95.44
264.964	84.44
265.197	91.44
265.429	92.44
265.661	85.44
265.894	85.44
266.126	94.44
266.358	93.44
266.591	77.44
266.823	89.44
267.055	84.44
267.287	91.44
267.52	70.44
267.752	82.44
267.984	86.44
268.216	77.44
268.448	78.44
268.681	87.44
268.913	65.44
269.145	81.44
269.377	94.44
269.609	84.44
269.841	98.44
270.073	72.44
270.306	77.44
270.538	82.44
270.77	77.44
271.002	83.44
271.234	87.44
271.466	73.44
271.698	90.44
271.93	83.44
272.162	87.44
272.394	84.44
272.626	83.44
272.858	86.44
273.09	87.44
273.322	90.44
273.553	99.44
273.785	79.44
274.017	83.44
274.249	85.44
274.481	98.44
274.713	97.44
274.945	72.44
275.176	90.44
275.408	93.44
275.64	84.44
275.872	85.44
276.104	72.44
276.335	99.44
276.567	98.44
276.799	105.44
277.031	95.44
277.262	82.44
277.494	93.44
277.726	70.44
277.957	97.44
278.189	94.44
278.421	93.44
278.652	78.44
278.884	97.44
279.115	85.44
279.347	75.44
279.579	73.44
279.81	75.44
280.042	89.44
280.273	73.44
280.505	76.44
280.736	92.44
280.968	78.44
281.199	87.44
281.431	87.44
281.662	98.44
281.894	85.44
282.125	101.44
282.356	115.44
282.588	142.44
282.819	118.44
283.051	92.44
283.282	94.44
283.513	93.44
283.745	83.44
283.976	86.44
284.207	85.44
284.439	93.44
284.67	83.44
284.901	87.44
285.132	88.44
285.364	89.44
285.595	100.44
285.826	92.44
286.057	86.44
286.288	76.44
286.52	90.44
286.751	90.44
286.982	93.44
287.213	88.44
287.444	94.44
287.675	88.44
287.906	95.44
288.138	91.44
288.369	100.44
288.6	107.44
288.831	95.44
289.062	88.44
289.293	83.44
289.524	101.44
289.755	81.44
289.986	77.44
290.217	86.44
290.448	93.44
290.679	93.44
290.91	83.44
291.141	79.44
291.371	97.44
291.602	91.44
291.833	92.44
292.064	92.44
292.295	91.44
292.526	90.44
292.757	87.44
292.987	87.44
293.218	74.44
293.449	81.44
293.68	91.44
293.91	73.44
294.141	89.44
294.372	71.44
294.603	85.44
294.833	83.44
295.064	95.44
295.295	93.44
295.525	105.44
295.756	87.44
295.987	122.44
296.217	123.44
296.448	111.44
296.679	105.44
296.909	82.44
297.14	108.44
297.37	96.44
297.601	90.44
297.831	89.44
298.062	91.44
298.292	94.44
298.523	88.44
298.753	74.44
298.984	89.44
299.214	82.44
299.445	89.44
299.675	93.44
299.905	88.44
300.136	82.44
300.366	83.44
300.597	87.44
300.827	101.44
301.057	72.44
301.288	103.44
301.518	97.44
301.748	79.44
301.979	103.44
302.209	84.44
302.439	85.44
302.669	84.44
302.9	67.44
303.13	88.44
303.36	83.44
303.59	95.44
303.82	99.44
304.051	94.44
304.281	93.44
304.511	99.44
304.741	91.44
304.971	93.44
305.201	99.44
305.431	81.44
305.661	86.44
305.891	88.44
306.121	93.44
306.352	91.44
306.582	111.44
306.812	87.44
307.042	100.44
307.272	99.44
307.502	90.44
307.731	83.44
307.961	93.44
308.191	78.44
308.421	89.44
308.651	97.44
308.881	82.44
309.111	111.44
309.341	92.44
309.571	110.44
309.8	99.44
310.03	102.44
310.26	114.44
310.49	96.44
310.72	110.44
310.949	100.44
311.179	94.44
311.409	98.44
311.639	82.44
311.868	97.44
312.098	91.44
312.328	85.44
312.557	98.44
312.787	110.44
313.017	86.44
313.246	95.44
313.476	90.44
313.706	95.44
313.935	97.44
314.165	93.44
314.394	94.44
314.624	105.44
314.853	93.44
315.083	83.44
315.312	106.44
315.542	90.44
315.771	88.44
316.001	86.44
316.23	88.44
316.46	84.44
316.689	82.44
316.919	87.44
317.148	92.44
317.377	99.44
317.607	97.44
317.836	89.44
318.065	91.44
318.295	84.44
318.524	109.44
318.753	84.44
318.983	89.44
319.212	112.44
319.441	111.44
319.67	97.44
319.9	91.44
320.129	91.44
320.358	94.44
320.587	102.44
320.816	93.44
321.046	108.44
321.275	110.44
321.504	110.44
321.733	89.44
321.962	109.44
322.191	86.44
322.42	100.44
322.649	115.44
322.878	105.44
323.108	104.44
323.337	108.44
323.566	115.44
323.795	142.44
324.024	191.44
324.253	360.44
324.482	709.44
324.71	1514.44
324.939	2030.44
325.168	761.44
325.397	227.44
325.626	140.44
325.855	121.44
326.084	119.44
326.313	116.44
326.542	150.44
326.77	211.44
326.999	408.44
327.228	837.44
327.457	1583.44
327.686	1247.44
327.914	354.44
328.143	193.44
328.372	138.44
328.6	124.44
328.829	117.44
329.058	130.44
329.287	124.44
329.515	107.44
329.744	95.44
329.972	94.44
330.201	100.44
330.43	94.44
330.658	104.44
330.887	127.44
331.115	123.44
331.344	93.44
331.572	100.44
331.801	91.44
332.03	105.44
332.258	94.44
332.486	89.44
332.715	94.44
332.943	92.44
333.172	94.44
333.4	106.44
333.629	100.44
333.857	109.44
334.085	104.44
334.314	106.44
334.542	101.44
334.771	105.44
334.999	103.44
335.227	93.44
335.455	104.44
335.684	91.44
335.912	111.44
336.14	103.44
336.369	90.44
336.597	98.44
336.825	90.44
337.053	86.44
337.281	81.44
337.51	90.44
337.738	95.44
337.966	90.44
338.194	81.44
338.422	102.44
338.65	99.44
338.878	102.44
339.106	92.44
339.334	86.44
339.562	89.44
339.79	101.44
340.018	94.44
340.246	81.44
340.474	86.44
340.702	96.44
340.93	93.44
341.158	82.44
341.386	97.44
341.614	98.44
341.842	102.44
342.07	99.44
342.298	87.44
342.526	100.44
342.754	91.44
342.981	103.44
343.209	83.44
343.437	89.44
343.665	92.44
343.893	97.44
344.12	93.44
344.348	108.44
344.576	87.44
344.804	86.44
345.031	96.44
345.259	101.44
345.487	89.44
345.714	93.44
345.942	89.44
346.17	106.44
346.397	82.44
346.625	83.44
346.853	99.44
347.08	91.44
347.308	97.44
347.535	104.44
347.763	101.44
347.99	99.44
348.218	104.44
348.445	114.44
348.673	93.44
348.9	101.44
349.128	98.44
349.355	85.44
349.583	89.44
349.81	104.44
350.037	89.44
350.265	96.44
350.492	87.44
350.72	81.44
350.947	100.44
351.174	108.44
351.402	101.44
351.629	104.44
351.856	100.44
352.083	97.44
352.311	99.44
352.538	109.44
352.765	109.44
352.992	117.44
353.22	102.44
353.447	116.44
353.674	111.44
353.901	104.44
354.128	97.44
354.355	99.44
354.583	79.44
354.81	88.44
355.037	102.44
355.264	97.44
355.491	93.44
355.718	95.44
355.945	87.44
356.172	88.44
356.399	92.44
356.626	100.44
356.853	92.44
357.08	97.44
357.307	99.44
357.534	105.44
357.761	96.44
357.988	106.44
358.215	107.44
358.441	78.44
358.668	92.44
358.895	87.44
359.122	104.44
359.349	93.44
359.576	95.44
359.802	112.44
360.029	101.44
360.256	118.44
360.483	96.44
360.709	93.44
360.936	87.44
361.163	94.44
361.39	82.44
361.616	94.44
361.843	75.44
362.07	95.44
362.296	82.44
362.523	85.44
362.749	92.44
362.976	81.44
363.203	99.44
363.429	107.44
363.656	91.44
363.882	96.44
364.109	97.44
364.335	98.44
364.562	95.44
364.788	78.44
365.015	107.44
365.241	97.44
365.468	108.44
365.694	99.44
365.92	95.44
366.147	86.44
366.373	91.44
366.599	94.44
366.826	81.44
367.052	79.44
367.278	87.44
367.505	86.44
367.731	103.44
367.957	89.44
368.184	98.44
368.41	93.44
368.636	106.44
368.862	117.44
369.089	101.44
369.315	86.44
369.541	100.44
369.767	81.44
369.993	91.44
370.219	78.44
370.445	93.44
370.672	90.44
370.898	90.44
371.124	92.44
371.35	91.44
371.576	93.44
371.802	88.44
372.028	91.44
372.254	91.44
372.48	103.44
372.706	77.44
372.932	76.44
373.158	98.44
373.384	89.44
373.61	103.44
373.835	88.44
374.061	88.44
374.287	77.44
374.513	102.44
374.739	73.44
374.965	79.44
375.191	94.44
375.416	86.44
375.642	99.44
375.868	94.44
376.094	94.44
376.319	99.44
376.545	91.44
376.771	93.44
376.997	93.44
377.222	92.44
377.448	75.44
377.674	93.44
377.899	83.44
378.125	83.44
378.35	90.44
378.576	97.44
378.802	94.44
379.027	99.44
379.253	73.44
379.478	101.44
379.704	99.44
379.929	85.44
380.155	92.44
380.38	98.44
380.606	82.44
380.831	105.44
381.057	94.44
381.282	92.44
381.507	96.44
381.733	95.44
381.958	105.44
382.184	102.44
382.409	117.44
382.634	86.44
382.86	88.44
383.085	98.44
383.31	84.44
383.535	107.44
383.761	96.44
383.986	91.44
384.211	97.44
384.436	114.44
384.662	90.44
384.887	92.44
385.112	106.44
385.337	99.44
385.562	103.44
385.787	101.44
386.013	99.44
386.238	110.44
386.463	105.44
386.688	106.44
386.913	95.44
387.138	103.44
387.363	107.44
387.588	112.44
387.813	108.44
388.038	101.44
388.263	120.44
388.488	105.44
388.713	98.44
388.938	95.44
389.163	103.44
389.387	113.44
389.612	94.44
389.837	101.44
390.062	112.44
390.287	104.44
390.512	108.44
390.736	87.44
390.961	82.44
391.186	102.44
391.411	97.44
391.636	106.44
391.86	101.44
392.085	90.44
392.31	83.44
392.534	80.44
392.759	86.44
392.984	89.44
393.208	89.44
393.433	102.44
393.658	106.44
393.882	94.44
394.107	90.44
394.331	90.44
394.556	82.44
394.78	103.44
395.005	83.44
395.229	91.44
395.454	89.44
395.678	85.44
395.903	84.44
396.127	89.44
396.352	84.44
396.576	94.44
396.801	89.44
397.025	97.44
397.249	97.44
397.474	94.44
397.698	79.44
397.922	98.44
398.147	81.44
398.371	86.44
398.595	84.44
398.82	89.44
399.044	92.44
399.268	87.44
399.492	81.44
399.717	87.44
399.941	95.44
400.165	93.44
400.389	82.44
400.613	76.44
400.837	87.44
401.062	85.44
401.286	105.44
401.51	81.44
401.734	87.44
401.958	109.44
402.182	118.44
402.406	137.44
402.63	105.44
402.854	96.44
403.078	90.44
403.302	82.44
403.526	83.44
403.75	92.44
403.974	90.44
404.198	74.44
404.422	87.44
404.645	92.44
404.869	87.44
405.093	92.44
405.317	93.44
405.541	102.44
405.765	108.44
405.988	106.44
406.212	162.44
406.436	223.44
406.66	127.44
406.883	93.44
407.107	92.44
407.331	92.44
407.555	92.44
407.778	98.44
408.002	92.44
408.226	92.44
408.449	99.44
408.673	93.44
408.896	97.44
409.12	94.44
409.344	85.44
409.567	85.44
409.791	89.44
410.014	95.44
410.238	98.44
410.461	85.44
410.685	91.44
410.908	115.44
411.132	105.44
411.355	95.44
411.578	87.44
411.802	90.44
412.025	96.44
412.249	71.44
412.472	87.44
412.695	85.44
412.919	94.44
413.142	86.44
413.365	97.44
413.589	87.44
413.812	94.44
414.035	96.44
414.258	91.44
414.482	92.44
414.705	94.44
414.928	89.44
415.151	86.44
415.374	88.44
415.597	84.44
415.821	91.44
416.044	97.44
416.267	73.44
416.49	85.44
416.713	99.44
416.936	86.44
417.159	97.44
417.382	90.44
417.605	90.44
417.828	97.44
418.051	90.44
418.274	85.44
418.497	89.44
418.72	102.44
418.943	100.44
419.166	85.44
419.389	101.44
419.611	97.44
419.834	87.44
420.057	71.44
420.28	92.44
420.503	97.44
420.726	87.44
420.948	100.44
421.171	88.44
421.394	83.44
421.617	98.44
421.839	76.44
422.062	89.44
422.285	77.44
422.507	100.44
422.73	113.44
422.953	92.44
423.175	88.44
423.398	101.44
423.621	97.44
423.843	84.44
424.066	84.44
424.288	84.44
424.511	98.44
424.733	102.44
424.956	95.44
425.178	95.44
425.401	108.44
425.623	95.44
425.846	91.44
426.068	89.44
426.291	94.44
426.513	85.44
426.735	103.44
426.958	98.44
427.18	96.44
427.402	133.44
427.625	152.44
427.847	121.44
428.069	105.44
428.292	87.44
428.514	93.44
428.736	94.44
428.958	95.44
429.181	82.44
429.403	97.44
429.625	89.44
429.847	98.44
430.069	116.44
430.292	102.44
430.514	97.44
430.736	75.44
430.958	99.44
431.18	88.44
431.402	78.44
431.624	84.44
431.846	88.44
432.068	96.44
432.29	89.44
432.512	83.44
432.734	83.44
432.956	103.44
433.178	101.44
433.4	101.44
433.622	94.44
433.844	78.44
434.066	79.44
434.287	73.44
434.509	78.44
434.731	93.44
434.953	100.44
435.175	88.44
435.397	94.44
435.618	96.44
435.84	94.44
436.062	111.44
436.284	97.44
436.505	87.44
436.727	105.44
436.949	94.44
437.17	86.44
437.392	89.44
437.614	107.44
437.835	104.44
438.057	111.44
438.278	102.44
438.5	101.44
438.721	121.44
438.943	86.44
439.165	97.44
439.386	95.44
439.608	81.44
439.829	85.44
440.05	114.44
440.272	143.44
440.493	106.44
440.715	84.44
440.936	91.44
441.158	77.44
441.379	89.44
441.6	102.44
441.822	93.44
442.043	94.44
442.264	109.44
442.486	93.44
442.707	98.44
442.928	99.44
443.149	120.44
443.371	107.44
443.592	114.44
443.813	115.44
444.034	105.44
444.255	93.44
444.476	94.44
444.698	101.44
444.919	98.44
445.14	141.44
445.361	121.44
445.582	106.44
445.803	132.44
446.024	134.44
446.245	125.44
446.466	108.44
446.687	94.44
446.908	94.44
447.129	100.44
447.35	88.44
447.571	97.44
447.792	81.44
448.013	78.44
448.234	91.44
448.455	102.44
448.675	107.44
448.896	121.44
449.117	98.44
449.338	110.44
449.559	133.44
449.779	118.44
450	97.44
450.221	79.44
450.442	94.44
450.662	105.44
450.883	112.44
451.104	110.44
451.324	91.44
451.545	90.44
451.766	94.44
451.986	81.44
452.207	90.44
452.428	106.44
452.648	86.44
452.869	116.44
453.089	125.44
453.31	107.44
453.53	92.44
453.751	97.44
453.971	97.44
454.192	108.44
454.412	98.44
454.633	69.44
454.853	87.44
455.073	102.44
455.294	88.44
455.514	104.44
455.734	81.44
455.955	85.44
456.175	101.44
456.395	85.44
456.616	76.44
456.836	87.44
457.056	92.44
457.276	94.44
457.497	90.44
457.717	82.44
457.937	87.44
458.157	87.44
458.377	79.44
458.598	101.44
458.818	136.44
459.038	141.44
459.258	106.44
459.478	94.44
459.698	95.44
459.918	85.44
460.138	87.44
460.358	82.44
460.578	84.44
460.798	95.44
461.018	90.44
461.238	85.44
461.458	77.44
461.678	87.44
461.898	85.44
462.118	89.44
462.338	89.44
462.558	66.44
462.777	89.44
462.997	87.44
463.217	97.44
463.437	99.44
463.657	87.44
463.876	102.44
464.096	78.44
464.316	83.44
464.536	99.44
464.755	100.44
464.975	119.44
465.195	131.44
465.414	135.44
465.634	88.44
465.854	87.44
466.073	84.44
466.293	92.44
466.512	97.44
466.732	92.44
466.951	98.44
467.171	83.44
467.391	93.44
467.61	90.44
467.829	75.44
468.049	83.44
468.268	97.44
468.488	88.44
468.707	94.44
468.927	80.44
469.146	93.44
469.365	89.44
469.585	81.44
469.804	93.44
470.023	95.44
470.243	104.44
470.462	100.44
470.681	100.44
470.901	95.44
471.12	85.44
471.339	95.44
471.558	101.44
471.777	82.44
471.997	86.44
472.216	82.44
472.435	93.44
472.654	86.44
472.873	89.44
473.092	83.44
473.311	90.44
473.53	105.44
473.749	89.44
473.968	102.44
474.187	103.44
474.406	97.44
474.625	79.44
474.844	84.44
475.063	93.44
475.282	84.44
475.501	91.44
475.72	88.44
475.939	88.44
476.158	79.44
476.377	84.44
476.596	94.44
476.814	83.44
477.033	94.44
477.252	93.44
477.471	101.44
477.69	86.44
477.908	89.44
478.127	92.44
478.346	79.44
478.564	101.44
478.783	92.44
479.002	81.44
479.22	86.44
479.439	102.44
479.658	97.44
479.876	75.44
480.095	93.44
480.313	93.44
480.532	86.44
480.751	85.44
480.969	85.44
481.188	74.44
481.406	99.44
481.624	92.44
481.843	98.44
482.061	70.44
482.28	91.44
482.498	77.44
482.717	83.44
482.935	95.44
483.153	77.44
483.372	74.44
483.59	103.44
483.808	93.44
484.027	104.44
484.245	101.44
484.463	95.44
484.681	100.44
484.9	88.44
485.118	103.44
485.336	94.44
485.554	80.44
485.772	114.44
485.99	104.44
486.209	99.44
486.427	105.44
486.645	110.44
486.863	109.44
487.081	105.44
487.299	104.44
487.517	96.44
487.735	91.44
487.953	98.44
488.171	87.44
488.389	105.44
488.607	91.44
488.825	96.44
489.043	92.44
489.261	89.44
489.479	87.44
489.696	86.44
489.914	87.44
490.132	89.44
490.35	101.44
490.568	89.44
490.786	74.44
491.003	87.44
491.221	97.44
491.439	92.44
491.657	102.44
491.874	89.44
492.092	91.44
492.31	95.44
492.527	97.44
492.745	101.44
492.963	101.44
493.18	88.44
493.398	91.44
493.615	97.44
493.833	87.44
494.05	85.44
494.268	103.44
494.485	100.44
494.703	96.44
494.92	90.44
495.138	98.44
495.355	94.44
495.573	88.44
495.79	92.44
496.008	93.44
496.225	85.44
496.442	82.44
496.66	90.44
496.877	95.44
497.094	87.44
497.312	106.44
497.529	92.44
497.746	97.44
497.963	90.44
498.181	105.44
498.398	94.44
498.615	103.44
498.832	99.44
499.049	89.44
499.267	101.44
499.484	83.44
499.701	85.44
499.918	87.44
500.135	86.44
500.352	95.44
500.569	82.44
500.786	77.44
501.003	84.44
501.22	103.44
501.437	101.44
501.654	98.44
501.871	99.44
502.088	88.44
502.305	99.44
502.522	105.44
502.739	97.44
502.956	88.44
503.172	94.44
503.389	102.44
503.606	90.44
503.823	79.44
504.04	91.44
504.256	86.44
504.473	91.44
504.69	89.44
504.907	87.44
505.123	94.44
505.34	94.44
505.557	94.44
505.773	99.44
505.99	75.44
506.207	93.44
506.423	84.44
506.64	103.44
506.856	90.44
507.073	91.44
507.289	83.44
507.506	97.44
507.722	113.44
507.939	104.44
508.155	90.44
508.372	76.44
508.588	85.44
508.805	98.44
509.021	98.44
509.238	101.44
509.454	120.44
509.67	87.44
509.887	104.44
510.103	123.44
510.319	205.44
510.536	667.44
510.752	2054.44
510.968	577.44
511.184	145.44
511.401	103.44
511.617	92.44
511.833	101.44
512.049	90.44
512.265	85.44
512.481	100.44
512.698	78.44
512.914	94.44
513.13	94.44
513.346	97.44
513.562	88.44
513.778	86.44
513.994	78.44
514.21	103.44
514.426	106.44
514.642	120.44
514.858	121.44
515.074	147.44
515.29	388.44
515.506	1199.44
515.721	457.44
