Data from Uncirc_1984_H10_HRD10591_00005.txt Node
Date: Wed Jan 03 12:21:38 EST 2024
User: Yrep
Spectrometer: HR+D1059
Trigger mode: 1
Integration Time (sec): 1.000000E-1
Scans to average: 1
Electric dark correction enabled: true
Nonlinearity correction enabled: false
Boxcar width: 0
XAxis mode: Wavelengths
Number of Pixels in Spectrum: 2048
>>>>>Begin Spectral Data<<<<<
223.165	-10.06
223.4	-10.06
223.635	-10.06
223.869	-28.06
224.104	-12.06
224.338	-3.06
224.573	-13.06
224.808	-26.06
225.042	-5.06
225.277	7.94
225.511	-14.06
225.746	0.94
225.98	4.94
226.215	8.94
226.449	22.94
226.683	11.94
226.918	28.94
227.152	24.94
227.387	36.94
227.621	40.94
227.856	44.94
228.09	47.94
228.324	46.94
228.559	52.94
228.793	55.94
229.027	63.94
229.262	80.94
229.496	59.94
229.73	78.94
229.964	80.94
230.199	78.94
230.433	85.94
230.667	75.94
230.901	90.94
231.136	73.94
231.37	83.94
231.604	79.94
231.838	74.94
232.072	81.94
232.306	88.94
232.541	80.94
232.775	76.94
233.009	84.94
233.243	80.94
233.477	82.94
233.711	73.94
233.945	78.94
234.179	84.94
234.413	77.94
234.647	80.94
234.881	75.94
235.115	84.94
235.349	84.94
235.583	84.94
235.817	89.94
236.051	88.94
236.285	74.94
236.519	81.94
236.753	80.94
236.987	91.94
237.221	81.94
237.455	88.94
237.689	88.94
237.922	83.94
238.156	82.94
238.39	73.94
238.624	90.94
238.858	61.94
239.091	78.94
239.325	74.94
239.559	72.94
239.793	83.94
240.027	88.94
240.26	88.94
240.494	72.94
240.728	74.94
240.961	73.94
241.195	101.94
241.429	71.94
241.662	79.94
241.896	72.94
242.13	86.94
242.363	69.94
242.597	70.94
242.83	78.94
243.064	78.94
243.298	73.94
243.531	75.94
243.765	65.94
243.998	84.94
244.232	103.94
244.465	72.94
244.699	68.94
244.932	91.94
245.166	76.94
245.399	77.94
245.633	89.94
245.866	87.94
246.099	89.94
246.333	74.94
246.566	77.94
246.8	89.94
247.033	77.94
247.266	84.94
247.5	61.94
247.733	84.94
247.966	82.94
248.2	80.94
248.433	71.94
248.666	77.94
248.899	68.94
249.133	85.94
249.366	90.94
249.599	103.94
249.832	79.94
250.066	74.94
250.299	68.94
250.532	89.94
250.765	80.94
250.998	86.94
251.231	87.94
251.465	74.94
251.698	60.94
251.931	73.94
252.164	83.94
252.397	91.94
252.63	74.94
252.863	80.94
253.096	78.94
253.329	77.94
253.562	73.94
253.795	86.94
254.028	80.94
254.261	78.94
254.494	90.94
254.727	86.94
254.96	76.94
255.193	76.94
255.426	87.94
255.659	91.94
255.892	95.94
256.124	86.94
256.357	86.94
256.59	73.94
256.823	78.94
257.056	70.94
257.289	82.94
257.521	88.94
257.754	84.94
257.987	73.94
258.22	84.94
258.452	77.94
258.685	85.94
258.918	75.94
259.151	72.94
259.383	90.94
259.616	87.94
259.849	80.94
260.081	93.94
260.314	83.94
260.547	91.94
260.779	80.94
261.012	86.94
261.244	88.94
261.477	98.94
261.71	106.94
261.942	114.94
262.175	106.94
262.407	90.94
262.64	76.94
262.872	77.94
263.105	81.94
263.337	94.94
263.57	85.94
263.802	92.94
264.035	80.94
264.267	83.94
264.499	84.94
264.732	97.94
264.964	84.94
265.197	87.94
265.429	76.94
265.661	66.94
265.894	83.94
266.126	101.94
266.358	74.94
266.591	86.94
266.823	98.94
267.055	86.94
267.287	78.94
267.52	87.94
267.752	86.94
267.984	71.94
268.216	76.94
268.448	80.94
268.681	88.94
268.913	83.94
269.145	77.94
269.377	76.94
269.609	84.94
269.841	82.94
270.073	84.94
270.306	85.94
270.538	99.94
270.77	80.94
271.002	83.94
271.234	96.94
271.466	88.94
271.698	88.94
271.93	99.94
272.162	91.94
272.394	92.94
272.626	97.94
272.858	98.94
273.09	84.94
273.322	97.94
273.553	86.94
273.785	91.94
274.017	96.94
274.249	104.94
274.481	90.94
274.713	88.94
274.945	86.94
275.176	73.94
275.408	93.94
275.64	84.94
275.872	85.94
276.104	77.94
276.335	81.94
276.567	100.94
276.799	100.94
277.031	97.94
277.262	85.94
277.494	93.94
277.726	66.94
277.957	86.94
278.189	82.94
278.421	89.94
278.652	86.94
278.884	89.94
279.115	85.94
279.347	84.94
279.579	86.94
279.81	86.94
280.042	88.94
280.273	84.94
280.505	79.94
280.736	86.94
280.968	83.94
281.199	77.94
281.431	90.94
281.662	89.94
281.894	84.94
282.125	97.94
282.356	123.94
282.588	127.94
282.819	113.94
283.051	93.94
283.282	85.94
283.513	84.94
283.745	88.94
283.976	89.94
284.207	87.94
284.439	80.94
284.67	91.94
284.901	97.94
285.132	90.94
285.364	101.94
285.595	90.94
285.826	88.94
286.057	73.94
286.288	78.94
286.52	91.94
286.751	83.94
286.982	78.94
287.213	80.94
287.444	92.94
287.675	101.94
287.906	78.94
288.138	88.94
288.369	86.94
288.6	92.94
288.831	70.94
289.062	94.94
289.293	99.94
289.524	88.94
289.755	101.94
289.986	96.94
290.217	75.94
290.448	107.94
290.679	87.94
290.91	97.94
291.141	94.94
291.371	86.94
291.602	85.94
291.833	84.94
292.064	88.94
292.295	93.94
292.526	84.94
292.757	88.94
292.987	87.94
293.218	69.94
293.449	86.94
293.68	102.94
293.91	86.94
294.141	91.94
294.372	94.94
294.603	87.94
294.833	73.94
295.064	107.94
295.295	83.94
295.525	100.94
295.756	93.94
295.987	105.94
296.217	113.94
296.448	94.94
296.679	82.94
296.909	102.94
297.14	92.94
297.37	99.94
297.601	107.94
297.831	94.94
298.062	89.94
298.292	82.94
298.523	97.94
298.753	94.94
298.984	92.94
299.214	92.94
299.445	87.94
299.675	82.94
299.905	95.94
300.136	72.94
300.366	76.94
300.597	97.94
300.827	89.94
301.057	116.94
301.288	99.94
301.518	98.94
301.748	88.94
301.979	108.94
302.209	68.94
302.439	92.94
302.669	94.94
302.9	89.94
303.13	81.94
303.36	108.94
303.59	88.94
303.82	103.94
304.051	86.94
304.281	92.94
304.511	89.94
304.741	93.94
304.971	86.94
305.201	90.94
305.431	88.94
305.661	84.94
305.891	86.94
306.121	99.94
306.352	93.94
306.582	93.94
306.812	96.94
307.042	94.94
307.272	101.94
307.502	96.94
307.731	88.94
307.961	88.94
308.191	96.94
308.421	94.94
308.651	91.94
308.881	97.94
309.111	82.94
309.341	78.94
309.571	100.94
309.8	102.94
310.03	102.94
310.26	105.94
310.49	100.94
310.72	84.94
310.949	109.94
311.179	96.94
311.409	75.94
311.639	102.94
311.868	93.94
312.098	89.94
312.328	104.94
312.557	91.94
312.787	98.94
313.017	87.94
313.246	102.94
313.476	100.94
313.706	93.94
313.935	96.94
314.165	98.94
314.394	97.94
314.624	86.94
314.853	102.94
315.083	92.94
315.312	103.94
315.542	94.94
315.771	87.94
316.001	103.94
316.23	98.94
316.46	95.94
316.689	89.94
316.919	100.94
317.148	106.94
317.377	94.94
317.607	97.94
317.836	110.94
318.065	82.94
318.295	81.94
318.524	91.94
318.753	88.94
318.983	100.94
319.212	87.94
319.441	104.94
319.67	105.94
319.9	87.94
320.129	87.94
320.358	98.94
320.587	103.94
320.816	97.94
321.046	87.94
321.275	108.94
321.504	99.94
321.733	107.94
321.962	114.94
322.191	101.94
322.42	90.94
322.649	100.94
322.878	99.94
323.108	113.94
323.337	123.94
323.566	106.94
323.795	153.94
324.024	192.94
324.253	348.94
324.482	704.94
324.71	1469.94
324.939	1920.94
325.168	701.94
325.397	217.94
325.626	142.94
325.855	135.94
326.084	112.94
326.313	129.94
326.542	150.94
326.77	210.94
326.999	405.94
327.228	822.94
327.457	1503.94
327.686	1199.94
327.914	312.94
328.143	159.94
328.372	144.94
328.6	116.94
328.829	98.94
329.058	128.94
329.287	123.94
329.515	110.94
329.744	106.94
329.972	95.94
330.201	84.94
330.43	112.94
330.658	119.94
330.887	117.94
331.115	118.94
331.344	107.94
331.572	105.94
331.801	106.94
332.03	100.94
332.258	101.94
332.486	86.94
332.715	90.94
332.943	78.94
333.172	100.94
333.4	82.94
333.629	96.94
333.857	100.94
334.085	104.94
334.314	98.94
334.542	107.94
334.771	87.94
334.999	97.94
335.227	86.94
335.455	98.94
335.684	108.94
335.912	96.94
336.14	98.94
336.369	109.94
336.597	98.94
336.825	76.94
337.053	109.94
337.281	100.94
337.51	96.94
337.738	89.94
337.966	97.94
338.194	100.94
338.422	97.94
338.65	89.94
338.878	83.94
339.106	94.94
339.334	92.94
339.562	91.94
339.79	97.94
340.018	91.94
340.246	96.94
340.474	93.94
340.702	109.94
340.93	94.94
341.158	83.94
341.386	101.94
341.614	99.94
341.842	97.94
342.07	99.94
342.298	89.94
342.526	90.94
342.754	86.94
342.981	99.94
343.209	70.94
343.437	96.94
343.665	86.94
343.893	100.94
344.12	93.94
344.348	91.94
344.576	83.94
344.804	89.94
345.031	93.94
345.259	84.94
345.487	88.94
345.714	93.94
345.942	92.94
346.17	92.94
346.397	96.94
346.625	104.94
346.853	110.94
347.08	85.94
347.308	106.94
347.535	100.94
347.763	98.94
347.99	100.94
348.218	94.94
348.445	106.94
348.673	96.94
348.9	86.94
349.128	102.94
349.355	99.94
349.583	93.94
349.81	85.94
350.037	88.94
350.265	96.94
350.492	99.94
350.72	89.94
350.947	102.94
351.174	105.94
351.402	109.94
351.629	109.94
351.856	89.94
352.083	98.94
352.311	115.94
352.538	117.94
352.765	105.94
352.992	109.94
353.22	125.94
353.447	101.94
353.674	103.94
353.901	105.94
354.128	89.94
354.355	97.94
354.583	114.94
354.81	110.94
355.037	100.94
355.264	105.94
355.491	94.94
355.718	98.94
355.945	95.94
356.172	97.94
356.399	101.94
356.626	106.94
356.853	92.94
357.08	101.94
357.307	96.94
357.534	98.94
357.761	101.94
357.988	96.94
358.215	104.94
358.441	84.94
358.668	106.94
358.895	109.94
359.122	100.94
359.349	100.94
359.576	94.94
359.802	94.94
360.029	103.94
360.256	114.94
360.483	106.94
360.709	100.94
360.936	90.94
361.163	96.94
361.39	108.94
361.616	109.94
361.843	89.94
362.07	98.94
362.296	93.94
362.523	87.94
362.749	105.94
362.976	89.94
363.203	110.94
363.429	90.94
363.656	88.94
363.882	90.94
364.109	96.94
364.335	84.94
364.562	86.94
364.788	104.94
365.015	78.94
365.241	101.94
365.468	100.94
365.694	100.94
365.92	92.94
366.147	86.94
366.373	88.94
366.599	92.94
366.826	95.94
367.052	95.94
367.278	103.94
367.505	85.94
367.731	81.94
367.957	80.94
368.184	85.94
368.41	97.94
368.636	114.94
368.862	117.94
369.089	113.94
369.315	93.94
369.541	83.94
369.767	93.94
369.993	96.94
370.219	97.94
370.445	83.94
370.672	92.94
370.898	98.94
371.124	87.94
371.35	86.94
371.576	82.94
371.802	84.94
372.028	93.94
372.254	93.94
372.48	89.94
372.706	102.94
372.932	84.94
373.158	97.94
373.384	86.94
373.61	101.94
373.835	99.94
374.061	99.94
374.287	86.94
374.513	98.94
374.739	96.94
374.965	84.94
375.191	98.94
375.416	84.94
375.642	97.94
375.868	102.94
376.094	91.94
376.319	76.94
376.545	84.94
376.771	93.94
376.997	91.94
377.222	88.94
377.448	94.94
377.674	93.94
377.899	98.94
378.125	106.94
378.35	108.94
378.576	94.94
378.802	91.94
379.027	80.94
379.253	102.94
379.478	101.94
379.704	98.94
379.929	109.94
380.155	97.94
380.38	86.94
380.606	100.94
380.831	94.94
381.057	101.94
381.282	97.94
381.507	105.94
381.733	115.94
381.958	102.94
382.184	99.94
382.409	97.94
382.634	107.94
382.86	106.94
383.085	109.94
383.31	102.94
383.535	113.94
383.761	113.94
383.986	94.94
384.211	97.94
384.436	97.94
384.662	107.94
384.887	107.94
385.112	104.94
385.337	110.94
385.562	110.94
385.787	100.94
386.013	107.94
386.238	114.94
386.463	110.94
386.688	105.94
386.913	123.94
387.138	110.94
387.363	108.94
387.588	98.94
387.813	115.94
388.038	106.94
388.263	115.94
388.488	118.94
388.713	104.94
388.938	87.94
389.163	84.94
389.387	106.94
389.612	96.94
389.837	91.94
390.062	106.94
390.287	80.94
390.512	95.94
390.736	87.94
390.961	76.94
391.186	91.94
391.411	105.94
391.636	101.94
391.86	101.94
392.085	93.94
392.31	100.94
392.534	88.94
392.759	100.94
392.984	96.94
393.208	104.94
393.433	115.94
393.658	122.94
393.882	85.94
394.107	89.94
394.331	87.94
394.556	96.94
394.78	92.94
395.005	94.94
395.229	81.94
395.454	81.94
395.678	88.94
395.903	104.94
396.127	82.94
396.352	98.94
396.576	100.94
396.801	105.94
397.025	112.94
397.249	101.94
397.474	96.94
397.698	87.94
397.922	84.94
398.147	92.94
398.371	96.94
398.595	89.94
398.82	101.94
399.044	99.94
399.268	92.94
399.492	94.94
399.717	92.94
399.941	93.94
400.165	92.94
400.389	101.94
400.613	85.94
400.837	88.94
401.062	80.94
401.286	96.94
401.51	104.94
401.734	88.94
401.958	81.94
402.182	122.94
402.406	140.94
402.63	120.94
402.854	78.94
403.078	89.94
403.302	93.94
403.526	98.94
403.75	92.94
403.974	86.94
404.198	98.94
404.422	104.94
404.645	95.94
404.869	96.94
405.093	102.94
405.317	94.94
405.541	92.94
405.765	109.94
405.988	124.94
406.212	148.94
406.436	186.94
406.66	133.94
406.883	100.94
407.107	82.94
407.331	89.94
407.555	83.94
407.778	94.94
408.002	96.94
408.226	86.94
408.449	100.94
408.673	83.94
408.896	77.94
409.12	81.94
409.344	93.94
409.567	98.94
409.791	88.94
410.014	89.94
410.238	81.94
410.461	92.94
410.685	94.94
410.908	111.94
411.132	110.94
411.355	104.94
411.578	91.94
411.802	91.94
412.025	84.94
412.249	94.94
412.472	91.94
412.695	82.94
412.919	82.94
413.142	89.94
413.365	87.94
413.589	91.94
413.812	90.94
414.035	75.94
414.258	95.94
414.482	96.94
414.705	77.94
414.928	108.94
415.151	102.94
415.374	99.94
415.597	82.94
415.821	95.94
416.044	74.94
416.267	96.94
416.49	90.94
416.713	87.94
416.936	85.94
417.159	88.94
417.382	96.94
417.605	98.94
417.828	94.94
418.051	106.94
418.274	88.94
418.497	92.94
418.72	100.94
418.943	98.94
419.166	95.94
419.389	97.94
419.611	94.94
419.834	98.94
420.057	90.94
420.28	100.94
420.503	88.94
420.726	96.94
420.948	97.94
421.171	91.94
421.394	94.94
421.617	88.94
421.839	80.94
422.062	98.94
422.285	108.94
422.507	99.94
422.73	117.94
422.953	103.94
423.175	97.94
423.398	98.94
423.621	88.94
423.843	101.94
424.066	103.94
424.288	96.94
424.511	96.94
424.733	107.94
424.956	106.94
425.178	98.94
425.401	107.94
425.623	98.94
425.846	64.94
426.068	97.94
426.291	104.94
426.513	97.94
426.735	92.94
426.958	99.94
427.18	118.94
427.402	137.94
427.625	152.94
427.847	106.94
428.069	120.94
428.292	92.94
428.514	85.94
428.736	84.94
428.958	88.94
429.181	86.94
429.403	101.94
429.625	92.94
429.847	99.94
430.069	92.94
430.292	109.94
430.514	85.94
430.736	83.94
430.958	99.94
431.18	78.94
431.402	95.94
431.624	100.94
431.846	84.94
432.068	83.94
432.29	91.94
432.512	95.94
432.734	100.94
432.956	89.94
433.178	97.94
433.4	99.94
433.622	82.94
433.844	85.94
434.066	86.94
434.287	91.94
434.509	108.94
434.731	97.94
434.953	87.94
435.175	90.94
435.397	101.94
435.618	102.94
435.84	84.94
436.062	122.94
436.284	105.94
436.505	100.94
436.727	101.94
436.949	108.94
437.17	105.94
437.392	99.94
437.614	93.94
437.835	82.94
438.057	100.94
438.278	104.94
438.5	93.94
438.721	118.94
438.943	103.94
439.165	86.94
439.386	77.94
439.608	94.94
439.829	90.94
440.05	110.94
440.272	144.94
440.493	99.94
440.715	92.94
440.936	92.94
441.158	75.94
441.379	92.94
441.6	112.94
441.822	84.94
442.043	94.94
442.264	110.94
442.486	102.94
442.707	93.94
442.928	107.94
443.149	123.94
443.371	115.94
443.592	108.94
443.813	113.94
444.034	117.94
444.255	107.94
444.476	88.94
444.698	96.94
444.919	93.94
445.14	138.94
445.361	116.94
445.582	116.94
445.803	126.94
446.024	125.94
446.245	129.94
446.466	111.94
446.687	94.94
446.908	106.94
447.129	82.94
447.35	93.94
447.571	120.94
447.792	84.94
448.013	93.94
448.234	114.94
448.455	104.94
448.675	127.94
448.896	113.94
449.117	106.94
449.338	104.94
449.559	130.94
449.779	119.94
450	82.94
450.221	86.94
450.442	100.94
450.662	109.94
450.883	100.94
451.104	94.94
451.324	92.94
451.545	96.94
451.766	75.94
451.986	89.94
452.207	90.94
452.428	92.94
452.648	93.94
452.869	109.94
453.089	111.94
453.31	108.94
453.53	92.94
453.751	97.94
453.971	97.94
454.192	108.94
454.412	97.94
454.633	91.94
454.853	93.94
455.073	78.94
455.294	80.94
455.514	107.94
455.734	84.94
455.955	80.94
456.175	80.94
456.395	92.94
456.616	94.94
456.836	76.94
457.056	80.94
457.276	84.94
457.497	74.94
457.717	100.94
457.937	80.94
458.157	92.94
458.377	95.94
458.598	106.94
458.818	144.94
459.038	139.94
459.258	101.94
459.478	93.94
459.698	90.94
459.918	86.94
460.138	91.94
460.358	102.94
460.578	102.94
460.798	108.94
461.018	101.94
461.238	82.94
461.458	96.94
461.678	91.94
461.898	92.94
462.118	76.94
462.338	89.94
462.558	84.94
462.777	67.94
462.997	84.94
463.217	86.94
463.437	90.94
463.657	80.94
463.876	81.94
464.096	86.94
464.316	83.94
464.536	93.94
464.755	92.94
464.975	119.94
465.195	150.94
465.414	127.94
465.634	98.94
465.854	81.94
466.073	96.94
466.293	92.94
466.512	96.94
466.732	85.94
466.951	88.94
467.171	105.94
467.391	99.94
467.61	113.94
467.829	98.94
468.049	102.94
468.268	89.94
468.488	82.94
468.707	87.94
468.927	105.94
469.146	86.94
469.365	87.94
469.585	89.94
469.804	99.94
470.023	102.94
470.243	84.94
470.462	89.94
470.681	98.94
470.901	86.94
471.12	81.94
471.339	85.94
471.558	89.94
471.777	113.94
471.997	86.94
472.216	86.94
472.435	91.94
472.654	92.94
472.873	93.94
473.092	92.94
473.311	82.94
473.53	93.94
473.749	95.94
473.968	98.94
474.187	106.94
474.406	94.94
474.625	80.94
474.844	94.94
475.063	86.94
475.282	84.94
475.501	99.94
475.72	92.94
475.939	92.94
476.158	96.94
476.377	97.94
476.596	96.94
476.814	100.94
477.033	86.94
477.252	100.94
477.471	74.94
477.69	90.94
477.908	100.94
478.127	97.94
478.346	85.94
478.564	99.94
478.783	89.94
479.002	97.94
479.22	90.94
479.439	100.94
479.658	93.94
479.876	105.94
480.095	88.94
480.313	92.94
480.532	94.94
480.751	105.94
480.969	95.94
481.188	94.94
481.406	89.94
481.624	91.94
481.843	89.94
482.061	80.94
482.28	88.94
482.498	100.94
482.717	90.94
482.935	102.94
483.153	96.94
483.372	103.94
483.59	95.94
483.808	99.94
484.027	101.94
484.245	110.94
484.463	95.94
484.681	97.94
484.9	90.94
485.118	97.94
485.336	94.94
485.554	92.94
485.772	104.94
485.99	101.94
486.209	97.94
486.427	108.94
486.645	109.94
486.863	98.94
487.081	98.94
487.299	101.94
487.517	108.94
487.735	109.94
487.953	104.94
488.171	99.94
488.389	93.94
488.607	97.94
488.825	85.94
489.043	96.94
489.261	94.94
489.479	94.94
489.696	82.94
489.914	103.94
490.132	103.94
490.35	108.94
490.568	94.94
490.786	85.94
491.003	84.94
491.221	90.94
491.439	84.94
491.657	98.94
491.874	76.94
492.092	87.94
492.31	96.94
492.527	90.94
492.745	99.94
492.963	95.94
493.18	95.94
493.398	92.94
493.615	92.94
493.833	113.94
494.05	82.94
494.268	94.94
494.485	93.94
494.703	81.94
494.92	93.94
495.138	83.94
495.355	106.94
495.573	93.94
495.79	96.94
496.008	90.94
496.225	102.94
496.442	92.94
496.66	88.94
496.877	93.94
497.094	102.94
497.312	92.94
497.529	103.94
497.746	101.94
497.963	112.94
498.181	82.94
498.398	92.94
498.615	101.94
498.832	93.94
499.049	99.94
499.267	99.94
499.484	109.94
499.701	87.94
499.918	89.94
500.135	93.94
500.352	92.94
500.569	104.94
500.786	106.94
501.003	91.94
501.22	86.94
501.437	102.94
501.654	108.94
501.871	94.94
502.088	100.94
502.305	93.94
502.522	106.94
502.739	96.94
502.956	94.94
503.172	92.94
503.389	100.94
503.606	113.94
503.823	107.94
504.04	102.94
504.256	90.94
504.473	88.94
504.69	86.94
504.907	104.94
505.123	91.94
505.34	105.94
505.557	89.94
505.773	101.94
505.99	101.94
506.207	91.94
506.423	99.94
506.64	97.94
506.856	108.94
507.073	94.94
507.289	95.94
507.506	90.94
507.722	106.94
507.939	115.94
508.155	103.94
508.372	114.94
508.588	98.94
508.805	105.94
509.021	89.94
509.238	105.94
509.454	109.94
509.67	105.94
509.887	107.94
510.103	130.94
510.319	196.94
510.536	652.94
510.752	1976.94
510.968	552.94
511.184	134.94
511.401	121.94
511.617	110.94
511.833	99.94
512.049	88.94
512.265	103.94
512.481	93.94
512.698	87.94
512.914	84.94
513.13	85.94
513.346	88.94
513.562	111.94
513.778	96.94
513.994	106.94
514.21	104.94
514.426	109.94
514.642	131.94
