Data from Uncirc_1984_H10_HRD10591_00058.txt Node
Date: Wed Jan 03 12:21:48 EST 2024
User: Yrep
Spectrometer: HR+D1059
Trigger mode: 1
Integration Time (sec): 1.000000E-1
Scans to average: 1
Electric dark correction enabled: true
Nonlinearity correction enabled: false
Boxcar width: 0
XAxis mode: Wavelengths
Number of Pixels in Spectrum: 2048
>>>>>Begin Spectral Data<<<<<
223.165	-16.44
223.4	-16.44
223.635	-16.44
223.869	-18.44
224.104	-14.44
224.338	-13.44
224.573	-3.44
224.808	-25.44
225.042	-11.44
225.277	-9.44
225.511	-8.44
225.746	-11.44
225.98	-12.44
226.215	16.56
226.449	26.56
226.683	26.56
226.918	37.56
227.152	37.56
227.387	26.56
227.621	45.56
227.856	46.56
228.09	44.56
228.324	60.56
228.559	46.56
228.793	65.56
229.027	66.56
229.262	68.56
229.496	83.56
229.73	73.56
229.964	87.56
230.199	74.56
230.433	80.56
230.667	78.56
230.901	77.56
231.136	99.56
231.37	85.56
231.604	77.56
231.838	94.56
232.072	77.56
232.306	84.56
232.541	90.56
232.775	76.56
233.009	87.56
233.243	73.56
233.477	87.56
233.711	87.56
233.945	83.56
234.179	76.56
234.413	71.56
234.647	83.56
234.881	98.56
235.115	74.56
235.349	87.56
235.583	82.56
235.817	73.56
236.051	78.56
236.285	91.56
236.519	93.56
236.753	79.56
236.987	82.56
237.221	66.56
237.455	85.56
237.689	81.56
237.922	82.56
238.156	87.56
238.39	77.56
238.624	76.56
238.858	83.56
239.091	105.56
239.325	84.56
239.559	96.56
239.793	83.56
240.027	95.56
240.26	75.56
240.494	82.56
240.728	87.56
240.961	73.56
241.195	87.56
241.429	59.56
241.662	87.56
241.896	80.56
242.13	85.56
242.363	78.56
242.597	83.56
242.83	77.56
243.064	78.56
243.298	91.56
243.531	67.56
243.765	63.56
243.998	66.56
244.232	95.56
244.465	87.56
244.699	85.56
244.932	81.56
245.166	89.56
245.399	96.56
245.633	63.56
245.866	90.56
246.099	93.56
246.333	76.56
246.566	90.56
246.8	87.56
247.033	83.56
247.266	91.56
247.5	82.56
247.733	78.56
247.966	96.56
248.2	87.56
248.433	94.56
248.666	62.56
248.899	81.56
249.133	81.56
249.366	98.56
249.599	93.56
249.832	71.56
250.066	79.56
250.299	81.56
250.532	75.56
250.765	89.56
250.998	97.56
251.231	76.56
251.465	87.56
251.698	91.56
251.931	78.56
252.164	83.56
252.397	81.56
252.63	85.56
252.863	87.56
253.096	90.56
253.329	82.56
253.562	84.56
253.795	85.56
254.028	78.56
254.261	67.56
254.494	87.56
254.727	83.56
254.96	85.56
255.193	77.56
255.426	89.56
255.659	85.56
255.892	87.56
256.124	82.56
256.357	84.56
256.59	86.56
256.823	96.56
257.056	76.56
257.289	71.56
257.521	83.56
257.754	89.56
257.987	105.56
258.22	81.56
258.452	66.56
258.685	78.56
258.918	99.56
259.151	100.56
259.383	85.56
259.616	84.56
259.849	71.56
260.081	78.56
260.314	98.56
260.547	73.56
260.779	75.56
261.012	101.56
261.244	90.56
261.477	96.56
261.71	93.56
261.942	99.56
262.175	112.56
262.407	88.56
262.64	99.56
262.872	91.56
263.105	89.56
263.337	83.56
263.57	82.56
263.802	88.56
264.035	86.56
264.267	73.56
264.499	78.56
264.732	86.56
264.964	79.56
265.197	95.56
265.429	77.56
265.661	101.56
265.894	77.56
266.126	82.56
266.358	74.56
266.591	76.56
266.823	85.56
267.055	77.56
267.287	95.56
267.52	87.56
267.752	95.56
267.984	78.56
268.216	97.56
268.448	84.56
268.681	79.56
268.913	74.56
269.145	97.56
269.377	91.56
269.609	74.56
269.841	85.56
270.073	83.56
270.306	73.56
270.538	94.56
270.77	94.56
271.002	93.56
271.234	79.56
271.466	82.56
271.698	85.56
271.93	82.56
272.162	104.56
272.394	76.56
272.626	81.56
272.858	86.56
273.09	89.56
273.322	77.56
273.553	86.56
273.785	93.56
274.017	99.56
274.249	88.56
274.481	87.56
274.713	88.56
274.945	76.56
275.176	79.56
275.408	85.56
275.64	89.56
275.872	77.56
276.104	87.56
276.335	99.56
276.567	100.56
276.799	99.56
277.031	94.56
277.262	92.56
277.494	91.56
277.726	79.56
277.957	97.56
278.189	96.56
278.421	86.56
278.652	73.56
278.884	93.56
279.115	81.56
279.347	85.56
279.579	92.56
279.81	81.56
280.042	87.56
280.273	87.56
280.505	86.56
280.736	76.56
280.968	90.56
281.199	89.56
281.431	99.56
281.662	76.56
281.894	107.56
282.125	100.56
282.356	124.56
282.588	123.56
282.819	102.56
283.051	89.56
283.282	83.56
283.513	103.56
283.745	83.56
283.976	93.56
284.207	89.56
284.439	103.56
284.67	106.56
284.901	95.56
285.132	80.56
285.364	85.56
285.595	85.56
285.826	102.56
286.057	89.56
286.288	95.56
286.52	91.56
286.751	78.56
286.982	83.56
287.213	99.56
287.444	84.56
287.675	101.56
287.906	92.56
288.138	92.56
288.369	93.56
288.6	91.56
288.831	87.56
289.062	90.56
289.293	89.56
289.524	76.56
289.755	91.56
289.986	80.56
290.217	83.56
290.448	85.56
290.679	77.56
290.91	86.56
291.141	87.56
291.371	90.56
291.602	84.56
291.833	85.56
292.064	92.56
292.295	82.56
292.526	94.56
292.757	91.56
292.987	92.56
293.218	94.56
293.449	97.56
293.68	90.56
293.91	91.56
294.141	89.56
294.372	97.56
294.603	94.56
294.833	103.56
295.064	91.56
295.295	84.56
295.525	86.56
295.756	104.56
295.987	112.56
296.217	119.56
296.448	120.56
296.679	102.56
296.909	79.56
297.14	92.56
297.37	85.56
297.601	79.56
297.831	91.56
298.062	90.56
298.292	86.56
298.523	84.56
298.753	96.56
298.984	96.56
299.214	77.56
299.445	87.56
299.675	101.56
299.905	89.56
300.136	108.56
300.366	90.56
300.597	98.56
300.827	111.56
301.057	102.56
301.288	101.56
301.518	87.56
301.748	82.56
301.979	104.56
302.209	101.56
302.439	88.56
302.669	89.56
302.9	69.56
303.13	88.56
303.36	97.56
303.59	97.56
303.82	93.56
304.051	85.56
304.281	95.56
304.511	79.56
304.741	81.56
304.971	84.56
305.201	86.56
305.431	84.56
305.661	97.56
305.891	93.56
306.121	100.56
306.352	104.56
306.582	97.56
306.812	105.56
307.042	100.56
307.272	98.56
307.502	103.56
307.731	91.56
307.961	83.56
308.191	101.56
308.421	98.56
308.651	105.56
308.881	92.56
309.111	105.56
309.341	89.56
309.571	97.56
309.8	100.56
310.03	98.56
310.26	104.56
310.49	100.56
310.72	95.56
310.949	96.56
311.179	117.56
311.409	97.56
311.639	103.56
311.868	89.56
312.098	84.56
312.328	107.56
312.557	89.56
312.787	97.56
313.017	94.56
313.246	105.56
313.476	96.56
313.706	95.56
313.935	93.56
314.165	96.56
314.394	101.56
314.624	94.56
314.853	100.56
315.083	85.56
315.312	103.56
315.542	85.56
315.771	92.56
316.001	85.56
316.23	88.56
316.46	102.56
316.689	86.56
316.919	97.56
317.148	85.56
317.377	91.56
317.607	97.56
317.836	98.56
318.065	98.56
318.295	104.56
318.524	89.56
318.753	86.56
318.983	93.56
319.212	111.56
319.441	99.56
319.67	102.56
319.9	96.56
320.129	94.56
320.358	99.56
320.587	85.56
320.816	99.56
321.046	105.56
321.275	93.56
321.504	92.56
321.733	103.56
321.962	105.56
322.191	108.56
322.42	103.56
322.649	101.56
322.878	98.56
323.108	123.56
323.337	113.56
323.566	111.56
323.795	131.56
324.024	182.56
324.253	333.56
324.482	676.56
324.71	1348.56
324.939	1799.56
325.168	673.56
325.397	227.56
325.626	129.56
325.855	116.56
326.084	116.56
326.313	123.56
326.542	141.56
326.77	212.56
326.999	379.56
327.228	784.56
327.457	1410.56
327.686	1145.56
327.914	337.56
328.143	185.56
328.372	129.56
328.6	116.56
328.829	104.56
329.058	121.56
329.287	117.56
329.515	100.56
329.744	106.56
329.972	93.56
330.201	117.56
330.43	111.56
330.658	113.56
330.887	120.56
331.115	115.56
331.344	110.56
331.572	100.56
331.801	104.56
332.03	107.56
332.258	111.56
332.486	99.56
332.715	89.56
332.943	93.56
333.172	95.56
333.4	86.56
333.629	104.56
333.857	108.56
334.085	104.56
334.314	97.56
334.542	104.56
334.771	96.56
334.999	106.56
335.227	100.56
335.455	99.56
335.684	93.56
335.912	94.56
336.14	93.56
336.369	93.56
336.597	88.56
336.825	104.56
337.053	83.56
337.281	89.56
337.51	99.56
337.738	108.56
337.966	108.56
338.194	106.56
338.422	109.56
338.65	87.56
338.878	87.56
339.106	75.56
339.334	80.56
339.562	87.56
339.79	90.56
340.018	95.56
340.246	99.56
340.474	93.56
340.702	87.56
340.93	90.56
341.158	88.56
341.386	97.56
341.614	87.56
341.842	68.56
342.07	79.56
342.298	102.56
342.526	94.56
342.754	93.56
342.981	78.56
343.209	93.56
343.437	103.56
343.665	91.56
343.893	105.56
344.12	92.56
344.348	94.56
344.576	103.56
344.804	91.56
345.031	96.56
345.259	105.56
345.487	90.56
345.714	103.56
345.942	98.56
346.17	92.56
346.397	100.56
346.625	83.56
346.853	87.56
347.08	87.56
347.308	97.56
347.535	105.56
347.763	95.56
347.99	94.56
348.218	103.56
348.445	116.56
348.673	97.56
348.9	102.56
349.128	85.56
349.355	87.56
349.583	91.56
349.81	89.56
350.037	98.56
350.265	102.56
350.492	87.56
350.72	100.56
350.947	102.56
351.174	95.56
351.402	102.56
351.629	99.56
351.856	103.56
352.083	99.56
352.311	108.56
352.538	108.56
352.765	114.56
352.992	103.56
353.22	109.56
353.447	111.56
353.674	95.56
353.901	100.56
354.128	103.56
354.355	102.56
354.583	99.56
354.81	105.56
355.037	114.56
355.264	99.56
355.491	83.56
355.718	94.56
355.945	99.56
356.172	97.56
356.399	97.56
356.626	99.56
356.853	96.56
357.08	101.56
357.307	89.56
357.534	99.56
357.761	107.56
357.988	107.56
358.215	105.56
358.441	87.56
358.668	89.56
358.895	88.56
359.122	101.56
359.349	85.56
359.576	99.56
359.802	97.56
360.029	108.56
360.256	107.56
360.483	90.56
360.709	89.56
360.936	94.56
361.163	110.56
361.39	91.56
361.616	95.56
361.843	96.56
362.07	89.56
362.296	102.56
362.523	85.56
362.749	95.56
362.976	79.56
363.203	102.56
363.429	93.56
363.656	88.56
363.882	84.56
364.109	84.56
364.335	87.56
364.562	101.56
364.788	82.56
365.015	102.56
365.241	83.56
365.468	106.56
365.694	99.56
365.92	90.56
366.147	109.56
366.373	99.56
366.599	91.56
366.826	90.56
367.052	84.56
367.278	100.56
367.505	95.56
367.731	93.56
367.957	96.56
368.184	104.56
368.41	96.56
368.636	102.56
368.862	123.56
369.089	105.56
369.315	101.56
369.541	103.56
369.767	90.56
369.993	108.56
370.219	93.56
370.445	93.56
370.672	100.56
370.898	90.56
371.124	108.56
371.35	96.56
371.576	79.56
371.802	84.56
372.028	104.56
372.254	79.56
372.48	87.56
372.706	96.56
372.932	87.56
373.158	81.56
373.384	98.56
373.61	100.56
373.835	94.56
374.061	105.56
374.287	98.56
374.513	91.56
374.739	82.56
374.965	101.56
375.191	70.56
375.416	99.56
375.642	96.56
375.868	98.56
376.094	103.56
376.319	85.56
376.545	91.56
376.771	79.56
376.997	88.56
377.222	93.56
377.448	91.56
377.674	93.56
377.899	94.56
378.125	85.56
378.35	102.56
378.576	98.56
378.802	103.56
379.027	94.56
379.253	105.56
379.478	102.56
379.704	77.56
379.929	86.56
380.155	98.56
380.38	94.56
380.606	97.56
380.831	85.56
381.057	87.56
381.282	91.56
381.507	103.56
381.733	90.56
381.958	97.56
382.184	101.56
382.409	106.56
382.634	93.56
382.86	87.56
383.085	98.56
383.31	100.56
383.535	105.56
383.761	114.56
383.986	99.56
384.211	87.56
384.436	98.56
384.662	91.56
384.887	94.56
385.112	100.56
385.337	83.56
385.562	95.56
385.787	97.56
386.013	93.56
386.238	93.56
386.463	99.56
386.688	96.56
386.913	112.56
387.138	98.56
387.363	101.56
387.588	95.56
387.813	106.56
388.038	101.56
388.263	106.56
388.488	116.56
388.713	91.56
388.938	95.56
389.163	93.56
389.387	107.56
389.612	95.56
389.837	96.56
390.062	80.56
390.287	89.56
390.512	88.56
390.736	95.56
390.961	93.56
391.186	86.56
391.411	101.56
391.636	79.56
391.86	85.56
392.085	91.56
392.31	106.56
392.534	90.56
392.759	103.56
392.984	88.56
393.208	92.56
393.433	82.56
393.658	81.56
393.882	97.56
394.107	87.56
394.331	89.56
394.556	84.56
394.78	93.56
395.005	100.56
395.229	89.56
395.454	92.56
395.678	94.56
395.903	86.56
396.127	85.56
396.352	86.56
396.576	93.56
396.801	105.56
397.025	84.56
397.249	86.56
397.474	96.56
397.698	93.56
397.922	88.56
398.147	94.56
398.371	93.56
398.595	75.56
398.82	79.56
399.044	77.56
399.268	94.56
399.492	94.56
399.717	86.56
399.941	86.56
400.165	98.56
400.389	95.56
400.613	93.56
400.837	106.56
401.062	88.56
401.286	83.56
401.51	82.56
401.734	103.56
401.958	105.56
402.182	120.56
402.406	135.56
402.63	102.56
402.854	82.56
403.078	97.56
403.302	89.56
403.526	87.56
403.75	83.56
403.974	99.56
404.198	93.56
404.422	89.56
404.645	93.56
404.869	105.56
405.093	97.56
405.317	90.56
405.541	85.56
405.765	92.56
405.988	120.56
406.212	158.56
406.436	189.56
406.66	130.56
406.883	102.56
407.107	104.56
407.331	85.56
407.555	93.56
407.778	93.56
408.002	85.56
408.226	96.56
408.449	85.56
408.673	90.56
408.896	98.56
409.12	96.56
409.344	103.56
409.567	94.56
409.791	93.56
410.014	93.56
410.238	96.56
410.461	79.56
410.685	95.56
410.908	100.56
411.132	81.56
411.355	95.56
411.578	105.56
411.802	87.56
412.025	93.56
412.249	86.56
412.472	90.56
412.695	87.56
412.919	84.56
413.142	92.56
413.365	104.56
413.589	90.56
413.812	107.56
414.035	83.56
414.258	81.56
414.482	104.56
414.705	87.56
414.928	80.56
415.151	77.56
415.374	83.56
415.597	85.56
415.821	87.56
416.044	96.56
416.267	94.56
416.49	89.56
416.713	91.56
416.936	93.56
417.159	88.56
417.382	88.56
417.605	79.56
417.828	78.56
418.051	101.56
418.274	95.56
418.497	95.56
418.72	74.56
418.943	94.56
419.166	88.56
419.389	92.56
419.611	83.56
419.834	86.56
420.057	85.56
420.28	94.56
420.503	98.56
420.726	78.56
420.948	89.56
421.171	103.56
421.394	100.56
421.617	84.56
421.839	90.56
422.062	99.56
422.285	107.56
422.507	100.56
422.73	93.56
422.953	99.56
423.175	93.56
423.398	99.56
423.621	92.56
423.843	93.56
424.066	78.56
424.288	83.56
424.511	81.56
424.733	94.56
424.956	95.56
425.178	98.56
425.401	95.56
425.623	98.56
425.846	95.56
426.068	86.56
426.291	85.56
426.513	97.56
426.735	87.56
426.958	78.56
427.18	95.56
427.402	128.56
427.625	144.56
427.847	124.56
428.069	99.56
428.292	85.56
428.514	103.56
428.736	83.56
428.958	95.56
429.181	98.56
429.403	76.56
429.625	99.56
429.847	97.56
430.069	93.56
430.292	101.56
430.514	91.56
430.736	89.56
430.958	93.56
431.18	86.56
431.402	83.56
431.624	93.56
431.846	106.56
432.068	103.56
432.29	82.56
432.512	81.56
432.734	81.56
432.956	104.56
433.178	99.56
433.4	101.56
433.622	90.56
433.844	76.56
434.066	87.56
434.287	97.56
434.509	90.56
434.731	98.56
434.953	84.56
435.175	97.56
435.397	78.56
435.618	103.56
435.84	115.56
436.062	120.56
436.284	108.56
436.505	92.56
436.727	94.56
436.949	97.56
437.17	94.56
437.392	88.56
437.614	76.56
437.835	114.56
438.057	117.56
438.278	108.56
438.5	91.56
438.721	109.56
438.943	99.56
439.165	96.56
439.386	95.56
439.608	100.56
439.829	90.56
440.05	100.56
440.272	123.56
440.493	101.56
440.715	81.56
440.936	91.56
441.158	92.56
441.379	85.56
441.6	84.56
441.822	89.56
442.043	99.56
442.264	98.56
442.486	113.56
442.707	86.56
442.928	91.56
443.149	109.56
443.371	119.56
443.592	105.56
443.813	103.56
444.034	99.56
444.255	94.56
444.476	83.56
444.698	91.56
444.919	92.56
445.14	124.56
445.361	115.56
445.582	110.56
445.803	130.56
446.024	121.56
446.245	129.56
446.466	111.56
446.687	88.56
446.908	82.56
447.129	85.56
447.35	99.56
447.571	98.56
447.792	94.56
448.013	87.56
448.234	111.56
448.455	115.56
448.675	103.56
448.896	108.56
449.117	99.56
449.338	118.56
449.559	117.56
449.779	121.56
450	94.56
450.221	94.56
450.442	90.56
450.662	81.56
450.883	107.56
451.104	110.56
451.324	92.56
451.545	79.56
451.766	83.56
451.986	101.56
452.207	97.56
452.428	84.56
452.648	98.56
452.869	109.56
453.089	107.56
453.31	122.56
453.53	92.56
453.751	74.56
453.971	91.56
454.192	101.56
454.412	85.56
454.633	91.56
454.853	81.56
455.073	93.56
455.294	89.56
455.514	98.56
455.734	90.56
455.955	85.56
456.175	76.56
456.395	76.56
456.616	73.56
456.836	79.56
457.056	92.56
457.276	98.56
457.497	80.56
457.717	78.56
457.937	82.56
458.157	105.56
458.377	90.56
458.598	96.56
458.818	124.56
459.038	139.56
459.258	106.56
459.478	91.56
459.698	85.56
459.918	88.56
460.138	83.56
460.358	90.56
460.578	100.56
460.798	96.56
461.018	96.56
461.238	96.56
461.458	86.56
461.678	83.56
461.898	98.56
462.118	93.56
462.338	95.56
462.558	87.56
462.777	83.56
462.997	81.56
463.217	89.56
463.437	94.56
463.657	90.56
463.876	91.56
464.096	93.56
464.316	95.56
464.536	92.56
464.755	90.56
464.975	102.56
465.195	141.56
465.414	135.56
465.634	100.56
465.854	89.56
466.073	97.56
466.293	100.56
466.512	104.56
466.732	104.56
466.951	100.56
467.171	95.56
467.391	109.56
467.61	96.56
467.829	91.56
468.049	92.56
468.268	101.56
468.488	67.56
468.707	94.56
468.927	85.56
469.146	97.56
469.365	99.56
469.585	87.56
469.804	73.56
470.023	85.56
470.243	92.56
470.462	107.56
470.681	110.56
470.901	86.56
471.12	93.56
471.339	75.56
471.558	83.56
471.777	87.56
471.997	95.56
472.216	85.56
472.435	68.56
472.654	98.56
472.873	93.56
473.092	87.56
473.311	94.56
473.53	75.56
473.749	95.56
473.968	88.56
474.187	106.56
474.406	107.56
474.625	94.56
474.844	69.56
475.063	99.56
475.282	91.56
475.501	74.56
475.72	97.56
475.939	77.56
476.158	89.56
476.377	83.56
476.596	97.56
476.814	93.56
477.033	92.56
477.252	82.56
477.471	87.56
477.69	101.56
477.908	93.56
478.127	92.56
478.346	92.56
478.564	102.56
478.783	103.56
479.002	98.56
479.22	88.56
479.439	102.56
479.658	91.56
479.876	99.56
480.095	95.56
480.313	77.56
480.532	94.56
480.751	91.56
480.969	97.56
481.188	103.56
481.406	84.56
481.624	87.56
481.843	71.56
482.061	85.56
482.28	88.56
482.498	95.56
482.717	85.56
482.935	77.56
483.153	102.56
483.372	83.56
483.59	98.56
483.808	94.56
484.027	93.56
484.245	108.56
484.463	106.56
484.681	83.56
484.9	87.56
485.118	107.56
485.336	95.56
485.554	98.56
485.772	85.56
485.99	111.56
486.209	114.56
486.427	95.56
486.645	106.56
486.863	108.56
487.081	108.56
487.299	92.56
487.517	87.56
487.735	105.56
487.953	108.56
488.171	106.56
488.389	98.56
488.607	91.56
488.825	87.56
489.043	109.56
489.261	93.56
489.479	96.56
489.696	86.56
489.914	93.56
490.132	105.56
490.35	98.56
490.568	74.56
490.786	89.56
491.003	88.56
491.221	100.56
491.439	82.56
491.657	82.56
491.874	90.56
492.092	88.56
492.31	93.56
492.527	89.56
492.745	91.56
492.963	92.56
493.18	97.56
493.398	100.56
493.615	81.56
493.833	100.56
494.05	111.56
494.268	97.56
494.485	87.56
494.703	66.56
494.92	91.56
495.138	87.56
495.355	93.56
495.573	102.56
495.79	96.56
496.008	102.56
496.225	90.56
496.442	96.56
496.66	99.56
496.877	85.56
497.094	99.56
497.312	97.56
497.529	85.56
497.746	91.56
497.963	108.56
498.181	96.56
498.398	99.56
498.615	108.56
498.832	93.56
499.049	98.56
499.267	104.56
499.484	115.56
499.701	108.56
499.918	100.56
500.135	94.56
500.352	90.56
500.569	83.56
500.786	100.56
501.003	98.56
501.22	86.56
501.437	82.56
501.654	94.56
501.871	98.56
502.088	95.56
502.305	90.56
502.522	87.56
502.739	91.56
502.956	95.56
503.172	101.56
503.389	80.56
503.606	90.56
503.823	100.56
504.04	90.56
504.256	108.56
504.473	86.56
504.69	101.56
504.907	90.56
505.123	94.56
505.34	95.56
505.557	117.56
505.773	100.56
505.99	94.56
506.207	100.56
506.423	98.56
506.64	88.56
506.856	101.56
507.073	100.56
507.289	89.56
507.506	92.56
507.722	95.56
507.939	109.56
508.155	89.56
508.372	109.56
508.588	98.56
508.805	95.56
509.021	89.56
509.238	86.56
509.454	91.56
509.67	110.56
509.887	98.56
510.103	104.56
510.319	189.56
510.536	636.56
510.752	1986.56
510.968	521.56
511.184	137.56
511.401	92.56
511.617	99.56
511.833	107.56
512.049	94.56
512.265	93.56
512.481	108.56
512.698	90.56
512.914	97.56
513.13	94.56
513.346	93.56
513.562	89.56
513.778	98.56
513.994	95.56
514.21	109.56
514.426	116.56
514.642	115.56
514.858	118.56
515.074	132.56
515.29	345.56
