Data from Uncirc_1984_H10_HRD10591_00019.txt Node
Date: Wed Jan 03 12:21:41 EST 2024
User: Yrep
Spectrometer: HR+D1059
Trigger mode: 1
Integration Time (sec): 1.000000E-1
Scans to average: 1
Electric dark correction enabled: true
Nonlinearity correction enabled: false
Boxcar width: 0
XAxis mode: Wavelengths
Number of Pixels in Spectrum: 2048
>>>>>Begin Spectral Data<<<<<
223.165	-12.62
223.4	-12.62
223.635	-12.62
223.869	-13.62
224.104	-29.62
224.338	-2.62
224.573	-6.62
224.808	-9.62
225.042	-12.62
225.277	-3.62
225.511	-12.62
225.746	-0.62
225.98	-2.62
226.215	13.38
226.449	17.38
226.683	21.38
226.918	31.38
227.152	23.38
227.387	23.38
227.621	32.38
227.856	58.38
228.09	56.38
228.324	48.38
228.559	56.38
228.793	42.38
229.027	68.38
229.262	71.38
229.496	57.38
229.73	65.38
229.964	63.38
230.199	79.38
230.433	74.38
230.667	80.38
230.901	75.38
231.136	75.38
231.37	86.38
231.604	69.38
231.838	70.38
232.072	81.38
232.306	74.38
232.541	82.38
232.775	62.38
233.009	71.38
233.243	78.38
233.477	94.38
233.711	74.38
233.945	68.38
234.179	84.38
234.413	83.38
234.647	86.38
234.881	78.38
235.115	78.38
235.349	74.38
235.583	80.38
235.817	83.38
236.051	92.38
236.285	70.38
236.519	66.38
236.753	75.38
236.987	74.38
237.221	80.38
237.455	85.38
237.689	76.38
237.922	67.38
238.156	72.38
238.39	90.38
238.624	60.38
238.858	84.38
239.091	85.38
239.325	80.38
239.559	84.38
239.793	85.38
240.027	73.38
240.26	88.38
240.494	87.38
240.728	77.38
240.961	92.38
241.195	88.38
241.429	54.38
241.662	79.38
241.896	86.38
242.13	74.38
242.363	84.38
242.597	64.38
242.83	84.38
243.064	75.38
243.298	76.38
243.531	82.38
243.765	84.38
243.998	87.38
244.232	70.38
244.465	78.38
244.699	87.38
244.932	76.38
245.166	76.38
245.399	78.38
245.633	65.38
245.866	87.38
246.099	62.38
246.333	71.38
246.566	86.38
246.8	88.38
247.033	80.38
247.266	73.38
247.5	83.38
247.733	74.38
247.966	73.38
248.2	74.38
248.433	76.38
248.666	73.38
248.899	91.38
249.133	70.38
249.366	103.38
249.599	107.38
249.832	71.38
250.066	69.38
250.299	72.38
250.532	84.38
250.765	75.38
250.998	65.38
251.231	92.38
251.465	88.38
251.698	86.38
251.931	79.38
252.164	79.38
252.397	85.38
252.63	76.38
252.863	88.38
253.096	74.38
253.329	88.38
253.562	74.38
253.795	75.38
254.028	79.38
254.261	78.38
254.494	84.38
254.727	82.38
254.96	82.38
255.193	84.38
255.426	75.38
255.659	78.38
255.892	70.38
256.124	86.38
256.357	86.38
256.59	87.38
256.823	78.38
257.056	69.38
257.289	79.38
257.521	84.38
257.754	82.38
257.987	89.38
258.22	89.38
258.452	95.38
258.685	94.38
258.918	72.38
259.151	88.38
259.383	85.38
259.616	83.38
259.849	86.38
260.081	84.38
260.314	90.38
260.547	87.38
260.779	86.38
261.012	70.38
261.244	87.38
261.477	90.38
261.71	104.38
261.942	109.38
262.175	114.38
262.407	96.38
262.64	82.38
262.872	83.38
263.105	80.38
263.337	87.38
263.57	72.38
263.802	94.38
264.035	83.38
264.267	93.38
264.499	74.38
264.732	85.38
264.964	86.38
265.197	83.38
265.429	74.38
265.661	83.38
265.894	89.38
266.126	84.38
266.358	83.38
266.591	85.38
266.823	79.38
267.055	88.38
267.287	75.38
267.52	82.38
267.752	86.38
267.984	85.38
268.216	74.38
268.448	78.38
268.681	63.38
268.913	75.38
269.145	79.38
269.377	89.38
269.609	83.38
269.841	74.38
270.073	85.38
270.306	80.38
270.538	85.38
270.77	84.38
271.002	88.38
271.234	99.38
271.466	82.38
271.698	94.38
271.93	86.38
272.162	83.38
272.394	86.38
272.626	85.38
272.858	74.38
273.09	83.38
273.322	90.38
273.553	87.38
273.785	89.38
274.017	80.38
274.249	77.38
274.481	71.38
274.713	88.38
274.945	89.38
275.176	96.38
275.408	82.38
275.64	107.38
275.872	97.38
276.104	88.38
276.335	85.38
276.567	95.38
276.799	101.38
277.031	92.38
277.262	72.38
277.494	82.38
277.726	86.38
277.957	85.38
278.189	77.38
278.421	84.38
278.652	91.38
278.884	90.38
279.115	81.38
279.347	94.38
279.579	82.38
279.81	94.38
280.042	86.38
280.273	76.38
280.505	87.38
280.736	88.38
280.968	89.38
281.199	97.38
281.431	91.38
281.662	86.38
281.894	96.38
282.125	90.38
282.356	97.38
282.588	121.38
282.819	111.38
283.051	75.38
283.282	73.38
283.513	84.38
283.745	78.38
283.976	73.38
284.207	78.38
284.439	101.38
284.67	86.38
284.901	86.38
285.132	79.38
285.364	85.38
285.595	87.38
285.826	83.38
286.057	90.38
286.288	85.38
286.52	69.38
286.751	83.38
286.982	80.38
287.213	83.38
287.444	93.38
287.675	92.38
287.906	99.38
288.138	83.38
288.369	88.38
288.6	85.38
288.831	81.38
289.062	92.38
289.293	90.38
289.524	76.38
289.755	93.38
289.986	91.38
290.217	89.38
290.448	92.38
290.679	95.38
290.91	102.38
291.141	85.38
291.371	89.38
291.602	92.38
291.833	82.38
292.064	76.38
292.295	88.38
292.526	73.38
292.757	75.38
292.987	94.38
293.218	85.38
293.449	103.38
293.68	102.38
293.91	102.38
294.141	93.38
294.372	87.38
294.603	83.38
294.833	88.38
295.064	82.38
295.295	88.38
295.525	102.38
295.756	98.38
295.987	99.38
296.217	115.38
296.448	107.38
296.679	94.38
296.909	87.38
297.14	97.38
297.37	85.38
297.601	94.38
297.831	87.38
298.062	85.38
298.292	87.38
298.523	83.38
298.753	84.38
298.984	86.38
299.214	84.38
299.445	88.38
299.675	96.38
299.905	87.38
300.136	100.38
300.366	91.38
300.597	91.38
300.827	91.38
301.057	100.38
301.288	94.38
301.518	87.38
301.748	84.38
301.979	105.38
302.209	77.38
302.439	75.38
302.669	90.38
302.9	89.38
303.13	78.38
303.36	92.38
303.59	95.38
303.82	104.38
304.051	92.38
304.281	102.38
304.511	99.38
304.741	74.38
304.971	88.38
305.201	80.38
305.431	94.38
305.661	73.38
305.891	96.38
306.121	83.38
306.352	104.38
306.582	110.38
306.812	91.38
307.042	89.38
307.272	85.38
307.502	100.38
307.731	106.38
307.961	95.38
308.191	91.38
308.421	90.38
308.651	103.38
308.881	83.38
309.111	90.38
309.341	74.38
309.571	102.38
309.8	100.38
310.03	97.38
310.26	104.38
310.49	105.38
310.72	104.38
310.949	94.38
311.179	112.38
311.409	104.38
311.639	94.38
311.868	84.38
312.098	103.38
312.328	96.38
312.557	89.38
312.787	101.38
313.017	97.38
313.246	90.38
313.476	81.38
313.706	84.38
313.935	89.38
314.165	91.38
314.394	104.38
314.624	86.38
314.853	101.38
315.083	93.38
315.312	98.38
315.542	104.38
315.771	94.38
316.001	87.38
316.23	86.38
316.46	86.38
316.689	76.38
316.919	82.38
317.148	95.38
317.377	85.38
317.607	81.38
317.836	83.38
318.065	83.38
318.295	95.38
318.524	87.38
318.753	95.38
318.983	86.38
319.212	103.38
319.441	98.38
319.67	100.38
319.9	88.38
320.129	80.38
320.358	97.38
320.587	94.38
320.816	98.38
321.046	103.38
321.275	92.38
321.504	100.38
321.733	96.38
321.962	95.38
322.191	98.38
322.42	105.38
322.649	86.38
322.878	107.38
323.108	121.38
323.337	127.38
323.566	112.38
323.795	141.38
324.024	179.38
324.253	316.38
324.482	682.38
324.71	1349.38
324.939	1808.38
325.168	675.38
325.397	222.38
325.626	130.38
325.855	113.38
326.084	118.38
326.313	114.38
326.542	149.38
326.77	196.38
326.999	378.38
327.228	754.38
327.457	1372.38
327.686	1088.38
327.914	310.38
328.143	154.38
328.372	133.38
328.6	113.38
328.829	104.38
329.058	110.38
329.287	101.38
329.515	113.38
329.744	91.38
329.972	91.38
330.201	94.38
330.43	108.38
330.658	99.38
330.887	102.38
331.115	107.38
331.344	88.38
331.572	94.38
331.801	96.38
332.03	84.38
332.258	113.38
332.486	88.38
332.715	98.38
332.943	87.38
333.172	91.38
333.4	96.38
333.629	112.38
333.857	90.38
334.085	100.38
334.314	84.38
334.542	86.38
334.771	90.38
334.999	96.38
335.227	91.38
335.455	98.38
335.684	112.38
335.912	102.38
336.14	86.38
336.369	91.38
336.597	102.38
336.825	96.38
337.053	105.38
337.281	99.38
337.51	87.38
337.738	92.38
337.966	73.38
338.194	98.38
338.422	101.38
338.65	88.38
338.878	94.38
339.106	81.38
339.334	91.38
339.562	74.38
339.79	92.38
340.018	87.38
340.246	100.38
340.474	104.38
340.702	94.38
340.93	91.38
341.158	84.38
341.386	97.38
341.614	99.38
341.842	83.38
342.07	96.38
342.298	93.38
342.526	96.38
342.754	100.38
342.981	92.38
343.209	87.38
343.437	102.38
343.665	92.38
343.893	75.38
344.12	88.38
344.348	83.38
344.576	99.38
344.804	85.38
345.031	96.38
345.259	91.38
345.487	102.38
345.714	97.38
345.942	80.38
346.17	80.38
346.397	89.38
346.625	92.38
346.853	82.38
347.08	88.38
347.308	99.38
347.535	108.38
347.763	92.38
347.99	86.38
348.218	93.38
348.445	84.38
348.673	85.38
348.9	97.38
349.128	99.38
349.355	94.38
349.583	98.38
349.81	84.38
350.037	95.38
350.265	98.38
350.492	90.38
350.72	99.38
350.947	95.38
351.174	106.38
351.402	108.38
351.629	99.38
351.856	89.38
352.083	99.38
352.311	104.38
352.538	106.38
352.765	111.38
352.992	107.38
353.22	103.38
353.447	111.38
353.674	104.38
353.901	91.38
354.128	102.38
354.355	108.38
354.583	91.38
354.81	86.38
355.037	98.38
355.264	102.38
355.491	107.38
355.718	90.38
355.945	92.38
356.172	92.38
356.399	88.38
356.626	102.38
356.853	92.38
357.08	117.38
357.307	85.38
357.534	103.38
357.761	81.38
357.988	85.38
358.215	95.38
358.441	89.38
358.668	104.38
358.895	91.38
359.122	86.38
359.349	93.38
359.576	91.38
359.802	89.38
360.029	92.38
360.256	112.38
360.483	100.38
360.709	99.38
360.936	102.38
361.163	103.38
361.39	87.38
361.616	82.38
361.843	99.38
362.07	100.38
362.296	104.38
362.523	98.38
362.749	78.38
362.976	76.38
363.203	94.38
363.429	82.38
363.656	80.38
363.882	91.38
364.109	103.38
364.335	81.38
364.562	79.38
364.788	97.38
365.015	80.38
365.241	91.38
365.468	104.38
365.694	95.38
365.92	90.38
366.147	84.38
366.373	96.38
366.599	94.38
366.826	83.38
367.052	83.38
367.278	97.38
367.505	79.38
367.731	101.38
367.957	95.38
368.184	88.38
368.41	121.38
368.636	105.38
368.862	115.38
369.089	124.38
369.315	88.38
369.541	103.38
369.767	80.38
369.993	70.38
370.219	90.38
370.445	88.38
370.672	89.38
370.898	82.38
371.124	83.38
371.35	94.38
371.576	79.38
371.802	77.38
372.028	98.38
372.254	84.38
372.48	86.38
372.706	78.38
372.932	80.38
373.158	84.38
373.384	88.38
373.61	92.38
373.835	92.38
374.061	105.38
374.287	83.38
374.513	91.38
374.739	96.38
374.965	99.38
375.191	86.38
375.416	90.38
375.642	102.38
375.868	83.38
376.094	90.38
376.319	98.38
376.545	99.38
376.771	87.38
376.997	88.38
377.222	90.38
377.448	102.38
377.674	97.38
377.899	86.38
378.125	80.38
378.35	96.38
378.576	87.38
378.802	94.38
379.027	104.38
379.253	75.38
379.478	95.38
379.704	90.38
379.929	94.38
380.155	102.38
380.38	103.38
380.606	75.38
380.831	90.38
381.057	97.38
381.282	96.38
381.507	93.38
381.733	75.38
381.958	80.38
382.184	110.38
382.409	90.38
382.634	95.38
382.86	94.38
383.085	92.38
383.31	83.38
383.535	105.38
383.761	99.38
383.986	103.38
384.211	100.38
384.436	94.38
384.662	95.38
384.887	96.38
385.112	96.38
385.337	104.38
385.562	103.38
385.787	106.38
386.013	102.38
386.238	99.38
386.463	102.38
386.688	83.38
386.913	94.38
387.138	115.38
387.363	96.38
387.588	101.38
387.813	84.38
388.038	98.38
388.263	102.38
388.488	89.38
388.713	112.38
388.938	91.38
389.163	90.38
389.387	90.38
389.612	95.38
389.837	97.38
390.062	79.38
390.287	90.38
390.512	84.38
390.736	90.38
390.961	88.38
391.186	88.38
391.411	98.38
391.636	94.38
391.86	80.38
392.085	75.38
392.31	89.38
392.534	87.38
392.759	88.38
392.984	81.38
393.208	82.38
393.433	95.38
393.658	99.38
393.882	94.38
394.107	88.38
394.331	79.38
394.556	84.38
394.78	87.38
395.005	89.38
395.229	84.38
395.454	110.38
395.678	82.38
395.903	89.38
396.127	76.38
396.352	94.38
396.576	84.38
396.801	102.38
397.025	70.38
397.249	88.38
397.474	87.38
397.698	96.38
397.922	84.38
398.147	90.38
398.371	80.38
398.595	80.38
398.82	94.38
399.044	83.38
399.268	88.38
399.492	109.38
399.717	101.38
399.941	94.38
400.165	81.38
400.389	78.38
400.613	65.38
400.837	78.38
401.062	78.38
401.286	67.38
401.51	92.38
401.734	81.38
401.958	82.38
402.182	116.38
402.406	154.38
402.63	107.38
402.854	92.38
403.078	86.38
403.302	83.38
403.526	85.38
403.75	89.38
403.974	101.38
404.198	92.38
404.422	73.38
404.645	88.38
404.869	88.38
405.093	72.38
405.317	102.38
405.541	90.38
405.765	100.38
405.988	104.38
406.212	157.38
406.436	180.38
406.66	127.38
406.883	94.38
407.107	100.38
407.331	90.38
407.555	92.38
407.778	78.38
408.002	87.38
408.226	98.38
408.449	91.38
408.673	88.38
408.896	108.38
409.12	84.38
409.344	91.38
409.567	82.38
409.791	80.38
410.014	82.38
410.238	96.38
410.461	78.38
410.685	106.38
410.908	103.38
411.132	99.38
411.355	101.38
411.578	91.38
411.802	84.38
412.025	92.38
412.249	83.38
412.472	73.38
412.695	86.38
412.919	79.38
413.142	91.38
413.365	87.38
413.589	77.38
413.812	70.38
414.035	84.38
414.258	93.38
414.482	75.38
414.705	91.38
414.928	88.38
415.151	77.38
415.374	101.38
415.597	96.38
415.821	109.38
416.044	94.38
416.267	96.38
416.49	80.38
416.713	84.38
416.936	84.38
417.159	88.38
417.382	82.38
417.605	95.38
417.828	89.38
418.051	82.38
418.274	84.38
418.497	84.38
418.72	83.38
418.943	91.38
419.166	73.38
419.389	90.38
419.611	72.38
419.834	87.38
420.057	91.38
420.28	83.38
420.503	88.38
420.726	84.38
420.948	80.38
421.171	101.38
421.394	92.38
421.617	88.38
421.839	95.38
422.062	91.38
422.285	92.38
422.507	99.38
422.73	92.38
422.953	97.38
423.175	78.38
423.398	90.38
423.621	85.38
423.843	89.38
424.066	95.38
424.288	62.38
424.511	84.38
424.733	96.38
424.956	105.38
425.178	114.38
425.401	92.38
425.623	98.38
425.846	95.38
426.068	88.38
426.291	75.38
426.513	99.38
426.735	88.38
426.958	102.38
427.18	104.38
427.402	128.38
427.625	146.38
427.847	115.38
428.069	104.38
428.292	106.38
428.514	92.38
428.736	62.38
428.958	84.38
429.181	79.38
429.403	88.38
429.625	90.38
429.847	92.38
430.069	99.38
430.292	95.38
430.514	84.38
430.736	62.38
430.958	82.38
431.18	88.38
431.402	86.38
431.624	74.38
431.846	86.38
432.068	87.38
432.29	95.38
432.512	83.38
432.734	100.38
432.956	87.38
433.178	91.38
433.4	94.38
433.622	87.38
433.844	104.38
434.066	83.38
434.287	94.38
434.509	90.38
434.731	89.38
434.953	106.38
435.175	105.38
435.397	78.38
435.618	106.38
435.84	94.38
436.062	106.38
436.284	97.38
436.505	87.38
436.727	94.38
436.949	82.38
437.17	91.38
437.392	89.38
437.614	96.38
437.835	99.38
438.057	98.38
438.278	100.38
438.5	107.38
438.721	103.38
438.943	103.38
439.165	97.38
439.386	83.38
439.608	83.38
439.829	95.38
440.05	105.38
440.272	106.38
440.493	89.38
440.715	84.38
440.936	79.38
441.158	94.38
441.379	87.38
441.6	80.38
441.822	100.38
442.043	91.38
442.264	102.38
442.486	109.38
442.707	89.38
442.928	82.38
443.149	116.38
443.371	124.38
443.592	99.38
443.813	112.38
444.034	97.38
444.255	87.38
444.476	76.38
444.698	88.38
444.919	83.38
445.14	133.38
445.361	119.38
445.582	113.38
445.803	132.38
446.024	135.38
446.245	121.38
446.466	101.38
446.687	89.38
446.908	86.38
447.129	76.38
447.35	90.38
447.571	97.38
447.792	91.38
448.013	103.38
448.234	91.38
448.455	92.38
448.675	104.38
448.896	111.38
449.117	98.38
449.338	94.38
449.559	123.38
449.779	118.38
450	92.38
450.221	87.38
450.442	85.38
450.662	94.38
450.883	96.38
451.104	99.38
451.324	89.38
451.545	89.38
451.766	85.38
451.986	94.38
452.207	78.38
452.428	82.38
452.648	84.38
452.869	97.38
453.089	99.38
453.31	108.38
453.53	76.38
453.751	92.38
453.971	100.38
454.192	99.38
454.412	87.38
454.633	88.38
454.853	91.38
455.073	83.38
455.294	95.38
455.514	99.38
455.734	81.38
455.955	83.38
456.175	81.38
456.395	98.38
456.616	92.38
456.836	91.38
457.056	93.38
457.276	84.38
457.497	84.38
457.717	89.38
457.937	64.38
458.157	86.38
458.377	74.38
458.598	106.38
458.818	132.38
459.038	138.38
459.258	96.38
459.478	87.38
459.698	79.38
459.918	78.38
460.138	88.38
460.358	72.38
460.578	97.38
460.798	87.38
461.018	82.38
461.238	90.38
461.458	78.38
461.678	81.38
461.898	102.38
462.118	72.38
462.338	87.38
462.558	82.38
462.777	82.38
462.997	85.38
463.217	87.38
463.437	86.38
463.657	95.38
463.876	83.38
464.096	86.38
464.316	82.38
464.536	96.38
464.755	100.38
464.975	96.38
465.195	131.38
465.414	127.38
465.634	82.38
465.854	90.38
466.073	82.38
466.293	99.38
466.512	82.38
466.732	78.38
466.951	82.38
467.171	91.38
467.391	92.38
467.61	99.38
467.829	87.38
468.049	79.38
468.268	95.38
468.488	91.38
468.707	94.38
468.927	98.38
469.146	77.38
469.365	91.38
469.585	85.38
469.804	97.38
470.023	82.38
470.243	83.38
470.462	97.38
470.681	89.38
470.901	89.38
471.12	94.38
471.339	84.38
471.558	70.38
471.777	93.38
471.997	95.38
472.216	92.38
472.435	95.38
472.654	82.38
472.873	80.38
473.092	75.38
473.311	92.38
473.53	82.38
473.749	98.38
473.968	89.38
474.187	100.38
474.406	94.38
474.625	89.38
474.844	90.38
475.063	91.38
475.282	98.38
475.501	84.38
475.72	96.38
475.939	91.38
476.158	85.38
476.377	75.38
476.596	93.38
476.814	92.38
477.033	84.38
477.252	94.38
477.471	80.38
477.69	91.38
477.908	99.38
478.127	91.38
478.346	92.38
478.564	91.38
478.783	107.38
479.002	83.38
479.22	98.38
479.439	88.38
479.658	82.38
479.876	96.38
480.095	95.38
480.313	91.38
480.532	83.38
480.751	99.38
480.969	102.38
481.188	93.38
481.406	97.38
481.624	81.38
481.843	103.38
482.061	87.38
482.28	88.38
482.498	90.38
482.717	92.38
482.935	96.38
483.153	87.38
483.372	96.38
483.59	94.38
483.808	84.38
484.027	86.38
484.245	95.38
484.463	79.38
484.681	101.38
484.9	91.38
485.118	105.38
485.336	102.38
485.554	104.38
485.772	102.38
485.99	113.38
486.209	95.38
486.427	97.38
486.645	110.38
486.863	87.38
487.081	100.38
487.299	95.38
487.517	95.38
487.735	85.38
487.953	93.38
488.171	97.38
488.389	104.38
488.607	90.38
488.825	99.38
489.043	90.38
489.261	91.38
489.479	77.38
489.696	94.38
489.914	92.38
490.132	101.38
490.35	90.38
490.568	94.38
490.786	94.38
491.003	94.38
491.221	93.38
491.439	100.38
491.657	88.38
491.874	87.38
492.092	91.38
492.31	101.38
492.527	82.38
492.745	81.38
492.963	75.38
493.18	91.38
493.398	101.38
493.615	91.38
493.833	98.38
494.05	92.38
494.268	91.38
494.485	102.38
494.703	89.38
494.92	79.38
495.138	97.38
495.355	91.38
495.573	90.38
495.79	96.38
496.008	95.38
496.225	101.38
496.442	95.38
496.66	95.38
496.877	86.38
497.094	101.38
497.312	93.38
497.529	87.38
497.746	83.38
497.963	81.38
498.181	100.38
498.398	91.38
498.615	107.38
498.832	107.38
499.049	101.38
499.267	95.38
499.484	105.38
499.701	95.38
499.918	100.38
500.135	88.38
500.352	88.38
500.569	88.38
500.786	97.38
501.003	85.38
501.22	95.38
501.437	92.38
501.654	91.38
501.871	108.38
502.088	96.38
502.305	88.38
502.522	107.38
502.739	88.38
502.956	87.38
503.172	94.38
503.389	99.38
503.606	101.38
503.823	97.38
504.04	87.38
504.256	100.38
504.473	99.38
504.69	94.38
504.907	99.38
505.123	95.38
505.34	93.38
505.557	89.38
505.773	101.38
505.99	88.38
506.207	109.38
506.423	92.38
506.64	93.38
506.856	83.38
507.073	92.38
507.289	89.38
507.506	98.38
507.722	90.38
507.939	98.38
508.155	83.38
508.372	84.38
508.588	100.38
508.805	90.38
509.021	86.38
509.238	102.38
509.454	106.38
509.67	90.38
509.887	98.38
510.103	112.38
510.319	187.38
510.536	634.38
510.752	2075.38
510.968	576.38
511.184	144.38
511.401	100.38
511.617	113.38
511.833	94.38
512.049	84.38
512.265	102.38
512.481	86.38
512.698	103.38
512.914	102.38
513.13	89.38
513.346	91.38
513.562	97.38
513.778	100.38
513.994	104.38
514.21	94.38
514.426	114.38
514.642	132.38
514.858	115.38
515.074	135.38
515.29	362.38
515.506	1158.38
515.721	450.38
515.937	141.38
516.153	114.38
