Data from Uncirc_1984_H10_HRD10591_00047.txt Node
Date: Wed Jan 03 12:21:46 EST 2024
User: Yrep
Spectrometer: HR+D1059
Trigger mode: 1
Integration Time (sec): 1.000000E-1
Scans to average: 1
Electric dark correction enabled: true
Nonlinearity correction enabled: false
Boxcar width: 0
XAxis mode: Wavelengths
Number of Pixels in Spectrum: 2048
>>>>>Begin Spectral Data<<<<<
223.165	-4.69
223.4	-4.69
223.635	-4.69
223.869	-19.69
224.104	-36.69
224.338	-11.69
224.573	4.31
224.808	-15.69
225.042	-10.69
225.277	-5.69
225.511	-8.69
225.746	9.31
225.98	0.31
226.215	3.31
226.449	17.31
226.683	23.31
226.918	36.31
227.152	19.31
227.387	43.31
227.621	48.31
227.856	51.31
228.09	43.31
228.324	48.31
228.559	49.31
228.793	64.31
229.027	79.31
229.262	63.31
229.496	59.31
229.73	64.31
229.964	88.31
230.199	66.31
230.433	82.31
230.667	69.31
230.901	79.31
231.136	82.31
231.37	95.31
231.604	79.31
231.838	93.31
232.072	75.31
232.306	87.31
232.541	88.31
232.775	80.31
233.009	77.31
233.243	85.31
233.477	81.31
233.711	82.31
233.945	70.31
234.179	69.31
234.413	73.31
234.647	90.31
234.881	83.31
235.115	95.31
235.349	79.31
235.583	79.31
235.817	71.31
236.051	95.31
236.285	87.31
236.519	71.31
236.753	89.31
236.987	76.31
237.221	76.31
237.455	80.31
237.689	78.31
237.922	64.31
238.156	73.31
238.39	77.31
238.624	73.31
238.858	67.31
239.091	74.31
239.325	95.31
239.559	70.31
239.793	84.31
240.027	88.31
240.26	74.31
240.494	79.31
240.728	77.31
240.961	75.31
241.195	76.31
241.429	86.31
241.662	72.31
241.896	72.31
242.13	72.31
242.363	73.31
242.597	72.31
242.83	71.31
243.064	63.31
243.298	79.31
243.531	79.31
243.765	65.31
243.998	67.31
244.232	89.31
244.465	77.31
244.699	90.31
244.932	92.31
245.166	73.31
245.399	70.31
245.633	95.31
245.866	75.31
246.099	92.31
246.333	81.31
246.566	85.31
246.8	74.31
247.033	72.31
247.266	85.31
247.5	79.31
247.733	77.31
247.966	85.31
248.2	88.31
248.433	71.31
248.666	72.31
248.899	81.31
249.133	83.31
249.366	83.31
249.599	94.31
249.832	76.31
250.066	88.31
250.299	74.31
250.532	90.31
250.765	97.31
250.998	86.31
251.231	91.31
251.465	72.31
251.698	83.31
251.931	84.31
252.164	81.31
252.397	63.31
252.63	71.31
252.863	80.31
253.096	83.31
253.329	72.31
253.562	93.31
253.795	75.31
254.028	89.31
254.261	68.31
254.494	71.31
254.727	84.31
254.96	83.31
255.193	79.31
255.426	81.31
255.659	81.31
255.892	87.31
256.124	84.31
256.357	92.31
256.59	85.31
256.823	88.31
257.056	84.31
257.289	102.31
257.521	83.31
257.754	89.31
257.987	80.31
258.22	76.31
258.452	61.31
258.685	77.31
258.918	86.31
259.151	95.31
259.383	96.31
259.616	87.31
259.849	75.31
260.081	91.31
260.314	87.31
260.547	86.31
260.779	82.31
261.012	86.31
261.244	87.31
261.477	86.31
261.71	101.31
261.942	103.31
262.175	103.31
262.407	92.31
262.64	83.31
262.872	84.31
263.105	84.31
263.337	69.31
263.57	76.31
263.802	82.31
264.035	90.31
264.267	84.31
264.499	83.31
264.732	83.31
264.964	89.31
265.197	87.31
265.429	88.31
265.661	91.31
265.894	94.31
266.126	75.31
266.358	87.31
266.591	66.31
266.823	71.31
267.055	77.31
267.287	86.31
267.52	93.31
267.752	89.31
267.984	87.31
268.216	65.31
268.448	79.31
268.681	89.31
268.913	92.31
269.145	88.31
269.377	85.31
269.609	98.31
269.841	89.31
270.073	90.31
270.306	76.31
270.538	90.31
270.77	92.31
271.002	76.31
271.234	103.31
271.466	98.31
271.698	88.31
271.93	93.31
272.162	83.31
272.394	91.31
272.626	71.31
272.858	92.31
273.09	87.31
273.322	86.31
273.553	72.31
273.785	95.31
274.017	87.31
274.249	94.31
274.481	87.31
274.713	86.31
274.945	76.31
275.176	85.31
275.408	84.31
275.64	81.31
275.872	85.31
276.104	83.31
276.335	79.31
276.567	95.31
276.799	98.31
277.031	97.31
277.262	90.31
277.494	69.31
277.726	80.31
277.957	89.31
278.189	96.31
278.421	97.31
278.652	75.31
278.884	87.31
279.115	80.31
279.347	90.31
279.579	74.31
279.81	71.31
280.042	87.31
280.273	96.31
280.505	81.31
280.736	90.31
280.968	87.31
281.199	87.31
281.431	89.31
281.662	90.31
281.894	70.31
282.125	90.31
282.356	111.31
282.588	130.31
282.819	98.31
283.051	92.31
283.282	90.31
283.513	90.31
283.745	90.31
283.976	84.31
284.207	86.31
284.439	92.31
284.67	88.31
284.901	89.31
285.132	76.31
285.364	83.31
285.595	83.31
285.826	80.31
286.057	76.31
286.288	84.31
286.52	68.31
286.751	83.31
286.982	81.31
287.213	71.31
287.444	87.31
287.675	91.31
287.906	73.31
288.138	93.31
288.369	95.31
288.6	92.31
288.831	86.31
289.062	90.31
289.293	99.31
289.524	77.31
289.755	70.31
289.986	86.31
290.217	75.31
290.448	91.31
290.679	97.31
290.91	87.31
291.141	82.31
291.371	80.31
291.602	91.31
291.833	87.31
292.064	101.31
292.295	83.31
292.526	83.31
292.757	96.31
292.987	87.31
293.218	83.31
293.449	85.31
293.68	96.31
293.91	97.31
294.141	97.31
294.372	87.31
294.603	79.31
294.833	105.31
295.064	85.31
295.295	83.31
295.525	86.31
295.756	106.31
295.987	104.31
296.217	120.31
296.448	109.31
296.679	87.31
296.909	91.31
297.14	87.31
297.37	70.31
297.601	106.31
297.831	89.31
298.062	101.31
298.292	84.31
298.523	100.31
298.753	77.31
298.984	81.31
299.214	101.31
299.445	88.31
299.675	80.31
299.905	93.31
300.136	94.31
300.366	91.31
300.597	93.31
300.827	81.31
301.057	95.31
301.288	91.31
301.518	77.31
301.748	83.31
301.979	105.31
302.209	102.31
302.439	80.31
302.669	85.31
302.9	93.31
303.13	90.31
303.36	95.31
303.59	91.31
303.82	108.31
304.051	91.31
304.281	85.31
304.511	100.31
304.741	99.31
304.971	93.31
305.201	95.31
305.431	100.31
305.661	88.31
305.891	87.31
306.121	103.31
306.352	108.31
306.582	103.31
306.812	99.31
307.042	99.31
307.272	96.31
307.502	92.31
307.731	89.31
307.961	91.31
308.191	89.31
308.421	99.31
308.651	77.31
308.881	94.31
309.111	91.31
309.341	91.31
309.571	96.31
309.8	74.31
310.03	90.31
310.26	109.31
310.49	86.31
310.72	98.31
310.949	106.31
311.179	98.31
311.409	85.31
311.639	87.31
311.868	96.31
312.098	95.31
312.328	96.31
312.557	93.31
312.787	103.31
313.017	88.31
313.246	90.31
313.476	85.31
313.706	99.31
313.935	115.31
314.165	93.31
314.394	100.31
314.624	85.31
314.853	98.31
315.083	84.31
315.312	99.31
315.542	71.31
315.771	82.31
316.001	87.31
316.23	87.31
316.46	101.31
316.689	89.31
316.919	86.31
317.148	97.31
317.377	99.31
317.607	99.31
317.836	91.31
318.065	105.31
318.295	92.31
318.524	94.31
318.753	93.31
318.983	97.31
319.212	120.31
319.441	95.31
319.67	93.31
319.9	90.31
320.129	90.31
320.358	92.31
320.587	113.31
320.816	92.31
321.046	104.31
321.275	103.31
321.504	96.31
321.733	94.31
321.962	87.31
322.191	98.31
322.42	107.31
322.649	125.31
322.878	103.31
323.108	115.31
323.337	123.31
323.566	122.31
323.795	130.31
324.024	179.31
324.253	340.31
324.482	729.31
324.71	1492.31
324.939	2035.31
325.168	762.31
325.397	224.31
325.626	138.31
325.855	117.31
326.084	101.31
326.313	118.31
326.542	140.31
326.77	218.31
326.999	417.31
327.228	874.31
327.457	1553.31
327.686	1269.31
327.914	347.31
328.143	170.31
328.372	136.31
328.6	133.31
328.829	122.31
329.058	113.31
329.287	125.31
329.515	103.31
329.744	97.31
329.972	97.31
330.201	93.31
330.43	115.31
330.658	113.31
330.887	122.31
331.115	125.31
331.344	103.31
331.572	105.31
331.801	103.31
332.03	99.31
332.258	97.31
332.486	102.31
332.715	102.31
332.943	97.31
333.172	91.31
333.4	103.31
333.629	105.31
333.857	115.31
334.085	103.31
334.314	91.31
334.542	97.31
334.771	107.31
334.999	83.31
335.227	105.31
335.455	88.31
335.684	103.31
335.912	113.31
336.14	102.31
336.369	94.31
336.597	99.31
336.825	109.31
337.053	83.31
337.281	91.31
337.51	98.31
337.738	80.31
337.966	100.31
338.194	92.31
338.422	95.31
338.65	90.31
338.878	92.31
339.106	83.31
339.334	89.31
339.562	85.31
339.79	90.31
340.018	84.31
340.246	102.31
340.474	89.31
340.702	88.31
340.93	97.31
341.158	84.31
341.386	92.31
341.614	97.31
341.842	79.31
342.07	93.31
342.298	84.31
342.526	84.31
342.754	90.31
342.981	106.31
343.209	87.31
343.437	103.31
343.665	76.31
343.893	75.31
344.12	92.31
344.348	87.31
344.576	89.31
344.804	84.31
345.031	108.31
345.259	87.31
345.487	87.31
345.714	100.31
345.942	90.31
346.17	96.31
346.397	100.31
346.625	95.31
346.853	101.31
347.08	105.31
347.308	91.31
347.535	84.31
347.763	84.31
347.99	99.31
348.218	105.31
348.445	90.31
348.673	91.31
348.9	116.31
349.128	102.31
349.355	93.31
349.583	88.31
349.81	89.31
350.037	94.31
350.265	88.31
350.492	88.31
350.72	106.31
350.947	101.31
351.174	119.31
351.402	107.31
351.629	92.31
351.856	92.31
352.083	105.31
352.311	102.31
352.538	106.31
352.765	100.31
352.992	111.31
353.22	106.31
353.447	107.31
353.674	104.31
353.901	106.31
354.128	104.31
354.355	98.31
354.583	90.31
354.81	84.31
355.037	100.31
355.264	83.31
355.491	82.31
355.718	93.31
355.945	106.31
356.172	91.31
356.399	96.31
356.626	99.31
356.853	91.31
357.08	91.31
357.307	98.31
357.534	88.31
357.761	95.31
357.988	95.31
358.215	101.31
358.441	88.31
358.668	79.31
358.895	91.31
359.122	99.31
359.349	90.31
359.576	89.31
359.802	99.31
360.029	100.31
360.256	92.31
360.483	93.31
360.709	87.31
360.936	82.31
361.163	95.31
361.39	104.31
361.616	93.31
361.843	92.31
362.07	87.31
362.296	88.31
362.523	99.31
362.749	83.31
362.976	85.31
363.203	92.31
363.429	95.31
363.656	79.31
363.882	89.31
364.109	97.31
364.335	91.31
364.562	82.31
364.788	95.31
365.015	92.31
365.241	91.31
365.468	99.31
365.694	117.31
365.92	90.31
366.147	93.31
366.373	94.31
366.599	91.31
366.826	99.31
367.052	92.31
367.278	86.31
367.505	102.31
367.731	96.31
367.957	93.31
368.184	99.31
368.41	93.31
368.636	93.31
368.862	112.31
369.089	93.31
369.315	89.31
369.541	91.31
369.767	90.31
369.993	95.31
370.219	108.31
370.445	88.31
370.672	76.31
370.898	83.31
371.124	91.31
371.35	98.31
371.576	75.31
371.802	80.31
372.028	97.31
372.254	80.31
372.48	71.31
372.706	100.31
372.932	90.31
373.158	100.31
373.384	91.31
373.61	90.31
373.835	100.31
374.061	95.31
374.287	98.31
374.513	83.31
374.739	78.31
374.965	90.31
375.191	91.31
375.416	91.31
375.642	88.31
375.868	93.31
376.094	87.31
376.319	81.31
376.545	77.31
376.771	85.31
376.997	99.31
377.222	87.31
377.448	76.31
377.674	99.31
377.899	97.31
378.125	95.31
378.35	106.31
378.576	84.31
378.802	102.31
379.027	96.31
379.253	85.31
379.478	78.31
379.704	73.31
379.929	81.31
380.155	93.31
380.38	104.31
380.606	100.31
380.831	100.31
381.057	88.31
381.282	99.31
381.507	92.31
381.733	99.31
381.958	79.31
382.184	96.31
382.409	92.31
382.634	99.31
382.86	95.31
383.085	99.31
383.31	112.31
383.535	98.31
383.761	99.31
383.986	92.31
384.211	91.31
384.436	94.31
384.662	87.31
384.887	93.31
385.112	99.31
385.337	84.31
385.562	94.31
385.787	85.31
386.013	96.31
386.238	92.31
386.463	95.31
386.688	117.31
386.913	97.31
387.138	96.31
387.363	100.31
387.588	100.31
387.813	96.31
388.038	89.31
388.263	109.31
388.488	113.31
388.713	97.31
388.938	90.31
389.163	100.31
389.387	106.31
389.612	103.31
389.837	94.31
390.062	95.31
390.287	91.31
390.512	87.31
390.736	88.31
390.961	87.31
391.186	92.31
391.411	102.31
391.636	90.31
391.86	97.31
392.085	81.31
392.31	92.31
392.534	91.31
392.759	79.31
392.984	93.31
393.208	89.31
393.433	89.31
393.658	83.31
393.882	92.31
394.107	85.31
394.331	75.31
394.556	79.31
394.78	78.31
395.005	99.31
395.229	92.31
395.454	97.31
395.678	93.31
395.903	93.31
396.127	89.31
396.352	86.31
396.576	91.31
396.801	77.31
397.025	81.31
397.249	91.31
397.474	86.31
397.698	79.31
397.922	94.31
398.147	88.31
398.371	78.31
398.595	95.31
398.82	103.31
399.044	95.31
399.268	80.31
399.492	93.31
399.717	100.31
399.941	83.31
400.165	80.31
400.389	90.31
400.613	95.31
400.837	92.31
401.062	103.31
401.286	89.31
401.51	82.31
401.734	89.31
401.958	103.31
402.182	115.31
402.406	153.31
402.63	122.31
402.854	102.31
403.078	96.31
403.302	97.31
403.526	88.31
403.75	87.31
403.974	79.31
404.198	100.31
404.422	102.31
404.645	84.31
404.869	70.31
405.093	94.31
405.317	92.31
405.541	94.31
405.765	87.31
405.988	105.31
406.212	155.31
406.436	202.31
406.66	130.31
406.883	99.31
407.107	88.31
407.331	86.31
407.555	98.31
407.778	92.31
408.002	85.31
408.226	84.31
408.449	88.31
408.673	87.31
408.896	95.31
409.12	95.31
409.344	79.31
409.567	92.31
409.791	88.31
410.014	105.31
410.238	102.31
410.461	89.31
410.685	101.31
410.908	106.31
411.132	88.31
411.355	89.31
411.578	99.31
411.802	91.31
412.025	77.31
412.249	87.31
412.472	88.31
412.695	87.31
412.919	77.31
413.142	75.31
413.365	92.31
413.589	82.31
413.812	95.31
414.035	111.31
414.258	114.31
414.482	85.31
414.705	77.31
414.928	95.31
415.151	87.31
415.374	102.31
415.597	87.31
415.821	82.31
416.044	95.31
416.267	92.31
416.49	97.31
416.713	101.31
416.936	94.31
417.159	91.31
417.382	87.31
417.605	91.31
417.828	84.31
418.051	86.31
418.274	87.31
418.497	85.31
418.72	88.31
418.943	74.31
419.166	91.31
419.389	88.31
419.611	81.31
419.834	96.31
420.057	99.31
420.28	105.31
420.503	106.31
420.726	83.31
420.948	88.31
421.171	89.31
421.394	103.31
421.617	84.31
421.839	102.31
422.062	104.31
422.285	89.31
422.507	99.31
422.73	96.31
422.953	88.31
423.175	83.31
423.398	83.31
423.621	87.31
423.843	89.31
424.066	101.31
424.288	85.31
424.511	90.31
424.733	114.31
424.956	100.31
425.178	101.31
425.401	100.31
425.623	111.31
425.846	81.31
426.068	90.31
426.291	92.31
426.513	91.31
426.735	83.31
426.958	91.31
427.18	97.31
427.402	124.31
427.625	158.31
427.847	107.31
428.069	83.31
428.292	91.31
428.514	89.31
428.736	76.31
428.958	89.31
429.181	90.31
429.403	93.31
429.625	95.31
429.847	98.31
430.069	100.31
430.292	96.31
430.514	75.31
430.736	73.31
430.958	81.31
431.18	74.31
431.402	97.31
431.624	79.31
431.846	80.31
432.068	91.31
432.29	87.31
432.512	99.31
432.734	93.31
432.956	104.31
433.178	90.31
433.4	103.31
433.622	93.31
433.844	95.31
434.066	87.31
434.287	92.31
434.509	96.31
434.731	88.31
434.953	96.31
435.175	89.31
435.397	100.31
435.618	92.31
435.84	102.31
436.062	103.31
436.284	124.31
436.505	108.31
436.727	90.31
436.949	89.31
437.17	88.31
437.392	92.31
437.614	107.31
437.835	103.31
438.057	118.31
438.278	115.31
438.5	101.31
438.721	123.31
438.943	107.31
439.165	95.31
439.386	93.31
439.608	73.31
439.829	98.31
440.05	107.31
440.272	144.31
440.493	89.31
440.715	87.31
440.936	86.31
441.158	85.31
441.379	79.31
441.6	90.31
441.822	105.31
442.043	100.31
442.264	111.31
442.486	96.31
442.707	98.31
442.928	108.31
443.149	120.31
443.371	129.31
443.592	101.31
443.813	105.31
444.034	103.31
444.255	83.31
444.476	82.31
444.698	86.31
444.919	90.31
445.14	115.31
445.361	124.31
445.582	129.31
445.803	136.31
446.024	126.31
446.245	142.31
446.466	109.31
446.687	88.31
446.908	89.31
447.129	84.31
447.35	93.31
447.571	97.31
447.792	107.31
448.013	99.31
448.234	109.31
448.455	94.31
448.675	106.31
448.896	103.31
449.117	101.31
449.338	96.31
449.559	115.31
449.779	143.31
450	100.31
450.221	83.31
450.442	86.31
450.662	82.31
450.883	104.31
451.104	106.31
451.324	92.31
451.545	76.31
451.766	87.31
451.986	67.31
452.207	101.31
452.428	75.31
452.648	85.31
452.869	107.31
453.089	110.31
453.31	107.31
453.53	101.31
453.751	103.31
453.971	105.31
454.192	114.31
454.412	91.31
454.633	89.31
454.853	82.31
455.073	86.31
455.294	85.31
455.514	102.31
455.734	101.31
455.955	77.31
456.175	91.31
456.395	85.31
456.616	97.31
456.836	87.31
457.056	94.31
457.276	89.31
457.497	90.31
457.717	86.31
457.937	88.31
458.157	82.31
458.377	87.31
458.598	108.31
458.818	138.31
459.038	124.31
459.258	108.31
459.478	83.31
459.698	88.31
459.918	92.31
460.138	80.31
460.358	85.31
460.578	84.31
460.798	80.31
461.018	100.31
461.238	87.31
461.458	81.31
461.678	101.31
461.898	95.31
462.118	88.31
462.338	79.31
462.558	93.31
462.777	93.31
462.997	87.31
463.217	87.31
463.437	94.31
463.657	90.31
463.876	92.31
464.096	82.31
464.316	83.31
464.536	84.31
464.755	96.31
464.975	100.31
465.195	158.31
465.414	138.31
465.634	102.31
465.854	95.31
466.073	84.31
466.293	97.31
466.512	95.31
466.732	96.31
466.951	79.31
467.171	95.31
467.391	98.31
467.61	107.31
467.829	96.31
468.049	79.31
468.268	79.31
468.488	83.31
468.707	89.31
468.927	88.31
469.146	95.31
469.365	80.31
469.585	88.31
469.804	95.31
470.023	98.31
470.243	91.31
470.462	107.31
470.681	108.31
470.901	96.31
471.12	99.31
471.339	95.31
471.558	89.31
471.777	96.31
471.997	86.31
472.216	90.31
472.435	92.31
472.654	88.31
472.873	106.31
473.092	96.31
473.311	98.31
473.53	78.31
473.749	95.31
473.968	96.31
474.187	108.31
474.406	95.31
474.625	94.31
474.844	86.31
475.063	92.31
475.282	84.31
475.501	83.31
475.72	91.31
475.939	87.31
476.158	82.31
476.377	87.31
476.596	89.31
476.814	78.31
477.033	91.31
477.252	102.31
477.471	95.31
477.69	99.31
477.908	95.31
478.127	109.31
478.346	74.31
478.564	98.31
478.783	102.31
479.002	86.31
479.22	101.31
479.439	87.31
479.658	97.31
479.876	95.31
480.095	96.31
480.313	86.31
480.532	86.31
480.751	98.31
480.969	91.31
481.188	96.31
481.406	79.31
481.624	91.31
481.843	94.31
482.061	91.31
482.28	97.31
482.498	93.31
482.717	89.31
482.935	92.31
483.153	83.31
483.372	76.31
483.59	85.31
483.808	83.31
484.027	91.31
484.245	97.31
484.463	92.31
484.681	90.31
484.9	94.31
485.118	87.31
485.336	88.31
485.554	107.31
485.772	98.31
485.99	102.31
486.209	105.31
486.427	94.31
486.645	92.31
486.863	117.31
487.081	101.31
487.299	95.31
487.517	98.31
487.735	103.31
487.953	94.31
488.171	102.31
488.389	97.31
488.607	99.31
488.825	84.31
489.043	92.31
489.261	93.31
489.479	87.31
489.696	91.31
489.914	98.31
490.132	85.31
490.35	91.31
490.568	94.31
490.786	100.31
491.003	88.31
491.221	81.31
491.439	83.31
491.657	97.31
491.874	94.31
492.092	93.31
492.31	90.31
492.527	80.31
492.745	83.31
492.963	84.31
493.18	91.31
493.398	96.31
493.615	85.31
493.833	92.31
494.05	86.31
494.268	87.31
494.485	87.31
494.703	95.31
494.92	95.31
495.138	101.31
495.355	81.31
495.573	98.31
495.79	87.31
496.008	90.31
496.225	105.31
496.442	89.31
496.66	90.31
496.877	86.31
497.094	90.31
497.312	96.31
497.529	87.31
497.746	101.31
497.963	87.31
498.181	74.31
498.398	87.31
498.615	112.31
498.832	110.31
499.049	99.31
499.267	95.31
499.484	97.31
499.701	90.31
499.918	85.31
500.135	87.31
500.352	80.31
500.569	91.31
500.786	95.31
501.003	89.31
501.22	85.31
501.437	96.31
501.654	94.31
501.871	111.31
502.088	87.31
502.305	83.31
502.522	97.31
502.739	87.31
502.956	87.31
503.172	92.31
503.389	92.31
503.606	104.31
503.823	93.31
504.04	98.31
504.256	87.31
504.473	97.31
504.69	96.31
504.907	85.31
505.123	97.31
505.34	84.31
505.557	92.31
505.773	83.31
505.99	88.31
506.207	98.31
506.423	85.31
506.64	92.31
506.856	90.31
507.073	90.31
507.289	97.31
507.506	106.31
507.722	109.31
507.939	109.31
508.155	101.31
508.372	94.31
508.588	95.31
508.805	101.31
509.021	95.31
509.238	98.31
509.454	91.31
509.67	102.31
509.887	104.31
510.103	121.31
510.319	195.31
510.536	680.31
510.752	2111.31
510.968	599.31
511.184	149.31
511.401	109.31
511.617	103.31
511.833	91.31
512.049	79.31
512.265	91.31
512.481	96.31
512.698	99.31
512.914	92.31
513.13	89.31
513.346	86.31
513.562	97.31
513.778	93.31
513.994	108.31
514.21	91.31
514.426	103.31
514.642	125.31
514.858	104.31
515.074	163.31
515.29	401.31
515.506	1270.31
515.721	463.31
515.937	123.31
