Data from Uncirc_1984_H10_HRD10591_00027.txt Node
Date: Wed Jan 03 12:21:42 EST 2024
User: Yrep
Spectrometer: HR+D1059
Trigger mode: 1
Integration Time (sec): 1.000000E-1
Scans to average: 1
Electric dark correction enabled: true
Nonlinearity correction enabled: false
Boxcar width: 0
XAxis mode: Wavelengths
Number of Pixels in Spectrum: 2048
>>>>>Begin Spectral Data<<<<<
223.165	-21.19
223.4	-21.19
223.635	-21.19
223.869	-15.19
224.104	-27.19
224.338	-21.19
224.573	-17.19
224.808	-2.19
225.042	-16.19
225.277	-6.19
225.511	3.81
225.746	10.81
225.98	9.81
226.215	10.81
226.449	14.81
226.683	26.81
226.918	19.81
227.152	29.81
227.387	34.81
227.621	38.81
227.856	41.81
228.09	49.81
228.324	51.81
228.559	57.81
228.793	66.81
229.027	58.81
229.262	59.81
229.496	65.81
229.73	81.81
229.964	82.81
230.199	80.81
230.433	72.81
230.667	81.81
230.901	75.81
231.136	61.81
231.37	70.81
231.604	78.81
231.838	80.81
232.072	74.81
232.306	80.81
232.541	71.81
232.775	71.81
233.009	72.81
233.243	79.81
233.477	71.81
233.711	80.81
233.945	79.81
234.179	89.81
234.413	92.81
234.647	77.81
234.881	59.81
235.115	71.81
235.349	77.81
235.583	73.81
235.817	66.81
236.051	65.81
236.285	72.81
236.519	77.81
236.753	77.81
236.987	88.81
237.221	83.81
237.455	81.81
237.689	70.81
237.922	68.81
238.156	73.81
238.39	65.81
238.624	69.81
238.858	64.81
239.091	73.81
239.325	73.81
239.559	85.81
239.793	80.81
240.027	71.81
240.26	71.81
240.494	77.81
240.728	84.81
240.961	81.81
241.195	66.81
241.429	95.81
241.662	76.81
241.896	79.81
242.13	76.81
242.363	71.81
242.597	77.81
242.83	72.81
243.064	75.81
243.298	83.81
243.531	82.81
243.765	84.81
243.998	81.81
244.232	79.81
244.465	86.81
244.699	75.81
244.932	83.81
245.166	68.81
245.399	61.81
245.633	88.81
245.866	81.81
246.099	73.81
246.333	65.81
246.566	88.81
246.8	83.81
247.033	77.81
247.266	80.81
247.5	79.81
247.733	61.81
247.966	80.81
248.2	90.81
248.433	84.81
248.666	75.81
248.899	77.81
249.133	84.81
249.366	106.81
249.599	104.81
249.832	90.81
250.066	72.81
250.299	91.81
250.532	79.81
250.765	69.81
250.998	75.81
251.231	80.81
251.465	83.81
251.698	70.81
251.931	79.81
252.164	69.81
252.397	69.81
252.63	94.81
252.863	95.81
253.096	74.81
253.329	85.81
253.562	76.81
253.795	86.81
254.028	94.81
254.261	81.81
254.494	70.81
254.727	75.81
254.96	78.81
255.193	67.81
255.426	64.81
255.659	88.81
255.892	91.81
256.124	72.81
256.357	81.81
256.59	85.81
256.823	81.81
257.056	81.81
257.289	81.81
257.521	78.81
257.754	87.81
257.987	86.81
258.22	80.81
258.452	83.81
258.685	80.81
258.918	79.81
259.151	69.81
259.383	87.81
259.616	74.81
259.849	71.81
260.081	85.81
260.314	81.81
260.547	74.81
260.779	86.81
261.012	84.81
261.244	77.81
261.477	99.81
261.71	81.81
261.942	105.81
262.175	113.81
262.407	81.81
262.64	73.81
262.872	85.81
263.105	75.81
263.337	79.81
263.57	74.81
263.802	73.81
264.035	74.81
264.267	74.81
264.499	85.81
264.732	79.81
264.964	83.81
265.197	74.81
265.429	78.81
265.661	75.81
265.894	89.81
266.126	79.81
266.358	67.81
266.591	88.81
266.823	84.81
267.055	80.81
267.287	85.81
267.52	89.81
267.752	83.81
267.984	83.81
268.216	81.81
268.448	81.81
268.681	88.81
268.913	95.81
269.145	81.81
269.377	77.81
269.609	84.81
269.841	77.81
270.073	77.81
270.306	70.81
270.538	79.81
270.77	87.81
271.002	92.81
271.234	63.81
271.466	72.81
271.698	69.81
271.93	94.81
272.162	101.81
272.394	89.81
272.626	84.81
272.858	78.81
273.09	85.81
273.322	92.81
273.553	83.81
273.785	89.81
274.017	81.81
274.249	98.81
274.481	66.81
274.713	73.81
274.945	87.81
275.176	85.81
275.408	89.81
275.64	74.81
275.872	89.81
276.104	99.81
276.335	99.81
276.567	99.81
276.799	93.81
277.031	108.81
277.262	78.81
277.494	86.81
277.726	81.81
277.957	90.81
278.189	79.81
278.421	94.81
278.652	90.81
278.884	79.81
279.115	89.81
279.347	92.81
279.579	81.81
279.81	77.81
280.042	78.81
280.273	92.81
280.505	98.81
280.736	82.81
280.968	78.81
281.199	86.81
281.431	78.81
281.662	78.81
281.894	87.81
282.125	99.81
282.356	113.81
282.588	136.81
282.819	115.81
283.051	89.81
283.282	98.81
283.513	93.81
283.745	88.81
283.976	79.81
284.207	94.81
284.439	86.81
284.67	77.81
284.901	78.81
285.132	91.81
285.364	100.81
285.595	75.81
285.826	95.81
286.057	87.81
286.288	98.81
286.52	95.81
286.751	87.81
286.982	79.81
287.213	86.81
287.444	100.81
287.675	84.81
287.906	81.81
288.138	93.81
288.369	117.81
288.6	95.81
288.831	85.81
289.062	81.81
289.293	80.81
289.524	93.81
289.755	81.81
289.986	82.81
290.217	93.81
290.448	83.81
290.679	77.81
290.91	82.81
291.141	99.81
291.371	81.81
291.602	83.81
291.833	88.81
292.064	82.81
292.295	83.81
292.526	84.81
292.757	93.81
292.987	80.81
293.218	90.81
293.449	74.81
293.68	84.81
293.91	81.81
294.141	100.81
294.372	89.81
294.603	85.81
294.833	91.81
295.064	97.81
295.295	89.81
295.525	96.81
295.756	102.81
295.987	112.81
296.217	133.81
296.448	118.81
296.679	101.81
296.909	82.81
297.14	95.81
297.37	77.81
297.601	95.81
297.831	88.81
298.062	98.81
298.292	88.81
298.523	88.81
298.753	73.81
298.984	69.81
299.214	71.81
299.445	94.81
299.675	89.81
299.905	99.81
300.136	93.81
300.366	96.81
300.597	87.81
300.827	100.81
301.057	106.81
301.288	105.81
301.518	97.81
301.748	80.81
301.979	107.81
302.209	94.81
302.439	101.81
302.669	90.81
302.9	104.81
303.13	91.81
303.36	83.81
303.59	92.81
303.82	111.81
304.051	85.81
304.281	85.81
304.511	80.81
304.741	86.81
304.971	94.81
305.201	90.81
305.431	94.81
305.661	84.81
305.891	81.81
306.121	84.81
306.352	93.81
306.582	98.81
306.812	87.81
307.042	91.81
307.272	91.81
307.502	81.81
307.731	86.81
307.961	98.81
308.191	98.81
308.421	80.81
308.651	94.81
308.881	90.81
309.111	99.81
309.341	86.81
309.571	93.81
309.8	91.81
310.03	96.81
310.26	91.81
310.49	97.81
310.72	89.81
310.949	104.81
311.179	114.81
311.409	107.81
311.639	97.81
311.868	99.81
312.098	95.81
312.328	100.81
312.557	94.81
312.787	109.81
313.017	123.81
313.246	101.81
313.476	106.81
313.706	83.81
313.935	81.81
314.165	75.81
314.394	99.81
314.624	115.81
314.853	91.81
315.083	93.81
315.312	98.81
315.542	87.81
315.771	105.81
316.001	90.81
316.23	89.81
316.46	95.81
316.689	102.81
316.919	91.81
317.148	93.81
317.377	97.81
317.607	106.81
317.836	74.81
318.065	93.81
318.295	82.81
318.524	85.81
318.753	80.81
318.983	109.81
319.212	108.81
319.441	107.81
319.67	111.81
319.9	92.81
320.129	92.81
320.358	103.81
320.587	79.81
320.816	93.81
321.046	93.81
321.275	105.81
321.504	104.81
321.733	90.81
321.962	83.81
322.191	114.81
322.42	78.81
322.649	106.81
322.878	105.81
323.108	109.81
323.337	127.81
323.566	144.81
323.795	155.81
324.024	198.81
324.253	391.81
324.482	931.81
324.71	1900.81
324.939	2593.81
325.168	933.81
325.397	255.81
325.626	148.81
325.855	135.81
326.084	121.81
326.313	135.81
326.542	164.81
326.77	241.81
326.999	501.81
327.228	1020.81
327.457	1906.81
327.686	1587.81
327.914	394.81
328.143	202.81
328.372	157.81
328.6	125.81
328.829	113.81
329.058	122.81
329.287	140.81
329.515	119.81
329.744	107.81
329.972	88.81
330.201	93.81
330.43	97.81
330.658	109.81
330.887	137.81
331.115	127.81
331.344	98.81
331.572	96.81
331.801	107.81
332.03	106.81
332.258	103.81
332.486	95.81
332.715	89.81
332.943	98.81
333.172	78.81
333.4	94.81
333.629	106.81
333.857	113.81
334.085	101.81
334.314	96.81
334.542	111.81
334.771	96.81
334.999	99.81
335.227	83.81
335.455	102.81
335.684	106.81
335.912	90.81
336.14	78.81
336.369	86.81
336.597	109.81
336.825	107.81
337.053	91.81
337.281	94.81
337.51	99.81
337.738	88.81
337.966	100.81
338.194	89.81
338.422	94.81
338.65	103.81
338.878	100.81
339.106	103.81
339.334	88.81
339.562	87.81
339.79	95.81
340.018	96.81
340.246	87.81
340.474	97.81
340.702	96.81
340.93	90.81
341.158	99.81
341.386	102.81
341.614	105.81
341.842	93.81
342.07	82.81
342.298	79.81
342.526	82.81
342.754	99.81
342.981	85.81
343.209	91.81
343.437	117.81
343.665	79.81
343.893	89.81
344.12	87.81
344.348	90.81
344.576	93.81
344.804	89.81
345.031	85.81
345.259	95.81
345.487	86.81
345.714	91.81
345.942	96.81
346.17	93.81
346.397	79.81
346.625	99.81
346.853	95.81
347.08	94.81
347.308	103.81
347.535	115.81
347.763	92.81
347.99	94.81
348.218	88.81
348.445	99.81
348.673	106.81
348.9	99.81
349.128	94.81
349.355	94.81
349.583	102.81
349.81	93.81
350.037	108.81
350.265	91.81
350.492	103.81
350.72	88.81
350.947	108.81
351.174	102.81
351.402	105.81
351.629	101.81
351.856	96.81
352.083	97.81
352.311	105.81
352.538	97.81
352.765	106.81
352.992	117.81
353.22	115.81
353.447	118.81
353.674	102.81
353.901	88.81
354.128	97.81
354.355	89.81
354.583	93.81
354.81	90.81
355.037	99.81
355.264	81.81
355.491	88.81
355.718	85.81
355.945	89.81
356.172	99.81
356.399	99.81
356.626	93.81
356.853	94.81
357.08	93.81
357.307	96.81
357.534	95.81
357.761	100.81
357.988	88.81
358.215	97.81
358.441	109.81
358.668	90.81
358.895	89.81
359.122	97.81
359.349	85.81
359.576	94.81
359.802	93.81
360.029	105.81
360.256	106.81
360.483	98.81
360.709	72.81
360.936	95.81
361.163	89.81
361.39	93.81
361.616	97.81
361.843	94.81
362.07	90.81
362.296	88.81
362.523	92.81
362.749	96.81
362.976	94.81
363.203	108.81
363.429	84.81
363.656	97.81
363.882	92.81
364.109	101.81
364.335	95.81
364.562	89.81
364.788	72.81
365.015	99.81
365.241	102.81
365.468	93.81
365.694	110.81
365.92	110.81
366.147	69.81
366.373	91.81
366.599	85.81
366.826	92.81
367.052	87.81
367.278	83.81
367.505	98.81
367.731	102.81
367.957	92.81
368.184	88.81
368.41	105.81
368.636	118.81
368.862	111.81
369.089	97.81
369.315	87.81
369.541	105.81
369.767	89.81
369.993	82.81
370.219	93.81
370.445	86.81
370.672	77.81
370.898	84.81
371.124	100.81
371.35	86.81
371.576	90.81
371.802	96.81
372.028	91.81
372.254	85.81
372.48	87.81
372.706	105.81
372.932	88.81
373.158	78.81
373.384	89.81
373.61	77.81
373.835	93.81
374.061	97.81
374.287	108.81
374.513	79.81
374.739	90.81
374.965	89.81
375.191	85.81
375.416	91.81
375.642	86.81
375.868	82.81
376.094	78.81
376.319	85.81
376.545	87.81
376.771	79.81
376.997	95.81
377.222	96.81
377.448	111.81
377.674	102.81
377.899	90.81
378.125	97.81
378.35	86.81
378.576	99.81
378.802	96.81
379.027	78.81
379.253	88.81
379.478	94.81
379.704	88.81
379.929	102.81
380.155	92.81
380.38	91.81
380.606	97.81
380.831	88.81
381.057	84.81
381.282	86.81
381.507	92.81
381.733	111.81
381.958	95.81
382.184	98.81
382.409	103.81
382.634	95.81
382.86	107.81
383.085	85.81
383.31	104.81
383.535	106.81
383.761	98.81
383.986	90.81
384.211	90.81
384.436	91.81
384.662	95.81
384.887	100.81
385.112	110.81
385.337	89.81
385.562	100.81
385.787	103.81
386.013	116.81
386.238	109.81
386.463	101.81
386.688	89.81
386.913	103.81
387.138	107.81
387.363	97.81
387.588	115.81
387.813	109.81
388.038	91.81
388.263	105.81
388.488	110.81
388.713	101.81
388.938	103.81
389.163	100.81
389.387	88.81
389.612	94.81
389.837	108.81
390.062	98.81
390.287	85.81
390.512	97.81
390.736	97.81
390.961	95.81
391.186	108.81
391.411	93.81
391.636	96.81
391.86	101.81
392.085	98.81
392.31	82.81
392.534	78.81
392.759	83.81
392.984	85.81
393.208	86.81
393.433	111.81
393.658	84.81
393.882	85.81
394.107	87.81
394.331	82.81
394.556	78.81
394.78	91.81
395.005	88.81
395.229	91.81
395.454	81.81
395.678	87.81
395.903	81.81
396.127	67.81
396.352	84.81
396.576	93.81
396.801	73.81
397.025	101.81
397.249	91.81
397.474	85.81
397.698	95.81
397.922	85.81
398.147	83.81
398.371	81.81
398.595	88.81
398.82	96.81
399.044	95.81
399.268	89.81
399.492	74.81
399.717	80.81
399.941	93.81
400.165	95.81
400.389	83.81
400.613	97.81
400.837	87.81
401.062	82.81
401.286	105.81
401.51	96.81
401.734	69.81
401.958	98.81
402.182	123.81
402.406	157.81
402.63	105.81
402.854	101.81
403.078	74.81
403.302	94.81
403.526	97.81
403.75	85.81
403.974	91.81
404.198	71.81
404.422	74.81
404.645	87.81
404.869	79.81
405.093	95.81
405.317	101.81
405.541	85.81
405.765	85.81
405.988	122.81
406.212	169.81
406.436	215.81
406.66	131.81
406.883	104.81
407.107	103.81
407.331	82.81
407.555	97.81
407.778	87.81
408.002	91.81
408.226	86.81
408.449	90.81
408.673	76.81
408.896	92.81
409.12	102.81
409.344	90.81
409.567	89.81
409.791	102.81
410.014	95.81
410.238	97.81
410.461	91.81
410.685	96.81
410.908	96.81
411.132	105.81
411.355	99.81
411.578	98.81
411.802	89.81
412.025	79.81
412.249	77.81
412.472	85.81
412.695	79.81
412.919	81.81
413.142	82.81
413.365	89.81
413.589	100.81
413.812	77.81
414.035	94.81
414.258	73.81
414.482	91.81
414.705	95.81
414.928	78.81
415.151	96.81
415.374	87.81
415.597	83.81
415.821	82.81
416.044	96.81
416.267	88.81
416.49	101.81
416.713	86.81
416.936	96.81
417.159	89.81
417.382	89.81
417.605	97.81
417.828	88.81
418.051	95.81
418.274	84.81
418.497	82.81
418.72	84.81
418.943	91.81
419.166	77.81
419.389	79.81
419.611	79.81
419.834	102.81
420.057	90.81
420.28	84.81
420.503	98.81
420.726	100.81
420.948	88.81
421.171	86.81
421.394	86.81
421.617	85.81
421.839	107.81
422.062	88.81
422.285	79.81
422.507	95.81
422.73	109.81
422.953	98.81
423.175	106.81
423.398	84.81
423.621	89.81
423.843	86.81
424.066	95.81
424.288	82.81
424.511	91.81
424.733	98.81
424.956	119.81
425.178	86.81
425.401	103.81
425.623	102.81
425.846	102.81
426.068	85.81
426.291	102.81
426.513	98.81
426.735	98.81
426.958	87.81
427.18	115.81
427.402	134.81
427.625	171.81
427.847	136.81
428.069	118.81
428.292	90.81
428.514	85.81
428.736	85.81
428.958	89.81
429.181	92.81
429.403	75.81
429.625	84.81
429.847	97.81
430.069	97.81
430.292	94.81
430.514	106.81
430.736	87.81
430.958	89.81
431.18	83.81
431.402	94.81
431.624	83.81
431.846	74.81
432.068	102.81
432.29	93.81
432.512	99.81
432.734	86.81
432.956	101.81
433.178	104.81
433.4	87.81
433.622	89.81
433.844	69.81
434.066	94.81
434.287	95.81
434.509	100.81
434.731	84.81
434.953	88.81
435.175	94.81
435.397	101.81
435.618	90.81
435.84	105.81
436.062	137.81
436.284	116.81
436.505	98.81
436.727	119.81
436.949	91.81
437.17	78.81
437.392	97.81
437.614	73.81
437.835	110.81
438.057	122.81
438.278	113.81
438.5	105.81
438.721	127.81
438.943	104.81
439.165	96.81
439.386	89.81
439.608	96.81
439.829	101.81
440.05	143.81
440.272	150.81
440.493	100.81
440.715	93.81
440.936	83.81
441.158	93.81
441.379	87.81
441.6	101.81
441.822	101.81
442.043	93.81
442.264	114.81
442.486	98.81
442.707	85.81
442.928	107.81
443.149	120.81
443.371	143.81
443.592	105.81
443.813	131.81
444.034	108.81
444.255	97.81
444.476	91.81
444.698	83.81
444.919	81.81
445.14	143.81
445.361	129.81
445.582	118.81
445.803	149.81
446.024	147.81
446.245	149.81
446.466	113.81
446.687	87.81
446.908	98.81
447.129	93.81
447.35	83.81
447.571	94.81
447.792	92.81
448.013	97.81
448.234	113.81
448.455	109.81
448.675	124.81
448.896	116.81
449.117	93.81
449.338	101.81
449.559	150.81
449.779	141.81
450	86.81
450.221	97.81
450.442	70.81
450.662	93.81
450.883	112.81
451.104	112.81
451.324	95.81
451.545	85.81
451.766	84.81
451.986	82.81
452.207	83.81
452.428	95.81
452.648	84.81
452.869	97.81
453.089	114.81
453.31	114.81
453.53	85.81
453.751	89.81
453.971	90.81
454.192	106.81
454.412	100.81
454.633	90.81
454.853	84.81
455.073	91.81
455.294	78.81
455.514	91.81
455.734	91.81
455.955	93.81
456.175	97.81
456.395	88.81
456.616	81.81
456.836	79.81
457.056	73.81
457.276	87.81
457.497	89.81
457.717	88.81
457.937	100.81
458.157	83.81
458.377	83.81
458.598	105.81
458.818	158.81
459.038	177.81
459.258	116.81
459.478	94.81
459.698	87.81
459.918	82.81
460.138	66.81
460.358	94.81
460.578	79.81
460.798	88.81
461.018	90.81
461.238	100.81
461.458	83.81
461.678	77.81
461.898	85.81
462.118	87.81
462.338	68.81
462.558	80.81
462.777	85.81
462.997	87.81
463.217	86.81
463.437	70.81
463.657	79.81
463.876	85.81
464.096	79.81
464.316	77.81
464.536	88.81
464.755	89.81
464.975	107.81
465.195	163.81
465.414	163.81
465.634	100.81
465.854	69.81
466.073	59.81
466.293	94.81
466.512	89.81
466.732	77.81
466.951	89.81
467.171	90.81
467.391	87.81
467.61	100.81
467.829	104.81
468.049	90.81
468.268	80.81
468.488	75.81
468.707	85.81
468.927	86.81
469.146	80.81
469.365	87.81
469.585	87.81
469.804	94.81
470.023	102.81
470.243	97.81
470.462	95.81
470.681	109.81
470.901	89.81
471.12	81.81
471.339	89.81
471.558	76.81
471.777	84.81
471.997	80.81
472.216	70.81
472.435	89.81
472.654	91.81
472.873	81.81
473.092	91.81
473.311	96.81
473.53	87.81
473.749	93.81
473.968	89.81
474.187	105.81
474.406	103.81
474.625	83.81
474.844	81.81
475.063	80.81
475.282	100.81
475.501	84.81
475.72	88.81
475.939	99.81
476.158	95.81
476.377	80.81
476.596	86.81
476.814	90.81
477.033	87.81
477.252	84.81
477.471	77.81
477.69	93.81
477.908	88.81
478.127	94.81
478.346	79.81
478.564	97.81
478.783	101.81
479.002	93.81
479.22	94.81
479.439	89.81
479.658	93.81
479.876	87.81
480.095	90.81
480.313	90.81
480.532	98.81
480.751	88.81
480.969	81.81
481.188	102.81
481.406	83.81
481.624	73.81
481.843	84.81
482.061	63.81
482.28	109.81
482.498	83.81
482.717	100.81
482.935	86.81
483.153	83.81
483.372	93.81
483.59	87.81
483.808	93.81
484.027	88.81
484.245	81.81
484.463	97.81
484.681	105.81
484.9	93.81
485.118	115.81
485.336	107.81
485.554	92.81
485.772	90.81
485.99	114.81
486.209	99.81
486.427	111.81
486.645	113.81
486.863	112.81
487.081	105.81
487.299	105.81
487.517	86.81
487.735	85.81
487.953	91.81
488.171	95.81
488.389	89.81
488.607	95.81
488.825	96.81
489.043	87.81
489.261	85.81
489.479	90.81
489.696	80.81
489.914	84.81
490.132	101.81
490.35	102.81
490.568	95.81
490.786	91.81
491.003	91.81
491.221	93.81
491.439	91.81
491.657	93.81
491.874	99.81
492.092	100.81
492.31	97.81
492.527	92.81
492.745	78.81
492.963	93.81
493.18	83.81
493.398	77.81
493.615	85.81
493.833	102.81
494.05	80.81
494.268	90.81
494.485	91.81
494.703	102.81
494.92	78.81
495.138	81.81
495.355	85.81
495.573	97.81
495.79	91.81
496.008	82.81
496.225	75.81
496.442	88.81
496.66	88.81
496.877	82.81
497.094	91.81
497.312	86.81
497.529	90.81
497.746	97.81
497.963	79.81
498.181	77.81
498.398	100.81
498.615	125.81
498.832	117.81
499.049	98.81
499.267	99.81
499.484	86.81
499.701	79.81
499.918	94.81
500.135	79.81
500.352	88.81
500.569	81.81
500.786	94.81
501.003	84.81
501.22	83.81
501.437	88.81
501.654	97.81
501.871	107.81
502.088	89.81
502.305	94.81
502.522	81.81
502.739	81.81
502.956	88.81
503.172	86.81
503.389	83.81
503.606	106.81
503.823	89.81
504.04	97.81
504.256	88.81
504.473	101.81
504.69	98.81
504.907	89.81
505.123	98.81
505.34	83.81
505.557	92.81
505.773	83.81
505.99	80.81
506.207	90.81
506.423	97.81
506.64	84.81
506.856	90.81
507.073	90.81
507.289	91.81
507.506	93.81
507.722	100.81
507.939	114.81
508.155	109.81
508.372	90.81
508.588	83.81
508.805	96.81
509.021	84.81
509.238	95.81
509.454	96.81
509.67	102.81
509.887	118.81
510.103	131.81
510.319	226.81
510.536	796.81
510.752	2501.81
510.968	669.81
511.184	158.81
511.401	111.81
511.617	101.81
511.833	98.81
512.049	110.81
512.265	101.81
512.481	87.81
512.698	90.81
512.914	81.81
513.13	85.81
513.346	102.81
513.562	88.81
513.778	100.81
513.994	98.81
514.21	103.81
514.426	110.81
514.642	130.81
514.858	119.81
515.074	172.81
515.29	467.81
515.506	1567.81
515.721	560.81
