Data from Uncirc_1984_H10_HRD10591_00097.txt Node
Date: Wed Jan 03 12:21:56 EST 2024
User: Yrep
Spectrometer: HR+D1059
Trigger mode: 1
Integration Time (sec): 1.000000E-1
Scans to average: 1
Electric dark correction enabled: true
Nonlinearity correction enabled: false
Boxcar width: 0
XAxis mode: Wavelengths
Number of Pixels in Spectrum: 2048
>>>>>Begin Spectral Data<<<<<
223.165	-10.06
223.4	-10.06
223.635	-10.06
223.869	-14.06
224.104	-15.06
224.338	-7.06
224.573	-14.06
224.808	-16.06
225.042	-8.06
225.277	-6.06
225.511	-15.06
225.746	4.94
225.98	5.94
226.215	-1.06
226.449	23.94
226.683	17.94
226.918	23.94
227.152	29.94
227.387	44.94
227.621	36.94
227.856	26.94
228.09	46.94
228.324	46.94
228.559	58.94
228.793	66.94
229.027	68.94
229.262	68.94
229.496	67.94
229.73	62.94
229.964	81.94
230.199	72.94
230.433	76.94
230.667	71.94
230.901	67.94
231.136	82.94
231.37	76.94
231.604	76.94
231.838	83.94
232.072	96.94
232.306	100.94
232.541	69.94
232.775	90.94
233.009	79.94
233.243	90.94
233.477	81.94
233.711	73.94
233.945	68.94
234.179	72.94
234.413	81.94
234.647	63.94
234.881	70.94
235.115	80.94
235.349	84.94
235.583	85.94
235.817	77.94
236.051	84.94
236.285	87.94
236.519	82.94
236.753	64.94
236.987	77.94
237.221	69.94
237.455	81.94
237.689	66.94
237.922	70.94
238.156	72.94
238.39	82.94
238.624	70.94
238.858	72.94
239.091	74.94
239.325	66.94
239.559	87.94
239.793	81.94
240.027	78.94
240.26	70.94
240.494	62.94
240.728	74.94
240.961	69.94
241.195	95.94
241.429	74.94
241.662	64.94
241.896	59.94
242.13	65.94
242.363	69.94
242.597	64.94
242.83	77.94
243.064	66.94
243.298	84.94
243.531	55.94
243.765	66.94
243.998	69.94
244.232	73.94
244.465	87.94
244.699	88.94
244.932	78.94
245.166	74.94
245.399	80.94
245.633	67.94
245.866	60.94
246.099	86.94
246.333	69.94
246.566	74.94
246.8	62.94
247.033	70.94
247.266	64.94
247.5	65.94
247.733	75.94
247.966	64.94
248.2	65.94
248.433	84.94
248.666	74.94
248.899	73.94
249.133	86.94
249.366	83.94
249.599	86.94
249.832	74.94
250.066	82.94
250.299	66.94
250.532	83.94
250.765	83.94
250.998	63.94
251.231	80.94
251.465	75.94
251.698	72.94
251.931	61.94
252.164	74.94
252.397	76.94
252.63	69.94
252.863	80.94
253.096	86.94
253.329	68.94
253.562	82.94
253.795	70.94
254.028	84.94
254.261	80.94
254.494	76.94
254.727	73.94
254.96	85.94
255.193	67.94
255.426	78.94
255.659	74.94
255.892	75.94
256.124	62.94
256.357	83.94
256.59	79.94
256.823	89.94
257.056	76.94
257.289	80.94
257.521	80.94
257.754	78.94
257.987	74.94
258.22	66.94
258.452	79.94
258.685	75.94
258.918	68.94
259.151	83.94
259.383	76.94
259.616	70.94
259.849	68.94
260.081	77.94
260.314	70.94
260.547	65.94
260.779	76.94
261.012	86.94
261.244	82.94
261.477	68.94
261.71	92.94
261.942	99.94
262.175	100.94
262.407	105.94
262.64	78.94
262.872	84.94
263.105	85.94
263.337	75.94
263.57	68.94
263.802	85.94
264.035	88.94
264.267	80.94
264.499	88.94
264.732	77.94
264.964	85.94
265.197	93.94
265.429	92.94
265.661	79.94
265.894	79.94
266.126	76.94
266.358	82.94
266.591	95.94
266.823	68.94
267.055	73.94
267.287	80.94
267.52	71.94
267.752	81.94
267.984	54.94
268.216	90.94
268.448	84.94
268.681	82.94
268.913	79.94
269.145	82.94
269.377	76.94
269.609	71.94
269.841	73.94
270.073	81.94
270.306	88.94
270.538	74.94
270.77	76.94
271.002	85.94
271.234	97.94
271.466	89.94
271.698	76.94
271.93	72.94
272.162	80.94
272.394	89.94
272.626	95.94
272.858	78.94
273.09	65.94
273.322	93.94
273.553	69.94
273.785	95.94
274.017	90.94
274.249	78.94
274.481	74.94
274.713	78.94
274.945	78.94
275.176	78.94
275.408	76.94
275.64	72.94
275.872	73.94
276.104	77.94
276.335	82.94
276.567	93.94
276.799	91.94
277.031	78.94
277.262	84.94
277.494	92.94
277.726	96.94
277.957	92.94
278.189	65.94
278.421	77.94
278.652	93.94
278.884	74.94
279.115	74.94
279.347	71.94
279.579	73.94
279.81	84.94
280.042	87.94
280.273	93.94
280.505	67.94
280.736	65.94
280.968	78.94
281.199	60.94
281.431	84.94
281.662	82.94
281.894	86.94
282.125	94.94
282.356	110.94
282.588	130.94
282.819	116.94
283.051	85.94
283.282	80.94
283.513	78.94
283.745	66.94
283.976	84.94
284.207	90.94
284.439	86.94
284.67	87.94
284.901	76.94
285.132	88.94
285.364	94.94
285.595	84.94
285.826	96.94
286.057	92.94
286.288	87.94
286.52	73.94
286.751	76.94
286.982	102.94
287.213	83.94
287.444	70.94
287.675	99.94
287.906	88.94
288.138	92.94
288.369	82.94
288.6	96.94
288.831	87.94
289.062	85.94
289.293	72.94
289.524	78.94
289.755	82.94
289.986	94.94
290.217	96.94
290.448	85.94
290.679	89.94
290.91	79.94
291.141	92.94
291.371	84.94
291.602	86.94
291.833	88.94
292.064	80.94
292.295	79.94
292.526	74.94
292.757	96.94
292.987	92.94
293.218	83.94
293.449	77.94
293.68	86.94
293.91	90.94
294.141	93.94
294.372	95.94
294.603	71.94
294.833	82.94
295.064	88.94
295.295	80.94
295.525	93.94
295.756	110.94
295.987	114.94
296.217	125.94
296.448	101.94
296.679	97.94
296.909	74.94
297.14	83.94
297.37	95.94
297.601	81.94
297.831	84.94
298.062	84.94
298.292	93.94
298.523	87.94
298.753	85.94
298.984	97.94
299.214	79.94
299.445	90.94
299.675	91.94
299.905	99.94
300.136	90.94
300.366	65.94
300.597	85.94
300.827	92.94
301.057	96.94
301.288	75.94
301.518	84.94
301.748	101.94
301.979	98.94
302.209	93.94
302.439	82.94
302.669	90.94
302.9	91.94
303.13	73.94
303.36	80.94
303.59	100.94
303.82	93.94
304.051	88.94
304.281	94.94
304.511	88.94
304.741	88.94
304.971	92.94
305.201	86.94
305.431	81.94
305.661	74.94
305.891	96.94
306.121	84.94
306.352	101.94
306.582	96.94
306.812	83.94
307.042	87.94
307.272	78.94
307.502	105.94
307.731	92.94
307.961	92.94
308.191	94.94
308.421	85.94
308.651	89.94
308.881	96.94
309.111	92.94
309.341	77.94
309.571	88.94
309.8	82.94
310.03	94.94
310.26	90.94
310.49	95.94
310.72	85.94
310.949	101.94
311.179	96.94
311.409	91.94
311.639	81.94
311.868	94.94
312.098	96.94
312.328	94.94
312.557	105.94
312.787	86.94
313.017	99.94
313.246	86.94
313.476	92.94
313.706	91.94
313.935	98.94
314.165	108.94
314.394	93.94
314.624	96.94
314.853	97.94
315.083	74.94
315.312	72.94
315.542	94.94
315.771	106.94
316.001	90.94
316.23	94.94
316.46	94.94
316.689	96.94
316.919	86.94
317.148	82.94
317.377	88.94
317.607	87.94
317.836	97.94
318.065	104.94
318.295	86.94
318.524	100.94
318.753	86.94
318.983	92.94
319.212	97.94
319.441	97.94
319.67	85.94
319.9	96.94
320.129	90.94
320.358	97.94
320.587	101.94
320.816	87.94
321.046	89.94
321.275	103.94
321.504	99.94
321.733	81.94
321.962	91.94
322.191	88.94
322.42	98.94
322.649	103.94
322.878	116.94
323.108	116.94
323.337	112.94
323.566	129.94
323.795	130.94
324.024	183.94
324.253	355.94
324.482	740.94
324.71	1519.94
324.939	1932.94
325.168	740.94
325.397	227.94
325.626	136.94
325.855	101.94
326.084	137.94
326.313	127.94
326.542	153.94
326.77	208.94
326.999	403.94
327.228	838.94
327.457	1520.94
327.686	1230.94
327.914	329.94
328.143	181.94
328.372	132.94
328.6	118.94
328.829	112.94
329.058	114.94
329.287	105.94
329.515	106.94
329.744	104.94
329.972	95.94
330.201	86.94
330.43	98.94
330.658	118.94
330.887	120.94
331.115	125.94
331.344	89.94
331.572	98.94
331.801	90.94
332.03	86.94
332.258	90.94
332.486	96.94
332.715	86.94
332.943	85.94
333.172	88.94
333.4	84.94
333.629	93.94
333.857	114.94
334.085	110.94
334.314	95.94
334.542	99.94
334.771	101.94
334.999	95.94
335.227	92.94
335.455	101.94
335.684	97.94
335.912	113.94
336.14	97.94
336.369	82.94
336.597	108.94
336.825	85.94
337.053	79.94
337.281	79.94
337.51	96.94
337.738	85.94
337.966	84.94
338.194	97.94
338.422	92.94
338.65	101.94
338.878	97.94
339.106	86.94
339.334	95.94
339.562	88.94
339.79	85.94
340.018	86.94
340.246	97.94
340.474	84.94
340.702	85.94
340.93	97.94
341.158	92.94
341.386	102.94
341.614	87.94
341.842	87.94
342.07	96.94
342.298	97.94
342.526	86.94
342.754	72.94
342.981	96.94
343.209	89.94
343.437	99.94
343.665	94.94
343.893	89.94
344.12	102.94
344.348	107.94
344.576	71.94
344.804	78.94
345.031	92.94
345.259	102.94
345.487	87.94
345.714	84.94
345.942	87.94
346.17	85.94
346.397	91.94
346.625	91.94
346.853	103.94
347.08	100.94
347.308	74.94
347.535	90.94
347.763	98.94
347.99	86.94
348.218	87.94
348.445	94.94
348.673	81.94
348.9	82.94
349.128	90.94
349.355	75.94
349.583	94.94
349.81	86.94
350.037	89.94
350.265	89.94
350.492	79.94
350.72	95.94
350.947	96.94
351.174	85.94
351.402	107.94
351.629	112.94
351.856	107.94
352.083	113.94
352.311	100.94
352.538	102.94
352.765	76.94
352.992	93.94
353.22	91.94
353.447	106.94
353.674	94.94
353.901	90.94
354.128	89.94
354.355	86.94
354.583	89.94
354.81	101.94
355.037	100.94
355.264	91.94
355.491	81.94
355.718	79.94
355.945	88.94
356.172	100.94
356.399	92.94
356.626	85.94
356.853	82.94
357.08	77.94
357.307	95.94
357.534	96.94
357.761	79.94
357.988	84.94
358.215	93.94
358.441	97.94
358.668	88.94
358.895	101.94
359.122	101.94
359.349	88.94
359.576	88.94
359.802	88.94
360.029	109.94
360.256	90.94
360.483	101.94
360.709	83.94
360.936	91.94
361.163	95.94
361.39	90.94
361.616	92.94
361.843	84.94
362.07	92.94
362.296	91.94
362.523	85.94
362.749	81.94
362.976	85.94
363.203	97.94
363.429	81.94
363.656	93.94
363.882	77.94
364.109	85.94
364.335	102.94
364.562	94.94
364.788	93.94
365.015	89.94
365.241	95.94
365.468	95.94
365.694	91.94
365.92	93.94
366.147	74.94
366.373	87.94
366.599	87.94
366.826	77.94
367.052	80.94
367.278	89.94
367.505	74.94
367.731	96.94
367.957	89.94
368.184	88.94
368.41	84.94
368.636	115.94
368.862	121.94
369.089	109.94
369.315	83.94
369.541	90.94
369.767	103.94
369.993	81.94
370.219	84.94
370.445	83.94
370.672	86.94
370.898	91.94
371.124	83.94
371.35	80.94
371.576	84.94
371.802	95.94
372.028	90.94
372.254	86.94
372.48	77.94
372.706	84.94
372.932	94.94
373.158	89.94
373.384	90.94
373.61	84.94
373.835	84.94
374.061	88.94
374.287	77.94
374.513	72.94
374.739	78.94
374.965	90.94
375.191	82.94
375.416	87.94
375.642	90.94
375.868	93.94
376.094	85.94
376.319	97.94
376.545	95.94
376.771	90.94
376.997	97.94
377.222	85.94
377.448	89.94
377.674	93.94
377.899	101.94
378.125	99.94
378.35	92.94
378.576	81.94
378.802	78.94
379.027	80.94
379.253	84.94
379.478	83.94
379.704	85.94
379.929	90.94
380.155	102.94
380.38	90.94
380.606	96.94
380.831	81.94
381.057	97.94
381.282	85.94
381.507	83.94
381.733	76.94
381.958	70.94
382.184	104.94
382.409	86.94
382.634	92.94
382.86	97.94
383.085	95.94
383.31	101.94
383.535	86.94
383.761	99.94
383.986	98.94
384.211	102.94
384.436	90.94
384.662	91.94
384.887	99.94
385.112	90.94
385.337	86.94
385.562	105.94
385.787	78.94
386.013	87.94
386.238	91.94
386.463	103.94
386.688	96.94
386.913	93.94
387.138	90.94
387.363	85.94
387.588	100.94
387.813	92.94
388.038	99.94
388.263	103.94
388.488	99.94
388.713	89.94
388.938	84.94
389.163	84.94
389.387	87.94
389.612	88.94
389.837	75.94
390.062	96.94
390.287	86.94
390.512	92.94
390.736	98.94
390.961	92.94
391.186	94.94
391.411	88.94
391.636	81.94
391.86	66.94
392.085	82.94
392.31	81.94
392.534	68.94
392.759	92.94
392.984	87.94
393.208	84.94
393.433	77.94
393.658	84.94
393.882	79.94
394.107	78.94
394.331	84.94
394.556	76.94
394.78	72.94
395.005	90.94
395.229	90.94
395.454	92.94
395.678	80.94
395.903	78.94
396.127	78.94
396.352	86.94
396.576	87.94
396.801	69.94
397.025	92.94
397.249	82.94
397.474	80.94
397.698	92.94
397.922	84.94
398.147	81.94
398.371	87.94
398.595	92.94
398.82	76.94
399.044	82.94
399.268	80.94
399.492	71.94
399.717	86.94
399.941	86.94
400.165	79.94
400.389	83.94
400.613	85.94
400.837	89.94
401.062	85.94
401.286	84.94
401.51	88.94
401.734	78.94
401.958	91.94
402.182	93.94
402.406	143.94
402.63	100.94
402.854	102.94
403.078	102.94
403.302	73.94
403.526	84.94
403.75	86.94
403.974	82.94
404.198	89.94
404.422	82.94
404.645	85.94
404.869	90.94
405.093	87.94
405.317	80.94
405.541	92.94
405.765	97.94
405.988	100.94
406.212	153.94
406.436	201.94
406.66	126.94
406.883	105.94
407.107	81.94
407.331	82.94
407.555	76.94
407.778	95.94
408.002	88.94
408.226	89.94
408.449	84.94
408.673	88.94
408.896	91.94
409.12	99.94
409.344	76.94
409.567	73.94
409.791	102.94
410.014	85.94
410.238	82.94
410.461	86.94
410.685	96.94
410.908	100.94
411.132	100.94
411.355	92.94
411.578	95.94
411.802	84.94
412.025	79.94
412.249	69.94
412.472	88.94
412.695	78.94
412.919	94.94
413.142	92.94
413.365	90.94
413.589	80.94
413.812	94.94
414.035	104.94
414.258	96.94
414.482	82.94
414.705	100.94
414.928	84.94
415.151	89.94
415.374	101.94
415.597	95.94
415.821	90.94
416.044	87.94
416.267	88.94
416.49	92.94
416.713	92.94
416.936	86.94
417.159	74.94
417.382	84.94
417.605	81.94
417.828	88.94
418.051	89.94
418.274	87.94
418.497	63.94
418.72	93.94
418.943	94.94
419.166	82.94
419.389	88.94
419.611	88.94
419.834	80.94
420.057	86.94
420.28	88.94
420.503	80.94
420.726	84.94
420.948	81.94
421.171	84.94
421.394	82.94
421.617	78.94
421.839	83.94
422.062	95.94
422.285	93.94
422.507	90.94
422.73	94.94
422.953	84.94
423.175	90.94
423.398	95.94
423.621	86.94
423.843	83.94
424.066	74.94
424.288	84.94
424.511	85.94
424.733	89.94
424.956	102.94
425.178	89.94
425.401	109.94
425.623	102.94
425.846	94.94
426.068	95.94
426.291	94.94
426.513	83.94
426.735	89.94
426.958	82.94
427.18	98.94
427.402	124.94
427.625	142.94
427.847	107.94
428.069	108.94
428.292	88.94
428.514	79.94
428.736	92.94
428.958	81.94
429.181	67.94
429.403	77.94
429.625	88.94
429.847	96.94
430.069	104.94
430.292	88.94
430.514	84.94
430.736	72.94
430.958	78.94
431.18	92.94
431.402	91.94
431.624	100.94
431.846	81.94
432.068	83.94
432.29	91.94
432.512	79.94
432.734	90.94
432.956	78.94
433.178	103.94
433.4	101.94
433.622	85.94
433.844	80.94
434.066	94.94
434.287	88.94
434.509	89.94
434.731	97.94
434.953	94.94
435.175	89.94
435.397	91.94
435.618	79.94
435.84	87.94
436.062	105.94
436.284	98.94
436.505	93.94
436.727	108.94
436.949	78.94
437.17	80.94
437.392	87.94
437.614	91.94
437.835	93.94
438.057	99.94
438.278	111.94
438.5	109.94
438.721	104.94
438.943	88.94
439.165	76.94
439.386	83.94
439.608	89.94
439.829	91.94
440.05	116.94
440.272	121.94
440.493	84.94
440.715	77.94
440.936	87.94
441.158	90.94
441.379	88.94
441.6	89.94
441.822	95.94
442.043	86.94
442.264	96.94
442.486	91.94
442.707	87.94
442.928	102.94
443.149	117.94
443.371	118.94
443.592	92.94
443.813	108.94
444.034	100.94
444.255	86.94
444.476	84.94
444.698	88.94
444.919	93.94
445.14	130.94
445.361	124.94
445.582	108.94
445.803	116.94
446.024	123.94
446.245	126.94
446.466	94.94
446.687	80.94
446.908	92.94
447.129	69.94
447.35	92.94
447.571	85.94
447.792	82.94
448.013	87.94
448.234	99.94
448.455	87.94
448.675	90.94
448.896	115.94
449.117	100.94
449.338	94.94
449.559	108.94
449.779	114.94
450	87.94
450.221	80.94
450.442	80.94
450.662	73.94
450.883	73.94
451.104	102.94
451.324	90.94
451.545	81.94
451.766	72.94
451.986	84.94
452.207	93.94
452.428	85.94
452.648	100.94
452.869	100.94
453.089	94.94
453.31	114.94
453.53	90.94
453.751	94.94
453.971	87.94
454.192	106.94
454.412	92.94
454.633	93.94
454.853	86.94
455.073	71.94
455.294	77.94
455.514	93.94
455.734	90.94
455.955	97.94
456.175	80.94
456.395	87.94
456.616	90.94
456.836	92.94
457.056	78.94
457.276	74.94
457.497	88.94
457.717	84.94
457.937	66.94
458.157	77.94
458.377	89.94
458.598	100.94
458.818	128.94
459.038	144.94
459.258	100.94
459.478	99.94
459.698	105.94
459.918	83.94
460.138	95.94
460.358	89.94
460.578	79.94
460.798	80.94
461.018	86.94
461.238	92.94
461.458	89.94
461.678	83.94
461.898	88.94
462.118	81.94
462.338	85.94
462.558	72.94
462.777	86.94
462.997	89.94
463.217	93.94
463.437	85.94
463.657	86.94
463.876	72.94
464.096	71.94
464.316	83.94
464.536	111.94
464.755	92.94
464.975	106.94
465.195	136.94
465.414	152.94
465.634	101.94
465.854	82.94
466.073	85.94
466.293	94.94
466.512	88.94
466.732	83.94
466.951	79.94
467.171	81.94
467.391	96.94
467.61	103.94
467.829	90.94
468.049	77.94
468.268	88.94
468.488	84.94
468.707	94.94
468.927	72.94
469.146	74.94
469.365	75.94
469.585	84.94
469.804	79.94
470.023	102.94
470.243	85.94
470.462	87.94
470.681	92.94
470.901	88.94
471.12	101.94
471.339	87.94
471.558	84.94
471.777	89.94
471.997	84.94
472.216	80.94
472.435	84.94
472.654	87.94
472.873	94.94
473.092	90.94
473.311	82.94
473.53	85.94
473.749	76.94
473.968	87.94
474.187	94.94
474.406	94.94
474.625	87.94
474.844	97.94
475.063	87.94
475.282	95.94
475.501	85.94
475.72	73.94
475.939	73.94
476.158	81.94
476.377	83.94
476.596	85.94
476.814	93.94
477.033	95.94
477.252	80.94
477.471	94.94
477.69	99.94
477.908	65.94
478.127	77.94
478.346	82.94
478.564	88.94
478.783	101.94
479.002	91.94
479.22	77.94
479.439	100.94
479.658	95.94
479.876	94.94
480.095	89.94
480.313	85.94
480.532	88.94
480.751	80.94
480.969	90.94
481.188	119.94
481.406	104.94
481.624	90.94
481.843	90.94
482.061	72.94
482.28	88.94
482.498	81.94
482.717	84.94
482.935	88.94
483.153	99.94
483.372	83.94
483.59	96.94
483.808	87.94
484.027	87.94
484.245	102.94
484.463	84.94
484.681	88.94
484.9	108.94
485.118	78.94
485.336	86.94
485.554	85.94
485.772	86.94
485.99	79.94
486.209	109.94
486.427	107.94
486.645	99.94
486.863	106.94
487.081	99.94
487.299	77.94
487.517	80.94
487.735	100.94
487.953	83.94
488.171	99.94
488.389	106.94
488.607	94.94
488.825	81.94
489.043	93.94
489.261	77.94
489.479	97.94
489.696	96.94
489.914	91.94
490.132	85.94
490.35	97.94
490.568	80.94
490.786	94.94
491.003	76.94
491.221	70.94
491.439	78.94
491.657	84.94
491.874	86.94
492.092	76.94
492.31	89.94
492.527	80.94
492.745	79.94
492.963	79.94
493.18	88.94
493.398	78.94
493.615	76.94
493.833	74.94
494.05	76.94
494.268	74.94
494.485	91.94
494.703	87.94
494.92	86.94
495.138	69.94
495.355	93.94
495.573	89.94
495.79	87.94
496.008	73.94
496.225	83.94
496.442	89.94
496.66	81.94
496.877	85.94
497.094	91.94
497.312	84.94
497.529	87.94
497.746	93.94
497.963	79.94
498.181	104.94
498.398	81.94
498.615	106.94
498.832	104.94
499.049	85.94
499.267	93.94
499.484	81.94
499.701	80.94
499.918	87.94
500.135	81.94
500.352	74.94
500.569	78.94
500.786	91.94
501.003	91.94
501.22	83.94
501.437	96.94
501.654	93.94
501.871	105.94
502.088	71.94
502.305	87.94
502.522	75.94
502.739	88.94
502.956	86.94
503.172	81.94
503.389	96.94
503.606	98.94
503.823	78.94
504.04	85.94
504.256	98.94
504.473	80.94
504.69	84.94
504.907	83.94
505.123	89.94
505.34	90.94
505.557	96.94
505.773	87.94
505.99	94.94
506.207	94.94
506.423	93.94
506.64	96.94
506.856	98.94
507.073	96.94
507.289	78.94
507.506	96.94
507.722	98.94
507.939	99.94
508.155	92.94
508.372	88.94
508.588	85.94
508.805	92.94
509.021	96.94
509.238	92.94
509.454	110.94
509.67	104.94
509.887	100.94
510.103	115.94
510.319	183.94
510.536	688.94
510.752	2154.94
510.968	596.94
511.184	141.94
511.401	111.94
511.617	89.94
511.833	78.94
512.049	97.94
512.265	93.94
512.481	81.94
512.698	71.94
512.914	85.94
513.13	95.94
513.346	85.94
513.562	88.94
513.778	84.94
513.994	92.94
514.21	97.94
514.426	100.94
514.642	112.94
514.858	106.94
515.074	146.94
515.29	381.94
515.506	1236.94
515.721	453.94
515.937	138.94
516.153	103.94
516.369	96.94
516.585	98.94
516.801	85.94
517.016	95.94
517.232	100.94
