Data from Uncirc_1984_H10_HRD10591_00088.txt Node
Date: Wed Jan 03 12:21:54 EST 2024
User: Yrep
Spectrometer: HR+D1059
Trigger mode: 1
Integration Time (sec): 1.000000E-1
Scans to average: 1
Electric dark correction enabled: true
Nonlinearity correction enabled: false
Boxcar width: 0
XAxis mode: Wavelengths
Number of Pixels in Spectrum: 2048
>>>>>Begin Spectral Data<<<<<
223.165	-9.69
223.4	-9.69
223.635	-9.69
223.869	-10.69
224.104	-29.69
224.338	-14.69
224.573	-6.69
224.808	-12.69
225.042	-5.69
225.277	5.31
225.511	-5.69
225.746	-7.69
225.98	5.31
226.215	15.31
226.449	25.31
226.683	18.31
226.918	19.31
227.152	14.31
227.387	34.31
227.621	37.31
227.856	48.31
228.09	46.31
228.324	52.31
228.559	67.31
228.793	48.31
229.027	56.31
229.262	67.31
229.496	64.31
229.73	91.31
229.964	74.31
230.199	75.31
230.433	74.31
230.667	72.31
230.901	81.31
231.136	76.31
231.37	73.31
231.604	78.31
231.838	75.31
232.072	83.31
232.306	84.31
232.541	87.31
232.775	81.31
233.009	78.31
233.243	82.31
233.477	88.31
233.711	81.31
233.945	94.31
234.179	80.31
234.413	84.31
234.647	78.31
234.881	88.31
235.115	81.31
235.349	82.31
235.583	79.31
235.817	85.31
236.051	73.31
236.285	66.31
236.519	67.31
236.753	88.31
236.987	94.31
237.221	91.31
237.455	79.31
237.689	83.31
237.922	76.31
238.156	78.31
238.39	82.31
238.624	81.31
238.858	87.31
239.091	72.31
239.325	64.31
239.559	78.31
239.793	86.31
240.027	70.31
240.26	70.31
240.494	70.31
240.728	65.31
240.961	88.31
241.195	82.31
241.429	78.31
241.662	78.31
241.896	76.31
242.13	81.31
242.363	76.31
242.597	69.31
242.83	64.31
243.064	79.31
243.298	68.31
243.531	74.31
243.765	88.31
243.998	82.31
244.232	78.31
244.465	80.31
244.699	71.31
244.932	73.31
245.166	71.31
245.399	72.31
245.633	66.31
245.866	65.31
246.099	86.31
246.333	86.31
246.566	74.31
246.8	81.31
247.033	84.31
247.266	75.31
247.5	82.31
247.733	75.31
247.966	80.31
248.2	75.31
248.433	80.31
248.666	75.31
248.899	105.31
249.133	91.31
249.366	95.31
249.599	89.31
249.832	82.31
250.066	78.31
250.299	70.31
250.532	84.31
250.765	89.31
250.998	82.31
251.231	76.31
251.465	76.31
251.698	74.31
251.931	88.31
252.164	76.31
252.397	78.31
252.63	68.31
252.863	73.31
253.096	74.31
253.329	72.31
253.562	82.31
253.795	94.31
254.028	80.31
254.261	79.31
254.494	80.31
254.727	67.31
254.96	71.31
255.193	67.31
255.426	62.31
255.659	73.31
255.892	98.31
256.124	88.31
256.357	85.31
256.59	90.31
256.823	91.31
257.056	65.31
257.289	80.31
257.521	79.31
257.754	83.31
257.987	86.31
258.22	83.31
258.452	92.31
258.685	87.31
258.918	83.31
259.151	89.31
259.383	85.31
259.616	95.31
259.849	87.31
260.081	79.31
260.314	86.31
260.547	88.31
260.779	81.31
261.012	89.31
261.244	80.31
261.477	92.31
261.71	87.31
261.942	109.31
262.175	113.31
262.407	81.31
262.64	78.31
262.872	81.31
263.105	91.31
263.337	83.31
263.57	88.31
263.802	81.31
264.035	67.31
264.267	73.31
264.499	79.31
264.732	82.31
264.964	79.31
265.197	58.31
265.429	72.31
265.661	90.31
265.894	90.31
266.126	65.31
266.358	90.31
266.591	70.31
266.823	86.31
267.055	80.31
267.287	82.31
267.52	71.31
267.752	73.31
267.984	86.31
268.216	65.31
268.448	83.31
268.681	81.31
268.913	101.31
269.145	102.31
269.377	75.31
269.609	75.31
269.841	100.31
270.073	102.31
270.306	86.31
270.538	72.31
270.77	82.31
271.002	78.31
271.234	66.31
271.466	96.31
271.698	86.31
271.93	79.31
272.162	96.31
272.394	81.31
272.626	81.31
272.858	93.31
273.09	86.31
273.322	91.31
273.553	90.31
273.785	75.31
274.017	83.31
274.249	96.31
274.481	83.31
274.713	86.31
274.945	79.31
275.176	86.31
275.408	98.31
275.64	86.31
275.872	92.31
276.104	88.31
276.335	96.31
276.567	104.31
276.799	108.31
277.031	95.31
277.262	80.31
277.494	83.31
277.726	87.31
277.957	81.31
278.189	97.31
278.421	97.31
278.652	88.31
278.884	88.31
279.115	90.31
279.347	89.31
279.579	83.31
279.81	96.31
280.042	80.31
280.273	91.31
280.505	89.31
280.736	71.31
280.968	86.31
281.199	93.31
281.431	92.31
281.662	75.31
281.894	104.31
282.125	108.31
282.356	114.31
282.588	133.31
282.819	104.31
283.051	91.31
283.282	95.31
283.513	79.31
283.745	90.31
283.976	92.31
284.207	91.31
284.439	73.31
284.67	86.31
284.901	91.31
285.132	89.31
285.364	86.31
285.595	85.31
285.826	74.31
286.057	91.31
286.288	98.31
286.52	91.31
286.751	83.31
286.982	89.31
287.213	83.31
287.444	79.31
287.675	81.31
287.906	84.31
288.138	82.31
288.369	90.31
288.6	93.31
288.831	92.31
289.062	78.31
289.293	98.31
289.524	101.31
289.755	94.31
289.986	85.31
290.217	73.31
290.448	95.31
290.679	79.31
290.91	89.31
291.141	84.31
291.371	81.31
291.602	85.31
291.833	91.31
292.064	91.31
292.295	98.31
292.526	105.31
292.757	102.31
292.987	92.31
293.218	92.31
293.449	82.31
293.68	79.31
293.91	99.31
294.141	87.31
294.372	94.31
294.603	98.31
294.833	80.31
295.064	103.31
295.295	91.31
295.525	81.31
295.756	99.31
295.987	116.31
296.217	136.31
296.448	113.31
296.679	97.31
296.909	92.31
297.14	97.31
297.37	82.31
297.601	94.31
297.831	102.31
298.062	92.31
298.292	77.31
298.523	89.31
298.753	92.31
298.984	86.31
299.214	91.31
299.445	104.31
299.675	102.31
299.905	109.31
300.136	96.31
300.366	90.31
300.597	85.31
300.827	85.31
301.057	103.31
301.288	115.31
301.518	94.31
301.748	91.31
301.979	106.31
302.209	87.31
302.439	82.31
302.669	96.31
302.9	92.31
303.13	93.31
303.36	92.31
303.59	90.31
303.82	105.31
304.051	102.31
304.281	101.31
304.511	90.31
304.741	85.31
304.971	93.31
305.201	93.31
305.431	93.31
305.661	80.31
305.891	80.31
306.121	102.31
306.352	111.31
306.582	104.31
306.812	94.31
307.042	99.31
307.272	81.31
307.502	88.31
307.731	92.31
307.961	79.31
308.191	96.31
308.421	96.31
308.651	95.31
308.881	87.31
309.111	89.31
309.341	88.31
309.571	84.31
309.8	99.31
310.03	97.31
310.26	96.31
310.49	101.31
310.72	105.31
310.949	95.31
311.179	90.31
311.409	96.31
311.639	97.31
311.868	99.31
312.098	111.31
312.328	105.31
312.557	92.31
312.787	110.31
313.017	94.31
313.246	108.31
313.476	98.31
313.706	95.31
313.935	102.31
314.165	110.31
314.394	100.31
314.624	104.31
314.853	103.31
315.083	74.31
315.312	92.31
315.542	89.31
315.771	94.31
316.001	81.31
316.23	86.31
316.46	95.31
316.689	89.31
316.919	87.31
317.148	89.31
317.377	84.31
317.607	81.31
317.836	94.31
318.065	101.31
318.295	96.31
318.524	91.31
318.753	96.31
318.983	88.31
319.212	86.31
319.441	118.31
319.67	100.31
319.9	91.31
320.129	87.31
320.358	106.31
320.587	98.31
320.816	91.31
321.046	88.31
321.275	97.31
321.504	85.31
321.733	107.31
321.962	91.31
322.191	94.31
322.42	96.31
322.649	97.31
322.878	108.31
323.108	111.31
323.337	127.31
323.566	131.31
323.795	143.31
324.024	191.31
324.253	384.31
324.482	808.31
324.71	1582.31
324.939	2068.31
325.168	785.31
325.397	214.31
325.626	138.31
325.855	123.31
326.084	128.31
326.313	126.31
326.542	149.31
326.77	226.31
326.999	442.31
327.228	862.31
327.457	1621.31
327.686	1260.31
327.914	337.31
328.143	172.31
328.372	129.31
328.6	126.31
328.829	129.31
329.058	134.31
329.287	110.31
329.515	100.31
329.744	103.31
329.972	99.31
330.201	94.31
330.43	107.31
330.658	121.31
330.887	131.31
331.115	101.31
331.344	100.31
331.572	110.31
331.801	101.31
332.03	109.31
332.258	101.31
332.486	88.31
332.715	94.31
332.943	98.31
333.172	95.31
333.4	88.31
333.629	110.31
333.857	110.31
334.085	114.31
334.314	98.31
334.542	107.31
334.771	115.31
334.999	103.31
335.227	98.31
335.455	90.31
335.684	94.31
335.912	115.31
336.14	100.31
336.369	92.31
336.597	101.31
336.825	109.31
337.053	102.31
337.281	105.31
337.51	102.31
337.738	101.31
337.966	103.31
338.194	85.31
338.422	88.31
338.65	81.31
338.878	90.31
339.106	99.31
339.334	82.31
339.562	90.31
339.79	96.31
340.018	95.31
340.246	85.31
340.474	96.31
340.702	85.31
340.93	91.31
341.158	94.31
341.386	98.31
341.614	96.31
341.842	96.31
342.07	97.31
342.298	92.31
342.526	89.31
342.754	99.31
342.981	87.31
343.209	96.31
343.437	91.31
343.665	103.31
343.893	99.31
344.12	95.31
344.348	98.31
344.576	98.31
344.804	87.31
345.031	99.31
345.259	99.31
345.487	92.31
345.714	78.31
345.942	100.31
346.17	104.31
346.397	92.31
346.625	117.31
346.853	92.31
347.08	106.31
347.308	97.31
347.535	98.31
347.763	107.31
347.99	92.31
348.218	94.31
348.445	95.31
348.673	88.31
348.9	90.31
349.128	85.31
349.355	86.31
349.583	95.31
349.81	102.31
350.037	92.31
350.265	98.31
350.492	98.31
350.72	97.31
350.947	95.31
351.174	105.31
351.402	114.31
351.629	96.31
351.856	104.31
352.083	103.31
352.311	111.31
352.538	105.31
352.765	102.31
352.992	112.31
353.22	100.31
353.447	96.31
353.674	107.31
353.901	82.31
354.128	95.31
354.355	101.31
354.583	104.31
354.81	99.31
355.037	108.31
355.264	98.31
355.491	92.31
355.718	75.31
355.945	89.31
356.172	103.31
356.399	98.31
356.626	92.31
356.853	98.31
357.08	91.31
357.307	89.31
357.534	93.31
357.761	87.31
357.988	88.31
358.215	92.31
358.441	76.31
358.668	91.31
358.895	85.31
359.122	78.31
359.349	96.31
359.576	96.31
359.802	101.31
360.029	110.31
360.256	99.31
360.483	99.31
360.709	80.31
360.936	91.31
361.163	89.31
361.39	76.31
361.616	92.31
361.843	98.31
362.07	99.31
362.296	101.31
362.523	95.31
362.749	94.31
362.976	98.31
363.203	91.31
363.429	94.31
363.656	92.31
363.882	104.31
364.109	82.31
364.335	99.31
364.562	88.31
364.788	92.31
365.015	86.31
365.241	93.31
365.468	113.31
365.694	107.31
365.92	90.31
366.147	99.31
366.373	87.31
366.599	107.31
366.826	85.31
367.052	97.31
367.278	87.31
367.505	85.31
367.731	90.31
367.957	88.31
368.184	86.31
368.41	106.31
368.636	107.31
368.862	119.31
369.089	93.31
369.315	103.31
369.541	106.31
369.767	88.31
369.993	98.31
370.219	103.31
370.445	74.31
370.672	82.31
370.898	89.31
371.124	80.31
371.35	97.31
371.576	88.31
371.802	77.31
372.028	92.31
372.254	93.31
372.48	78.31
372.706	94.31
372.932	81.31
373.158	83.31
373.384	78.31
373.61	90.31
373.835	87.31
374.061	92.31
374.287	104.31
374.513	105.31
374.739	96.31
374.965	83.31
375.191	85.31
375.416	102.31
375.642	89.31
375.868	84.31
376.094	76.31
376.319	82.31
376.545	97.31
376.771	94.31
376.997	85.31
377.222	97.31
377.448	72.31
377.674	96.31
377.899	78.31
378.125	106.31
378.35	98.31
378.576	92.31
378.802	100.31
379.027	87.31
379.253	94.31
379.478	82.31
379.704	96.31
379.929	90.31
380.155	99.31
380.38	96.31
380.606	98.31
380.831	105.31
381.057	108.31
381.282	84.31
381.507	99.31
381.733	100.31
381.958	100.31
382.184	90.31
382.409	98.31
382.634	98.31
382.86	88.31
383.085	103.31
383.31	100.31
383.535	86.31
383.761	100.31
383.986	93.31
384.211	94.31
384.436	86.31
384.662	101.31
384.887	99.31
385.112	96.31
385.337	95.31
385.562	91.31
385.787	111.31
386.013	104.31
386.238	99.31
386.463	103.31
386.688	91.31
386.913	95.31
387.138	111.31
387.363	91.31
387.588	97.31
387.813	86.31
388.038	102.31
388.263	111.31
388.488	110.31
388.713	102.31
388.938	110.31
389.163	95.31
389.387	105.31
389.612	88.31
389.837	92.31
390.062	85.31
390.287	102.31
390.512	90.31
390.736	92.31
390.961	75.31
391.186	103.31
391.411	89.31
391.636	86.31
391.86	86.31
392.085	108.31
392.31	79.31
392.534	94.31
392.759	72.31
392.984	92.31
393.208	102.31
393.433	91.31
393.658	79.31
393.882	100.31
394.107	82.31
394.331	83.31
394.556	99.31
394.78	92.31
395.005	85.31
395.229	88.31
395.454	81.31
395.678	86.31
395.903	90.31
396.127	95.31
396.352	81.31
396.576	89.31
396.801	86.31
397.025	80.31
397.249	83.31
397.474	88.31
397.698	85.31
397.922	88.31
398.147	83.31
398.371	87.31
398.595	86.31
398.82	70.31
399.044	92.31
399.268	86.31
399.492	79.31
399.717	102.31
399.941	101.31
400.165	96.31
400.389	86.31
400.613	94.31
400.837	74.31
401.062	88.31
401.286	89.31
401.51	89.31
401.734	92.31
401.958	104.31
402.182	111.31
402.406	136.31
402.63	120.31
402.854	89.31
403.078	87.31
403.302	79.31
403.526	82.31
403.75	74.31
403.974	88.31
404.198	90.31
404.422	81.31
404.645	99.31
404.869	83.31
405.093	80.31
405.317	81.31
405.541	101.31
405.765	107.31
405.988	129.31
406.212	171.31
406.436	224.31
406.66	150.31
406.883	96.31
407.107	87.31
407.331	88.31
407.555	91.31
407.778	95.31
408.002	80.31
408.226	89.31
408.449	89.31
408.673	91.31
408.896	75.31
409.12	92.31
409.344	95.31
409.567	104.31
409.791	98.31
410.014	83.31
410.238	92.31
410.461	85.31
410.685	93.31
410.908	93.31
411.132	108.31
411.355	96.31
411.578	89.31
411.802	94.31
412.025	83.31
412.249	86.31
412.472	90.31
412.695	86.31
412.919	83.31
413.142	84.31
413.365	94.31
413.589	87.31
413.812	73.31
414.035	88.31
414.258	75.31
414.482	89.31
414.705	80.31
414.928	78.31
415.151	95.31
415.374	94.31
415.597	82.31
415.821	83.31
416.044	85.31
416.267	86.31
416.49	76.31
416.713	71.31
416.936	86.31
417.159	106.31
417.382	95.31
417.605	91.31
417.828	96.31
418.051	83.31
418.274	91.31
418.497	85.31
418.72	85.31
418.943	79.31
419.166	84.31
419.389	83.31
419.611	92.31
419.834	65.31
420.057	68.31
420.28	88.31
420.503	81.31
420.726	91.31
420.948	91.31
421.171	91.31
421.394	90.31
421.617	98.31
421.839	70.31
422.062	94.31
422.285	100.31
422.507	97.31
422.73	86.31
422.953	100.31
423.175	94.31
423.398	97.31
423.621	81.31
423.843	95.31
424.066	80.31
424.288	85.31
424.511	70.31
424.733	95.31
424.956	98.31
425.178	94.31
425.401	95.31
425.623	103.31
425.846	94.31
426.068	92.31
426.291	86.31
426.513	90.31
426.735	96.31
426.958	98.31
427.18	87.31
427.402	130.31
427.625	158.31
427.847	121.31
428.069	88.31
428.292	92.31
428.514	96.31
428.736	91.31
428.958	97.31
429.181	91.31
429.403	94.31
429.625	86.31
429.847	81.31
430.069	91.31
430.292	95.31
430.514	91.31
430.736	78.31
430.958	98.31
431.18	80.31
431.402	88.31
431.624	88.31
431.846	84.31
432.068	88.31
432.29	75.31
432.512	73.31
432.734	75.31
432.956	88.31
433.178	118.31
433.4	81.31
433.622	92.31
433.844	87.31
434.066	91.31
434.287	91.31
434.509	65.31
434.731	88.31
434.953	78.31
435.175	93.31
435.397	95.31
435.618	90.31
435.84	101.31
436.062	118.31
436.284	106.31
436.505	88.31
436.727	91.31
436.949	83.31
437.17	101.31
437.392	74.31
437.614	84.31
437.835	114.31
438.057	112.31
438.278	108.31
438.5	98.31
438.721	113.31
438.943	91.31
439.165	103.31
439.386	85.31
439.608	85.31
439.829	104.31
440.05	110.31
440.272	129.31
440.493	98.31
440.715	79.31
440.936	82.31
441.158	92.31
441.379	92.31
441.6	79.31
441.822	82.31
442.043	88.31
442.264	87.31
442.486	88.31
442.707	92.31
442.928	102.31
443.149	135.31
443.371	131.31
443.592	99.31
443.813	100.31
444.034	101.31
444.255	60.31
444.476	80.31
444.698	86.31
444.919	87.31
445.14	135.31
445.361	123.31
445.582	96.31
445.803	136.31
446.024	127.31
446.245	123.31
446.466	97.31
446.687	83.31
446.908	81.31
447.129	93.31
447.35	79.31
447.571	81.31
447.792	73.31
448.013	111.31
448.234	113.31
448.455	95.31
448.675	106.31
448.896	108.31
449.117	86.31
449.338	99.31
449.559	127.31
449.779	106.31
450	95.31
450.221	79.31
450.442	96.31
450.662	96.31
450.883	101.31
451.104	108.31
451.324	103.31
451.545	79.31
451.766	80.31
451.986	90.31
452.207	92.31
452.428	88.31
452.648	102.31
452.869	105.31
453.089	111.31
453.31	116.31
453.53	86.31
453.751	90.31
453.971	90.31
454.192	92.31
454.412	103.31
454.633	88.31
454.853	96.31
455.073	84.31
455.294	90.31
455.514	90.31
455.734	93.31
455.955	88.31
456.175	89.31
456.395	74.31
456.616	86.31
456.836	90.31
457.056	90.31
457.276	84.31
457.497	78.31
457.717	75.31
457.937	84.31
458.157	78.31
458.377	87.31
458.598	105.31
458.818	138.31
459.038	145.31
459.258	102.31
459.478	91.31
459.698	98.31
459.918	92.31
460.138	75.31
460.358	74.31
460.578	91.31
460.798	95.31
461.018	81.31
461.238	84.31
461.458	82.31
461.678	67.31
461.898	72.31
462.118	80.31
462.338	88.31
462.558	83.31
462.777	73.31
462.997	95.31
463.217	80.31
463.437	87.31
463.657	92.31
463.876	96.31
464.096	95.31
464.316	86.31
464.536	91.31
464.755	92.31
464.975	107.31
465.195	144.31
465.414	142.31
465.634	72.31
465.854	95.31
466.073	83.31
466.293	96.31
466.512	83.31
466.732	76.31
466.951	88.31
467.171	95.31
467.391	89.31
467.61	92.31
467.829	92.31
468.049	102.31
468.268	87.31
468.488	78.31
468.707	59.31
468.927	87.31
469.146	86.31
469.365	82.31
469.585	94.31
469.804	89.31
470.023	91.31
470.243	97.31
470.462	105.31
470.681	100.31
470.901	80.31
471.12	84.31
471.339	80.31
471.558	67.31
471.777	84.31
471.997	95.31
472.216	86.31
472.435	73.31
472.654	81.31
472.873	90.31
473.092	84.31
473.311	84.31
473.53	91.31
473.749	82.31
473.968	94.31
474.187	103.31
474.406	95.31
474.625	92.31
474.844	80.31
475.063	75.31
475.282	98.31
475.501	77.31
475.72	92.31
475.939	81.31
476.158	90.31
476.377	91.31
476.596	86.31
476.814	98.31
477.033	96.31
477.252	89.31
477.471	78.31
477.69	80.31
477.908	85.31
478.127	84.31
478.346	89.31
478.564	97.31
478.783	92.31
479.002	94.31
479.22	89.31
479.439	94.31
479.658	95.31
479.876	92.31
480.095	92.31
480.313	86.31
480.532	99.31
480.751	95.31
480.969	99.31
481.188	124.31
481.406	104.31
481.624	103.31
481.843	100.31
482.061	95.31
482.28	87.31
482.498	100.31
482.717	85.31
482.935	84.31
483.153	91.31
483.372	72.31
483.59	90.31
483.808	95.31
484.027	97.31
484.245	105.31
484.463	104.31
484.681	90.31
484.9	91.31
485.118	98.31
485.336	98.31
485.554	99.31
485.772	89.31
485.99	90.31
486.209	101.31
486.427	82.31
486.645	98.31
486.863	100.31
487.081	89.31
487.299	94.31
487.517	98.31
487.735	87.31
487.953	97.31
488.171	84.31
488.389	87.31
488.607	96.31
488.825	80.31
489.043	83.31
489.261	98.31
489.479	92.31
489.696	94.31
489.914	95.31
490.132	85.31
490.35	91.31
490.568	100.31
490.786	72.31
491.003	80.31
491.221	82.31
491.439	87.31
491.657	91.31
491.874	89.31
492.092	81.31
492.31	86.31
492.527	85.31
492.745	82.31
492.963	80.31
493.18	106.31
493.398	100.31
493.615	86.31
493.833	101.31
494.05	110.31
494.268	82.31
494.485	91.31
494.703	85.31
494.92	72.31
495.138	82.31
495.355	91.31
495.573	88.31
495.79	83.31
496.008	91.31
496.225	79.31
496.442	94.31
496.66	87.31
496.877	99.31
497.094	94.31
497.312	88.31
497.529	84.31
497.746	99.31
497.963	89.31
498.181	102.31
498.398	94.31
498.615	107.31
498.832	110.31
499.049	80.31
499.267	85.31
499.484	95.31
499.701	92.31
499.918	90.31
500.135	84.31
500.352	95.31
500.569	94.31
500.786	101.31
501.003	98.31
501.22	91.31
501.437	87.31
501.654	87.31
501.871	89.31
502.088	92.31
502.305	93.31
502.522	94.31
502.739	83.31
502.956	107.31
503.172	90.31
503.389	102.31
503.606	91.31
503.823	88.31
504.04	94.31
504.256	94.31
504.473	79.31
504.69	99.31
504.907	95.31
505.123	100.31
505.34	84.31
505.557	92.31
505.773	86.31
505.99	93.31
506.207	72.31
506.423	94.31
506.64	82.31
506.856	88.31
507.073	107.31
507.289	81.31
507.506	103.31
507.722	94.31
507.939	107.31
508.155	104.31
508.372	104.31
508.588	98.31
508.805	108.31
509.021	89.31
509.238	92.31
509.454	94.31
509.67	107.31
509.887	112.31
510.103	151.31
510.319	200.31
510.536	764.31
510.752	2428.31
510.968	654.31
511.184	162.31
511.401	99.31
511.617	105.31
511.833	92.31
512.049	86.31
512.265	99.31
512.481	98.31
512.698	86.31
512.914	88.31
513.13	112.31
513.346	86.31
513.562	92.31
513.778	92.31
513.994	80.31
514.21	104.31
514.426	118.31
514.642	128.31
514.858	123.31
515.074	172.31
515.29	447.31
515.506	1458.31
515.721	516.31
515.937	147.31
516.153	114.31
