Data from Uncirc_1984_H10_HRD10591_00007.txt Node
Date: Wed Jan 03 12:21:38 EST 2024
User: Yrep
Spectrometer: HR+D1059
Trigger mode: 1
Integration Time (sec): 1.000000E-1
Scans to average: 1
Electric dark correction enabled: true
Nonlinearity correction enabled: false
Boxcar width: 0
XAxis mode: Wavelengths
Number of Pixels in Spectrum: 2048
>>>>>Begin Spectral Data<<<<<
223.165	-16.94
223.4	-16.94
223.635	-16.94
223.869	-20.94
224.104	-25.94
224.338	-16.94
224.573	-10.94
224.808	-19.94
225.042	-6.94
225.277	6.06
225.511	-1.94
225.746	16.06
225.98	-1.94
226.215	17.06
226.449	16.06
226.683	17.06
226.918	22.06
227.152	28.06
227.387	37.06
227.621	31.06
227.856	53.06
228.09	44.06
228.324	57.06
228.559	58.06
228.793	58.06
229.027	69.06
229.262	79.06
229.496	76.06
229.73	93.06
229.964	78.06
230.199	81.06
230.433	76.06
230.667	81.06
230.901	71.06
231.136	72.06
231.37	84.06
231.604	64.06
231.838	85.06
232.072	94.06
232.306	86.06
232.541	93.06
232.775	90.06
233.009	82.06
233.243	85.06
233.477	91.06
233.711	82.06
233.945	81.06
234.179	73.06
234.413	84.06
234.647	82.06
234.881	95.06
235.115	86.06
235.349	67.06
235.583	81.06
235.817	83.06
236.051	87.06
236.285	70.06
236.519	85.06
236.753	89.06
236.987	69.06
237.221	93.06
237.455	81.06
237.689	85.06
237.922	87.06
238.156	87.06
238.39	86.06
238.624	71.06
238.858	82.06
239.091	57.06
239.325	92.06
239.559	82.06
239.793	67.06
240.027	93.06
240.26	71.06
240.494	94.06
240.728	83.06
240.961	86.06
241.195	74.06
241.429	79.06
241.662	76.06
241.896	79.06
242.13	95.06
242.363	83.06
242.597	71.06
242.83	85.06
243.064	87.06
243.298	72.06
243.531	79.06
243.765	82.06
243.998	94.06
244.232	74.06
244.465	93.06
244.699	81.06
244.932	97.06
245.166	73.06
245.399	83.06
245.633	88.06
245.866	75.06
246.099	76.06
246.333	80.06
246.566	70.06
246.8	90.06
247.033	72.06
247.266	78.06
247.5	77.06
247.733	85.06
247.966	70.06
248.2	82.06
248.433	88.06
248.666	77.06
248.899	78.06
249.133	81.06
249.366	103.06
249.599	101.06
249.832	87.06
250.066	86.06
250.299	84.06
250.532	83.06
250.765	77.06
250.998	88.06
251.231	84.06
251.465	89.06
251.698	91.06
251.931	82.06
252.164	89.06
252.397	89.06
252.63	95.06
252.863	87.06
253.096	86.06
253.329	92.06
253.562	86.06
253.795	78.06
254.028	91.06
254.261	71.06
254.494	91.06
254.727	93.06
254.96	90.06
255.193	78.06
255.426	78.06
255.659	75.06
255.892	86.06
256.124	75.06
256.357	81.06
256.59	95.06
256.823	93.06
257.056	90.06
257.289	79.06
257.521	93.06
257.754	83.06
257.987	73.06
258.22	76.06
258.452	85.06
258.685	73.06
258.918	98.06
259.151	77.06
259.383	81.06
259.616	81.06
259.849	91.06
260.081	88.06
260.314	82.06
260.547	74.06
260.779	82.06
261.012	83.06
261.244	85.06
261.477	86.06
261.71	95.06
261.942	107.06
262.175	123.06
262.407	87.06
262.64	89.06
262.872	93.06
263.105	87.06
263.337	87.06
263.57	79.06
263.802	98.06
264.035	71.06
264.267	82.06
264.499	90.06
264.732	85.06
264.964	83.06
265.197	90.06
265.429	77.06
265.661	93.06
265.894	77.06
266.126	75.06
266.358	95.06
266.591	85.06
266.823	89.06
267.055	76.06
267.287	83.06
267.52	81.06
267.752	96.06
267.984	95.06
268.216	87.06
268.448	85.06
268.681	92.06
268.913	86.06
269.145	96.06
269.377	74.06
269.609	69.06
269.841	92.06
270.073	77.06
270.306	89.06
270.538	91.06
270.77	81.06
271.002	76.06
271.234	85.06
271.466	79.06
271.698	83.06
271.93	99.06
272.162	91.06
272.394	95.06
272.626	88.06
272.858	103.06
273.09	93.06
273.322	75.06
273.553	93.06
273.785	75.06
274.017	87.06
274.249	95.06
274.481	86.06
274.713	73.06
274.945	96.06
275.176	81.06
275.408	95.06
275.64	77.06
275.872	91.06
276.104	97.06
276.335	91.06
276.567	104.06
276.799	105.06
277.031	81.06
277.262	94.06
277.494	94.06
277.726	91.06
277.957	69.06
278.189	94.06
278.421	99.06
278.652	82.06
278.884	91.06
279.115	95.06
279.347	86.06
279.579	83.06
279.81	82.06
280.042	85.06
280.273	81.06
280.505	81.06
280.736	86.06
280.968	94.06
281.199	87.06
281.431	82.06
281.662	106.06
281.894	94.06
282.125	101.06
282.356	111.06
282.588	140.06
282.819	110.06
283.051	86.06
283.282	91.06
283.513	91.06
283.745	85.06
283.976	85.06
284.207	97.06
284.439	85.06
284.67	73.06
284.901	97.06
285.132	98.06
285.364	98.06
285.595	82.06
285.826	93.06
286.057	97.06
286.288	92.06
286.52	97.06
286.751	102.06
286.982	101.06
287.213	90.06
287.444	83.06
287.675	109.06
287.906	77.06
288.138	91.06
288.369	92.06
288.6	92.06
288.831	92.06
289.062	96.06
289.293	91.06
289.524	84.06
289.755	88.06
289.986	95.06
290.217	77.06
290.448	80.06
290.679	95.06
290.91	95.06
291.141	102.06
291.371	89.06
291.602	83.06
291.833	87.06
292.064	80.06
292.295	87.06
292.526	90.06
292.757	95.06
292.987	90.06
293.218	95.06
293.449	82.06
293.68	94.06
293.91	88.06
294.141	90.06
294.372	101.06
294.603	87.06
294.833	95.06
295.064	105.06
295.295	105.06
295.525	91.06
295.756	92.06
295.987	116.06
296.217	117.06
296.448	124.06
296.679	97.06
296.909	103.06
297.14	85.06
297.37	85.06
297.601	98.06
297.831	95.06
298.062	80.06
298.292	82.06
298.523	83.06
298.753	95.06
298.984	82.06
299.214	92.06
299.445	90.06
299.675	99.06
299.905	91.06
300.136	90.06
300.366	81.06
300.597	100.06
300.827	91.06
301.057	96.06
301.288	88.06
301.518	90.06
301.748	109.06
301.979	83.06
302.209	90.06
302.439	90.06
302.669	77.06
302.9	93.06
303.13	111.06
303.36	113.06
303.59	91.06
303.82	94.06
304.051	88.06
304.281	97.06
304.511	95.06
304.741	83.06
304.971	79.06
305.201	83.06
305.431	87.06
305.661	89.06
305.891	97.06
306.121	82.06
306.352	93.06
306.582	99.06
306.812	101.06
307.042	94.06
307.272	104.06
307.502	94.06
307.731	94.06
307.961	92.06
308.191	100.06
308.421	96.06
308.651	103.06
308.881	86.06
309.111	89.06
309.341	90.06
309.571	103.06
309.8	106.06
310.03	100.06
310.26	97.06
310.49	100.06
310.72	114.06
310.949	103.06
311.179	86.06
311.409	97.06
311.639	97.06
311.868	81.06
312.098	93.06
312.328	98.06
312.557	115.06
312.787	103.06
313.017	96.06
313.246	87.06
313.476	102.06
313.706	98.06
313.935	90.06
314.165	87.06
314.394	94.06
314.624	94.06
314.853	106.06
315.083	87.06
315.312	94.06
315.542	78.06
315.771	91.06
316.001	89.06
316.23	88.06
316.46	103.06
316.689	103.06
316.919	88.06
317.148	94.06
317.377	92.06
317.607	101.06
317.836	94.06
318.065	105.06
318.295	83.06
318.524	97.06
318.753	90.06
318.983	96.06
319.212	87.06
319.441	105.06
319.67	99.06
319.9	99.06
320.129	100.06
320.358	93.06
320.587	99.06
320.816	106.06
321.046	97.06
321.275	92.06
321.504	101.06
321.733	93.06
321.962	103.06
322.191	103.06
322.42	116.06
322.649	115.06
322.878	106.06
323.108	124.06
323.337	122.06
323.566	134.06
323.795	133.06
324.024	199.06
324.253	373.06
324.482	790.06
324.71	1665.06
324.939	2199.06
325.168	790.06
325.397	229.06
325.626	137.06
325.855	120.06
326.084	134.06
326.313	129.06
326.542	158.06
326.77	230.06
326.999	455.06
327.228	937.06
327.457	1715.06
327.686	1367.06
327.914	361.06
328.143	188.06
328.372	126.06
328.6	122.06
328.829	121.06
329.058	125.06
329.287	131.06
329.515	106.06
329.744	77.06
329.972	97.06
330.201	104.06
330.43	106.06
330.658	127.06
330.887	135.06
331.115	122.06
331.344	102.06
331.572	111.06
331.801	101.06
332.03	106.06
332.258	94.06
332.486	96.06
332.715	88.06
332.943	97.06
333.172	100.06
333.4	87.06
333.629	105.06
333.857	115.06
334.085	100.06
334.314	101.06
334.542	94.06
334.771	96.06
334.999	94.06
335.227	101.06
335.455	74.06
335.684	102.06
335.912	109.06
336.14	98.06
336.369	94.06
336.597	86.06
336.825	113.06
337.053	99.06
337.281	91.06
337.51	86.06
337.738	84.06
337.966	99.06
338.194	102.06
338.422	98.06
338.65	91.06
338.878	73.06
339.106	102.06
339.334	84.06
339.562	102.06
339.79	96.06
340.018	82.06
340.246	85.06
340.474	93.06
340.702	96.06
340.93	77.06
341.158	91.06
341.386	85.06
341.614	92.06
341.842	97.06
342.07	81.06
342.298	93.06
342.526	99.06
342.754	86.06
342.981	91.06
343.209	92.06
343.437	99.06
343.665	74.06
343.893	81.06
344.12	108.06
344.348	82.06
344.576	97.06
344.804	79.06
345.031	93.06
345.259	90.06
345.487	103.06
345.714	100.06
345.942	86.06
346.17	97.06
346.397	92.06
346.625	110.06
346.853	94.06
347.08	92.06
347.308	89.06
347.535	104.06
347.763	95.06
347.99	100.06
348.218	101.06
348.445	85.06
348.673	105.06
348.9	87.06
349.128	91.06
349.355	94.06
349.583	95.06
349.81	100.06
350.037	87.06
350.265	85.06
350.492	92.06
350.72	84.06
350.947	106.06
351.174	103.06
351.402	106.06
351.629	116.06
351.856	97.06
352.083	109.06
352.311	108.06
352.538	96.06
352.765	104.06
352.992	109.06
353.22	99.06
353.447	108.06
353.674	103.06
353.901	94.06
354.128	107.06
354.355	110.06
354.583	105.06
354.81	107.06
355.037	100.06
355.264	87.06
355.491	95.06
355.718	88.06
355.945	107.06
356.172	97.06
356.399	106.06
356.626	84.06
356.853	102.06
357.08	94.06
357.307	91.06
357.534	83.06
357.761	86.06
357.988	95.06
358.215	101.06
358.441	86.06
358.668	94.06
358.895	112.06
359.122	110.06
359.349	82.06
359.576	106.06
359.802	98.06
360.029	115.06
360.256	107.06
360.483	106.06
360.709	81.06
360.936	91.06
361.163	109.06
361.39	97.06
361.616	91.06
361.843	81.06
362.07	89.06
362.296	103.06
362.523	98.06
362.749	82.06
362.976	103.06
363.203	95.06
363.429	81.06
363.656	79.06
363.882	91.06
364.109	86.06
364.335	78.06
364.562	96.06
364.788	84.06
365.015	91.06
365.241	105.06
365.468	115.06
365.694	98.06
365.92	97.06
366.147	104.06
366.373	84.06
366.599	101.06
366.826	102.06
367.052	92.06
367.278	94.06
367.505	96.06
367.731	87.06
367.957	107.06
368.184	95.06
368.41	106.06
368.636	117.06
368.862	99.06
369.089	112.06
369.315	107.06
369.541	103.06
369.767	90.06
369.993	97.06
370.219	93.06
370.445	74.06
370.672	85.06
370.898	85.06
371.124	86.06
371.35	96.06
371.576	97.06
371.802	81.06
372.028	95.06
372.254	80.06
372.48	81.06
372.706	107.06
372.932	95.06
373.158	100.06
373.384	83.06
373.61	87.06
373.835	105.06
374.061	92.06
374.287	84.06
374.513	95.06
374.739	82.06
374.965	93.06
375.191	96.06
375.416	111.06
375.642	93.06
375.868	101.06
376.094	98.06
376.319	100.06
376.545	95.06
376.771	99.06
376.997	101.06
377.222	90.06
377.448	87.06
377.674	97.06
377.899	105.06
378.125	89.06
378.35	87.06
378.576	91.06
378.802	94.06
379.027	101.06
379.253	94.06
379.478	89.06
379.704	92.06
379.929	87.06
380.155	97.06
380.38	93.06
380.606	70.06
380.831	93.06
381.057	105.06
381.282	105.06
381.507	85.06
381.733	100.06
381.958	103.06
382.184	94.06
382.409	96.06
382.634	93.06
382.86	112.06
383.085	93.06
383.31	111.06
383.535	104.06
383.761	103.06
383.986	104.06
384.211	92.06
384.436	98.06
384.662	91.06
384.887	101.06
385.112	99.06
385.337	112.06
385.562	120.06
385.787	118.06
386.013	108.06
386.238	106.06
386.463	103.06
386.688	121.06
386.913	94.06
387.138	117.06
387.363	106.06
387.588	107.06
387.813	100.06
388.038	112.06
388.263	120.06
388.488	112.06
388.713	89.06
388.938	95.06
389.163	106.06
389.387	111.06
389.612	94.06
389.837	104.06
390.062	88.06
390.287	84.06
390.512	99.06
390.736	94.06
390.961	87.06
391.186	105.06
391.411	101.06
391.636	75.06
391.86	75.06
392.085	75.06
392.31	96.06
392.534	81.06
392.759	76.06
392.984	96.06
393.208	88.06
393.433	110.06
393.658	104.06
393.882	85.06
394.107	81.06
394.331	92.06
394.556	85.06
394.78	70.06
395.005	85.06
395.229	89.06
395.454	82.06
395.678	78.06
395.903	88.06
396.127	100.06
396.352	88.06
396.576	77.06
396.801	90.06
397.025	91.06
397.249	88.06
397.474	90.06
397.698	100.06
397.922	90.06
398.147	85.06
398.371	95.06
398.595	90.06
398.82	92.06
399.044	91.06
399.268	91.06
399.492	89.06
399.717	91.06
399.941	90.06
400.165	94.06
400.389	94.06
400.613	76.06
400.837	84.06
401.062	91.06
401.286	90.06
401.51	78.06
401.734	99.06
401.958	101.06
402.182	134.06
402.406	150.06
402.63	126.06
402.854	78.06
403.078	87.06
403.302	92.06
403.526	85.06
403.75	84.06
403.974	94.06
404.198	92.06
404.422	82.06
404.645	83.06
404.869	100.06
405.093	104.06
405.317	90.06
405.541	100.06
405.765	105.06
405.988	121.06
406.212	172.06
406.436	197.06
406.66	132.06
406.883	91.06
407.107	75.06
407.331	94.06
407.555	105.06
407.778	91.06
408.002	101.06
408.226	97.06
408.449	88.06
408.673	93.06
408.896	88.06
409.12	104.06
409.344	105.06
409.567	105.06
409.791	98.06
410.014	85.06
410.238	100.06
410.461	107.06
410.685	104.06
410.908	102.06
411.132	105.06
411.355	102.06
411.578	99.06
411.802	88.06
412.025	89.06
412.249	91.06
412.472	86.06
412.695	82.06
412.919	93.06
413.142	90.06
413.365	86.06
413.589	97.06
413.812	91.06
414.035	93.06
414.258	93.06
414.482	102.06
414.705	91.06
414.928	99.06
415.151	94.06
415.374	103.06
415.597	87.06
415.821	90.06
416.044	81.06
416.267	99.06
416.49	81.06
416.713	85.06
416.936	82.06
417.159	97.06
417.382	86.06
417.605	111.06
417.828	85.06
418.051	84.06
418.274	90.06
418.497	97.06
418.72	87.06
418.943	104.06
419.166	83.06
419.389	104.06
419.611	82.06
419.834	93.06
420.057	104.06
420.28	103.06
420.503	87.06
420.726	72.06
420.948	87.06
421.171	99.06
421.394	105.06
421.617	89.06
421.839	97.06
422.062	74.06
422.285	95.06
422.507	115.06
422.73	125.06
422.953	105.06
423.175	95.06
423.398	94.06
423.621	105.06
423.843	87.06
424.066	65.06
424.288	85.06
424.511	79.06
424.733	101.06
424.956	109.06
425.178	101.06
425.401	97.06
425.623	107.06
425.846	90.06
426.068	107.06
426.291	89.06
426.513	102.06
426.735	100.06
426.958	98.06
427.18	115.06
427.402	139.06
427.625	168.06
427.847	129.06
428.069	98.06
428.292	75.06
428.514	92.06
428.736	92.06
428.958	76.06
429.181	81.06
429.403	87.06
429.625	87.06
429.847	108.06
430.069	97.06
430.292	101.06
430.514	88.06
430.736	79.06
430.958	81.06
431.18	89.06
431.402	84.06
431.624	88.06
431.846	88.06
432.068	77.06
432.29	84.06
432.512	92.06
432.734	85.06
432.956	99.06
433.178	97.06
433.4	103.06
433.622	95.06
433.844	104.06
434.066	77.06
434.287	109.06
434.509	93.06
434.731	98.06
434.953	89.06
435.175	81.06
435.397	85.06
435.618	83.06
435.84	91.06
436.062	126.06
436.284	111.06
436.505	109.06
436.727	107.06
436.949	102.06
437.17	90.06
437.392	92.06
437.614	96.06
437.835	104.06
438.057	114.06
438.278	126.06
438.5	117.06
438.721	114.06
438.943	106.06
439.165	101.06
439.386	86.06
439.608	92.06
439.829	93.06
440.05	117.06
440.272	143.06
440.493	119.06
440.715	90.06
440.936	79.06
441.158	94.06
441.379	87.06
441.6	90.06
441.822	98.06
442.043	99.06
442.264	110.06
442.486	103.06
442.707	89.06
442.928	108.06
443.149	125.06
443.371	129.06
443.592	113.06
443.813	120.06
444.034	114.06
444.255	91.06
444.476	92.06
444.698	87.06
444.919	75.06
445.14	147.06
445.361	130.06
445.582	108.06
445.803	138.06
446.024	126.06
446.245	133.06
446.466	108.06
446.687	102.06
446.908	82.06
447.129	98.06
447.35	90.06
447.571	107.06
447.792	99.06
448.013	111.06
448.234	109.06
448.455	100.06
448.675	119.06
448.896	135.06
449.117	96.06
449.338	116.06
449.559	148.06
449.779	150.06
450	106.06
450.221	105.06
450.442	92.06
450.662	94.06
450.883	106.06
451.104	105.06
451.324	104.06
451.545	92.06
451.766	90.06
451.986	84.06
452.207	79.06
452.428	102.06
452.648	92.06
452.869	114.06
453.089	105.06
453.31	115.06
453.53	105.06
453.751	94.06
453.971	99.06
454.192	110.06
454.412	104.06
454.633	93.06
454.853	76.06
455.073	87.06
455.294	89.06
455.514	94.06
455.734	87.06
455.955	83.06
456.175	91.06
456.395	94.06
456.616	91.06
456.836	93.06
457.056	101.06
457.276	78.06
457.497	81.06
457.717	89.06
457.937	88.06
458.157	89.06
458.377	102.06
458.598	118.06
458.818	149.06
459.038	142.06
459.258	111.06
459.478	109.06
459.698	89.06
459.918	83.06
460.138	90.06
460.358	83.06
460.578	97.06
460.798	86.06
461.018	92.06
461.238	85.06
461.458	87.06
461.678	84.06
461.898	94.06
462.118	94.06
462.338	100.06
462.558	88.06
462.777	88.06
462.997	91.06
463.217	93.06
463.437	84.06
463.657	92.06
463.876	95.06
464.096	96.06
464.316	94.06
464.536	103.06
464.755	98.06
464.975	99.06
465.195	148.06
465.414	167.06
465.634	87.06
465.854	89.06
466.073	98.06
466.293	91.06
466.512	91.06
466.732	86.06
466.951	83.06
467.171	89.06
467.391	88.06
467.61	102.06
467.829	104.06
468.049	90.06
468.268	107.06
468.488	87.06
468.707	77.06
468.927	87.06
469.146	92.06
469.365	83.06
469.585	83.06
469.804	94.06
470.023	101.06
470.243	98.06
470.462	110.06
470.681	109.06
470.901	85.06
471.12	91.06
471.339	103.06
471.558	100.06
471.777	78.06
471.997	78.06
472.216	90.06
472.435	98.06
472.654	83.06
472.873	99.06
473.092	86.06
473.311	88.06
473.53	91.06
473.749	90.06
473.968	91.06
474.187	109.06
474.406	110.06
474.625	84.06
474.844	81.06
475.063	89.06
475.282	92.06
475.501	90.06
475.72	92.06
475.939	87.06
476.158	91.06
476.377	92.06
476.596	97.06
476.814	87.06
477.033	84.06
477.252	84.06
477.471	87.06
477.69	91.06
477.908	86.06
478.127	94.06
478.346	90.06
478.564	88.06
478.783	105.06
479.002	109.06
479.22	99.06
479.439	97.06
479.658	92.06
479.876	103.06
480.095	101.06
480.313	83.06
480.532	81.06
480.751	83.06
480.969	99.06
481.188	103.06
481.406	87.06
481.624	90.06
481.843	106.06
482.061	98.06
482.28	102.06
482.498	105.06
482.717	88.06
482.935	85.06
483.153	90.06
483.372	99.06
483.59	106.06
483.808	107.06
484.027	94.06
484.245	100.06
484.463	90.06
484.681	91.06
484.9	115.06
485.118	97.06
485.336	93.06
485.554	111.06
485.772	97.06
485.99	107.06
486.209	104.06
486.427	99.06
486.645	106.06
486.863	110.06
487.081	98.06
487.299	110.06
487.517	97.06
487.735	90.06
487.953	95.06
488.171	98.06
488.389	97.06
488.607	106.06
488.825	90.06
489.043	92.06
489.261	105.06
489.479	95.06
489.696	89.06
489.914	96.06
490.132	95.06
490.35	100.06
490.568	91.06
490.786	87.06
491.003	100.06
491.221	97.06
491.439	102.06
491.657	94.06
491.874	88.06
492.092	92.06
492.31	88.06
492.527	93.06
492.745	103.06
492.963	103.06
493.18	88.06
493.398	89.06
493.615	91.06
493.833	87.06
494.05	84.06
494.268	93.06
494.485	98.06
494.703	86.06
494.92	77.06
495.138	98.06
495.355	93.06
495.573	87.06
495.79	83.06
496.008	98.06
496.225	92.06
496.442	79.06
496.66	98.06
496.877	99.06
497.094	101.06
497.312	91.06
497.529	97.06
497.746	101.06
497.963	84.06
498.181	91.06
498.398	82.06
498.615	106.06
498.832	106.06
499.049	91.06
499.267	100.06
499.484	77.06
499.701	91.06
499.918	91.06
500.135	99.06
500.352	102.06
500.569	102.06
500.786	95.06
501.003	99.06
501.22	101.06
501.437	85.06
501.654	97.06
501.871	113.06
502.088	87.06
502.305	92.06
502.522	78.06
502.739	93.06
502.956	102.06
503.172	99.06
503.389	92.06
503.606	120.06
503.823	92.06
504.04	100.06
504.256	92.06
504.473	89.06
504.69	109.06
504.907	100.06
505.123	83.06
505.34	92.06
505.557	90.06
505.773	94.06
505.99	101.06
506.207	101.06
506.423	102.06
506.64	86.06
506.856	91.06
507.073	100.06
507.289	93.06
507.506	94.06
507.722	111.06
507.939	101.06
508.155	97.06
508.372	86.06
508.588	89.06
508.805	84.06
509.021	110.06
509.238	98.06
509.454	98.06
509.67	102.06
509.887	96.06
510.103	132.06
510.319	203.06
510.536	697.06
510.752	2179.06
510.968	603.06
511.184	159.06
511.401	110.06
511.617	91.06
511.833	88.06
512.049	104.06
512.265	101.06
512.481	107.06
512.698	100.06
512.914	100.06
513.13	88.06
513.346	86.06
513.562	87.06
513.778	99.06
513.994	102.06
514.21	99.06
514.426	107.06
514.642	130.06
