Data from Uncirc_1984_H10_HRD10591_00060.txt Node
Date: Wed Jan 03 12:21:49 EST 2024
User: Yrep
Spectrometer: HR+D1059
Trigger mode: 1
Integration Time (sec): 1.000000E-1
Scans to average: 1
Electric dark correction enabled: true
Nonlinearity correction enabled: false
Boxcar width: 0
XAxis mode: Wavelengths
Number of Pixels in Spectrum: 2048
>>>>>Begin Spectral Data<<<<<
223.165	-12.12
223.4	-12.12
223.635	-12.12
223.869	-15.12
224.104	-19.12
224.338	-13.12
224.573	-19.12
224.808	-12.12
225.042	-6.12
225.277	-2.12
225.511	3.88
225.746	-4.12
225.98	17.88
226.215	5.88
226.449	15.88
226.683	8.88
226.918	9.88
227.152	40.88
227.387	34.88
227.621	38.88
227.856	59.88
228.09	36.88
228.324	39.88
228.559	62.88
228.793	67.88
229.027	61.88
229.262	56.88
229.496	54.88
229.73	72.88
229.964	73.88
230.199	69.88
230.433	69.88
230.667	81.88
230.901	76.88
231.136	73.88
231.37	69.88
231.604	81.88
231.838	78.88
232.072	87.88
232.306	67.88
232.541	82.88
232.775	85.88
233.009	83.88
233.243	76.88
233.477	87.88
233.711	77.88
233.945	67.88
234.179	80.88
234.413	77.88
234.647	76.88
234.881	79.88
235.115	81.88
235.349	80.88
235.583	89.88
235.817	89.88
236.051	89.88
236.285	74.88
236.519	84.88
236.753	78.88
236.987	79.88
237.221	80.88
237.455	90.88
237.689	72.88
237.922	70.88
238.156	82.88
238.39	69.88
238.624	72.88
238.858	83.88
239.091	87.88
239.325	87.88
239.559	72.88
239.793	78.88
240.027	62.88
240.26	69.88
240.494	81.88
240.728	71.88
240.961	80.88
241.195	80.88
241.429	78.88
241.662	79.88
241.896	102.88
242.13	64.88
242.363	76.88
242.597	71.88
242.83	79.88
243.064	61.88
243.298	69.88
243.531	73.88
243.765	76.88
243.998	76.88
244.232	80.88
244.465	79.88
244.699	82.88
244.932	68.88
245.166	77.88
245.399	85.88
245.633	82.88
245.866	67.88
246.099	82.88
246.333	73.88
246.566	70.88
246.8	62.88
247.033	73.88
247.266	75.88
247.5	71.88
247.733	72.88
247.966	74.88
248.2	78.88
248.433	90.88
248.666	81.88
248.899	73.88
249.133	81.88
249.366	97.88
249.599	83.88
249.832	68.88
250.066	80.88
250.299	87.88
250.532	81.88
250.765	70.88
250.998	73.88
251.231	86.88
251.465	79.88
251.698	63.88
251.931	78.88
252.164	72.88
252.397	84.88
252.63	79.88
252.863	85.88
253.096	76.88
253.329	73.88
253.562	70.88
253.795	81.88
254.028	85.88
254.261	74.88
254.494	66.88
254.727	82.88
254.96	65.88
255.193	80.88
255.426	78.88
255.659	88.88
255.892	78.88
256.124	72.88
256.357	77.88
256.59	80.88
256.823	82.88
257.056	85.88
257.289	84.88
257.521	83.88
257.754	73.88
257.987	72.88
258.22	94.88
258.452	86.88
258.685	90.88
258.918	82.88
259.151	70.88
259.383	82.88
259.616	72.88
259.849	69.88
260.081	88.88
260.314	86.88
260.547	86.88
260.779	81.88
261.012	69.88
261.244	73.88
261.477	89.88
261.71	86.88
261.942	116.88
262.175	125.88
262.407	100.88
262.64	78.88
262.872	77.88
263.105	73.88
263.337	83.88
263.57	80.88
263.802	73.88
264.035	65.88
264.267	63.88
264.499	80.88
264.732	80.88
264.964	71.88
265.197	87.88
265.429	76.88
265.661	72.88
265.894	78.88
266.126	80.88
266.358	92.88
266.591	82.88
266.823	78.88
267.055	70.88
267.287	76.88
267.52	70.88
267.752	79.88
267.984	88.88
268.216	78.88
268.448	88.88
268.681	70.88
268.913	89.88
269.145	98.88
269.377	89.88
269.609	86.88
269.841	87.88
270.073	94.88
270.306	84.88
270.538	95.88
270.77	80.88
271.002	81.88
271.234	70.88
271.466	84.88
271.698	90.88
271.93	82.88
272.162	80.88
272.394	90.88
272.626	85.88
272.858	79.88
273.09	97.88
273.322	66.88
273.553	73.88
273.785	87.88
274.017	76.88
274.249	92.88
274.481	78.88
274.713	77.88
274.945	79.88
275.176	73.88
275.408	96.88
275.64	85.88
275.872	85.88
276.104	88.88
276.335	85.88
276.567	96.88
276.799	99.88
277.031	94.88
277.262	87.88
277.494	80.88
277.726	74.88
277.957	86.88
278.189	79.88
278.421	92.88
278.652	84.88
278.884	79.88
279.115	81.88
279.347	82.88
279.579	82.88
279.81	76.88
280.042	86.88
280.273	88.88
280.505	82.88
280.736	82.88
280.968	80.88
281.199	89.88
281.431	91.88
281.662	80.88
281.894	69.88
282.125	98.88
282.356	111.88
282.588	127.88
282.819	99.88
283.051	87.88
283.282	79.88
283.513	87.88
283.745	77.88
283.976	74.88
284.207	83.88
284.439	87.88
284.67	88.88
284.901	85.88
285.132	81.88
285.364	81.88
285.595	84.88
285.826	71.88
286.057	79.88
286.288	78.88
286.52	71.88
286.751	88.88
286.982	81.88
287.213	81.88
287.444	77.88
287.675	86.88
287.906	88.88
288.138	90.88
288.369	91.88
288.6	86.88
288.831	70.88
289.062	72.88
289.293	78.88
289.524	84.88
289.755	93.88
289.986	82.88
290.217	102.88
290.448	89.88
290.679	85.88
290.91	82.88
291.141	81.88
291.371	101.88
291.602	85.88
291.833	83.88
292.064	88.88
292.295	81.88
292.526	90.88
292.757	93.88
292.987	77.88
293.218	78.88
293.449	72.88
293.68	86.88
293.91	89.88
294.141	91.88
294.372	86.88
294.603	85.88
294.833	88.88
295.064	87.88
295.295	86.88
295.525	83.88
295.756	86.88
295.987	90.88
296.217	127.88
296.448	106.88
296.679	84.88
296.909	95.88
297.14	84.88
297.37	90.88
297.601	65.88
297.831	85.88
298.062	96.88
298.292	84.88
298.523	80.88
298.753	88.88
298.984	95.88
299.214	84.88
299.445	85.88
299.675	94.88
299.905	78.88
300.136	96.88
300.366	86.88
300.597	91.88
300.827	94.88
301.057	102.88
301.288	102.88
301.518	91.88
301.748	84.88
301.979	93.88
302.209	79.88
302.439	99.88
302.669	72.88
302.9	95.88
303.13	92.88
303.36	85.88
303.59	85.88
303.82	109.88
304.051	94.88
304.281	94.88
304.511	88.88
304.741	80.88
304.971	94.88
305.201	87.88
305.431	95.88
305.661	92.88
305.891	81.88
306.121	80.88
306.352	93.88
306.582	94.88
306.812	86.88
307.042	81.88
307.272	87.88
307.502	89.88
307.731	87.88
307.961	91.88
308.191	88.88
308.421	95.88
308.651	72.88
308.881	106.88
309.111	95.88
309.341	90.88
309.571	99.88
309.8	84.88
310.03	88.88
310.26	88.88
310.49	85.88
310.72	106.88
310.949	85.88
311.179	81.88
311.409	84.88
311.639	87.88
311.868	101.88
312.098	89.88
312.328	88.88
312.557	90.88
312.787	100.88
313.017	88.88
313.246	86.88
313.476	91.88
313.706	87.88
313.935	89.88
314.165	93.88
314.394	110.88
314.624	99.88
314.853	73.88
315.083	78.88
315.312	95.88
315.542	90.88
315.771	92.88
316.001	88.88
316.23	96.88
316.46	98.88
316.689	93.88
316.919	95.88
317.148	105.88
317.377	96.88
317.607	97.88
317.836	88.88
318.065	82.88
318.295	78.88
318.524	90.88
318.753	98.88
318.983	104.88
319.212	88.88
319.441	87.88
319.67	92.88
319.9	95.88
320.129	92.88
320.358	98.88
320.587	92.88
320.816	95.88
321.046	89.88
321.275	91.88
321.504	76.88
321.733	66.88
321.962	87.88
322.191	72.88
322.42	105.88
322.649	96.88
322.878	104.88
323.108	111.88
323.337	121.88
323.566	121.88
323.795	135.88
324.024	198.88
324.253	349.88
324.482	747.88
324.71	1486.88
324.939	1998.88
325.168	741.88
325.397	220.88
325.626	142.88
325.855	112.88
326.084	120.88
326.313	113.88
326.542	136.88
326.77	190.88
326.999	387.88
327.228	830.88
327.457	1531.88
327.686	1197.88
327.914	344.88
328.143	167.88
328.372	133.88
328.6	115.88
328.829	116.88
329.058	119.88
329.287	108.88
329.515	105.88
329.744	109.88
329.972	99.88
330.201	109.88
330.43	90.88
330.658	105.88
330.887	133.88
331.115	109.88
331.344	92.88
331.572	85.88
331.801	95.88
332.03	103.88
332.258	111.88
332.486	99.88
332.715	72.88
332.943	94.88
333.172	85.88
333.4	86.88
333.629	106.88
333.857	114.88
334.085	97.88
334.314	98.88
334.542	95.88
334.771	85.88
334.999	96.88
335.227	85.88
335.455	100.88
335.684	104.88
335.912	96.88
336.14	97.88
336.369	96.88
336.597	104.88
336.825	95.88
337.053	81.88
337.281	104.88
337.51	97.88
337.738	96.88
337.966	84.88
338.194	94.88
338.422	80.88
338.65	88.88
338.878	98.88
339.106	98.88
339.334	94.88
339.562	89.88
339.79	80.88
340.018	93.88
340.246	88.88
340.474	86.88
340.702	83.88
340.93	94.88
341.158	94.88
341.386	98.88
341.614	83.88
341.842	97.88
342.07	97.88
342.298	81.88
342.526	95.88
342.754	86.88
342.981	97.88
343.209	88.88
343.437	100.88
343.665	94.88
343.893	90.88
344.12	86.88
344.348	81.88
344.576	80.88
344.804	97.88
345.031	93.88
345.259	86.88
345.487	85.88
345.714	80.88
345.942	101.88
346.17	88.88
346.397	87.88
346.625	104.88
346.853	105.88
347.08	90.88
347.308	94.88
347.535	96.88
347.763	99.88
347.99	96.88
348.218	108.88
348.445	96.88
348.673	96.88
348.9	79.88
349.128	86.88
349.355	85.88
349.583	97.88
349.81	92.88
350.037	76.88
350.265	85.88
350.492	98.88
350.72	82.88
350.947	102.88
351.174	94.88
351.402	100.88
351.629	95.88
351.856	106.88
352.083	103.88
352.311	113.88
352.538	98.88
352.765	100.88
352.992	96.88
353.22	113.88
353.447	96.88
353.674	99.88
353.901	95.88
354.128	85.88
354.355	98.88
354.583	104.88
354.81	80.88
355.037	87.88
355.264	99.88
355.491	93.88
355.718	95.88
355.945	79.88
356.172	78.88
356.399	97.88
356.626	84.88
356.853	94.88
357.08	97.88
357.307	96.88
357.534	97.88
357.761	96.88
357.988	102.88
358.215	80.88
358.441	89.88
358.668	88.88
358.895	82.88
359.122	86.88
359.349	97.88
359.576	79.88
359.802	89.88
360.029	109.88
360.256	94.88
360.483	100.88
360.709	83.88
360.936	96.88
361.163	93.88
361.39	88.88
361.616	102.88
361.843	81.88
362.07	115.88
362.296	90.88
362.523	84.88
362.749	81.88
362.976	77.88
363.203	97.88
363.429	90.88
363.656	85.88
363.882	89.88
364.109	73.88
364.335	92.88
364.562	85.88
364.788	84.88
365.015	93.88
365.241	97.88
365.468	106.88
365.694	83.88
365.92	96.88
366.147	91.88
366.373	73.88
366.599	98.88
366.826	84.88
367.052	78.88
367.278	86.88
367.505	93.88
367.731	95.88
367.957	86.88
368.184	82.88
368.41	84.88
368.636	106.88
368.862	118.88
369.089	90.88
369.315	77.88
369.541	105.88
369.767	75.88
369.993	93.88
370.219	86.88
370.445	80.88
370.672	88.88
370.898	86.88
371.124	93.88
371.35	90.88
371.576	84.88
371.802	100.88
372.028	84.88
372.254	76.88
372.48	68.88
372.706	83.88
372.932	82.88
373.158	94.88
373.384	88.88
373.61	82.88
373.835	91.88
374.061	96.88
374.287	87.88
374.513	83.88
374.739	78.88
374.965	78.88
375.191	77.88
375.416	79.88
375.642	93.88
375.868	80.88
376.094	86.88
376.319	90.88
376.545	90.88
376.771	92.88
376.997	98.88
377.222	85.88
377.448	91.88
377.674	90.88
377.899	97.88
378.125	86.88
378.35	78.88
378.576	95.88
378.802	83.88
379.027	88.88
379.253	80.88
379.478	88.88
379.704	90.88
379.929	95.88
380.155	86.88
380.38	103.88
380.606	93.88
380.831	95.88
381.057	100.88
381.282	94.88
381.507	87.88
381.733	88.88
381.958	105.88
382.184	104.88
382.409	84.88
382.634	93.88
382.86	78.88
383.085	106.88
383.31	106.88
383.535	103.88
383.761	115.88
383.986	105.88
384.211	98.88
384.436	95.88
384.662	81.88
384.887	96.88
385.112	94.88
385.337	95.88
385.562	90.88
385.787	109.88
386.013	110.88
386.238	104.88
386.463	105.88
386.688	97.88
386.913	83.88
387.138	106.88
387.363	97.88
387.588	95.88
387.813	95.88
388.038	79.88
388.263	97.88
388.488	91.88
388.713	96.88
388.938	96.88
389.163	89.88
389.387	97.88
389.612	89.88
389.837	97.88
390.062	75.88
390.287	91.88
390.512	82.88
390.736	73.88
390.961	86.88
391.186	77.88
391.411	95.88
391.636	83.88
391.86	81.88
392.085	90.88
392.31	73.88
392.534	73.88
392.759	90.88
392.984	81.88
393.208	98.88
393.433	89.88
393.658	87.88
393.882	83.88
394.107	72.88
394.331	80.88
394.556	84.88
394.78	80.88
395.005	80.88
395.229	82.88
395.454	95.88
395.678	83.88
395.903	86.88
396.127	98.88
396.352	74.88
396.576	85.88
396.801	81.88
397.025	85.88
397.249	106.88
397.474	91.88
397.698	82.88
397.922	73.88
398.147	88.88
398.371	88.88
398.595	82.88
398.82	87.88
399.044	74.88
399.268	80.88
399.492	90.88
399.717	95.88
399.941	87.88
400.165	89.88
400.389	94.88
400.613	93.88
400.837	81.88
401.062	79.88
401.286	84.88
401.51	92.88
401.734	94.88
401.958	101.88
402.182	114.88
402.406	153.88
402.63	110.88
402.854	96.88
403.078	92.88
403.302	75.88
403.526	88.88
403.75	86.88
403.974	78.88
404.198	96.88
404.422	81.88
404.645	98.88
404.869	97.88
405.093	93.88
405.317	88.88
405.541	101.88
405.765	86.88
405.988	96.88
406.212	155.88
406.436	211.88
406.66	124.88
406.883	94.88
407.107	86.88
407.331	90.88
407.555	96.88
407.778	95.88
408.002	95.88
408.226	101.88
408.449	94.88
408.673	86.88
408.896	99.88
409.12	98.88
409.344	86.88
409.567	78.88
409.791	97.88
410.014	95.88
410.238	81.88
410.461	81.88
410.685	94.88
410.908	102.88
411.132	95.88
411.355	96.88
411.578	91.88
411.802	80.88
412.025	76.88
412.249	99.88
412.472	88.88
412.695	64.88
412.919	86.88
413.142	80.88
413.365	85.88
413.589	88.88
413.812	93.88
414.035	67.88
414.258	80.88
414.482	98.88
414.705	90.88
414.928	82.88
415.151	79.88
415.374	104.88
415.597	93.88
415.821	78.88
416.044	84.88
416.267	78.88
416.49	78.88
416.713	71.88
416.936	68.88
417.159	89.88
417.382	85.88
417.605	77.88
417.828	88.88
418.051	90.88
418.274	70.88
418.497	69.88
418.72	76.88
418.943	82.88
419.166	79.88
419.389	72.88
419.611	92.88
419.834	80.88
420.057	86.88
420.28	86.88
420.503	76.88
420.726	69.88
420.948	78.88
421.171	87.88
421.394	96.88
421.617	89.88
421.839	94.88
422.062	68.88
422.285	88.88
422.507	89.88
422.73	106.88
422.953	99.88
423.175	102.88
423.398	89.88
423.621	89.88
423.843	90.88
424.066	85.88
424.288	90.88
424.511	87.88
424.733	86.88
424.956	97.88
425.178	114.88
425.401	96.88
425.623	90.88
425.846	87.88
426.068	79.88
426.291	74.88
426.513	80.88
426.735	86.88
426.958	90.88
427.18	102.88
427.402	122.88
427.625	146.88
427.847	114.88
428.069	94.88
428.292	95.88
428.514	75.88
428.736	96.88
428.958	81.88
429.181	74.88
429.403	94.88
429.625	90.88
429.847	84.88
430.069	88.88
430.292	80.88
430.514	96.88
430.736	81.88
430.958	82.88
431.18	88.88
431.402	85.88
431.624	83.88
431.846	87.88
432.068	79.88
432.29	88.88
432.512	84.88
432.734	84.88
432.956	82.88
433.178	100.88
433.4	97.88
433.622	91.88
433.844	86.88
434.066	76.88
434.287	80.88
434.509	73.88
434.731	92.88
434.953	84.88
435.175	77.88
435.397	85.88
435.618	88.88
435.84	103.88
436.062	111.88
436.284	106.88
436.505	99.88
436.727	93.88
436.949	94.88
437.17	84.88
437.392	76.88
437.614	91.88
437.835	94.88
438.057	104.88
438.278	99.88
438.5	101.88
438.721	113.88
438.943	104.88
439.165	68.88
439.386	80.88
439.608	96.88
439.829	95.88
440.05	116.88
440.272	143.88
440.493	97.88
440.715	82.88
440.936	88.88
441.158	89.88
441.379	91.88
441.6	92.88
441.822	92.88
442.043	81.88
442.264	102.88
442.486	90.88
442.707	81.88
442.928	101.88
443.149	113.88
443.371	124.88
443.592	105.88
443.813	94.88
444.034	94.88
444.255	68.88
444.476	87.88
444.698	85.88
444.919	82.88
445.14	126.88
445.361	100.88
445.582	113.88
445.803	129.88
446.024	122.88
446.245	122.88
446.466	107.88
446.687	85.88
446.908	84.88
447.129	91.88
447.35	97.88
447.571	93.88
447.792	94.88
448.013	95.88
448.234	99.88
448.455	97.88
448.675	105.88
448.896	111.88
449.117	94.88
449.338	97.88
449.559	114.88
449.779	117.88
450	94.88
450.221	87.88
450.442	76.88
450.662	89.88
450.883	95.88
451.104	97.88
451.324	95.88
451.545	88.88
451.766	82.88
451.986	96.88
452.207	85.88
452.428	84.88
452.648	103.88
452.869	80.88
453.089	97.88
453.31	100.88
453.53	102.88
453.751	93.88
453.971	87.88
454.192	109.88
454.412	82.88
454.633	85.88
454.853	80.88
455.073	67.88
455.294	80.88
455.514	85.88
455.734	91.88
455.955	81.88
456.175	76.88
456.395	78.88
456.616	88.88
456.836	80.88
457.056	74.88
457.276	88.88
457.497	81.88
457.717	85.88
457.937	85.88
458.157	86.88
458.377	97.88
458.598	106.88
458.818	145.88
459.038	152.88
459.258	113.88
459.478	89.88
459.698	96.88
459.918	82.88
460.138	85.88
460.358	88.88
460.578	88.88
460.798	80.88
461.018	81.88
461.238	79.88
461.458	82.88
461.678	86.88
461.898	81.88
462.118	87.88
462.338	79.88
462.558	82.88
462.777	71.88
462.997	81.88
463.217	95.88
463.437	92.88
463.657	84.88
463.876	78.88
464.096	74.88
464.316	82.88
464.536	85.88
464.755	99.88
464.975	102.88
465.195	149.88
465.414	140.88
465.634	68.88
465.854	73.88
466.073	93.88
466.293	88.88
466.512	75.88
466.732	93.88
466.951	87.88
467.171	89.88
467.391	84.88
467.61	88.88
467.829	77.88
468.049	87.88
468.268	96.88
468.488	69.88
468.707	80.88
468.927	102.88
469.146	84.88
469.365	93.88
469.585	85.88
469.804	86.88
470.023	98.88
470.243	89.88
470.462	78.88
470.681	104.88
470.901	91.88
471.12	74.88
471.339	81.88
471.558	82.88
471.777	86.88
471.997	73.88
472.216	69.88
472.435	84.88
472.654	86.88
472.873	89.88
473.092	86.88
473.311	74.88
473.53	71.88
473.749	88.88
473.968	96.88
474.187	100.88
474.406	87.88
474.625	101.88
474.844	90.88
475.063	88.88
475.282	66.88
475.501	86.88
475.72	87.88
475.939	85.88
476.158	83.88
476.377	89.88
476.596	84.88
476.814	95.88
477.033	72.88
477.252	94.88
477.471	82.88
477.69	92.88
477.908	90.88
478.127	80.88
478.346	82.88
478.564	87.88
478.783	105.88
479.002	80.88
479.22	92.88
479.439	106.88
479.658	96.88
479.876	101.88
480.095	90.88
480.313	86.88
480.532	85.88
480.751	85.88
480.969	99.88
481.188	91.88
481.406	103.88
481.624	111.88
481.843	77.88
482.061	89.88
482.28	66.88
482.498	82.88
482.717	78.88
482.935	84.88
483.153	74.88
483.372	92.88
483.59	87.88
483.808	80.88
484.027	82.88
484.245	88.88
484.463	88.88
484.681	84.88
484.9	77.88
485.118	98.88
485.336	105.88
485.554	92.88
485.772	104.88
485.99	99.88
486.209	93.88
486.427	114.88
486.645	86.88
486.863	110.88
487.081	100.88
487.299	101.88
487.517	73.88
487.735	93.88
487.953	90.88
488.171	101.88
488.389	98.88
488.607	102.88
488.825	92.88
489.043	85.88
489.261	90.88
489.479	92.88
489.696	102.88
489.914	80.88
490.132	89.88
490.35	95.88
490.568	97.88
490.786	88.88
491.003	98.88
491.221	85.88
491.439	78.88
491.657	83.88
491.874	92.88
492.092	88.88
492.31	93.88
492.527	95.88
492.745	104.88
492.963	87.88
493.18	85.88
493.398	87.88
493.615	80.88
493.833	81.88
494.05	88.88
494.268	72.88
494.485	88.88
494.703	92.88
494.92	88.88
495.138	82.88
495.355	80.88
495.573	86.88
495.79	78.88
496.008	92.88
496.225	101.88
496.442	86.88
496.66	79.88
496.877	94.88
497.094	82.88
497.312	90.88
497.529	106.88
497.746	102.88
497.963	93.88
498.181	88.88
498.398	94.88
498.615	89.88
498.832	96.88
499.049	102.88
499.267	96.88
499.484	82.88
499.701	93.88
499.918	88.88
500.135	97.88
500.352	81.88
500.569	88.88
500.786	85.88
501.003	104.88
501.22	92.88
501.437	86.88
501.654	106.88
501.871	104.88
502.088	91.88
502.305	91.88
502.522	85.88
502.739	90.88
502.956	79.88
503.172	88.88
503.389	83.88
503.606	97.88
503.823	102.88
504.04	101.88
504.256	91.88
504.473	94.88
504.69	82.88
504.907	89.88
505.123	88.88
505.34	95.88
505.557	81.88
505.773	88.88
505.99	83.88
506.207	85.88
506.423	88.88
506.64	86.88
506.856	86.88
507.073	88.88
507.289	87.88
507.506	81.88
507.722	102.88
507.939	109.88
508.155	120.88
508.372	92.88
508.588	95.88
508.805	91.88
509.021	89.88
509.238	97.88
509.454	90.88
509.67	102.88
509.887	102.88
510.103	132.88
510.319	185.88
510.536	706.88
510.752	2259.88
510.968	626.88
511.184	136.88
511.401	90.88
511.617	99.88
511.833	88.88
512.049	92.88
512.265	94.88
512.481	80.88
512.698	85.88
512.914	72.88
513.13	101.88
513.346	94.88
513.562	92.88
513.778	105.88
513.994	97.88
514.21	104.88
514.426	109.88
514.642	131.88
514.858	119.88
515.074	140.88
515.29	409.88
515.506	1325.88
515.721	490.88
515.937	140.88
516.153	114.88
516.369	113.88
516.585	86.88
516.801	86.88
517.016	96.88
