Data from Uncirc_1984_H10_HRD10591_00094.txt Node
Date: Wed Jan 03 12:21:56 EST 2024
User: Yrep
Spectrometer: HR+D1059
Trigger mode: 1
Integration Time (sec): 1.000000E-1
Scans to average: 1
Electric dark correction enabled: true
Nonlinearity correction enabled: false
Boxcar width: 0
XAxis mode: Wavelengths
Number of Pixels in Spectrum: 2048
>>>>>Begin Spectral Data<<<<<
223.165	-24.25
223.4	-24.25
223.635	-24.25
223.869	-29.25
224.104	-20.25
224.338	-12.25
224.573	-19.25
224.808	-9.25
225.042	-9.25
225.277	-8.25
225.511	-3.25
225.746	2.75
225.98	20.75
226.215	0.75
226.449	23.75
226.683	27.75
226.918	18.75
227.152	40.75
227.387	28.75
227.621	40.75
227.856	40.75
228.09	58.75
228.324	63.75
228.559	52.75
228.793	60.75
229.027	59.75
229.262	72.75
229.496	71.75
229.73	70.75
229.964	78.75
230.199	95.75
230.433	80.75
230.667	85.75
230.901	87.75
231.136	72.75
231.37	93.75
231.604	66.75
231.838	94.75
232.072	92.75
232.306	85.75
232.541	91.75
232.775	90.75
233.009	87.75
233.243	74.75
233.477	78.75
233.711	89.75
233.945	84.75
234.179	70.75
234.413	88.75
234.647	80.75
234.881	89.75
235.115	78.75
235.349	82.75
235.583	95.75
235.817	93.75
236.051	85.75
236.285	79.75
236.519	84.75
236.753	66.75
236.987	74.75
237.221	99.75
237.455	86.75
237.689	88.75
237.922	81.75
238.156	86.75
238.39	95.75
238.624	93.75
238.858	70.75
239.091	85.75
239.325	82.75
239.559	73.75
239.793	83.75
240.027	86.75
240.26	68.75
240.494	86.75
240.728	78.75
240.961	69.75
241.195	71.75
241.429	87.75
241.662	71.75
241.896	80.75
242.13	103.75
242.363	75.75
242.597	57.75
242.83	89.75
243.064	91.75
243.298	77.75
243.531	79.75
243.765	86.75
243.998	69.75
244.232	82.75
244.465	94.75
244.699	77.75
244.932	80.75
245.166	74.75
245.399	84.75
245.633	82.75
245.866	93.75
246.099	88.75
246.333	89.75
246.566	93.75
246.8	89.75
247.033	93.75
247.266	75.75
247.5	90.75
247.733	84.75
247.966	93.75
248.2	70.75
248.433	85.75
248.666	73.75
248.899	94.75
249.133	88.75
249.366	103.75
249.599	102.75
249.832	87.75
250.066	85.75
250.299	85.75
250.532	85.75
250.765	88.75
250.998	87.75
251.231	88.75
251.465	84.75
251.698	91.75
251.931	81.75
252.164	84.75
252.397	75.75
252.63	82.75
252.863	91.75
253.096	69.75
253.329	72.75
253.562	86.75
253.795	89.75
254.028	87.75
254.261	77.75
254.494	86.75
254.727	89.75
254.96	90.75
255.193	72.75
255.426	87.75
255.659	92.75
255.892	79.75
256.124	78.75
256.357	79.75
256.59	82.75
256.823	82.75
257.056	87.75
257.289	78.75
257.521	86.75
257.754	77.75
257.987	88.75
258.22	88.75
258.452	98.75
258.685	84.75
258.918	88.75
259.151	82.75
259.383	89.75
259.616	83.75
259.849	77.75
260.081	88.75
260.314	95.75
260.547	91.75
260.779	69.75
261.012	83.75
261.244	95.75
261.477	108.75
261.71	95.75
261.942	98.75
262.175	110.75
262.407	100.75
262.64	82.75
262.872	85.75
263.105	92.75
263.337	101.75
263.57	76.75
263.802	81.75
264.035	95.75
264.267	80.75
264.499	102.75
264.732	95.75
264.964	89.75
265.197	65.75
265.429	84.75
265.661	91.75
265.894	99.75
266.126	96.75
266.358	87.75
266.591	93.75
266.823	86.75
267.055	105.75
267.287	83.75
267.52	89.75
267.752	91.75
267.984	78.75
268.216	90.75
268.448	95.75
268.681	93.75
268.913	84.75
269.145	80.75
269.377	82.75
269.609	83.75
269.841	87.75
270.073	85.75
270.306	82.75
270.538	90.75
270.77	79.75
271.002	82.75
271.234	86.75
271.466	88.75
271.698	85.75
271.93	75.75
272.162	95.75
272.394	79.75
272.626	95.75
272.858	75.75
273.09	94.75
273.322	75.75
273.553	101.75
273.785	78.75
274.017	86.75
274.249	93.75
274.481	77.75
274.713	86.75
274.945	86.75
275.176	95.75
275.408	95.75
275.64	96.75
275.872	94.75
276.104	91.75
276.335	91.75
276.567	92.75
276.799	110.75
277.031	79.75
277.262	85.75
277.494	88.75
277.726	72.75
277.957	105.75
278.189	90.75
278.421	95.75
278.652	99.75
278.884	84.75
279.115	90.75
279.347	72.75
279.579	84.75
279.81	86.75
280.042	101.75
280.273	103.75
280.505	85.75
280.736	107.75
280.968	95.75
281.199	83.75
281.431	83.75
281.662	79.75
281.894	82.75
282.125	99.75
282.356	125.75
282.588	134.75
282.819	113.75
283.051	102.75
283.282	95.75
283.513	92.75
283.745	84.75
283.976	83.75
284.207	85.75
284.439	98.75
284.67	88.75
284.901	79.75
285.132	92.75
285.364	76.75
285.595	80.75
285.826	108.75
286.057	86.75
286.288	90.75
286.52	84.75
286.751	87.75
286.982	100.75
287.213	86.75
287.444	100.75
287.675	82.75
287.906	102.75
288.138	79.75
288.369	84.75
288.6	96.75
288.831	79.75
289.062	106.75
289.293	80.75
289.524	92.75
289.755	96.75
289.986	100.75
290.217	83.75
290.448	98.75
290.679	88.75
290.91	81.75
291.141	74.75
291.371	98.75
291.602	100.75
291.833	94.75
292.064	82.75
292.295	80.75
292.526	98.75
292.757	92.75
292.987	91.75
293.218	98.75
293.449	97.75
293.68	85.75
293.91	88.75
294.141	95.75
294.372	89.75
294.603	107.75
294.833	88.75
295.064	86.75
295.295	96.75
295.525	96.75
295.756	96.75
295.987	119.75
296.217	129.75
296.448	133.75
296.679	99.75
296.909	85.75
297.14	82.75
297.37	95.75
297.601	83.75
297.831	86.75
298.062	96.75
298.292	78.75
298.523	78.75
298.753	90.75
298.984	84.75
299.214	101.75
299.445	106.75
299.675	104.75
299.905	100.75
300.136	90.75
300.366	86.75
300.597	96.75
300.827	95.75
301.057	112.75
301.288	106.75
301.518	92.75
301.748	116.75
301.979	92.75
302.209	91.75
302.439	92.75
302.669	95.75
302.9	85.75
303.13	100.75
303.36	111.75
303.59	98.75
303.82	99.75
304.051	82.75
304.281	105.75
304.511	95.75
304.741	100.75
304.971	85.75
305.201	104.75
305.431	85.75
305.661	88.75
305.891	87.75
306.121	107.75
306.352	109.75
306.582	99.75
306.812	108.75
307.042	96.75
307.272	89.75
307.502	97.75
307.731	95.75
307.961	94.75
308.191	89.75
308.421	87.75
308.651	100.75
308.881	84.75
309.111	86.75
309.341	101.75
309.571	104.75
309.8	102.75
310.03	103.75
310.26	107.75
310.49	108.75
310.72	92.75
310.949	111.75
311.179	105.75
311.409	75.75
311.639	108.75
311.868	92.75
312.098	102.75
312.328	95.75
312.557	98.75
312.787	112.75
313.017	102.75
313.246	87.75
313.476	85.75
313.706	103.75
313.935	94.75
314.165	111.75
314.394	118.75
314.624	96.75
314.853	93.75
315.083	107.75
315.312	74.75
315.542	92.75
315.771	103.75
316.001	92.75
316.23	103.75
316.46	102.75
316.689	95.75
316.919	98.75
317.148	98.75
317.377	92.75
317.607	110.75
317.836	95.75
318.065	89.75
318.295	98.75
318.524	89.75
318.753	95.75
318.983	93.75
319.212	102.75
319.441	99.75
319.67	89.75
319.9	77.75
320.129	88.75
320.358	95.75
320.587	120.75
320.816	94.75
321.046	99.75
321.275	94.75
321.504	92.75
321.733	102.75
321.962	91.75
322.191	93.75
322.42	106.75
322.649	97.75
322.878	123.75
323.108	107.75
323.337	113.75
323.566	141.75
323.795	136.75
324.024	197.75
324.253	336.75
324.482	730.75
324.71	1490.75
324.939	1928.75
325.168	725.75
325.397	232.75
325.626	142.75
325.855	130.75
326.084	117.75
326.313	121.75
326.542	136.75
326.77	212.75
326.999	403.75
327.228	824.75
327.457	1501.75
327.686	1167.75
327.914	322.75
328.143	197.75
328.372	130.75
328.6	122.75
328.829	122.75
329.058	127.75
329.287	115.75
329.515	115.75
329.744	104.75
329.972	93.75
330.201	101.75
330.43	108.75
330.658	101.75
330.887	122.75
331.115	119.75
331.344	117.75
331.572	103.75
331.801	96.75
332.03	102.75
332.258	94.75
332.486	110.75
332.715	93.75
332.943	102.75
333.172	101.75
333.4	98.75
333.629	118.75
333.857	113.75
334.085	96.75
334.314	101.75
334.542	102.75
334.771	104.75
334.999	97.75
335.227	101.75
335.455	116.75
335.684	110.75
335.912	84.75
336.14	87.75
336.369	88.75
336.597	98.75
336.825	109.75
337.053	98.75
337.281	98.75
337.51	103.75
337.738	92.75
337.966	104.75
338.194	98.75
338.422	100.75
338.65	100.75
338.878	94.75
339.106	90.75
339.334	96.75
339.562	84.75
339.79	92.75
340.018	100.75
340.246	73.75
340.474	89.75
340.702	88.75
340.93	104.75
341.158	96.75
341.386	103.75
341.614	102.75
341.842	101.75
342.07	121.75
342.298	86.75
342.526	87.75
342.754	86.75
342.981	93.75
343.209	86.75
343.437	114.75
343.665	103.75
343.893	85.75
344.12	92.75
344.348	87.75
344.576	102.75
344.804	94.75
345.031	109.75
345.259	104.75
345.487	99.75
345.714	90.75
345.942	98.75
346.17	96.75
346.397	89.75
346.625	106.75
346.853	103.75
347.08	89.75
347.308	93.75
347.535	109.75
347.763	106.75
347.99	100.75
348.218	123.75
348.445	99.75
348.673	101.75
348.9	98.75
349.128	85.75
349.355	89.75
349.583	100.75
349.81	96.75
350.037	98.75
350.265	99.75
350.492	101.75
350.72	99.75
350.947	105.75
351.174	103.75
351.402	117.75
351.629	103.75
351.856	101.75
352.083	95.75
352.311	93.75
352.538	104.75
352.765	98.75
352.992	101.75
353.22	119.75
353.447	113.75
353.674	107.75
353.901	89.75
354.128	108.75
354.355	101.75
354.583	94.75
354.81	91.75
355.037	93.75
355.264	90.75
355.491	90.75
355.718	90.75
355.945	98.75
356.172	94.75
356.399	98.75
356.626	90.75
356.853	96.75
357.08	94.75
357.307	90.75
357.534	91.75
357.761	92.75
357.988	102.75
358.215	89.75
358.441	100.75
358.668	97.75
358.895	96.75
359.122	90.75
359.349	83.75
359.576	88.75
359.802	90.75
360.029	92.75
360.256	102.75
360.483	108.75
360.709	78.75
360.936	103.75
361.163	88.75
361.39	95.75
361.616	99.75
361.843	95.75
362.07	99.75
362.296	89.75
362.523	93.75
362.749	105.75
362.976	91.75
363.203	99.75
363.429	97.75
363.656	104.75
363.882	90.75
364.109	103.75
364.335	104.75
364.562	103.75
364.788	110.75
365.015	88.75
365.241	87.75
365.468	103.75
365.694	110.75
365.92	90.75
366.147	93.75
366.373	102.75
366.599	91.75
366.826	98.75
367.052	86.75
367.278	92.75
367.505	102.75
367.731	94.75
367.957	79.75
368.184	89.75
368.41	99.75
368.636	114.75
368.862	107.75
369.089	106.75
369.315	102.75
369.541	92.75
369.767	91.75
369.993	104.75
370.219	90.75
370.445	95.75
370.672	83.75
370.898	93.75
371.124	94.75
371.35	85.75
371.576	94.75
371.802	101.75
372.028	86.75
372.254	100.75
372.48	101.75
372.706	90.75
372.932	78.75
373.158	95.75
373.384	99.75
373.61	95.75
373.835	94.75
374.061	99.75
374.287	97.75
374.513	92.75
374.739	70.75
374.965	96.75
375.191	86.75
375.416	79.75
375.642	94.75
375.868	101.75
376.094	98.75
376.319	88.75
376.545	90.75
376.771	86.75
376.997	94.75
377.222	100.75
377.448	97.75
377.674	94.75
377.899	99.75
378.125	92.75
378.35	90.75
378.576	87.75
378.802	84.75
379.027	83.75
379.253	94.75
379.478	91.75
379.704	100.75
379.929	97.75
380.155	102.75
380.38	100.75
380.606	104.75
380.831	91.75
381.057	102.75
381.282	84.75
381.507	90.75
381.733	92.75
381.958	100.75
382.184	92.75
382.409	94.75
382.634	107.75
382.86	101.75
383.085	112.75
383.31	84.75
383.535	105.75
383.761	107.75
383.986	84.75
384.211	98.75
384.436	96.75
384.662	95.75
384.887	98.75
385.112	98.75
385.337	96.75
385.562	96.75
385.787	98.75
386.013	110.75
386.238	112.75
386.463	98.75
386.688	102.75
386.913	91.75
387.138	96.75
387.363	100.75
387.588	102.75
387.813	99.75
388.038	109.75
388.263	116.75
388.488	108.75
388.713	85.75
388.938	92.75
389.163	92.75
389.387	101.75
389.612	99.75
389.837	101.75
390.062	92.75
390.287	103.75
390.512	101.75
390.736	103.75
390.961	103.75
391.186	88.75
391.411	98.75
391.636	105.75
391.86	102.75
392.085	94.75
392.31	92.75
392.534	86.75
392.759	78.75
392.984	86.75
393.208	83.75
393.433	86.75
393.658	88.75
393.882	92.75
394.107	87.75
394.331	84.75
394.556	88.75
394.78	88.75
395.005	99.75
395.229	82.75
395.454	95.75
395.678	105.75
395.903	96.75
396.127	97.75
396.352	101.75
396.576	71.75
396.801	77.75
397.025	91.75
397.249	94.75
397.474	90.75
397.698	86.75
397.922	85.75
398.147	78.75
398.371	83.75
398.595	108.75
398.82	84.75
399.044	94.75
399.268	78.75
399.492	96.75
399.717	85.75
399.941	87.75
400.165	83.75
400.389	91.75
400.613	99.75
400.837	83.75
401.062	105.75
401.286	95.75
401.51	94.75
401.734	104.75
401.958	96.75
402.182	112.75
402.406	138.75
402.63	126.75
402.854	117.75
403.078	102.75
403.302	99.75
403.526	91.75
403.75	92.75
403.974	83.75
404.198	97.75
404.422	91.75
404.645	95.75
404.869	93.75
405.093	99.75
405.317	111.75
405.541	91.75
405.765	107.75
405.988	119.75
406.212	149.75
406.436	197.75
406.66	134.75
406.883	100.75
407.107	93.75
407.331	98.75
407.555	101.75
407.778	96.75
408.002	91.75
408.226	101.75
408.449	86.75
408.673	85.75
408.896	84.75
409.12	88.75
409.344	96.75
409.567	93.75
409.791	91.75
410.014	91.75
410.238	102.75
410.461	88.75
410.685	100.75
410.908	108.75
411.132	103.75
411.355	89.75
411.578	85.75
411.802	79.75
412.025	100.75
412.249	94.75
412.472	79.75
412.695	93.75
412.919	82.75
413.142	91.75
413.365	73.75
413.589	87.75
413.812	102.75
414.035	90.75
414.258	88.75
414.482	109.75
414.705	83.75
414.928	79.75
415.151	108.75
415.374	107.75
415.597	86.75
415.821	104.75
416.044	100.75
416.267	95.75
416.49	78.75
416.713	95.75
416.936	86.75
417.159	90.75
417.382	87.75
417.605	90.75
417.828	92.75
418.051	95.75
418.274	82.75
418.497	90.75
418.72	94.75
418.943	96.75
419.166	93.75
419.389	99.75
419.611	93.75
419.834	96.75
420.057	83.75
420.28	87.75
420.503	94.75
420.726	89.75
420.948	101.75
421.171	77.75
421.394	105.75
421.617	96.75
421.839	78.75
422.062	95.75
422.285	99.75
422.507	90.75
422.73	100.75
422.953	91.75
423.175	95.75
423.398	89.75
423.621	102.75
423.843	93.75
424.066	91.75
424.288	91.75
424.511	101.75
424.733	86.75
424.956	84.75
425.178	98.75
425.401	108.75
425.623	99.75
425.846	91.75
426.068	102.75
426.291	90.75
426.513	94.75
426.735	90.75
426.958	104.75
427.18	104.75
427.402	134.75
427.625	151.75
427.847	106.75
428.069	108.75
428.292	84.75
428.514	92.75
428.736	88.75
428.958	94.75
429.181	83.75
429.403	90.75
429.625	111.75
429.847	95.75
430.069	109.75
430.292	100.75
430.514	84.75
430.736	92.75
430.958	92.75
431.18	107.75
431.402	84.75
431.624	94.75
431.846	76.75
432.068	90.75
432.29	90.75
432.512	90.75
432.734	94.75
432.956	90.75
433.178	90.75
433.4	90.75
433.622	101.75
433.844	107.75
434.066	99.75
434.287	95.75
434.509	96.75
434.731	99.75
434.953	90.75
435.175	94.75
435.397	74.75
435.618	100.75
435.84	103.75
436.062	117.75
436.284	115.75
436.505	110.75
436.727	103.75
436.949	82.75
437.17	91.75
437.392	96.75
437.614	110.75
437.835	102.75
438.057	103.75
438.278	107.75
438.5	80.75
438.721	131.75
438.943	122.75
439.165	90.75
439.386	92.75
439.608	88.75
439.829	94.75
440.05	117.75
440.272	134.75
440.493	107.75
440.715	95.75
440.936	95.75
441.158	87.75
441.379	101.75
441.6	98.75
441.822	76.75
442.043	90.75
442.264	116.75
442.486	94.75
442.707	96.75
442.928	116.75
443.149	110.75
443.371	112.75
443.592	100.75
443.813	89.75
444.034	117.75
444.255	89.75
444.476	98.75
444.698	82.75
444.919	91.75
445.14	116.75
445.361	121.75
445.582	106.75
445.803	126.75
446.024	118.75
446.245	133.75
446.466	111.75
446.687	87.75
446.908	93.75
447.129	87.75
447.35	86.75
447.571	92.75
447.792	90.75
448.013	96.75
448.234	105.75
448.455	103.75
448.675	112.75
448.896	118.75
449.117	86.75
449.338	114.75
449.559	125.75
449.779	122.75
450	108.75
450.221	83.75
450.442	86.75
450.662	90.75
450.883	105.75
451.104	101.75
451.324	98.75
451.545	92.75
451.766	94.75
451.986	95.75
452.207	110.75
452.428	102.75
452.648	109.75
452.869	120.75
453.089	106.75
453.31	88.75
453.53	98.75
453.751	93.75
453.971	98.75
454.192	105.75
454.412	96.75
454.633	75.75
454.853	110.75
455.073	104.75
455.294	88.75
455.514	104.75
455.734	99.75
455.955	79.75
456.175	95.75
456.395	92.75
456.616	84.75
456.836	95.75
457.056	89.75
457.276	82.75
457.497	93.75
457.717	94.75
457.937	91.75
458.157	88.75
458.377	108.75
458.598	115.75
458.818	141.75
459.038	148.75
459.258	102.75
459.478	98.75
459.698	83.75
459.918	98.75
460.138	106.75
460.358	107.75
460.578	84.75
460.798	87.75
461.018	93.75
461.238	83.75
461.458	91.75
461.678	78.75
461.898	90.75
462.118	82.75
462.338	101.75
462.558	99.75
462.777	83.75
462.997	100.75
463.217	93.75
463.437	96.75
463.657	81.75
463.876	82.75
464.096	89.75
464.316	102.75
464.536	102.75
464.755	98.75
464.975	114.75
465.195	148.75
465.414	143.75
465.634	95.75
465.854	81.75
466.073	87.75
466.293	96.75
466.512	88.75
466.732	78.75
466.951	82.75
467.171	98.75
467.391	88.75
467.61	105.75
467.829	100.75
468.049	95.75
468.268	99.75
468.488	103.75
468.707	91.75
468.927	109.75
469.146	87.75
469.365	102.75
469.585	79.75
469.804	76.75
470.023	99.75
470.243	90.75
470.462	102.75
470.681	92.75
470.901	101.75
471.12	79.75
471.339	92.75
471.558	87.75
471.777	79.75
471.997	86.75
472.216	107.75
472.435	111.75
472.654	94.75
472.873	102.75
473.092	90.75
473.311	96.75
473.53	107.75
473.749	98.75
473.968	102.75
474.187	101.75
474.406	92.75
474.625	101.75
474.844	94.75
475.063	82.75
475.282	85.75
475.501	90.75
475.72	93.75
475.939	72.75
476.158	85.75
476.377	92.75
476.596	84.75
476.814	83.75
477.033	91.75
477.252	86.75
477.471	76.75
477.69	80.75
477.908	96.75
478.127	88.75
478.346	96.75
478.564	84.75
478.783	87.75
479.002	92.75
479.22	96.75
479.439	106.75
479.658	107.75
479.876	88.75
480.095	89.75
480.313	98.75
480.532	86.75
480.751	85.75
480.969	95.75
481.188	111.75
481.406	112.75
481.624	93.75
481.843	93.75
482.061	102.75
482.28	88.75
482.498	90.75
482.717	95.75
482.935	75.75
483.153	83.75
483.372	100.75
483.59	90.75
483.808	90.75
484.027	92.75
484.245	104.75
484.463	76.75
484.681	94.75
484.9	102.75
485.118	105.75
485.336	105.75
485.554	97.75
485.772	91.75
485.99	117.75
486.209	88.75
486.427	101.75
486.645	103.75
486.863	101.75
487.081	105.75
487.299	102.75
487.517	103.75
487.735	87.75
487.953	95.75
488.171	107.75
488.389	95.75
488.607	95.75
488.825	109.75
489.043	103.75
489.261	82.75
489.479	89.75
489.696	90.75
489.914	72.75
490.132	92.75
490.35	92.75
490.568	93.75
490.786	84.75
491.003	87.75
491.221	95.75
491.439	100.75
491.657	85.75
491.874	98.75
492.092	97.75
492.31	99.75
492.527	102.75
492.745	98.75
492.963	86.75
493.18	86.75
493.398	91.75
493.615	87.75
493.833	102.75
494.05	86.75
494.268	105.75
494.485	93.75
494.703	94.75
494.92	95.75
495.138	103.75
495.355	94.75
495.573	98.75
495.79	84.75
496.008	93.75
496.225	97.75
496.442	92.75
496.66	92.75
496.877	88.75
497.094	88.75
497.312	100.75
497.529	93.75
497.746	82.75
497.963	86.75
498.181	75.75
498.398	88.75
498.615	112.75
498.832	103.75
499.049	107.75
499.267	95.75
499.484	95.75
499.701	86.75
499.918	84.75
500.135	100.75
500.352	101.75
500.569	88.75
500.786	92.75
501.003	99.75
501.22	80.75
501.437	90.75
501.654	98.75
501.871	97.75
502.088	94.75
502.305	100.75
502.522	101.75
502.739	102.75
502.956	88.75
503.172	87.75
503.389	95.75
503.606	99.75
503.823	118.75
504.04	97.75
504.256	94.75
504.473	94.75
504.69	99.75
504.907	106.75
505.123	82.75
505.34	84.75
505.557	98.75
505.773	101.75
505.99	88.75
506.207	92.75
506.423	102.75
506.64	91.75
506.856	100.75
507.073	87.75
507.289	92.75
507.506	97.75
507.722	112.75
507.939	115.75
508.155	92.75
508.372	72.75
508.588	103.75
508.805	100.75
509.021	87.75
509.238	110.75
509.454	109.75
509.67	109.75
509.887	101.75
510.103	129.75
510.319	199.75
510.536	704.75
510.752	2201.75
510.968	597.75
511.184	158.75
511.401	124.75
511.617	91.75
511.833	107.75
512.049	101.75
512.265	91.75
512.481	89.75
512.698	91.75
512.914	88.75
513.13	110.75
513.346	85.75
513.562	88.75
513.778	85.75
513.994	99.75
514.21	108.75
514.426	120.75
