Data from Uncirc_1984_H10_HRD10591_00090.txt Node
Date: Wed Jan 03 12:21:55 EST 2024
User: Yrep
Spectrometer: HR+D1059
Trigger mode: 1
Integration Time (sec): 1.000000E-1
Scans to average: 1
Electric dark correction enabled: true
Nonlinearity correction enabled: false
Boxcar width: 0
XAxis mode: Wavelengths
Number of Pixels in Spectrum: 2048
>>>>>Begin Spectral Data<<<<<
223.165	-5.56
223.4	-5.56
223.635	-5.56
223.869	-9.56
224.104	-12.56
224.338	-24.56
224.573	-9.56
224.808	-13.56
225.042	-12.56
225.277	-4.56
225.511	-4.56
225.746	11.44
225.98	-5.56
226.215	18.44
226.449	12.44
226.683	7.44
226.918	18.44
227.152	34.44
227.387	30.44
227.621	34.44
227.856	35.44
228.09	44.44
228.324	44.44
228.559	47.44
228.793	58.44
229.027	51.44
229.262	64.44
229.496	71.44
229.73	71.44
229.964	81.44
230.199	84.44
230.433	71.44
230.667	85.44
230.901	79.44
231.136	87.44
231.37	82.44
231.604	76.44
231.838	85.44
232.072	70.44
232.306	76.44
232.541	81.44
232.775	73.44
233.009	64.44
233.243	78.44
233.477	97.44
233.711	93.44
233.945	84.44
234.179	78.44
234.413	69.44
234.647	80.44
234.881	73.44
235.115	68.44
235.349	82.44
235.583	68.44
235.817	85.44
236.051	78.44
236.285	68.44
236.519	75.44
236.753	76.44
236.987	80.44
237.221	75.44
237.455	87.44
237.689	73.44
237.922	82.44
238.156	65.44
238.39	75.44
238.624	72.44
238.858	70.44
239.091	87.44
239.325	75.44
239.559	78.44
239.793	75.44
240.027	77.44
240.26	81.44
240.494	82.44
240.728	75.44
240.961	73.44
241.195	82.44
241.429	81.44
241.662	69.44
241.896	78.44
242.13	72.44
242.363	72.44
242.597	63.44
242.83	67.44
243.064	67.44
243.298	70.44
243.531	80.44
243.765	64.44
243.998	60.44
244.232	78.44
244.465	71.44
244.699	73.44
244.932	86.44
245.166	92.44
245.399	104.44
245.633	77.44
245.866	78.44
246.099	80.44
246.333	79.44
246.566	76.44
246.8	66.44
247.033	74.44
247.266	72.44
247.5	72.44
247.733	74.44
247.966	79.44
248.2	84.44
248.433	65.44
248.666	69.44
248.899	69.44
249.133	83.44
249.366	105.44
249.599	88.44
249.832	80.44
250.066	80.44
250.299	81.44
250.532	88.44
250.765	75.44
250.998	84.44
251.231	67.44
251.465	80.44
251.698	86.44
251.931	73.44
252.164	79.44
252.397	78.44
252.63	79.44
252.863	82.44
253.096	81.44
253.329	83.44
253.562	85.44
253.795	81.44
254.028	80.44
254.261	81.44
254.494	63.44
254.727	81.44
254.96	82.44
255.193	81.44
255.426	78.44
255.659	76.44
255.892	88.44
256.124	77.44
256.357	90.44
256.59	91.44
256.823	89.44
257.056	80.44
257.289	76.44
257.521	64.44
257.754	87.44
257.987	70.44
258.22	86.44
258.452	91.44
258.685	81.44
258.918	78.44
259.151	82.44
259.383	75.44
259.616	93.44
259.849	88.44
260.081	69.44
260.314	67.44
260.547	79.44
260.779	71.44
261.012	88.44
261.244	77.44
261.477	74.44
261.71	82.44
261.942	118.44
262.175	105.44
262.407	99.44
262.64	84.44
262.872	73.44
263.105	92.44
263.337	90.44
263.57	91.44
263.802	83.44
264.035	73.44
264.267	68.44
264.499	85.44
264.732	80.44
264.964	76.44
265.197	87.44
265.429	72.44
265.661	80.44
265.894	83.44
266.126	84.44
266.358	87.44
266.591	79.44
266.823	84.44
267.055	85.44
267.287	75.44
267.52	71.44
267.752	84.44
267.984	78.44
268.216	90.44
268.448	84.44
268.681	93.44
268.913	85.44
269.145	88.44
269.377	87.44
269.609	91.44
269.841	96.44
270.073	86.44
270.306	78.44
270.538	78.44
270.77	79.44
271.002	73.44
271.234	75.44
271.466	89.44
271.698	88.44
271.93	78.44
272.162	74.44
272.394	85.44
272.626	73.44
272.858	81.44
273.09	87.44
273.322	84.44
273.553	87.44
273.785	78.44
274.017	89.44
274.249	84.44
274.481	88.44
274.713	88.44
274.945	83.44
275.176	99.44
275.408	94.44
275.64	91.44
275.872	80.44
276.104	76.44
276.335	80.44
276.567	76.44
276.799	81.44
277.031	84.44
277.262	84.44
277.494	92.44
277.726	91.44
277.957	85.44
278.189	86.44
278.421	81.44
278.652	85.44
278.884	86.44
279.115	87.44
279.347	86.44
279.579	72.44
279.81	82.44
280.042	93.44
280.273	88.44
280.505	91.44
280.736	72.44
280.968	72.44
281.199	88.44
281.431	84.44
281.662	90.44
281.894	90.44
282.125	94.44
282.356	117.44
282.588	123.44
282.819	95.44
283.051	84.44
283.282	93.44
283.513	86.44
283.745	67.44
283.976	80.44
284.207	84.44
284.439	97.44
284.67	90.44
284.901	82.44
285.132	73.44
285.364	72.44
285.595	100.44
285.826	80.44
286.057	65.44
286.288	78.44
286.52	92.44
286.751	78.44
286.982	93.44
287.213	81.44
287.444	81.44
287.675	83.44
287.906	65.44
288.138	78.44
288.369	89.44
288.6	103.44
288.831	99.44
289.062	95.44
289.293	80.44
289.524	85.44
289.755	89.44
289.986	89.44
290.217	101.44
290.448	100.44
290.679	92.44
290.91	86.44
291.141	86.44
291.371	79.44
291.602	92.44
291.833	81.44
292.064	74.44
292.295	88.44
292.526	83.44
292.757	83.44
292.987	91.44
293.218	90.44
293.449	84.44
293.68	100.44
293.91	94.44
294.141	98.44
294.372	94.44
294.603	83.44
294.833	88.44
295.064	84.44
295.295	93.44
295.525	79.44
295.756	102.44
295.987	89.44
296.217	142.44
296.448	115.44
296.679	94.44
296.909	83.44
297.14	78.44
297.37	84.44
297.601	75.44
297.831	91.44
298.062	96.44
298.292	92.44
298.523	83.44
298.753	86.44
298.984	79.44
299.214	74.44
299.445	76.44
299.675	83.44
299.905	97.44
300.136	78.44
300.366	91.44
300.597	84.44
300.827	87.44
301.057	100.44
301.288	88.44
301.518	74.44
301.748	85.44
301.979	93.44
302.209	89.44
302.439	85.44
302.669	83.44
302.9	79.44
303.13	87.44
303.36	74.44
303.59	96.44
303.82	87.44
304.051	86.44
304.281	98.44
304.511	100.44
304.741	79.44
304.971	71.44
305.201	87.44
305.431	95.44
305.661	83.44
305.891	73.44
306.121	99.44
306.352	96.44
306.582	93.44
306.812	84.44
307.042	89.44
307.272	98.44
307.502	95.44
307.731	79.44
307.961	73.44
308.191	90.44
308.421	88.44
308.651	82.44
308.881	93.44
309.111	79.44
309.341	89.44
309.571	89.44
309.8	96.44
310.03	94.44
310.26	71.44
310.49	96.44
310.72	94.44
310.949	76.44
311.179	105.44
311.409	88.44
311.639	89.44
311.868	85.44
312.098	92.44
312.328	82.44
312.557	93.44
312.787	96.44
313.017	92.44
313.246	91.44
313.476	98.44
313.706	85.44
313.935	92.44
314.165	107.44
314.394	98.44
314.624	82.44
314.853	94.44
315.083	87.44
315.312	103.44
315.542	98.44
315.771	87.44
316.001	92.44
316.23	91.44
316.46	80.44
316.689	85.44
316.919	89.44
317.148	107.44
317.377	90.44
317.607	91.44
317.836	93.44
318.065	78.44
318.295	98.44
318.524	99.44
318.753	81.44
318.983	82.44
319.212	96.44
319.441	98.44
319.67	106.44
319.9	98.44
320.129	96.44
320.358	89.44
320.587	106.44
320.816	92.44
321.046	102.44
321.275	97.44
321.504	94.44
321.733	90.44
321.962	82.44
322.191	102.44
322.42	99.44
322.649	117.44
322.878	102.44
323.108	116.44
323.337	106.44
323.566	109.44
323.795	149.44
324.024	183.44
324.253	343.44
324.482	728.44
324.71	1458.44
324.939	1955.44
325.168	722.44
325.397	211.44
325.626	123.44
325.855	126.44
326.084	125.44
326.313	115.44
326.542	146.44
326.77	206.44
326.999	404.44
327.228	816.44
327.457	1539.44
327.686	1218.44
327.914	342.44
328.143	166.44
328.372	127.44
328.6	105.44
328.829	95.44
329.058	104.44
329.287	102.44
329.515	102.44
329.744	96.44
329.972	101.44
330.201	101.44
330.43	111.44
330.658	91.44
330.887	116.44
331.115	98.44
331.344	107.44
331.572	101.44
331.801	98.44
332.03	93.44
332.258	79.44
332.486	93.44
332.715	101.44
332.943	97.44
333.172	91.44
333.4	92.44
333.629	88.44
333.857	103.44
334.085	91.44
334.314	91.44
334.542	81.44
334.771	106.44
334.999	98.44
335.227	97.44
335.455	90.44
335.684	86.44
335.912	100.44
336.14	90.44
336.369	98.44
336.597	93.44
336.825	88.44
337.053	100.44
337.281	81.44
337.51	92.44
337.738	98.44
337.966	89.44
338.194	114.44
338.422	100.44
338.65	68.44
338.878	88.44
339.106	90.44
339.334	96.44
339.562	69.44
339.79	90.44
340.018	88.44
340.246	79.44
340.474	89.44
340.702	89.44
340.93	89.44
341.158	90.44
341.386	95.44
341.614	94.44
341.842	98.44
342.07	94.44
342.298	81.44
342.526	75.44
342.754	85.44
342.981	78.44
343.209	94.44
343.437	114.44
343.665	87.44
343.893	86.44
344.12	96.44
344.348	85.44
344.576	91.44
344.804	86.44
345.031	86.44
345.259	94.44
345.487	102.44
345.714	95.44
345.942	81.44
346.17	86.44
346.397	95.44
346.625	86.44
346.853	92.44
347.08	92.44
347.308	94.44
347.535	94.44
347.763	83.44
347.99	94.44
348.218	99.44
348.445	105.44
348.673	97.44
348.9	88.44
349.128	100.44
349.355	101.44
349.583	88.44
349.81	94.44
350.037	94.44
350.265	103.44
350.492	81.44
350.72	106.44
350.947	95.44
351.174	107.44
351.402	99.44
351.629	106.44
351.856	101.44
352.083	105.44
352.311	99.44
352.538	104.44
352.765	103.44
352.992	109.44
353.22	101.44
353.447	83.44
353.674	96.44
353.901	77.44
354.128	90.44
354.355	98.44
354.583	95.44
354.81	100.44
355.037	94.44
355.264	90.44
355.491	86.44
355.718	88.44
355.945	91.44
356.172	81.44
356.399	103.44
356.626	102.44
356.853	99.44
357.08	101.44
357.307	84.44
357.534	86.44
357.761	94.44
357.988	101.44
358.215	100.44
358.441	92.44
358.668	98.44
358.895	82.44
359.122	89.44
359.349	86.44
359.576	85.44
359.802	87.44
360.029	92.44
360.256	114.44
360.483	94.44
360.709	87.44
360.936	81.44
361.163	95.44
361.39	100.44
361.616	94.44
361.843	82.44
362.07	100.44
362.296	98.44
362.523	86.44
362.749	85.44
362.976	85.44
363.203	88.44
363.429	92.44
363.656	84.44
363.882	90.44
364.109	96.44
364.335	91.44
364.562	103.44
364.788	82.44
365.015	97.44
365.241	100.44
365.468	120.44
365.694	93.44
365.92	97.44
366.147	87.44
366.373	82.44
366.599	96.44
366.826	102.44
367.052	86.44
367.278	86.44
367.505	88.44
367.731	87.44
367.957	101.44
368.184	117.44
368.41	95.44
368.636	103.44
368.862	109.44
369.089	91.44
369.315	78.44
369.541	91.44
369.767	88.44
369.993	91.44
370.219	94.44
370.445	86.44
370.672	88.44
370.898	81.44
371.124	83.44
371.35	90.44
371.576	74.44
371.802	80.44
372.028	87.44
372.254	84.44
372.48	75.44
372.706	95.44
372.932	92.44
373.158	81.44
373.384	96.44
373.61	93.44
373.835	71.44
374.061	90.44
374.287	84.44
374.513	81.44
374.739	103.44
374.965	83.44
375.191	94.44
375.416	92.44
375.642	76.44
375.868	96.44
376.094	92.44
376.319	78.44
376.545	80.44
376.771	91.44
376.997	87.44
377.222	84.44
377.448	94.44
377.674	89.44
377.899	83.44
378.125	83.44
378.35	91.44
378.576	89.44
378.802	84.44
379.027	94.44
379.253	87.44
379.478	74.44
379.704	85.44
379.929	86.44
380.155	90.44
380.38	85.44
380.606	85.44
380.831	92.44
381.057	95.44
381.282	90.44
381.507	100.44
381.733	83.44
381.958	89.44
382.184	83.44
382.409	100.44
382.634	91.44
382.86	82.44
383.085	91.44
383.31	101.44
383.535	103.44
383.761	102.44
383.986	113.44
384.211	90.44
384.436	81.44
384.662	101.44
384.887	87.44
385.112	101.44
385.337	98.44
385.562	100.44
385.787	94.44
386.013	102.44
386.238	100.44
386.463	92.44
386.688	99.44
386.913	97.44
387.138	105.44
387.363	104.44
387.588	96.44
387.813	97.44
388.038	90.44
388.263	96.44
388.488	96.44
388.713	98.44
388.938	95.44
389.163	105.44
389.387	118.44
389.612	94.44
389.837	90.44
390.062	89.44
390.287	86.44
390.512	86.44
390.736	89.44
390.961	94.44
391.186	98.44
391.411	105.44
391.636	100.44
391.86	104.44
392.085	99.44
392.31	76.44
392.534	89.44
392.759	89.44
392.984	83.44
393.208	75.44
393.433	92.44
393.658	79.44
393.882	88.44
394.107	88.44
394.331	70.44
394.556	88.44
394.78	92.44
395.005	87.44
395.229	95.44
395.454	86.44
395.678	65.44
395.903	106.44
396.127	74.44
396.352	80.44
396.576	90.44
396.801	90.44
397.025	107.44
397.249	82.44
397.474	103.44
397.698	87.44
397.922	95.44
398.147	80.44
398.371	74.44
398.595	74.44
398.82	89.44
399.044	97.44
399.268	83.44
399.492	99.44
399.717	94.44
399.941	101.44
400.165	85.44
400.389	88.44
400.613	88.44
400.837	91.44
401.062	92.44
401.286	100.44
401.51	102.44
401.734	84.44
401.958	100.44
402.182	94.44
402.406	134.44
402.63	112.44
402.854	91.44
403.078	83.44
403.302	90.44
403.526	93.44
403.75	82.44
403.974	80.44
404.198	81.44
404.422	77.44
404.645	87.44
404.869	95.44
405.093	93.44
405.317	95.44
405.541	83.44
405.765	91.44
405.988	98.44
406.212	159.44
406.436	210.44
406.66	120.44
406.883	103.44
407.107	96.44
407.331	87.44
407.555	101.44
407.778	93.44
408.002	87.44
408.226	86.44
408.449	80.44
408.673	90.44
408.896	101.44
409.12	85.44
409.344	85.44
409.567	81.44
409.791	102.44
410.014	86.44
410.238	91.44
410.461	98.44
410.685	84.44
410.908	101.44
411.132	106.44
411.355	91.44
411.578	101.44
411.802	92.44
412.025	88.44
412.249	89.44
412.472	87.44
412.695	93.44
412.919	82.44
413.142	80.44
413.365	87.44
413.589	104.44
413.812	95.44
414.035	96.44
414.258	90.44
414.482	86.44
414.705	79.44
414.928	97.44
415.151	89.44
415.374	101.44
415.597	78.44
415.821	89.44
416.044	83.44
416.267	75.44
416.49	89.44
416.713	85.44
416.936	83.44
417.159	85.44
417.382	82.44
417.605	87.44
417.828	75.44
418.051	69.44
418.274	86.44
418.497	75.44
418.72	80.44
418.943	103.44
419.166	99.44
419.389	98.44
419.611	84.44
419.834	75.44
420.057	78.44
420.28	84.44
420.503	91.44
420.726	85.44
420.948	101.44
421.171	91.44
421.394	99.44
421.617	88.44
421.839	82.44
422.062	86.44
422.285	90.44
422.507	100.44
422.73	99.44
422.953	98.44
423.175	79.44
423.398	84.44
423.621	83.44
423.843	81.44
424.066	93.44
424.288	90.44
424.511	89.44
424.733	110.44
424.956	94.44
425.178	98.44
425.401	100.44
425.623	108.44
425.846	95.44
426.068	102.44
426.291	91.44
426.513	84.44
426.735	98.44
426.958	99.44
427.18	91.44
427.402	123.44
427.625	145.44
427.847	107.44
428.069	94.44
428.292	90.44
428.514	75.44
428.736	81.44
428.958	94.44
429.181	92.44
429.403	88.44
429.625	75.44
429.847	74.44
430.069	106.44
430.292	105.44
430.514	84.44
430.736	76.44
430.958	84.44
431.18	90.44
431.402	90.44
431.624	86.44
431.846	86.44
432.068	87.44
432.29	76.44
432.512	94.44
432.734	80.44
432.956	89.44
433.178	106.44
433.4	99.44
433.622	83.44
433.844	83.44
434.066	67.44
434.287	88.44
434.509	89.44
434.731	81.44
434.953	100.44
435.175	76.44
435.397	80.44
435.618	78.44
435.84	95.44
436.062	131.44
436.284	108.44
436.505	97.44
436.727	103.44
436.949	86.44
437.17	94.44
437.392	90.44
437.614	89.44
437.835	93.44
438.057	99.44
438.278	112.44
438.5	97.44
438.721	127.44
438.943	93.44
439.165	100.44
439.386	99.44
439.608	83.44
439.829	84.44
440.05	107.44
440.272	123.44
440.493	99.44
440.715	90.44
440.936	98.44
441.158	85.44
441.379	86.44
441.6	96.44
441.822	103.44
442.043	93.44
442.264	101.44
442.486	100.44
442.707	87.44
442.928	102.44
443.149	115.44
443.371	131.44
443.592	88.44
443.813	108.44
444.034	107.44
444.255	89.44
444.476	78.44
444.698	97.44
444.919	78.44
445.14	134.44
445.361	118.44
445.582	116.44
445.803	121.44
446.024	113.44
446.245	130.44
446.466	115.44
446.687	82.44
446.908	109.44
447.129	84.44
447.35	99.44
447.571	90.44
447.792	89.44
448.013	87.44
448.234	108.44
448.455	95.44
448.675	112.44
448.896	114.44
449.117	100.44
449.338	116.44
449.559	138.44
449.779	118.44
450	112.44
450.221	96.44
450.442	94.44
450.662	88.44
450.883	86.44
451.104	110.44
451.324	79.44
451.545	78.44
451.766	92.44
451.986	78.44
452.207	87.44
452.428	86.44
452.648	94.44
452.869	97.44
453.089	102.44
453.31	107.44
453.53	74.44
453.751	98.44
453.971	92.44
454.192	100.44
454.412	86.44
454.633	80.44
454.853	81.44
455.073	90.44
455.294	85.44
455.514	99.44
455.734	81.44
455.955	83.44
456.175	91.44
456.395	90.44
456.616	79.44
456.836	86.44
457.056	79.44
457.276	88.44
457.497	82.44
457.717	80.44
457.937	75.44
458.157	88.44
458.377	81.44
458.598	99.44
458.818	138.44
459.038	131.44
459.258	94.44
459.478	83.44
459.698	84.44
459.918	97.44
460.138	91.44
460.358	90.44
460.578	94.44
460.798	95.44
461.018	84.44
461.238	85.44
461.458	90.44
461.678	76.44
461.898	82.44
462.118	94.44
462.338	89.44
462.558	89.44
462.777	98.44
462.997	75.44
463.217	93.44
463.437	95.44
463.657	89.44
463.876	91.44
464.096	84.44
464.316	95.44
464.536	78.44
464.755	92.44
464.975	100.44
465.195	130.44
465.414	131.44
465.634	97.44
465.854	78.44
466.073	94.44
466.293	98.44
466.512	75.44
466.732	84.44
466.951	89.44
467.171	86.44
467.391	100.44
467.61	95.44
467.829	89.44
468.049	94.44
468.268	87.44
468.488	74.44
468.707	97.44
468.927	84.44
469.146	82.44
469.365	86.44
469.585	84.44
469.804	103.44
470.023	102.44
470.243	86.44
470.462	97.44
470.681	87.44
470.901	91.44
471.12	87.44
471.339	87.44
471.558	90.44
471.777	85.44
471.997	80.44
472.216	100.44
472.435	99.44
472.654	75.44
472.873	75.44
473.092	81.44
473.311	90.44
473.53	87.44
473.749	84.44
473.968	101.44
474.187	113.44
474.406	91.44
474.625	75.44
474.844	82.44
475.063	70.44
475.282	90.44
475.501	80.44
475.72	94.44
475.939	87.44
476.158	96.44
476.377	73.44
476.596	88.44
476.814	78.44
477.033	84.44
477.252	84.44
477.471	92.44
477.69	90.44
477.908	97.44
478.127	82.44
478.346	95.44
478.564	94.44
478.783	92.44
479.002	91.44
479.22	92.44
479.439	97.44
479.658	93.44
479.876	83.44
480.095	99.44
480.313	81.44
480.532	81.44
480.751	91.44
480.969	96.44
481.188	107.44
481.406	105.44
481.624	92.44
481.843	95.44
482.061	96.44
482.28	91.44
482.498	83.44
482.717	97.44
482.935	104.44
483.153	84.44
483.372	96.44
483.59	83.44
483.808	79.44
484.027	95.44
484.245	98.44
484.463	89.44
484.681	98.44
484.9	80.44
485.118	86.44
485.336	91.44
485.554	95.44
485.772	94.44
485.99	97.44
486.209	96.44
486.427	97.44
486.645	110.44
486.863	102.44
487.081	99.44
487.299	91.44
487.517	97.44
487.735	86.44
487.953	83.44
488.171	83.44
488.389	82.44
488.607	103.44
488.825	84.44
489.043	88.44
489.261	88.44
489.479	72.44
489.696	86.44
489.914	90.44
490.132	80.44
490.35	92.44
490.568	87.44
490.786	95.44
491.003	91.44
491.221	79.44
491.439	91.44
491.657	95.44
491.874	105.44
492.092	88.44
492.31	92.44
492.527	96.44
492.745	82.44
492.963	88.44
493.18	95.44
493.398	84.44
493.615	96.44
493.833	105.44
494.05	80.44
494.268	89.44
494.485	100.44
494.703	82.44
494.92	103.44
495.138	94.44
495.355	96.44
495.573	91.44
495.79	95.44
496.008	95.44
496.225	108.44
496.442	93.44
496.66	97.44
496.877	92.44
497.094	104.44
497.312	92.44
497.529	92.44
497.746	90.44
497.963	81.44
498.181	87.44
498.398	96.44
498.615	105.44
498.832	96.44
499.049	92.44
499.267	97.44
499.484	86.44
499.701	91.44
499.918	88.44
500.135	92.44
500.352	84.44
500.569	90.44
500.786	90.44
501.003	84.44
501.22	99.44
501.437	83.44
501.654	83.44
501.871	106.44
502.088	95.44
502.305	87.44
502.522	88.44
502.739	87.44
502.956	85.44
503.172	96.44
503.389	106.44
503.606	105.44
503.823	97.44
504.04	85.44
504.256	88.44
504.473	81.44
504.69	87.44
504.907	92.44
505.123	95.44
505.34	88.44
505.557	98.44
505.773	99.44
505.99	102.44
506.207	92.44
506.423	101.44
506.64	99.44
506.856	93.44
507.073	87.44
507.289	89.44
507.506	97.44
507.722	100.44
507.939	96.44
508.155	98.44
508.372	89.44
508.588	101.44
508.805	102.44
509.021	87.44
509.238	91.44
509.454	103.44
509.67	102.44
509.887	96.44
510.103	119.44
510.319	203.44
510.536	656.44
510.752	1968.44
510.968	564.44
511.184	137.44
511.401	103.44
511.617	106.44
511.833	90.44
512.049	83.44
512.265	101.44
512.481	84.44
512.698	94.44
512.914	102.44
513.13	94.44
513.346	84.44
513.562	82.44
513.778	107.44
513.994	95.44
514.21	94.44
514.426	107.44
514.642	120.44
514.858	106.44
515.074	138.44
515.29	365.44
515.506	1161.44
515.721	428.44
515.937	145.44
516.153	111.44
516.369	99.44
516.585	84.44
