Data from Uncirc_1984_H10_HRD10591_00085.txt Node
Date: Wed Jan 03 12:21:54 EST 2024
User: Yrep
Spectrometer: HR+D1059
Trigger mode: 1
Integration Time (sec): 1.000000E-1
Scans to average: 1
Electric dark correction enabled: true
Nonlinearity correction enabled: false
Boxcar width: 0
XAxis mode: Wavelengths
Number of Pixels in Spectrum: 2048
>>>>>Begin Spectral Data<<<<<
223.165	-5.19
223.4	-5.19
223.635	-5.19
223.869	-17.19
224.104	-15.19
224.338	-18.19
224.573	-18.19
224.808	-13.19
225.042	-4.19
225.277	-9.19
225.511	-4.19
225.746	-11.19
225.98	8.81
226.215	33.81
226.449	12.81
226.683	15.81
226.918	19.81
227.152	24.81
227.387	43.81
227.621	26.81
227.856	37.81
228.09	42.81
228.324	45.81
228.559	47.81
228.793	52.81
229.027	64.81
229.262	63.81
229.496	72.81
229.73	90.81
229.964	87.81
230.199	68.81
230.433	63.81
230.667	86.81
230.901	63.81
231.136	80.81
231.37	73.81
231.604	76.81
231.838	69.81
232.072	76.81
232.306	79.81
232.541	91.81
232.775	74.81
233.009	74.81
233.243	85.81
233.477	83.81
233.711	75.81
233.945	87.81
234.179	72.81
234.413	77.81
234.647	61.81
234.881	71.81
235.115	83.81
235.349	70.81
235.583	79.81
235.817	76.81
236.051	85.81
236.285	79.81
236.519	76.81
236.753	73.81
236.987	79.81
237.221	99.81
237.455	75.81
237.689	66.81
237.922	68.81
238.156	79.81
238.39	78.81
238.624	80.81
238.858	78.81
239.091	87.81
239.325	80.81
239.559	87.81
239.793	86.81
240.027	83.81
240.26	69.81
240.494	64.81
240.728	71.81
240.961	75.81
241.195	98.81
241.429	86.81
241.662	65.81
241.896	85.81
242.13	85.81
242.363	80.81
242.597	103.81
242.83	83.81
243.064	84.81
243.298	74.81
243.531	76.81
243.765	66.81
243.998	75.81
244.232	81.81
244.465	87.81
244.699	85.81
244.932	69.81
245.166	83.81
245.399	82.81
245.633	97.81
245.866	72.81
246.099	92.81
246.333	86.81
246.566	81.81
246.8	104.81
247.033	94.81
247.266	81.81
247.5	75.81
247.733	79.81
247.966	69.81
248.2	79.81
248.433	73.81
248.666	69.81
248.899	84.81
249.133	94.81
249.366	107.81
249.599	98.81
249.832	72.81
250.066	79.81
250.299	77.81
250.532	77.81
250.765	80.81
250.998	73.81
251.231	99.81
251.465	79.81
251.698	83.81
251.931	82.81
252.164	66.81
252.397	74.81
252.63	78.81
252.863	82.81
253.096	84.81
253.329	79.81
253.562	80.81
253.795	73.81
254.028	95.81
254.261	68.81
254.494	83.81
254.727	89.81
254.96	73.81
255.193	76.81
255.426	80.81
255.659	75.81
255.892	95.81
256.124	72.81
256.357	77.81
256.59	81.81
256.823	77.81
257.056	88.81
257.289	81.81
257.521	77.81
257.754	80.81
257.987	79.81
258.22	82.81
258.452	82.81
258.685	75.81
258.918	81.81
259.151	71.81
259.383	82.81
259.616	81.81
259.849	91.81
260.081	87.81
260.314	86.81
260.547	69.81
260.779	74.81
261.012	83.81
261.244	83.81
261.477	92.81
261.71	88.81
261.942	109.81
262.175	117.81
262.407	90.81
262.64	83.81
262.872	74.81
263.105	83.81
263.337	83.81
263.57	89.81
263.802	77.81
264.035	79.81
264.267	68.81
264.499	72.81
264.732	88.81
264.964	87.81
265.197	88.81
265.429	83.81
265.661	75.81
265.894	90.81
266.126	76.81
266.358	60.81
266.591	70.81
266.823	80.81
267.055	84.81
267.287	94.81
267.52	68.81
267.752	72.81
267.984	82.81
268.216	75.81
268.448	68.81
268.681	91.81
268.913	93.81
269.145	77.81
269.377	97.81
269.609	85.81
269.841	84.81
270.073	73.81
270.306	79.81
270.538	64.81
270.77	65.81
271.002	84.81
271.234	77.81
271.466	94.81
271.698	91.81
271.93	85.81
272.162	98.81
272.394	95.81
272.626	81.81
272.858	76.81
273.09	83.81
273.322	87.81
273.553	92.81
273.785	87.81
274.017	83.81
274.249	83.81
274.481	75.81
274.713	76.81
274.945	94.81
275.176	83.81
275.408	81.81
275.64	88.81
275.872	88.81
276.104	91.81
276.335	99.81
276.567	87.81
276.799	97.81
277.031	92.81
277.262	100.81
277.494	90.81
277.726	93.81
277.957	88.81
278.189	83.81
278.421	76.81
278.652	81.81
278.884	87.81
279.115	70.81
279.347	85.81
279.579	89.81
279.81	68.81
280.042	90.81
280.273	79.81
280.505	95.81
280.736	88.81
280.968	83.81
281.199	80.81
281.431	85.81
281.662	101.81
281.894	82.81
282.125	97.81
282.356	121.81
282.588	143.81
282.819	116.81
283.051	99.81
283.282	95.81
283.513	100.81
283.745	90.81
283.976	86.81
284.207	85.81
284.439	91.81
284.67	85.81
284.901	90.81
285.132	77.81
285.364	84.81
285.595	80.81
285.826	87.81
286.057	83.81
286.288	92.81
286.52	93.81
286.751	87.81
286.982	84.81
287.213	100.81
287.444	97.81
287.675	87.81
287.906	87.81
288.138	92.81
288.369	88.81
288.6	101.81
288.831	65.81
289.062	85.81
289.293	93.81
289.524	89.81
289.755	76.81
289.986	74.81
290.217	77.81
290.448	92.81
290.679	83.81
290.91	86.81
291.141	79.81
291.371	100.81
291.602	73.81
291.833	84.81
292.064	85.81
292.295	92.81
292.526	83.81
292.757	99.81
292.987	85.81
293.218	84.81
293.449	89.81
293.68	70.81
293.91	87.81
294.141	90.81
294.372	94.81
294.603	92.81
294.833	95.81
295.064	79.81
295.295	75.81
295.525	98.81
295.756	83.81
295.987	112.81
296.217	138.81
296.448	116.81
296.679	87.81
296.909	91.81
297.14	84.81
297.37	96.81
297.601	83.81
297.831	92.81
298.062	98.81
298.292	84.81
298.523	97.81
298.753	84.81
298.984	74.81
299.214	98.81
299.445	86.81
299.675	102.81
299.905	89.81
300.136	77.81
300.366	86.81
300.597	94.81
300.827	90.81
301.057	98.81
301.288	97.81
301.518	88.81
301.748	96.81
301.979	92.81
302.209	100.81
302.439	92.81
302.669	74.81
302.9	84.81
303.13	86.81
303.36	73.81
303.59	113.81
303.82	107.81
304.051	102.81
304.281	102.81
304.511	100.81
304.741	76.81
304.971	87.81
305.201	102.81
305.431	87.81
305.661	94.81
305.891	87.81
306.121	108.81
306.352	106.81
306.582	106.81
306.812	99.81
307.042	83.81
307.272	94.81
307.502	97.81
307.731	96.81
307.961	106.81
308.191	99.81
308.421	90.81
308.651	93.81
308.881	92.81
309.111	103.81
309.341	107.81
309.571	104.81
309.8	98.81
310.03	90.81
310.26	98.81
310.49	97.81
310.72	79.81
310.949	96.81
311.179	94.81
311.409	93.81
311.639	93.81
311.868	91.81
312.098	82.81
312.328	85.81
312.557	105.81
312.787	102.81
313.017	104.81
313.246	99.81
313.476	103.81
313.706	95.81
313.935	103.81
314.165	92.81
314.394	110.81
314.624	99.81
314.853	94.81
315.083	94.81
315.312	72.81
315.542	89.81
315.771	101.81
316.001	81.81
316.23	94.81
316.46	82.81
316.689	99.81
316.919	79.81
317.148	91.81
317.377	90.81
317.607	92.81
317.836	82.81
318.065	91.81
318.295	94.81
318.524	102.81
318.753	103.81
318.983	85.81
319.212	83.81
319.441	99.81
319.67	106.81
319.9	86.81
320.129	86.81
320.358	93.81
320.587	101.81
320.816	91.81
321.046	91.81
321.275	99.81
321.504	91.81
321.733	93.81
321.962	97.81
322.191	103.81
322.42	100.81
322.649	106.81
322.878	122.81
323.108	108.81
323.337	140.81
323.566	118.81
323.795	150.81
324.024	197.81
324.253	393.81
324.482	843.81
324.71	1790.81
324.939	2324.81
325.168	852.81
325.397	261.81
325.626	159.81
325.855	134.81
326.084	132.81
326.313	119.81
326.542	151.81
326.77	219.81
326.999	486.81
327.228	983.81
327.457	1828.81
327.686	1461.81
327.914	409.81
328.143	189.81
328.372	151.81
328.6	111.81
328.829	127.81
329.058	122.81
329.287	117.81
329.515	106.81
329.744	101.81
329.972	106.81
330.201	113.81
330.43	122.81
330.658	132.81
330.887	138.81
331.115	135.81
331.344	109.81
331.572	107.81
331.801	103.81
332.03	88.81
332.258	105.81
332.486	100.81
332.715	89.81
332.943	93.81
333.172	109.81
333.4	83.81
333.629	103.81
333.857	112.81
334.085	107.81
334.314	94.81
334.542	112.81
334.771	109.81
334.999	89.81
335.227	91.81
335.455	100.81
335.684	107.81
335.912	101.81
336.14	105.81
336.369	84.81
336.597	99.81
336.825	106.81
337.053	89.81
337.281	86.81
337.51	90.81
337.738	87.81
337.966	96.81
338.194	91.81
338.422	92.81
338.65	96.81
338.878	91.81
339.106	92.81
339.334	85.81
339.562	104.81
339.79	90.81
340.018	84.81
340.246	91.81
340.474	81.81
340.702	97.81
340.93	100.81
341.158	85.81
341.386	92.81
341.614	89.81
341.842	104.81
342.07	115.81
342.298	71.81
342.526	106.81
342.754	89.81
342.981	88.81
343.209	89.81
343.437	94.81
343.665	86.81
343.893	90.81
344.12	88.81
344.348	91.81
344.576	81.81
344.804	101.81
345.031	94.81
345.259	105.81
345.487	101.81
345.714	83.81
345.942	68.81
346.17	87.81
346.397	97.81
346.625	105.81
346.853	105.81
347.08	97.81
347.308	95.81
347.535	95.81
347.763	98.81
347.99	96.81
348.218	103.81
348.445	116.81
348.673	95.81
348.9	113.81
349.128	100.81
349.355	105.81
349.583	100.81
349.81	96.81
350.037	90.81
350.265	101.81
350.492	93.81
350.72	102.81
350.947	93.81
351.174	101.81
351.402	107.81
351.629	102.81
351.856	104.81
352.083	112.81
352.311	103.81
352.538	95.81
352.765	105.81
352.992	115.81
353.22	114.81
353.447	105.81
353.674	99.81
353.901	104.81
354.128	111.81
354.355	95.81
354.583	97.81
354.81	104.81
355.037	92.81
355.264	101.81
355.491	92.81
355.718	74.81
355.945	99.81
356.172	90.81
356.399	111.81
356.626	98.81
356.853	96.81
357.08	99.81
357.307	87.81
357.534	91.81
357.761	83.81
357.988	101.81
358.215	98.81
358.441	84.81
358.668	91.81
358.895	85.81
359.122	101.81
359.349	100.81
359.576	94.81
359.802	92.81
360.029	104.81
360.256	101.81
360.483	107.81
360.709	95.81
360.936	82.81
361.163	95.81
361.39	98.81
361.616	87.81
361.843	91.81
362.07	97.81
362.296	93.81
362.523	84.81
362.749	101.81
362.976	98.81
363.203	99.81
363.429	96.81
363.656	102.81
363.882	95.81
364.109	86.81
364.335	99.81
364.562	109.81
364.788	95.81
365.015	100.81
365.241	112.81
365.468	109.81
365.694	91.81
365.92	92.81
366.147	75.81
366.373	84.81
366.599	82.81
366.826	96.81
367.052	107.81
367.278	95.81
367.505	94.81
367.731	94.81
367.957	89.81
368.184	92.81
368.41	92.81
368.636	109.81
368.862	125.81
369.089	115.81
369.315	106.81
369.541	96.81
369.767	89.81
369.993	77.81
370.219	99.81
370.445	79.81
370.672	84.81
370.898	103.81
371.124	101.81
371.35	93.81
371.576	90.81
371.802	90.81
372.028	97.81
372.254	96.81
372.48	100.81
372.706	90.81
372.932	85.81
373.158	66.81
373.384	77.81
373.61	103.81
373.835	95.81
374.061	104.81
374.287	95.81
374.513	90.81
374.739	87.81
374.965	77.81
375.191	79.81
375.416	90.81
375.642	103.81
375.868	92.81
376.094	90.81
376.319	101.81
376.545	97.81
376.771	99.81
376.997	93.81
377.222	95.81
377.448	104.81
377.674	94.81
377.899	82.81
378.125	88.81
378.35	93.81
378.576	93.81
378.802	89.81
379.027	84.81
379.253	92.81
379.478	92.81
379.704	91.81
379.929	92.81
380.155	83.81
380.38	103.81
380.606	109.81
380.831	106.81
381.057	113.81
381.282	103.81
381.507	86.81
381.733	94.81
381.958	92.81
382.184	86.81
382.409	100.81
382.634	105.81
382.86	95.81
383.085	109.81
383.31	106.81
383.535	91.81
383.761	97.81
383.986	91.81
384.211	99.81
384.436	111.81
384.662	96.81
384.887	92.81
385.112	99.81
385.337	99.81
385.562	93.81
385.787	99.81
386.013	97.81
386.238	111.81
386.463	121.81
386.688	104.81
386.913	95.81
387.138	104.81
387.363	101.81
387.588	88.81
387.813	84.81
388.038	106.81
388.263	96.81
388.488	95.81
388.713	94.81
388.938	101.81
389.163	108.81
389.387	102.81
389.612	79.81
389.837	89.81
390.062	91.81
390.287	82.81
390.512	97.81
390.736	83.81
390.961	79.81
391.186	96.81
391.411	98.81
391.636	103.81
391.86	79.81
392.085	98.81
392.31	87.81
392.534	84.81
392.759	97.81
392.984	79.81
393.208	80.81
393.433	79.81
393.658	87.81
393.882	92.81
394.107	90.81
394.331	89.81
394.556	76.81
394.78	79.81
395.005	85.81
395.229	89.81
395.454	106.81
395.678	79.81
395.903	77.81
396.127	75.81
396.352	95.81
396.576	93.81
396.801	88.81
397.025	84.81
397.249	91.81
397.474	96.81
397.698	101.81
397.922	86.81
398.147	89.81
398.371	100.81
398.595	85.81
398.82	87.81
399.044	88.81
399.268	69.81
399.492	77.81
399.717	108.81
399.941	97.81
400.165	90.81
400.389	98.81
400.613	87.81
400.837	72.81
401.062	99.81
401.286	95.81
401.51	105.81
401.734	86.81
401.958	102.81
402.182	111.81
402.406	168.81
402.63	112.81
402.854	89.81
403.078	88.81
403.302	74.81
403.526	91.81
403.75	92.81
403.974	90.81
404.198	76.81
404.422	88.81
404.645	85.81
404.869	109.81
405.093	100.81
405.317	89.81
405.541	91.81
405.765	115.81
405.988	107.81
406.212	167.81
406.436	234.81
406.66	151.81
406.883	109.81
407.107	88.81
407.331	99.81
407.555	93.81
407.778	92.81
408.002	96.81
408.226	94.81
408.449	89.81
408.673	98.81
408.896	91.81
409.12	100.81
409.344	89.81
409.567	88.81
409.791	86.81
410.014	101.81
410.238	79.81
410.461	80.81
410.685	99.81
410.908	103.81
411.132	91.81
411.355	99.81
411.578	97.81
411.802	95.81
412.025	92.81
412.249	101.81
412.472	87.81
412.695	74.81
412.919	81.81
413.142	83.81
413.365	96.81
413.589	87.81
413.812	92.81
414.035	101.81
414.258	80.81
414.482	91.81
414.705	84.81
414.928	97.81
415.151	102.81
415.374	104.81
415.597	91.81
415.821	99.81
416.044	85.81
416.267	84.81
416.49	83.81
416.713	88.81
416.936	95.81
417.159	81.81
417.382	79.81
417.605	93.81
417.828	93.81
418.051	93.81
418.274	97.81
418.497	81.81
418.72	93.81
418.943	88.81
419.166	95.81
419.389	93.81
419.611	99.81
419.834	99.81
420.057	70.81
420.28	81.81
420.503	91.81
420.726	92.81
420.948	91.81
421.171	90.81
421.394	84.81
421.617	87.81
421.839	83.81
422.062	95.81
422.285	84.81
422.507	93.81
422.73	103.81
422.953	85.81
423.175	91.81
423.398	100.81
423.621	97.81
423.843	92.81
424.066	99.81
424.288	83.81
424.511	96.81
424.733	90.81
424.956	103.81
425.178	103.81
425.401	101.81
425.623	101.81
425.846	102.81
426.068	105.81
426.291	94.81
426.513	88.81
426.735	97.81
426.958	99.81
427.18	113.81
427.402	125.81
427.625	164.81
427.847	129.81
428.069	105.81
428.292	97.81
428.514	74.81
428.736	95.81
428.958	84.81
429.181	81.81
429.403	85.81
429.625	103.81
429.847	83.81
430.069	101.81
430.292	97.81
430.514	85.81
430.736	74.81
430.958	88.81
431.18	79.81
431.402	89.81
431.624	71.81
431.846	83.81
432.068	87.81
432.29	96.81
432.512	73.81
432.734	87.81
432.956	84.81
433.178	95.81
433.4	119.81
433.622	84.81
433.844	102.81
434.066	97.81
434.287	82.81
434.509	91.81
434.731	98.81
434.953	91.81
435.175	76.81
435.397	98.81
435.618	96.81
435.84	108.81
436.062	127.81
436.284	124.81
436.505	109.81
436.727	113.81
436.949	95.81
437.17	85.81
437.392	102.81
437.614	100.81
437.835	111.81
438.057	130.81
438.278	100.81
438.5	108.81
438.721	125.81
438.943	102.81
439.165	86.81
439.386	85.81
439.608	97.81
439.829	88.81
440.05	116.81
440.272	147.81
440.493	96.81
440.715	91.81
440.936	85.81
441.158	84.81
441.379	91.81
441.6	94.81
441.822	99.81
442.043	88.81
442.264	97.81
442.486	108.81
442.707	90.81
442.928	99.81
443.149	125.81
443.371	139.81
443.592	119.81
443.813	118.81
444.034	107.81
444.255	92.81
444.476	89.81
444.698	84.81
444.919	79.81
445.14	115.81
445.361	111.81
445.582	116.81
445.803	127.81
446.024	135.81
446.245	135.81
446.466	115.81
446.687	86.81
446.908	82.81
447.129	83.81
447.35	92.81
447.571	85.81
447.792	80.81
448.013	108.81
448.234	114.81
448.455	98.81
448.675	107.81
448.896	113.81
449.117	98.81
449.338	105.81
449.559	133.81
449.779	138.81
450	98.81
450.221	89.81
450.442	79.81
450.662	104.81
450.883	113.81
451.104	100.81
451.324	83.81
451.545	85.81
451.766	82.81
451.986	79.81
452.207	80.81
452.428	99.81
452.648	85.81
452.869	95.81
453.089	108.81
453.31	112.81
453.53	84.81
453.751	93.81
453.971	122.81
454.192	119.81
454.412	76.81
454.633	95.81
454.853	81.81
455.073	85.81
455.294	84.81
455.514	95.81
455.734	80.81
455.955	86.81
456.175	88.81
456.395	91.81
456.616	81.81
456.836	91.81
457.056	88.81
457.276	84.81
457.497	88.81
457.717	83.81
457.937	72.81
458.157	109.81
458.377	89.81
458.598	87.81
458.818	148.81
459.038	147.81
459.258	99.81
459.478	91.81
459.698	83.81
459.918	80.81
460.138	87.81
460.358	75.81
460.578	84.81
460.798	95.81
461.018	97.81
461.238	91.81
461.458	74.81
461.678	97.81
461.898	92.81
462.118	85.81
462.338	89.81
462.558	67.81
462.777	107.81
462.997	105.81
463.217	94.81
463.437	90.81
463.657	83.81
463.876	76.81
464.096	88.81
464.316	95.81
464.536	105.81
464.755	81.81
464.975	109.81
465.195	174.81
465.414	149.81
465.634	76.81
465.854	81.81
466.073	103.81
466.293	79.81
466.512	79.81
466.732	97.81
466.951	101.81
467.171	91.81
467.391	89.81
467.61	100.81
467.829	116.81
468.049	75.81
468.268	100.81
468.488	95.81
468.707	106.81
468.927	80.81
469.146	95.81
469.365	79.81
469.585	93.81
469.804	73.81
470.023	106.81
470.243	109.81
470.462	95.81
470.681	105.81
470.901	97.81
471.12	87.81
471.339	98.81
471.558	77.81
471.777	79.81
471.997	93.81
472.216	77.81
472.435	95.81
472.654	85.81
472.873	83.81
473.092	80.81
473.311	80.81
473.53	98.81
473.749	92.81
473.968	94.81
474.187	115.81
474.406	98.81
474.625	95.81
474.844	84.81
475.063	93.81
475.282	92.81
475.501	93.81
475.72	83.81
475.939	78.81
476.158	83.81
476.377	99.81
476.596	107.81
476.814	90.81
477.033	96.81
477.252	80.81
477.471	89.81
477.69	89.81
477.908	93.81
478.127	93.81
478.346	70.81
478.564	81.81
478.783	97.81
479.002	109.81
479.22	75.81
479.439	100.81
479.658	104.81
479.876	103.81
480.095	97.81
480.313	90.81
480.532	96.81
480.751	97.81
480.969	99.81
481.188	105.81
481.406	105.81
481.624	91.81
481.843	87.81
482.061	102.81
482.28	81.81
482.498	89.81
482.717	96.81
482.935	94.81
483.153	83.81
483.372	100.81
483.59	95.81
483.808	98.81
484.027	102.81
484.245	103.81
484.463	90.81
484.681	102.81
484.9	91.81
485.118	99.81
485.336	98.81
485.554	100.81
485.772	102.81
485.99	114.81
486.209	103.81
486.427	105.81
486.645	116.81
486.863	105.81
487.081	85.81
487.299	113.81
487.517	87.81
487.735	83.81
487.953	82.81
488.171	103.81
488.389	103.81
488.607	98.81
488.825	97.81
489.043	93.81
489.261	99.81
489.479	91.81
489.696	93.81
489.914	94.81
490.132	92.81
490.35	83.81
490.568	91.81
490.786	88.81
491.003	88.81
491.221	86.81
491.439	90.81
491.657	104.81
491.874	97.81
492.092	103.81
492.31	93.81
492.527	86.81
492.745	95.81
492.963	87.81
493.18	83.81
493.398	81.81
493.615	100.81
493.833	83.81
494.05	85.81
494.268	96.81
494.485	91.81
494.703	96.81
494.92	90.81
495.138	86.81
495.355	103.81
495.573	97.81
495.79	94.81
496.008	104.81
496.225	102.81
496.442	91.81
496.66	94.81
496.877	100.81
497.094	88.81
497.312	84.81
497.529	103.81
497.746	95.81
497.963	98.81
498.181	90.81
498.398	99.81
498.615	107.81
498.832	92.81
499.049	73.81
499.267	84.81
499.484	89.81
499.701	86.81
499.918	88.81
500.135	98.81
500.352	109.81
500.569	98.81
500.786	86.81
501.003	88.81
501.22	101.81
501.437	98.81
501.654	108.81
501.871	87.81
502.088	92.81
502.305	96.81
502.522	84.81
502.739	101.81
502.956	88.81
503.172	89.81
503.389	91.81
503.606	99.81
503.823	99.81
504.04	102.81
504.256	99.81
504.473	99.81
504.69	87.81
504.907	102.81
505.123	94.81
505.34	87.81
505.557	81.81
505.773	94.81
505.99	86.81
506.207	92.81
506.423	83.81
506.64	90.81
506.856	90.81
507.073	90.81
507.289	95.81
507.506	115.81
507.722	104.81
507.939	103.81
508.155	106.81
508.372	100.81
508.588	105.81
508.805	103.81
509.021	97.81
509.238	100.81
509.454	98.81
509.67	108.81
509.887	109.81
510.103	127.81
510.319	225.81
510.536	791.81
510.752	2521.81
510.968	675.81
511.184	179.81
511.401	104.81
511.617	81.81
511.833	89.81
512.049	84.81
512.265	93.81
512.481	91.81
512.698	85.81
512.914	89.81
513.13	83.81
513.346	96.81
513.562	90.81
513.778	97.81
513.994	92.81
514.21	93.81
514.426	105.81
514.642	132.81
514.858	123.81
515.074	162.81
515.29	461.81
