Data from Uncirc_1984_H10_HRD10591_00082.txt Node
Date: Wed Jan 03 12:21:53 EST 2024
User: Yrep
Spectrometer: HR+D1059
Trigger mode: 1
Integration Time (sec): 1.000000E-1
Scans to average: 1
Electric dark correction enabled: true
Nonlinearity correction enabled: false
Boxcar width: 0
XAxis mode: Wavelengths
Number of Pixels in Spectrum: 2048
>>>>>Begin Spectral Data<<<<<
223.165	-16.38
223.4	-16.38
223.635	-16.38
223.869	-22.38
224.104	-15.38
224.338	-2.38
224.573	-8.38
224.808	-17.38
225.042	-20.38
225.277	-9.38
225.511	1.62
225.746	-3.38
225.98	-3.38
226.215	16.62
226.449	11.62
226.683	20.62
226.918	21.62
227.152	46.62
227.387	31.62
227.621	44.62
227.856	52.62
228.09	45.62
228.324	54.62
228.559	75.62
228.793	69.62
229.027	75.62
229.262	77.62
229.496	85.62
229.73	86.62
229.964	84.62
230.199	91.62
230.433	71.62
230.667	68.62
230.901	87.62
231.136	89.62
231.37	81.62
231.604	86.62
231.838	84.62
232.072	75.62
232.306	97.62
232.541	94.62
232.775	85.62
233.009	84.62
233.243	104.62
233.477	77.62
233.711	79.62
233.945	78.62
234.179	95.62
234.413	86.62
234.647	81.62
234.881	85.62
235.115	82.62
235.349	88.62
235.583	76.62
235.817	72.62
236.051	78.62
236.285	79.62
236.519	84.62
236.753	82.62
236.987	78.62
237.221	92.62
237.455	90.62
237.689	85.62
237.922	85.62
238.156	73.62
238.39	87.62
238.624	78.62
238.858	93.62
239.091	75.62
239.325	81.62
239.559	93.62
239.793	70.62
240.027	78.62
240.26	81.62
240.494	91.62
240.728	92.62
240.961	77.62
241.195	89.62
241.429	77.62
241.662	73.62
241.896	75.62
242.13	72.62
242.363	73.62
242.597	75.62
242.83	74.62
243.064	73.62
243.298	76.62
243.531	93.62
243.765	87.62
243.998	97.62
244.232	86.62
244.465	93.62
244.699	85.62
244.932	75.62
245.166	85.62
245.399	97.62
245.633	81.62
245.866	76.62
246.099	81.62
246.333	86.62
246.566	86.62
246.8	95.62
247.033	90.62
247.266	82.62
247.5	84.62
247.733	71.62
247.966	70.62
248.2	90.62
248.433	82.62
248.666	70.62
248.899	75.62
249.133	95.62
249.366	85.62
249.599	104.62
249.832	87.62
250.066	77.62
250.299	73.62
250.532	75.62
250.765	90.62
250.998	69.62
251.231	81.62
251.465	79.62
251.698	77.62
251.931	74.62
252.164	87.62
252.397	94.62
252.63	87.62
252.863	73.62
253.096	94.62
253.329	89.62
253.562	72.62
253.795	82.62
254.028	78.62
254.261	77.62
254.494	90.62
254.727	88.62
254.96	78.62
255.193	76.62
255.426	77.62
255.659	82.62
255.892	74.62
256.124	87.62
256.357	76.62
256.59	76.62
256.823	78.62
257.056	81.62
257.289	77.62
257.521	89.62
257.754	82.62
257.987	93.62
258.22	84.62
258.452	76.62
258.685	73.62
258.918	79.62
259.151	71.62
259.383	74.62
259.616	86.62
259.849	84.62
260.081	83.62
260.314	91.62
260.547	75.62
260.779	81.62
261.012	97.62
261.244	83.62
261.477	101.62
261.71	100.62
261.942	114.62
262.175	124.62
262.407	89.62
262.64	86.62
262.872	94.62
263.105	78.62
263.337	72.62
263.57	74.62
263.802	85.62
264.035	87.62
264.267	104.62
264.499	90.62
264.732	82.62
264.964	88.62
265.197	91.62
265.429	94.62
265.661	76.62
265.894	83.62
266.126	83.62
266.358	84.62
266.591	78.62
266.823	89.62
267.055	76.62
267.287	85.62
267.52	73.62
267.752	93.62
267.984	93.62
268.216	68.62
268.448	77.62
268.681	82.62
268.913	86.62
269.145	93.62
269.377	98.62
269.609	84.62
269.841	89.62
270.073	95.62
270.306	95.62
270.538	77.62
270.77	87.62
271.002	79.62
271.234	81.62
271.466	94.62
271.698	96.62
271.93	85.62
272.162	88.62
272.394	82.62
272.626	88.62
272.858	98.62
273.09	79.62
273.322	85.62
273.553	84.62
273.785	93.62
274.017	95.62
274.249	74.62
274.481	77.62
274.713	76.62
274.945	94.62
275.176	78.62
275.408	84.62
275.64	89.62
275.872	87.62
276.104	87.62
276.335	99.62
276.567	97.62
276.799	123.62
277.031	96.62
277.262	79.62
277.494	83.62
277.726	93.62
277.957	74.62
278.189	93.62
278.421	82.62
278.652	76.62
278.884	94.62
279.115	94.62
279.347	101.62
279.579	100.62
279.81	96.62
280.042	91.62
280.273	94.62
280.505	91.62
280.736	93.62
280.968	94.62
281.199	98.62
281.431	77.62
281.662	92.62
281.894	84.62
282.125	89.62
282.356	116.62
282.588	151.62
282.819	136.62
283.051	105.62
283.282	95.62
283.513	85.62
283.745	81.62
283.976	100.62
284.207	81.62
284.439	87.62
284.67	82.62
284.901	81.62
285.132	85.62
285.364	100.62
285.595	91.62
285.826	83.62
286.057	92.62
286.288	83.62
286.52	101.62
286.751	93.62
286.982	93.62
287.213	94.62
287.444	97.62
287.675	91.62
287.906	88.62
288.138	83.62
288.369	101.62
288.6	100.62
288.831	97.62
289.062	94.62
289.293	87.62
289.524	96.62
289.755	82.62
289.986	89.62
290.217	88.62
290.448	95.62
290.679	90.62
290.91	109.62
291.141	96.62
291.371	102.62
291.602	100.62
291.833	79.62
292.064	83.62
292.295	101.62
292.526	93.62
292.757	89.62
292.987	95.62
293.218	97.62
293.449	91.62
293.68	98.62
293.91	75.62
294.141	86.62
294.372	86.62
294.603	85.62
294.833	99.62
295.064	81.62
295.295	94.62
295.525	90.62
295.756	101.62
295.987	121.62
296.217	147.62
296.448	125.62
296.679	94.62
296.909	99.62
297.14	87.62
297.37	107.62
297.601	94.62
297.831	89.62
298.062	92.62
298.292	94.62
298.523	89.62
298.753	90.62
298.984	84.62
299.214	98.62
299.445	92.62
299.675	76.62
299.905	83.62
300.136	81.62
300.366	87.62
300.597	76.62
300.827	97.62
301.057	98.62
301.288	98.62
301.518	93.62
301.748	107.62
301.979	93.62
302.209	102.62
302.439	103.62
302.669	93.62
302.9	92.62
303.13	105.62
303.36	104.62
303.59	109.62
303.82	112.62
304.051	103.62
304.281	89.62
304.511	101.62
304.741	92.62
304.971	93.62
305.201	107.62
305.431	93.62
305.661	94.62
305.891	87.62
306.121	96.62
306.352	103.62
306.582	99.62
306.812	93.62
307.042	83.62
307.272	97.62
307.502	101.62
307.731	101.62
307.961	78.62
308.191	88.62
308.421	84.62
308.651	91.62
308.881	89.62
309.111	93.62
309.341	95.62
309.571	97.62
309.8	98.62
310.03	97.62
310.26	106.62
310.49	82.62
310.72	85.62
310.949	105.62
311.179	114.62
311.409	105.62
311.639	98.62
311.868	91.62
312.098	102.62
312.328	103.62
312.557	98.62
312.787	122.62
313.017	100.62
313.246	104.62
313.476	101.62
313.706	104.62
313.935	97.62
314.165	99.62
314.394	101.62
314.624	107.62
314.853	97.62
315.083	89.62
315.312	90.62
315.542	93.62
315.771	103.62
316.001	86.62
316.23	98.62
316.46	85.62
316.689	103.62
316.919	110.62
317.148	88.62
317.377	103.62
317.607	90.62
317.836	81.62
318.065	102.62
318.295	92.62
318.524	90.62
318.753	93.62
318.983	95.62
319.212	110.62
319.441	102.62
319.67	106.62
319.9	95.62
320.129	85.62
320.358	87.62
320.587	97.62
320.816	106.62
321.046	100.62
321.275	105.62
321.504	94.62
321.733	109.62
321.962	98.62
322.191	109.62
322.42	103.62
322.649	105.62
322.878	114.62
323.108	113.62
323.337	127.62
323.566	141.62
323.795	173.62
324.024	232.62
324.253	423.62
324.482	889.62
324.71	1841.62
324.939	2517.62
325.168	913.62
325.397	259.62
325.626	157.62
325.855	143.62
326.084	140.62
326.313	120.62
326.542	168.62
326.77	233.62
326.999	478.62
327.228	1029.62
327.457	1921.62
327.686	1546.62
327.914	404.62
328.143	194.62
328.372	154.62
328.6	151.62
328.829	115.62
329.058	124.62
329.287	139.62
329.515	111.62
329.744	108.62
329.972	108.62
330.201	114.62
330.43	109.62
330.658	115.62
330.887	140.62
331.115	121.62
331.344	115.62
331.572	118.62
331.801	102.62
332.03	99.62
332.258	106.62
332.486	100.62
332.715	99.62
332.943	109.62
333.172	111.62
333.4	104.62
333.629	99.62
333.857	105.62
334.085	102.62
334.314	107.62
334.542	80.62
334.771	101.62
334.999	106.62
335.227	92.62
335.455	98.62
335.684	102.62
335.912	92.62
336.14	98.62
336.369	110.62
336.597	93.62
336.825	104.62
337.053	103.62
337.281	101.62
337.51	96.62
337.738	96.62
337.966	97.62
338.194	104.62
338.422	98.62
338.65	94.62
338.878	89.62
339.106	100.62
339.334	104.62
339.562	78.62
339.79	93.62
340.018	91.62
340.246	85.62
340.474	81.62
340.702	84.62
340.93	93.62
341.158	104.62
341.386	100.62
341.614	102.62
341.842	95.62
342.07	92.62
342.298	94.62
342.526	92.62
342.754	92.62
342.981	97.62
343.209	83.62
343.437	108.62
343.665	86.62
343.893	85.62
344.12	89.62
344.348	98.62
344.576	99.62
344.804	94.62
345.031	105.62
345.259	101.62
345.487	88.62
345.714	76.62
345.942	96.62
346.17	97.62
346.397	92.62
346.625	96.62
346.853	93.62
347.08	103.62
347.308	102.62
347.535	98.62
347.763	105.62
347.99	103.62
348.218	126.62
348.445	95.62
348.673	105.62
348.9	104.62
349.128	98.62
349.355	93.62
349.583	85.62
349.81	100.62
350.037	91.62
350.265	102.62
350.492	103.62
350.72	106.62
350.947	111.62
351.174	103.62
351.402	114.62
351.629	96.62
351.856	113.62
352.083	117.62
352.311	123.62
352.538	110.62
352.765	111.62
352.992	97.62
353.22	113.62
353.447	104.62
353.674	106.62
353.901	108.62
354.128	106.62
354.355	94.62
354.583	93.62
354.81	100.62
355.037	97.62
355.264	89.62
355.491	104.62
355.718	102.62
355.945	111.62
356.172	93.62
356.399	115.62
356.626	91.62
356.853	104.62
357.08	86.62
357.307	97.62
357.534	79.62
357.761	90.62
357.988	97.62
358.215	100.62
358.441	77.62
358.668	96.62
358.895	92.62
359.122	96.62
359.349	102.62
359.576	100.62
359.802	99.62
360.029	106.62
360.256	117.62
360.483	110.62
360.709	87.62
360.936	91.62
361.163	85.62
361.39	98.62
361.616	106.62
361.843	101.62
362.07	102.62
362.296	99.62
362.523	89.62
362.749	90.62
362.976	72.62
363.203	93.62
363.429	92.62
363.656	111.62
363.882	90.62
364.109	108.62
364.335	95.62
364.562	82.62
364.788	103.62
365.015	84.62
365.241	93.62
365.468	97.62
365.694	104.62
365.92	105.62
366.147	102.62
366.373	93.62
366.599	86.62
366.826	89.62
367.052	87.62
367.278	109.62
367.505	93.62
367.731	90.62
367.957	83.62
368.184	101.62
368.41	106.62
368.636	110.62
368.862	114.62
369.089	110.62
369.315	100.62
369.541	98.62
369.767	102.62
369.993	98.62
370.219	87.62
370.445	87.62
370.672	95.62
370.898	91.62
371.124	83.62
371.35	95.62
371.576	81.62
371.802	86.62
372.028	90.62
372.254	101.62
372.48	102.62
372.706	91.62
372.932	94.62
373.158	86.62
373.384	86.62
373.61	82.62
373.835	80.62
374.061	103.62
374.287	100.62
374.513	93.62
374.739	93.62
374.965	91.62
375.191	93.62
375.416	91.62
375.642	94.62
375.868	96.62
376.094	106.62
376.319	90.62
376.545	90.62
376.771	87.62
376.997	91.62
377.222	97.62
377.448	101.62
377.674	92.62
377.899	94.62
378.125	99.62
378.35	101.62
378.576	99.62
378.802	93.62
379.027	93.62
379.253	107.62
379.478	70.62
379.704	89.62
379.929	90.62
380.155	101.62
380.38	100.62
380.606	85.62
380.831	110.62
381.057	89.62
381.282	85.62
381.507	82.62
381.733	100.62
381.958	97.62
382.184	91.62
382.409	101.62
382.634	79.62
382.86	104.62
383.085	99.62
383.31	95.62
383.535	106.62
383.761	87.62
383.986	106.62
384.211	95.62
384.436	102.62
384.662	109.62
384.887	93.62
385.112	93.62
385.337	96.62
385.562	105.62
385.787	99.62
386.013	113.62
386.238	116.62
386.463	117.62
386.688	111.62
386.913	89.62
387.138	98.62
387.363	101.62
387.588	105.62
387.813	108.62
388.038	102.62
388.263	117.62
388.488	97.62
388.713	98.62
388.938	97.62
389.163	97.62
389.387	93.62
389.612	104.62
389.837	92.62
390.062	87.62
390.287	93.62
390.512	96.62
390.736	91.62
390.961	94.62
391.186	86.62
391.411	84.62
391.636	91.62
391.86	98.62
392.085	86.62
392.31	85.62
392.534	85.62
392.759	91.62
392.984	93.62
393.208	92.62
393.433	85.62
393.658	89.62
393.882	86.62
394.107	88.62
394.331	93.62
394.556	86.62
394.78	98.62
395.005	105.62
395.229	82.62
395.454	104.62
395.678	93.62
395.903	100.62
396.127	94.62
396.352	82.62
396.576	94.62
396.801	71.62
397.025	82.62
397.249	102.62
397.474	97.62
397.698	95.62
397.922	92.62
398.147	89.62
398.371	87.62
398.595	92.62
398.82	78.62
399.044	83.62
399.268	86.62
399.492	79.62
399.717	109.62
399.941	100.62
400.165	94.62
400.389	93.62
400.613	97.62
400.837	88.62
401.062	86.62
401.286	95.62
401.51	101.62
401.734	101.62
401.958	105.62
402.182	142.62
402.406	153.62
402.63	125.62
402.854	91.62
403.078	81.62
403.302	83.62
403.526	77.62
403.75	106.62
403.974	91.62
404.198	83.62
404.422	78.62
404.645	83.62
404.869	96.62
405.093	98.62
405.317	94.62
405.541	97.62
405.765	95.62
405.988	130.62
406.212	181.62
406.436	239.62
406.66	154.62
406.883	99.62
407.107	97.62
407.331	103.62
407.555	114.62
407.778	90.62
408.002	91.62
408.226	102.62
408.449	89.62
408.673	92.62
408.896	91.62
409.12	91.62
409.344	71.62
409.567	92.62
409.791	89.62
410.014	103.62
410.238	95.62
410.461	103.62
410.685	94.62
410.908	99.62
411.132	105.62
411.355	118.62
411.578	89.62
411.802	89.62
412.025	95.62
412.249	104.62
412.472	89.62
412.695	81.62
412.919	94.62
413.142	84.62
413.365	89.62
413.589	93.62
413.812	95.62
414.035	95.62
414.258	86.62
414.482	94.62
414.705	97.62
414.928	91.62
415.151	86.62
415.374	85.62
415.597	81.62
415.821	77.62
416.044	98.62
416.267	88.62
416.49	86.62
416.713	99.62
416.936	95.62
417.159	92.62
417.382	110.62
417.605	105.62
417.828	93.62
418.051	94.62
418.274	97.62
418.497	95.62
418.72	91.62
418.943	99.62
419.166	98.62
419.389	86.62
419.611	102.62
419.834	93.62
420.057	89.62
420.28	95.62
420.503	95.62
420.726	77.62
420.948	105.62
421.171	105.62
421.394	99.62
421.617	93.62
421.839	100.62
422.062	78.62
422.285	109.62
422.507	117.62
422.73	110.62
422.953	93.62
423.175	97.62
423.398	88.62
423.621	93.62
423.843	109.62
424.066	98.62
424.288	93.62
424.511	95.62
424.733	105.62
424.956	116.62
425.178	97.62
425.401	98.62
425.623	107.62
425.846	87.62
426.068	99.62
426.291	100.62
426.513	93.62
426.735	98.62
426.958	86.62
427.18	95.62
427.402	145.62
427.625	178.62
427.847	133.62
428.069	101.62
428.292	86.62
428.514	81.62
428.736	77.62
428.958	86.62
429.181	69.62
429.403	83.62
429.625	85.62
429.847	99.62
430.069	117.62
430.292	101.62
430.514	94.62
430.736	89.62
430.958	85.62
431.18	102.62
431.402	83.62
431.624	85.62
431.846	85.62
432.068	73.62
432.29	81.62
432.512	92.62
432.734	78.62
432.956	90.62
433.178	107.62
433.4	101.62
433.622	101.62
433.844	98.62
434.066	99.62
434.287	93.62
434.509	90.62
434.731	105.62
434.953	90.62
435.175	91.62
435.397	94.62
435.618	107.62
435.84	111.62
436.062	138.62
436.284	128.62
436.505	115.62
436.727	106.62
436.949	106.62
437.17	98.62
437.392	98.62
437.614	100.62
437.835	114.62
438.057	121.62
438.278	110.62
438.5	107.62
438.721	130.62
438.943	121.62
439.165	98.62
439.386	82.62
439.608	107.62
439.829	108.62
440.05	125.62
440.272	161.62
440.493	122.62
440.715	91.62
440.936	98.62
441.158	81.62
441.379	88.62
441.6	105.62
441.822	92.62
442.043	100.62
442.264	110.62
442.486	105.62
442.707	113.62
442.928	97.62
443.149	126.62
443.371	140.62
443.592	107.62
443.813	129.62
444.034	127.62
444.255	101.62
444.476	101.62
444.698	96.62
444.919	98.62
445.14	133.62
445.361	126.62
445.582	117.62
445.803	157.62
446.024	147.62
446.245	154.62
446.466	121.62
446.687	82.62
446.908	96.62
447.129	89.62
447.35	87.62
447.571	92.62
447.792	91.62
448.013	98.62
448.234	106.62
448.455	100.62
448.675	131.62
448.896	125.62
449.117	131.62
449.338	106.62
449.559	145.62
449.779	149.62
450	106.62
450.221	81.62
450.442	91.62
450.662	98.62
450.883	104.62
451.104	119.62
451.324	99.62
451.545	84.62
451.766	97.62
451.986	98.62
452.207	81.62
452.428	104.62
452.648	105.62
452.869	119.62
453.089	121.62
453.31	111.62
453.53	97.62
453.751	98.62
453.971	106.62
454.192	124.62
454.412	99.62
454.633	87.62
454.853	82.62
455.073	99.62
455.294	103.62
455.514	101.62
455.734	89.62
455.955	92.62
456.175	70.62
456.395	89.62
456.616	95.62
456.836	82.62
457.056	84.62
457.276	86.62
457.497	86.62
457.717	95.62
457.937	87.62
458.157	93.62
458.377	91.62
458.598	120.62
458.818	150.62
459.038	172.62
459.258	126.62
459.478	86.62
459.698	92.62
459.918	85.62
460.138	99.62
460.358	98.62
460.578	101.62
460.798	96.62
461.018	96.62
461.238	75.62
461.458	97.62
461.678	87.62
461.898	93.62
462.118	63.62
462.338	85.62
462.558	83.62
462.777	93.62
462.997	70.62
463.217	94.62
463.437	91.62
463.657	86.62
463.876	81.62
464.096	89.62
464.316	88.62
464.536	107.62
464.755	81.62
464.975	104.62
465.195	168.62
465.414	168.62
465.634	105.62
465.854	96.62
466.073	101.62
466.293	84.62
466.512	98.62
466.732	85.62
466.951	89.62
467.171	97.62
467.391	85.62
467.61	100.62
467.829	105.62
468.049	110.62
468.268	90.62
468.488	87.62
468.707	86.62
468.927	87.62
469.146	73.62
469.365	89.62
469.585	98.62
469.804	107.62
470.023	101.62
470.243	99.62
470.462	106.62
470.681	114.62
470.901	88.62
471.12	93.62
471.339	94.62
471.558	93.62
471.777	90.62
471.997	110.62
472.216	96.62
472.435	111.62
472.654	88.62
472.873	88.62
473.092	95.62
473.311	81.62
473.53	89.62
473.749	91.62
473.968	111.62
474.187	125.62
474.406	105.62
474.625	87.62
474.844	89.62
475.063	75.62
475.282	95.62
475.501	78.62
475.72	93.62
475.939	86.62
476.158	91.62
476.377	88.62
476.596	77.62
476.814	99.62
477.033	99.62
477.252	92.62
477.471	79.62
477.69	97.62
477.908	92.62
478.127	94.62
478.346	89.62
478.564	99.62
478.783	101.62
479.002	97.62
479.22	93.62
479.439	98.62
479.658	97.62
479.876	105.62
480.095	94.62
480.313	83.62
480.532	97.62
480.751	94.62
480.969	101.62
481.188	112.62
481.406	104.62
481.624	92.62
481.843	100.62
482.061	103.62
482.28	103.62
482.498	114.62
482.717	92.62
482.935	82.62
483.153	80.62
483.372	106.62
483.59	86.62
483.808	83.62
484.027	89.62
484.245	106.62
484.463	101.62
484.681	101.62
484.9	98.62
485.118	97.62
485.336	103.62
485.554	121.62
485.772	108.62
485.99	110.62
486.209	98.62
486.427	113.62
486.645	108.62
486.863	109.62
487.081	108.62
487.299	98.62
487.517	92.62
487.735	90.62
487.953	87.62
488.171	100.62
488.389	96.62
488.607	106.62
488.825	90.62
489.043	104.62
489.261	107.62
489.479	93.62
489.696	97.62
489.914	89.62
490.132	95.62
490.35	83.62
490.568	94.62
490.786	92.62
491.003	100.62
491.221	89.62
491.439	95.62
491.657	93.62
491.874	88.62
492.092	94.62
492.31	94.62
492.527	94.62
492.745	87.62
492.963	75.62
493.18	89.62
493.398	96.62
493.615	97.62
493.833	89.62
494.05	93.62
494.268	94.62
494.485	93.62
494.703	97.62
494.92	89.62
495.138	91.62
495.355	94.62
495.573	101.62
495.79	108.62
496.008	77.62
496.225	85.62
496.442	92.62
496.66	82.62
496.877	90.62
497.094	85.62
497.312	99.62
497.529	106.62
497.746	106.62
497.963	78.62
498.181	94.62
498.398	93.62
498.615	109.62
498.832	102.62
499.049	91.62
499.267	105.62
499.484	91.62
499.701	92.62
499.918	85.62
500.135	105.62
500.352	97.62
500.569	87.62
500.786	103.62
501.003	93.62
501.22	106.62
501.437	92.62
501.654	91.62
501.871	113.62
502.088	98.62
502.305	89.62
502.522	85.62
502.739	85.62
502.956	87.62
503.172	82.62
503.389	91.62
503.606	109.62
503.823	96.62
504.04	95.62
504.256	96.62
504.473	83.62
504.69	82.62
504.907	94.62
505.123	85.62
505.34	98.62
505.557	91.62
505.773	107.62
505.99	92.62
506.207	94.62
506.423	98.62
506.64	93.62
506.856	90.62
507.073	103.62
507.289	93.62
507.506	108.62
507.722	116.62
507.939	105.62
508.155	93.62
508.372	82.62
508.588	86.62
508.805	105.62
509.021	105.62
509.238	83.62
509.454	107.62
509.67	101.62
509.887	99.62
510.103	139.62
510.319	223.62
510.536	787.62
510.752	2568.62
510.968	695.62
511.184	148.62
511.401	102.62
511.617	89.62
511.833	114.62
512.049	93.62
512.265	96.62
512.481	83.62
512.698	90.62
512.914	92.62
513.13	103.62
513.346	86.62
513.562	87.62
513.778	86.62
513.994	103.62
514.21	119.62
