Data from Uncirc_1984_H10_HRD10591_00077.txt Node
Date: Wed Jan 03 12:21:52 EST 2024
User: Yrep
Spectrometer: HR+D1059
Trigger mode: 1
Integration Time (sec): 1.000000E-1
Scans to average: 1
Electric dark correction enabled: true
Nonlinearity correction enabled: false
Boxcar width: 0
XAxis mode: Wavelengths
Number of Pixels in Spectrum: 2048
>>>>>Begin Spectral Data<<<<<
223.165	-6.69
223.4	-6.69
223.635	-6.69
223.869	-7.69
224.104	-29.69
224.338	-26.69
224.573	-4.69
224.808	-9.69
225.042	-12.69
225.277	-0.69
225.511	-5.69
225.746	25.31
225.98	6.31
226.215	0.31
226.449	13.31
226.683	31.31
226.918	14.31
227.152	13.31
227.387	33.31
227.621	30.31
227.856	28.31
228.09	43.31
228.324	41.31
228.559	58.31
228.793	54.31
229.027	62.31
229.262	61.31
229.496	67.31
229.73	90.31
229.964	88.31
230.199	70.31
230.433	90.31
230.667	85.31
230.901	84.31
231.136	87.31
231.37	74.31
231.604	82.31
231.838	78.31
232.072	78.31
232.306	86.31
232.541	89.31
232.775	95.31
233.009	73.31
233.243	80.31
233.477	102.31
233.711	72.31
233.945	88.31
234.179	81.31
234.413	97.31
234.647	88.31
234.881	80.31
235.115	86.31
235.349	81.31
235.583	100.31
235.817	75.31
236.051	90.31
236.285	72.31
236.519	75.31
236.753	73.31
236.987	84.31
237.221	92.31
237.455	92.31
237.689	82.31
237.922	77.31
238.156	80.31
238.39	76.31
238.624	74.31
238.858	82.31
239.091	89.31
239.325	94.31
239.559	84.31
239.793	83.31
240.027	77.31
240.26	90.31
240.494	78.31
240.728	85.31
240.961	80.31
241.195	91.31
241.429	77.31
241.662	88.31
241.896	65.31
242.13	76.31
242.363	76.31
242.597	73.31
242.83	81.31
243.064	91.31
243.298	85.31
243.531	73.31
243.765	83.31
243.998	91.31
244.232	84.31
244.465	76.31
244.699	77.31
244.932	91.31
245.166	73.31
245.399	72.31
245.633	85.31
245.866	72.31
246.099	76.31
246.333	83.31
246.566	81.31
246.8	61.31
247.033	74.31
247.266	71.31
247.5	79.31
247.733	71.31
247.966	71.31
248.2	77.31
248.433	98.31
248.666	93.31
248.899	84.31
249.133	80.31
249.366	92.31
249.599	80.31
249.832	76.31
250.066	85.31
250.299	82.31
250.532	81.31
250.765	75.31
250.998	67.31
251.231	81.31
251.465	85.31
251.698	86.31
251.931	69.31
252.164	86.31
252.397	83.31
252.63	75.31
252.863	92.31
253.096	78.31
253.329	84.31
253.562	73.31
253.795	71.31
254.028	84.31
254.261	83.31
254.494	81.31
254.727	80.31
254.96	96.31
255.193	80.31
255.426	83.31
255.659	77.31
255.892	96.31
256.124	88.31
256.357	93.31
256.59	86.31
256.823	78.31
257.056	100.31
257.289	71.31
257.521	77.31
257.754	84.31
257.987	86.31
258.22	73.31
258.452	92.31
258.685	76.31
258.918	65.31
259.151	77.31
259.383	80.31
259.616	75.31
259.849	84.31
260.081	76.31
260.314	84.31
260.547	79.31
260.779	73.31
261.012	83.31
261.244	88.31
261.477	86.31
261.71	76.31
261.942	105.31
262.175	108.31
262.407	88.31
262.64	78.31
262.872	74.31
263.105	80.31
263.337	73.31
263.57	74.31
263.802	84.31
264.035	89.31
264.267	91.31
264.499	82.31
264.732	104.31
264.964	89.31
265.197	89.31
265.429	84.31
265.661	85.31
265.894	81.31
266.126	84.31
266.358	81.31
266.591	94.31
266.823	88.31
267.055	88.31
267.287	79.31
267.52	76.31
267.752	78.31
267.984	81.31
268.216	101.31
268.448	85.31
268.681	98.31
268.913	88.31
269.145	91.31
269.377	90.31
269.609	87.31
269.841	89.31
270.073	85.31
270.306	97.31
270.538	89.31
270.77	82.31
271.002	88.31
271.234	101.31
271.466	81.31
271.698	86.31
271.93	92.31
272.162	99.31
272.394	84.31
272.626	91.31
272.858	84.31
273.09	77.31
273.322	81.31
273.553	78.31
273.785	85.31
274.017	97.31
274.249	77.31
274.481	88.31
274.713	89.31
274.945	93.31
275.176	87.31
275.408	88.31
275.64	88.31
275.872	71.31
276.104	81.31
276.335	90.31
276.567	98.31
276.799	103.31
277.031	111.31
277.262	80.31
277.494	81.31
277.726	81.31
277.957	83.31
278.189	91.31
278.421	105.31
278.652	91.31
278.884	101.31
279.115	92.31
279.347	80.31
279.579	77.31
279.81	94.31
280.042	86.31
280.273	93.31
280.505	99.31
280.736	78.31
280.968	100.31
281.199	90.31
281.431	86.31
281.662	87.31
281.894	96.31
282.125	92.31
282.356	116.31
282.588	116.31
282.819	115.31
283.051	101.31
283.282	83.31
283.513	89.31
283.745	99.31
283.976	92.31
284.207	93.31
284.439	85.31
284.67	92.31
284.901	106.31
285.132	94.31
285.364	81.31
285.595	85.31
285.826	97.31
286.057	90.31
286.288	97.31
286.52	91.31
286.751	76.31
286.982	101.31
287.213	94.31
287.444	82.31
287.675	73.31
287.906	82.31
288.138	86.31
288.369	96.31
288.6	100.31
288.831	78.31
289.062	99.31
289.293	88.31
289.524	91.31
289.755	91.31
289.986	84.31
290.217	82.31
290.448	77.31
290.679	93.31
290.91	92.31
291.141	86.31
291.371	83.31
291.602	92.31
291.833	82.31
292.064	78.31
292.295	86.31
292.526	86.31
292.757	97.31
292.987	96.31
293.218	92.31
293.449	91.31
293.68	96.31
293.91	100.31
294.141	97.31
294.372	84.31
294.603	100.31
294.833	91.31
295.064	97.31
295.295	101.31
295.525	103.31
295.756	94.31
295.987	110.31
296.217	133.31
296.448	131.31
296.679	92.31
296.909	97.31
297.14	93.31
297.37	100.31
297.601	98.31
297.831	89.31
298.062	83.31
298.292	76.31
298.523	82.31
298.753	80.31
298.984	93.31
299.214	91.31
299.445	97.31
299.675	85.31
299.905	94.31
300.136	105.31
300.366	86.31
300.597	108.31
300.827	99.31
301.057	99.31
301.288	94.31
301.518	100.31
301.748	93.31
301.979	107.31
302.209	93.31
302.439	109.31
302.669	100.31
302.9	93.31
303.13	78.31
303.36	96.31
303.59	106.31
303.82	93.31
304.051	97.31
304.281	97.31
304.511	96.31
304.741	96.31
304.971	86.31
305.201	88.31
305.431	104.31
305.661	93.31
305.891	90.31
306.121	115.31
306.352	105.31
306.582	100.31
306.812	89.31
307.042	97.31
307.272	101.31
307.502	91.31
307.731	90.31
307.961	88.31
308.191	96.31
308.421	93.31
308.651	82.31
308.881	103.31
309.111	101.31
309.341	91.31
309.571	106.31
309.8	89.31
310.03	102.31
310.26	93.31
310.49	90.31
310.72	98.31
310.949	97.31
311.179	110.31
311.409	92.31
311.639	99.31
311.868	99.31
312.098	93.31
312.328	91.31
312.557	105.31
312.787	108.31
313.017	112.31
313.246	109.31
313.476	85.31
313.706	98.31
313.935	104.31
314.165	80.31
314.394	103.31
314.624	106.31
314.853	101.31
315.083	96.31
315.312	84.31
315.542	81.31
315.771	88.31
316.001	98.31
316.23	87.31
316.46	83.31
316.689	89.31
316.919	88.31
317.148	82.31
317.377	102.31
317.607	108.31
317.836	91.31
318.065	88.31
318.295	80.31
318.524	94.31
318.753	80.31
318.983	86.31
319.212	104.31
319.441	102.31
319.67	92.31
319.9	112.31
320.129	98.31
320.358	97.31
320.587	114.31
320.816	102.31
321.046	92.31
321.275	97.31
321.504	104.31
321.733	116.31
321.962	91.31
322.191	105.31
322.42	98.31
322.649	101.31
322.878	118.31
323.108	115.31
323.337	126.31
323.566	134.31
323.795	160.31
324.024	208.31
324.253	404.31
324.482	857.31
324.71	1741.31
324.939	2278.31
325.168	828.31
325.397	265.31
325.626	165.31
325.855	138.31
326.084	126.31
326.313	132.31
326.542	158.31
326.77	236.31
326.999	472.31
327.228	970.31
327.457	1784.31
327.686	1411.31
327.914	381.31
328.143	190.31
328.372	142.31
328.6	125.31
328.829	119.31
329.058	99.31
329.287	112.31
329.515	108.31
329.744	99.31
329.972	94.31
330.201	91.31
330.43	101.31
330.658	118.31
330.887	137.31
331.115	117.31
331.344	98.31
331.572	114.31
331.801	110.31
332.03	101.31
332.258	87.31
332.486	80.31
332.715	92.31
332.943	103.31
333.172	105.31
333.4	84.31
333.629	95.31
333.857	100.31
334.085	106.31
334.314	97.31
334.542	100.31
334.771	103.31
334.999	104.31
335.227	93.31
335.455	98.31
335.684	95.31
335.912	101.31
336.14	93.31
336.369	109.31
336.597	94.31
336.825	113.31
337.053	108.31
337.281	100.31
337.51	90.31
337.738	104.31
337.966	104.31
338.194	93.31
338.422	88.31
338.65	86.31
338.878	102.31
339.106	88.31
339.334	98.31
339.562	105.31
339.79	91.31
340.018	86.31
340.246	83.31
340.474	92.31
340.702	91.31
340.93	91.31
341.158	86.31
341.386	112.31
341.614	92.31
341.842	107.31
342.07	102.31
342.298	86.31
342.526	84.31
342.754	91.31
342.981	94.31
343.209	99.31
343.437	106.31
343.665	100.31
343.893	86.31
344.12	97.31
344.348	90.31
344.576	93.31
344.804	97.31
345.031	101.31
345.259	100.31
345.487	98.31
345.714	101.31
345.942	101.31
346.17	85.31
346.397	92.31
346.625	93.31
346.853	88.31
347.08	79.31
347.308	108.31
347.535	88.31
347.763	96.31
347.99	111.31
348.218	119.31
348.445	113.31
348.673	98.31
348.9	105.31
349.128	103.31
349.355	95.31
349.583	94.31
349.81	84.31
350.037	97.31
350.265	88.31
350.492	101.31
350.72	107.31
350.947	102.31
351.174	116.31
351.402	116.31
351.629	97.31
351.856	114.31
352.083	106.31
352.311	108.31
352.538	121.31
352.765	109.31
352.992	101.31
353.22	112.31
353.447	103.31
353.674	116.31
353.901	115.31
354.128	89.31
354.355	99.31
354.583	106.31
354.81	103.31
355.037	83.31
355.264	87.31
355.491	96.31
355.718	100.31
355.945	87.31
356.172	92.31
356.399	105.31
356.626	80.31
356.853	98.31
357.08	91.31
357.307	88.31
357.534	94.31
357.761	105.31
357.988	97.31
358.215	105.31
358.441	85.31
358.668	92.31
358.895	94.31
359.122	94.31
359.349	94.31
359.576	85.31
359.802	97.31
360.029	117.31
360.256	109.31
360.483	98.31
360.709	94.31
360.936	113.31
361.163	99.31
361.39	96.31
361.616	98.31
361.843	82.31
362.07	100.31
362.296	103.31
362.523	87.31
362.749	94.31
362.976	93.31
363.203	90.31
363.429	83.31
363.656	86.31
363.882	88.31
364.109	98.31
364.335	97.31
364.562	98.31
364.788	102.31
365.015	89.31
365.241	101.31
365.468	109.31
365.694	107.31
365.92	106.31
366.147	99.31
366.373	98.31
366.599	92.31
366.826	98.31
367.052	88.31
367.278	92.31
367.505	95.31
367.731	85.31
367.957	102.31
368.184	97.31
368.41	89.31
368.636	113.31
368.862	130.31
369.089	116.31
369.315	96.31
369.541	98.31
369.767	92.31
369.993	91.31
370.219	86.31
370.445	84.31
370.672	93.31
370.898	81.31
371.124	90.31
371.35	105.31
371.576	84.31
371.802	85.31
372.028	83.31
372.254	102.31
372.48	94.31
372.706	80.31
372.932	95.31
373.158	87.31
373.384	102.31
373.61	87.31
373.835	95.31
374.061	94.31
374.287	84.31
374.513	105.31
374.739	88.31
374.965	96.31
375.191	95.31
375.416	89.31
375.642	87.31
375.868	87.31
376.094	75.31
376.319	77.31
376.545	95.31
376.771	94.31
376.997	98.31
377.222	71.31
377.448	97.31
377.674	88.31
377.899	97.31
378.125	86.31
378.35	90.31
378.576	93.31
378.802	96.31
379.027	83.31
379.253	93.31
379.478	86.31
379.704	102.31
379.929	89.31
380.155	92.31
380.38	75.31
380.606	98.31
380.831	91.31
381.057	101.31
381.282	104.31
381.507	96.31
381.733	90.31
381.958	88.31
382.184	91.31
382.409	94.31
382.634	99.31
382.86	95.31
383.085	103.31
383.31	108.31
383.535	96.31
383.761	97.31
383.986	116.31
384.211	90.31
384.436	87.31
384.662	101.31
384.887	94.31
385.112	100.31
385.337	117.31
385.562	100.31
385.787	104.31
386.013	88.31
386.238	107.31
386.463	88.31
386.688	115.31
386.913	103.31
387.138	107.31
387.363	92.31
387.588	98.31
387.813	96.31
388.038	112.31
388.263	108.31
388.488	105.31
388.713	107.31
388.938	117.31
389.163	93.31
389.387	81.31
389.612	89.31
389.837	90.31
390.062	96.31
390.287	85.31
390.512	79.31
390.736	88.31
390.961	89.31
391.186	101.31
391.411	105.31
391.636	96.31
391.86	86.31
392.085	77.31
392.31	74.31
392.534	71.31
392.759	90.31
392.984	88.31
393.208	85.31
393.433	94.31
393.658	82.31
393.882	78.31
394.107	83.31
394.331	78.31
394.556	112.31
394.78	103.31
395.005	91.31
395.229	86.31
395.454	84.31
395.678	80.31
395.903	98.31
396.127	99.31
396.352	82.31
396.576	97.31
396.801	83.31
397.025	88.31
397.249	93.31
397.474	80.31
397.698	90.31
397.922	84.31
398.147	100.31
398.371	105.31
398.595	86.31
398.82	95.31
399.044	96.31
399.268	86.31
399.492	83.31
399.717	82.31
399.941	90.31
400.165	84.31
400.389	97.31
400.613	95.31
400.837	88.31
401.062	91.31
401.286	84.31
401.51	75.31
401.734	88.31
401.958	91.31
402.182	139.31
402.406	163.31
402.63	117.31
402.854	93.31
403.078	71.31
403.302	93.31
403.526	77.31
403.75	84.31
403.974	72.31
404.198	92.31
404.422	71.31
404.645	65.31
404.869	84.31
405.093	92.31
405.317	83.31
405.541	95.31
405.765	97.31
405.988	119.31
406.212	162.31
406.436	225.31
406.66	141.31
406.883	106.31
407.107	74.31
407.331	85.31
407.555	107.31
407.778	99.31
408.002	100.31
408.226	99.31
408.449	88.31
408.673	100.31
408.896	104.31
409.12	86.31
409.344	94.31
409.567	92.31
409.791	86.31
410.014	100.31
410.238	88.31
410.461	100.31
410.685	94.31
410.908	93.31
411.132	108.31
411.355	96.31
411.578	111.31
411.802	89.31
412.025	88.31
412.249	83.31
412.472	87.31
412.695	89.31
412.919	77.31
413.142	73.31
413.365	96.31
413.589	80.31
413.812	82.31
414.035	109.31
414.258	76.31
414.482	104.31
414.705	97.31
414.928	97.31
415.151	99.31
415.374	100.31
415.597	83.31
415.821	92.31
416.044	84.31
416.267	96.31
416.49	103.31
416.713	94.31
416.936	84.31
417.159	86.31
417.382	93.31
417.605	89.31
417.828	90.31
418.051	93.31
418.274	101.31
418.497	82.31
418.72	77.31
418.943	89.31
419.166	90.31
419.389	85.31
419.611	101.31
419.834	97.31
420.057	98.31
420.28	86.31
420.503	96.31
420.726	101.31
420.948	102.31
421.171	89.31
421.394	90.31
421.617	108.31
421.839	91.31
422.062	71.31
422.285	101.31
422.507	101.31
422.73	102.31
422.953	101.31
423.175	92.31
423.398	87.31
423.621	97.31
423.843	88.31
424.066	94.31
424.288	96.31
424.511	85.31
424.733	99.31
424.956	89.31
425.178	96.31
425.401	92.31
425.623	103.31
425.846	100.31
426.068	103.31
426.291	106.31
426.513	98.31
426.735	101.31
426.958	96.31
427.18	123.31
427.402	142.31
427.625	164.31
427.847	128.31
428.069	106.31
428.292	82.31
428.514	88.31
428.736	97.31
428.958	84.31
429.181	79.31
429.403	76.31
429.625	73.31
429.847	84.31
430.069	99.31
430.292	87.31
430.514	78.31
430.736	75.31
430.958	91.31
431.18	74.31
431.402	86.31
431.624	100.31
431.846	86.31
432.068	84.31
432.29	93.31
432.512	80.31
432.734	91.31
432.956	86.31
433.178	100.31
433.4	99.31
433.622	91.31
433.844	99.31
434.066	95.31
434.287	82.31
434.509	96.31
434.731	90.31
434.953	87.31
435.175	80.31
435.397	81.31
435.618	101.31
435.84	105.31
436.062	115.31
436.284	117.31
436.505	98.31
436.727	99.31
436.949	94.31
437.17	92.31
437.392	98.31
437.614	101.31
437.835	112.31
438.057	120.31
438.278	103.31
438.5	109.31
438.721	122.31
438.943	104.31
439.165	95.31
439.386	89.31
439.608	88.31
439.829	97.31
440.05	116.31
440.272	149.31
440.493	97.31
440.715	89.31
440.936	81.31
441.158	76.31
441.379	87.31
441.6	99.31
441.822	102.31
442.043	88.31
442.264	93.31
442.486	98.31
442.707	89.31
442.928	118.31
443.149	121.31
443.371	108.31
443.592	114.31
443.813	113.31
444.034	113.31
444.255	98.31
444.476	86.31
444.698	89.31
444.919	74.31
445.14	141.31
445.361	114.31
445.582	111.31
445.803	111.31
446.024	141.31
446.245	130.31
446.466	121.31
446.687	84.31
446.908	94.31
447.129	74.31
447.35	86.31
447.571	87.31
447.792	81.31
448.013	97.31
448.234	108.31
448.455	102.31
448.675	112.31
448.896	117.31
449.117	109.31
449.338	119.31
449.559	129.31
449.779	145.31
450	100.31
450.221	98.31
450.442	86.31
450.662	92.31
450.883	95.31
451.104	117.31
451.324	93.31
451.545	96.31
451.766	84.31
451.986	71.31
452.207	98.31
452.428	96.31
452.648	104.31
452.869	114.31
453.089	103.31
453.31	93.31
453.53	90.31
453.751	92.31
453.971	97.31
454.192	102.31
454.412	100.31
454.633	87.31
454.853	98.31
455.073	91.31
455.294	94.31
455.514	100.31
455.734	95.31
455.955	103.31
456.175	75.31
456.395	84.31
456.616	81.31
456.836	77.31
457.056	98.31
457.276	86.31
457.497	87.31
457.717	97.31
457.937	84.31
458.157	94.31
458.377	88.31
458.598	99.31
458.818	146.31
459.038	151.31
459.258	106.31
459.478	78.31
459.698	78.31
459.918	82.31
460.138	77.31
460.358	77.31
460.578	84.31
460.798	78.31
461.018	84.31
461.238	90.31
461.458	73.31
461.678	83.31
461.898	109.31
462.118	96.31
462.338	86.31
462.558	72.31
462.777	86.31
462.997	82.31
463.217	88.31
463.437	94.31
463.657	84.31
463.876	93.31
464.096	97.31
464.316	100.31
464.536	86.31
464.755	98.31
464.975	109.31
465.195	145.31
465.414	164.31
465.634	110.31
465.854	90.31
466.073	90.31
466.293	85.31
466.512	74.31
466.732	68.31
466.951	91.31
467.171	95.31
467.391	97.31
467.61	109.31
467.829	87.31
468.049	92.31
468.268	91.31
468.488	86.31
468.707	84.31
468.927	78.31
469.146	92.31
469.365	90.31
469.585	96.31
469.804	89.31
470.023	109.31
470.243	95.31
470.462	104.31
470.681	101.31
470.901	88.31
471.12	92.31
471.339	87.31
471.558	102.31
471.777	100.31
471.997	87.31
472.216	94.31
472.435	104.31
472.654	78.31
472.873	83.31
473.092	73.31
473.311	108.31
473.53	101.31
473.749	91.31
473.968	93.31
474.187	102.31
474.406	106.31
474.625	73.31
474.844	90.31
475.063	85.31
475.282	84.31
475.501	89.31
475.72	96.31
475.939	88.31
476.158	65.31
476.377	96.31
476.596	83.31
476.814	86.31
477.033	91.31
477.252	73.31
477.471	84.31
477.69	88.31
477.908	92.31
478.127	83.31
478.346	106.31
478.564	99.31
478.783	93.31
479.002	98.31
479.22	90.31
479.439	95.31
479.658	102.31
479.876	90.31
480.095	94.31
480.313	97.31
480.532	94.31
480.751	98.31
480.969	89.31
481.188	114.31
481.406	99.31
481.624	96.31
481.843	77.31
482.061	93.31
482.28	83.31
482.498	86.31
482.717	91.31
482.935	77.31
483.153	93.31
483.372	93.31
483.59	90.31
483.808	93.31
484.027	94.31
484.245	93.31
484.463	90.31
484.681	103.31
484.9	94.31
485.118	94.31
485.336	90.31
485.554	91.31
485.772	96.31
485.99	109.31
486.209	121.31
486.427	117.31
486.645	104.31
486.863	130.31
487.081	96.31
487.299	104.31
487.517	100.31
487.735	93.31
487.953	92.31
488.171	98.31
488.389	106.31
488.607	107.31
488.825	86.31
489.043	90.31
489.261	94.31
489.479	87.31
489.696	91.31
489.914	82.31
490.132	83.31
490.35	90.31
490.568	88.31
490.786	98.31
491.003	90.31
491.221	96.31
491.439	87.31
491.657	107.31
491.874	72.31
492.092	89.31
492.31	93.31
492.527	88.31
492.745	94.31
492.963	72.31
493.18	93.31
493.398	93.31
493.615	97.31
493.833	100.31
494.05	102.31
494.268	83.31
494.485	80.31
494.703	88.31
494.92	98.31
495.138	92.31
495.355	98.31
495.573	78.31
495.79	73.31
496.008	81.31
496.225	75.31
496.442	88.31
496.66	110.31
496.877	80.31
497.094	97.31
497.312	94.31
497.529	83.31
497.746	88.31
497.963	89.31
498.181	104.31
498.398	97.31
498.615	121.31
498.832	97.31
499.049	80.31
499.267	86.31
499.484	99.31
499.701	80.31
499.918	92.31
500.135	89.31
500.352	100.31
500.569	86.31
500.786	92.31
501.003	85.31
501.22	86.31
501.437	86.31
501.654	93.31
501.871	100.31
502.088	91.31
502.305	99.31
502.522	102.31
502.739	97.31
502.956	95.31
503.172	98.31
503.389	90.31
503.606	97.31
503.823	99.31
504.04	86.31
504.256	95.31
504.473	93.31
504.69	99.31
504.907	101.31
505.123	90.31
505.34	76.31
505.557	89.31
505.773	94.31
505.99	81.31
506.207	97.31
506.423	72.31
506.64	94.31
506.856	89.31
507.073	102.31
507.289	98.31
507.506	92.31
507.722	114.31
507.939	118.31
508.155	85.31
508.372	100.31
508.588	109.31
508.805	88.31
509.021	92.31
509.238	115.31
509.454	91.31
509.67	97.31
509.887	115.31
510.103	131.31
510.319	220.31
510.536	773.31
510.752	2445.31
510.968	656.31
511.184	148.31
511.401	114.31
511.617	93.31
511.833	83.31
512.049	108.31
512.265	92.31
512.481	94.31
512.698	101.31
512.914	99.31
513.13	87.31
513.346	92.31
513.562	103.31
513.778	92.31
513.994	83.31
514.21	97.31
514.426	115.31
514.642	107.31
514.858	123.31
515.074	169.31
515.29	464.31
