Data from Uncirc_1984_H10_HRD10591_00075.txt Node
Date: Wed Jan 03 12:21:52 EST 2024
User: Yrep
Spectrometer: HR+D1059
Trigger mode: 1
Integration Time (sec): 1.000000E-1
Scans to average: 1
Electric dark correction enabled: true
Nonlinearity correction enabled: false
Boxcar width: 0
XAxis mode: Wavelengths
Number of Pixels in Spectrum: 2048
>>>>>Begin Spectral Data<<<<<
223.165	-20.44
223.4	-20.44
223.635	-20.44
223.869	-7.44
224.104	-30.44
224.338	-7.44
224.573	-16.44
224.808	-8.44
225.042	-18.44
225.277	-12.44
225.511	1.56
225.746	13.56
225.98	13.56
226.215	17.56
226.449	10.56
226.683	13.56
226.918	17.56
227.152	33.56
227.387	26.56
227.621	45.56
227.856	35.56
228.09	43.56
228.324	38.56
228.559	46.56
228.793	65.56
229.027	60.56
229.262	47.56
229.496	71.56
229.73	87.56
229.964	61.56
230.199	69.56
230.433	74.56
230.667	78.56
230.901	71.56
231.136	77.56
231.37	89.56
231.604	76.56
231.838	84.56
232.072	66.56
232.306	84.56
232.541	81.56
232.775	62.56
233.009	83.56
233.243	86.56
233.477	89.56
233.711	81.56
233.945	82.56
234.179	81.56
234.413	87.56
234.647	85.56
234.881	82.56
235.115	79.56
235.349	74.56
235.583	83.56
235.817	73.56
236.051	91.56
236.285	65.56
236.519	82.56
236.753	87.56
236.987	92.56
237.221	81.56
237.455	84.56
237.689	71.56
237.922	83.56
238.156	76.56
238.39	75.56
238.624	81.56
238.858	68.56
239.091	62.56
239.325	85.56
239.559	103.56
239.793	80.56
240.027	77.56
240.26	67.56
240.494	87.56
240.728	73.56
240.961	73.56
241.195	65.56
241.429	74.56
241.662	66.56
241.896	77.56
242.13	73.56
242.363	82.56
242.597	72.56
242.83	80.56
243.064	75.56
243.298	72.56
243.531	81.56
243.765	93.56
243.998	69.56
244.232	64.56
244.465	80.56
244.699	84.56
244.932	71.56
245.166	64.56
245.399	72.56
245.633	81.56
245.866	62.56
246.099	75.56
246.333	86.56
246.566	70.56
246.8	74.56
247.033	82.56
247.266	80.56
247.5	85.56
247.733	65.56
247.966	77.56
248.2	70.56
248.433	70.56
248.666	79.56
248.899	69.56
249.133	83.56
249.366	103.56
249.599	97.56
249.832	86.56
250.066	74.56
250.299	87.56
250.532	69.56
250.765	69.56
250.998	73.56
251.231	79.56
251.465	93.56
251.698	67.56
251.931	67.56
252.164	84.56
252.397	77.56
252.63	86.56
252.863	72.56
253.096	77.56
253.329	81.56
253.562	86.56
253.795	88.56
254.028	73.56
254.261	74.56
254.494	83.56
254.727	87.56
254.96	79.56
255.193	86.56
255.426	81.56
255.659	84.56
255.892	90.56
256.124	89.56
256.357	87.56
256.59	89.56
256.823	82.56
257.056	83.56
257.289	75.56
257.521	84.56
257.754	88.56
257.987	80.56
258.22	94.56
258.452	90.56
258.685	83.56
258.918	81.56
259.151	83.56
259.383	90.56
259.616	79.56
259.849	95.56
260.081	75.56
260.314	67.56
260.547	77.56
260.779	61.56
261.012	84.56
261.244	82.56
261.477	85.56
261.71	86.56
261.942	94.56
262.175	109.56
262.407	95.56
262.64	78.56
262.872	82.56
263.105	64.56
263.337	62.56
263.57	83.56
263.802	78.56
264.035	89.56
264.267	82.56
264.499	83.56
264.732	79.56
264.964	72.56
265.197	83.56
265.429	84.56
265.661	87.56
265.894	79.56
266.126	88.56
266.358	89.56
266.591	80.56
266.823	88.56
267.055	84.56
267.287	58.56
267.52	92.56
267.752	96.56
267.984	90.56
268.216	77.56
268.448	82.56
268.681	78.56
268.913	82.56
269.145	106.56
269.377	100.56
269.609	74.56
269.841	79.56
270.073	77.56
270.306	84.56
270.538	77.56
270.77	73.56
271.002	72.56
271.234	80.56
271.466	88.56
271.698	85.56
271.93	73.56
272.162	86.56
272.394	81.56
272.626	95.56
272.858	78.56
273.09	78.56
273.322	74.56
273.553	85.56
273.785	81.56
274.017	77.56
274.249	88.56
274.481	78.56
274.713	87.56
274.945	99.56
275.176	90.56
275.408	77.56
275.64	81.56
275.872	93.56
276.104	97.56
276.335	94.56
276.567	102.56
276.799	98.56
277.031	99.56
277.262	67.56
277.494	78.56
277.726	77.56
277.957	93.56
278.189	83.56
278.421	91.56
278.652	88.56
278.884	84.56
279.115	101.56
279.347	82.56
279.579	83.56
279.81	82.56
280.042	88.56
280.273	92.56
280.505	93.56
280.736	95.56
280.968	89.56
281.199	88.56
281.431	74.56
281.662	73.56
281.894	85.56
282.125	85.56
282.356	114.56
282.588	122.56
282.819	103.56
283.051	93.56
283.282	93.56
283.513	81.56
283.745	73.56
283.976	98.56
284.207	83.56
284.439	80.56
284.67	95.56
284.901	91.56
285.132	78.56
285.364	78.56
285.595	80.56
285.826	92.56
286.057	79.56
286.288	89.56
286.52	94.56
286.751	81.56
286.982	65.56
287.213	94.56
287.444	89.56
287.675	81.56
287.906	93.56
288.138	101.56
288.369	89.56
288.6	85.56
288.831	85.56
289.062	92.56
289.293	90.56
289.524	89.56
289.755	74.56
289.986	89.56
290.217	71.56
290.448	89.56
290.679	83.56
290.91	64.56
291.141	95.56
291.371	96.56
291.602	107.56
291.833	88.56
292.064	81.56
292.295	88.56
292.526	88.56
292.757	90.56
292.987	95.56
293.218	98.56
293.449	95.56
293.68	89.56
293.91	95.56
294.141	96.56
294.372	97.56
294.603	85.56
294.833	86.56
295.064	91.56
295.295	88.56
295.525	94.56
295.756	95.56
295.987	106.56
296.217	113.56
296.448	114.56
296.679	86.56
296.909	96.56
297.14	86.56
297.37	94.56
297.601	87.56
297.831	94.56
298.062	90.56
298.292	87.56
298.523	101.56
298.753	79.56
298.984	90.56
299.214	94.56
299.445	85.56
299.675	82.56
299.905	83.56
300.136	96.56
300.366	88.56
300.597	89.56
300.827	91.56
301.057	105.56
301.288	111.56
301.518	90.56
301.748	95.56
301.979	104.56
302.209	85.56
302.439	86.56
302.669	98.56
302.9	87.56
303.13	104.56
303.36	92.56
303.59	96.56
303.82	112.56
304.051	103.56
304.281	101.56
304.511	90.56
304.741	93.56
304.971	72.56
305.201	81.56
305.431	81.56
305.661	83.56
305.891	82.56
306.121	98.56
306.352	102.56
306.582	93.56
306.812	91.56
307.042	96.56
307.272	84.56
307.502	89.56
307.731	82.56
307.961	78.56
308.191	83.56
308.421	81.56
308.651	84.56
308.881	90.56
309.111	93.56
309.341	90.56
309.571	102.56
309.8	89.56
310.03	111.56
310.26	84.56
310.49	99.56
310.72	99.56
310.949	101.56
311.179	98.56
311.409	89.56
311.639	93.56
311.868	74.56
312.098	84.56
312.328	95.56
312.557	97.56
312.787	80.56
313.017	103.56
313.246	96.56
313.476	66.56
313.706	78.56
313.935	95.56
314.165	81.56
314.394	91.56
314.624	71.56
314.853	85.56
315.083	70.56
315.312	78.56
315.542	92.56
315.771	93.56
316.001	91.56
316.23	91.56
316.46	90.56
316.689	77.56
316.919	95.56
317.148	93.56
317.377	91.56
317.607	83.56
317.836	88.56
318.065	78.56
318.295	80.56
318.524	94.56
318.753	102.56
318.983	93.56
319.212	82.56
319.441	115.56
319.67	99.56
319.9	98.56
320.129	82.56
320.358	92.56
320.587	91.56
320.816	101.56
321.046	98.56
321.275	104.56
321.504	106.56
321.733	96.56
321.962	88.56
322.191	107.56
322.42	91.56
322.649	96.56
322.878	97.56
323.108	109.56
323.337	120.56
323.566	137.56
323.795	128.56
324.024	200.56
324.253	378.56
324.482	760.56
324.71	1590.56
324.939	2125.56
325.168	781.56
325.397	236.56
325.626	155.56
325.855	137.56
326.084	130.56
326.313	133.56
326.542	147.56
326.77	192.56
326.999	440.56
327.228	893.56
327.457	1635.56
327.686	1320.56
327.914	343.56
328.143	198.56
328.372	148.56
328.6	105.56
328.829	116.56
329.058	107.56
329.287	114.56
329.515	109.56
329.744	101.56
329.972	104.56
330.201	100.56
330.43	112.56
330.658	110.56
330.887	131.56
331.115	110.56
331.344	99.56
331.572	80.56
331.801	103.56
332.03	102.56
332.258	77.56
332.486	93.56
332.715	83.56
332.943	92.56
333.172	98.56
333.4	97.56
333.629	95.56
333.857	102.56
334.085	87.56
334.314	93.56
334.542	101.56
334.771	91.56
334.999	93.56
335.227	89.56
335.455	91.56
335.684	94.56
335.912	89.56
336.14	88.56
336.369	106.56
336.597	106.56
336.825	96.56
337.053	98.56
337.281	87.56
337.51	93.56
337.738	102.56
337.966	87.56
338.194	96.56
338.422	81.56
338.65	94.56
338.878	91.56
339.106	97.56
339.334	105.56
339.562	87.56
339.79	87.56
340.018	97.56
340.246	90.56
340.474	93.56
340.702	98.56
340.93	91.56
341.158	93.56
341.386	78.56
341.614	98.56
341.842	95.56
342.07	85.56
342.298	85.56
342.526	87.56
342.754	86.56
342.981	94.56
343.209	88.56
343.437	101.56
343.665	98.56
343.893	97.56
344.12	90.56
344.348	97.56
344.576	93.56
344.804	83.56
345.031	95.56
345.259	95.56
345.487	86.56
345.714	89.56
345.942	84.56
346.17	107.56
346.397	90.56
346.625	83.56
346.853	71.56
347.08	98.56
347.308	96.56
347.535	96.56
347.763	99.56
347.99	97.56
348.218	94.56
348.445	94.56
348.673	91.56
348.9	81.56
349.128	86.56
349.355	97.56
349.583	93.56
349.81	97.56
350.037	84.56
350.265	86.56
350.492	100.56
350.72	90.56
350.947	94.56
351.174	93.56
351.402	99.56
351.629	109.56
351.856	102.56
352.083	100.56
352.311	101.56
352.538	101.56
352.765	103.56
352.992	104.56
353.22	113.56
353.447	95.56
353.674	85.56
353.901	109.56
354.128	105.56
354.355	95.56
354.583	95.56
354.81	104.56
355.037	97.56
355.264	105.56
355.491	93.56
355.718	82.56
355.945	84.56
356.172	83.56
356.399	100.56
356.626	81.56
356.853	90.56
357.08	102.56
357.307	94.56
357.534	88.56
357.761	91.56
357.988	96.56
358.215	87.56
358.441	87.56
358.668	79.56
358.895	77.56
359.122	96.56
359.349	73.56
359.576	77.56
359.802	103.56
360.029	104.56
360.256	103.56
360.483	97.56
360.709	87.56
360.936	89.56
361.163	93.56
361.39	99.56
361.616	89.56
361.843	88.56
362.07	101.56
362.296	95.56
362.523	99.56
362.749	96.56
362.976	98.56
363.203	95.56
363.429	77.56
363.656	87.56
363.882	81.56
364.109	77.56
364.335	85.56
364.562	73.56
364.788	74.56
365.015	101.56
365.241	103.56
365.468	92.56
365.694	105.56
365.92	99.56
366.147	75.56
366.373	94.56
366.599	102.56
366.826	90.56
367.052	88.56
367.278	71.56
367.505	94.56
367.731	89.56
367.957	84.56
368.184	89.56
368.41	97.56
368.636	109.56
368.862	93.56
369.089	100.56
369.315	81.56
369.541	93.56
369.767	90.56
369.993	85.56
370.219	80.56
370.445	94.56
370.672	89.56
370.898	89.56
371.124	79.56
371.35	95.56
371.576	89.56
371.802	71.56
372.028	88.56
372.254	82.56
372.48	72.56
372.706	70.56
372.932	96.56
373.158	89.56
373.384	91.56
373.61	85.56
373.835	97.56
374.061	78.56
374.287	69.56
374.513	91.56
374.739	78.56
374.965	86.56
375.191	87.56
375.416	78.56
375.642	92.56
375.868	91.56
376.094	90.56
376.319	89.56
376.545	74.56
376.771	95.56
376.997	92.56
377.222	89.56
377.448	72.56
377.674	83.56
377.899	82.56
378.125	97.56
378.35	82.56
378.576	72.56
378.802	95.56
379.027	96.56
379.253	84.56
379.478	81.56
379.704	93.56
379.929	87.56
380.155	98.56
380.38	100.56
380.606	94.56
380.831	87.56
381.057	88.56
381.282	93.56
381.507	101.56
381.733	94.56
381.958	83.56
382.184	85.56
382.409	89.56
382.634	77.56
382.86	90.56
383.085	98.56
383.31	98.56
383.535	101.56
383.761	102.56
383.986	105.56
384.211	72.56
384.436	102.56
384.662	86.56
384.887	96.56
385.112	85.56
385.337	86.56
385.562	106.56
385.787	104.56
386.013	95.56
386.238	117.56
386.463	85.56
386.688	98.56
386.913	96.56
387.138	94.56
387.363	78.56
387.588	95.56
387.813	93.56
388.038	105.56
388.263	101.56
388.488	103.56
388.713	89.56
388.938	100.56
389.163	97.56
389.387	93.56
389.612	92.56
389.837	101.56
390.062	97.56
390.287	97.56
390.512	80.56
390.736	81.56
390.961	100.56
391.186	97.56
391.411	105.56
391.636	87.56
391.86	87.56
392.085	85.56
392.31	87.56
392.534	98.56
392.759	98.56
392.984	79.56
393.208	87.56
393.433	82.56
393.658	97.56
393.882	79.56
394.107	69.56
394.331	78.56
394.556	85.56
394.78	89.56
395.005	88.56
395.229	91.56
395.454	93.56
395.678	77.56
395.903	78.56
396.127	78.56
396.352	92.56
396.576	89.56
396.801	86.56
397.025	86.56
397.249	78.56
397.474	88.56
397.698	83.56
397.922	88.56
398.147	85.56
398.371	92.56
398.595	84.56
398.82	93.56
399.044	82.56
399.268	77.56
399.492	83.56
399.717	82.56
399.941	75.56
400.165	65.56
400.389	70.56
400.613	82.56
400.837	98.56
401.062	99.56
401.286	82.56
401.51	83.56
401.734	89.56
401.958	88.56
402.182	111.56
402.406	130.56
402.63	119.56
402.854	91.56
403.078	74.56
403.302	86.56
403.526	93.56
403.75	53.56
403.974	82.56
404.198	80.56
404.422	83.56
404.645	66.56
404.869	86.56
405.093	80.56
405.317	89.56
405.541	98.56
405.765	79.56
405.988	99.56
406.212	158.56
406.436	189.56
406.66	142.56
406.883	113.56
407.107	90.56
407.331	89.56
407.555	87.56
407.778	86.56
408.002	92.56
408.226	94.56
408.449	91.56
408.673	83.56
408.896	100.56
409.12	81.56
409.344	96.56
409.567	90.56
409.791	80.56
410.014	91.56
410.238	99.56
410.461	86.56
410.685	79.56
410.908	95.56
411.132	89.56
411.355	105.56
411.578	93.56
411.802	92.56
412.025	73.56
412.249	90.56
412.472	81.56
412.695	97.56
412.919	103.56
413.142	93.56
413.365	75.56
413.589	86.56
413.812	68.56
414.035	89.56
414.258	87.56
414.482	88.56
414.705	95.56
414.928	74.56
415.151	91.56
415.374	81.56
415.597	86.56
415.821	83.56
416.044	84.56
416.267	98.56
416.49	89.56
416.713	71.56
416.936	98.56
417.159	93.56
417.382	82.56
417.605	81.56
417.828	82.56
418.051	91.56
418.274	89.56
418.497	92.56
418.72	89.56
418.943	88.56
419.166	80.56
419.389	90.56
419.611	80.56
419.834	82.56
420.057	91.56
420.28	66.56
420.503	69.56
420.726	75.56
420.948	88.56
421.171	97.56
421.394	93.56
421.617	97.56
421.839	81.56
422.062	83.56
422.285	88.56
422.507	97.56
422.73	101.56
422.953	89.56
423.175	86.56
423.398	83.56
423.621	91.56
423.843	85.56
424.066	79.56
424.288	70.56
424.511	72.56
424.733	86.56
424.956	99.56
425.178	84.56
425.401	91.56
425.623	88.56
425.846	83.56
426.068	84.56
426.291	87.56
426.513	95.56
426.735	97.56
426.958	101.56
427.18	94.56
427.402	103.56
427.625	161.56
427.847	115.56
428.069	113.56
428.292	95.56
428.514	90.56
428.736	77.56
428.958	85.56
429.181	91.56
429.403	86.56
429.625	87.56
429.847	84.56
430.069	97.56
430.292	90.56
430.514	78.56
430.736	75.56
430.958	88.56
431.18	74.56
431.402	80.56
431.624	83.56
431.846	88.56
432.068	94.56
432.29	98.56
432.512	87.56
432.734	89.56
432.956	97.56
433.178	90.56
433.4	89.56
433.622	90.56
433.844	88.56
434.066	90.56
434.287	88.56
434.509	85.56
434.731	87.56
434.953	90.56
435.175	71.56
435.397	79.56
435.618	87.56
435.84	97.56
436.062	106.56
436.284	103.56
436.505	112.56
436.727	95.56
436.949	86.56
437.17	75.56
437.392	81.56
437.614	87.56
437.835	110.56
438.057	126.56
438.278	110.56
438.5	104.56
438.721	108.56
438.943	113.56
439.165	90.56
439.386	81.56
439.608	88.56
439.829	101.56
440.05	116.56
440.272	123.56
440.493	93.56
440.715	81.56
440.936	84.56
441.158	78.56
441.379	80.56
441.6	103.56
441.822	98.56
442.043	86.56
442.264	96.56
442.486	93.56
442.707	104.56
442.928	108.56
443.149	119.56
443.371	137.56
443.592	93.56
443.813	101.56
444.034	97.56
444.255	97.56
444.476	88.56
444.698	84.56
444.919	76.56
445.14	143.56
445.361	114.56
445.582	94.56
445.803	134.56
446.024	130.56
446.245	127.56
446.466	95.56
446.687	97.56
446.908	85.56
447.129	80.56
447.35	79.56
447.571	101.56
447.792	86.56
448.013	96.56
448.234	101.56
448.455	88.56
448.675	106.56
448.896	109.56
449.117	98.56
449.338	99.56
449.559	120.56
449.779	121.56
450	98.56
450.221	97.56
450.442	95.56
450.662	90.56
450.883	83.56
451.104	108.56
451.324	92.56
451.545	93.56
451.766	93.56
451.986	72.56
452.207	85.56
452.428	95.56
452.648	90.56
452.869	88.56
453.089	106.56
453.31	108.56
453.53	91.56
453.751	109.56
453.971	93.56
454.192	93.56
454.412	82.56
454.633	85.56
454.853	83.56
455.073	83.56
455.294	80.56
455.514	95.56
455.734	92.56
455.955	82.56
456.175	77.56
456.395	94.56
456.616	74.56
456.836	58.56
457.056	83.56
457.276	88.56
457.497	82.56
457.717	82.56
457.937	73.56
458.157	87.56
458.377	91.56
458.598	101.56
458.818	133.56
459.038	146.56
459.258	106.56
459.478	79.56
459.698	77.56
459.918	82.56
460.138	88.56
460.358	75.56
460.578	81.56
460.798	84.56
461.018	78.56
461.238	65.56
461.458	81.56
461.678	83.56
461.898	77.56
462.118	84.56
462.338	98.56
462.558	91.56
462.777	78.56
462.997	87.56
463.217	76.56
463.437	79.56
463.657	78.56
463.876	76.56
464.096	85.56
464.316	84.56
464.536	104.56
464.755	92.56
464.975	90.56
465.195	145.56
465.414	129.56
465.634	77.56
465.854	97.56
466.073	82.56
466.293	79.56
466.512	87.56
466.732	81.56
466.951	85.56
467.171	100.56
467.391	89.56
467.61	99.56
467.829	89.56
468.049	97.56
468.268	90.56
468.488	90.56
468.707	95.56
468.927	101.56
469.146	80.56
469.365	93.56
469.585	82.56
469.804	82.56
470.023	92.56
470.243	97.56
470.462	99.56
470.681	113.56
470.901	85.56
471.12	78.56
471.339	73.56
471.558	87.56
471.777	79.56
471.997	86.56
472.216	87.56
472.435	97.56
472.654	82.56
472.873	88.56
473.092	84.56
473.311	92.56
473.53	72.56
473.749	74.56
473.968	89.56
474.187	95.56
474.406	102.56
474.625	82.56
474.844	81.56
475.063	86.56
475.282	87.56
475.501	86.56
475.72	86.56
475.939	81.56
476.158	79.56
476.377	89.56
476.596	101.56
476.814	88.56
477.033	94.56
477.252	91.56
477.471	91.56
477.69	96.56
477.908	89.56
478.127	83.56
478.346	82.56
478.564	87.56
478.783	88.56
479.002	77.56
479.22	87.56
479.439	109.56
479.658	103.56
479.876	86.56
480.095	94.56
480.313	107.56
480.532	81.56
480.751	77.56
480.969	91.56
481.188	111.56
481.406	94.56
481.624	88.56
481.843	85.56
482.061	100.56
482.28	78.56
482.498	94.56
482.717	82.56
482.935	93.56
483.153	81.56
483.372	81.56
483.59	97.56
483.808	99.56
484.027	86.56
484.245	95.56
484.463	96.56
484.681	95.56
484.9	83.56
485.118	90.56
485.336	84.56
485.554	105.56
485.772	98.56
485.99	102.56
486.209	105.56
486.427	94.56
486.645	97.56
486.863	101.56
487.081	109.56
487.299	91.56
487.517	91.56
487.735	97.56
487.953	81.56
488.171	74.56
488.389	94.56
488.607	101.56
488.825	96.56
489.043	95.56
489.261	80.56
489.479	79.56
489.696	95.56
489.914	88.56
490.132	81.56
490.35	83.56
490.568	89.56
490.786	102.56
491.003	81.56
491.221	77.56
491.439	91.56
491.657	93.56
491.874	86.56
492.092	87.56
492.31	95.56
492.527	77.56
492.745	89.56
492.963	84.56
493.18	88.56
493.398	86.56
493.615	97.56
493.833	101.56
494.05	96.56
494.268	87.56
494.485	99.56
494.703	93.56
494.92	81.56
495.138	77.56
495.355	92.56
495.573	79.56
495.79	72.56
496.008	73.56
496.225	90.56
496.442	97.56
496.66	81.56
496.877	79.56
497.094	81.56
497.312	88.56
497.529	105.56
497.746	83.56
497.963	78.56
498.181	100.56
498.398	74.56
498.615	96.56
498.832	96.56
499.049	100.56
499.267	87.56
499.484	86.56
499.701	69.56
499.918	88.56
500.135	95.56
500.352	94.56
500.569	94.56
500.786	87.56
501.003	89.56
501.22	83.56
501.437	97.56
501.654	103.56
501.871	102.56
502.088	98.56
502.305	89.56
502.522	89.56
502.739	94.56
502.956	85.56
503.172	79.56
503.389	83.56
503.606	96.56
503.823	92.56
504.04	79.56
504.256	91.56
504.473	96.56
504.69	90.56
504.907	69.56
505.123	93.56
505.34	98.56
505.557	91.56
505.773	62.56
505.99	72.56
506.207	89.56
506.423	73.56
506.64	89.56
506.856	87.56
507.073	85.56
507.289	94.56
507.506	101.56
507.722	103.56
507.939	104.56
508.155	107.56
508.372	93.56
508.588	87.56
508.805	90.56
509.021	106.56
509.238	95.56
509.454	90.56
509.67	89.56
509.887	124.56
510.103	123.56
510.319	193.56
510.536	689.56
510.752	2161.56
510.968	611.56
511.184	146.56
511.401	100.56
511.617	95.56
511.833	93.56
512.049	102.56
512.265	90.56
512.481	97.56
512.698	79.56
512.914	95.56
513.13	99.56
513.346	97.56
513.562	79.56
513.778	96.56
513.994	91.56
514.21	95.56
514.426	107.56
514.642	117.56
514.858	106.56
515.074	142.56
515.29	410.56
515.506	1321.56
515.721	483.56
515.937	149.56
516.153	110.56
516.369	101.56
516.585	112.56
516.801	111.56
