Data from Uncirc_1984_H10_HRD10591_00012.txt Node
Date: Wed Jan 03 12:21:39 EST 2024
User: Yrep
Spectrometer: HR+D1059
Trigger mode: 1
Integration Time (sec): 1.000000E-1
Scans to average: 1
Electric dark correction enabled: true
Nonlinearity correction enabled: false
Boxcar width: 0
XAxis mode: Wavelengths
Number of Pixels in Spectrum: 2048
>>>>>Begin Spectral Data<<<<<
223.165	-21.69
223.4	-21.69
223.635	-21.69
223.869	-14.69
224.104	-23.69
224.338	-10.69
224.573	-22.69
224.808	-22.69
225.042	-11.69
225.277	-1.69
225.511	4.31
225.746	3.31
225.98	19.31
226.215	2.31
226.449	19.31
226.683	29.31
226.918	23.31
227.152	28.31
227.387	34.31
227.621	37.31
227.856	34.31
228.09	47.31
228.324	48.31
228.559	50.31
228.793	62.31
229.027	75.31
229.262	81.31
229.496	69.31
229.73	85.31
229.964	73.31
230.199	72.31
230.433	58.31
230.667	82.31
230.901	82.31
231.136	83.31
231.37	83.31
231.604	87.31
231.838	70.31
232.072	83.31
232.306	70.31
232.541	73.31
232.775	81.31
233.009	95.31
233.243	90.31
233.477	86.31
233.711	92.31
233.945	71.31
234.179	73.31
234.413	87.31
234.647	80.31
234.881	72.31
235.115	68.31
235.349	84.31
235.583	87.31
235.817	76.31
236.051	84.31
236.285	83.31
236.519	61.31
236.753	76.31
236.987	79.31
237.221	77.31
237.455	73.31
237.689	75.31
237.922	71.31
238.156	72.31
238.39	75.31
238.624	79.31
238.858	87.31
239.091	79.31
239.325	81.31
239.559	66.31
239.793	70.31
240.027	77.31
240.26	70.31
240.494	83.31
240.728	85.31
240.961	67.31
241.195	79.31
241.429	59.31
241.662	75.31
241.896	72.31
242.13	89.31
242.363	81.31
242.597	70.31
242.83	63.31
243.064	72.31
243.298	79.31
243.531	70.31
243.765	92.31
243.998	74.31
244.232	76.31
244.465	82.31
244.699	81.31
244.932	71.31
245.166	83.31
245.399	93.31
245.633	72.31
245.866	71.31
246.099	97.31
246.333	75.31
246.566	84.31
246.8	67.31
247.033	72.31
247.266	72.31
247.5	84.31
247.733	86.31
247.966	74.31
248.2	59.31
248.433	78.31
248.666	68.31
248.899	78.31
249.133	96.31
249.366	85.31
249.599	85.31
249.832	93.31
250.066	75.31
250.299	80.31
250.532	89.31
250.765	83.31
250.998	79.31
251.231	80.31
251.465	95.31
251.698	75.31
251.931	81.31
252.164	75.31
252.397	86.31
252.63	69.31
252.863	87.31
253.096	84.31
253.329	86.31
253.562	81.31
253.795	91.31
254.028	95.31
254.261	91.31
254.494	78.31
254.727	79.31
254.96	88.31
255.193	72.31
255.426	77.31
255.659	89.31
255.892	81.31
256.124	76.31
256.357	88.31
256.59	75.31
256.823	76.31
257.056	87.31
257.289	75.31
257.521	85.31
257.754	89.31
257.987	91.31
258.22	86.31
258.452	93.31
258.685	76.31
258.918	88.31
259.151	88.31
259.383	90.31
259.616	81.31
259.849	76.31
260.081	79.31
260.314	85.31
260.547	85.31
260.779	68.31
261.012	76.31
261.244	84.31
261.477	90.31
261.71	79.31
261.942	105.31
262.175	87.31
262.407	87.31
262.64	95.31
262.872	79.31
263.105	75.31
263.337	95.31
263.57	96.31
263.802	78.31
264.035	77.31
264.267	87.31
264.499	88.31
264.732	85.31
264.964	91.31
265.197	71.31
265.429	83.31
265.661	91.31
265.894	83.31
266.126	76.31
266.358	95.31
266.591	79.31
266.823	76.31
267.055	81.31
267.287	88.31
267.52	79.31
267.752	81.31
267.984	89.31
268.216	96.31
268.448	80.31
268.681	89.31
268.913	78.31
269.145	74.31
269.377	90.31
269.609	82.31
269.841	83.31
270.073	86.31
270.306	92.31
270.538	77.31
270.77	85.31
271.002	84.31
271.234	72.31
271.466	92.31
271.698	78.31
271.93	83.31
272.162	86.31
272.394	84.31
272.626	100.31
272.858	80.31
273.09	86.31
273.322	84.31
273.553	75.31
273.785	83.31
274.017	79.31
274.249	89.31
274.481	83.31
274.713	72.31
274.945	102.31
275.176	79.31
275.408	87.31
275.64	76.31
275.872	75.31
276.104	91.31
276.335	79.31
276.567	82.31
276.799	113.31
277.031	97.31
277.262	87.31
277.494	95.31
277.726	102.31
277.957	87.31
278.189	81.31
278.421	85.31
278.652	88.31
278.884	84.31
279.115	88.31
279.347	77.31
279.579	92.31
279.81	90.31
280.042	87.31
280.273	87.31
280.505	90.31
280.736	79.31
280.968	83.31
281.199	76.31
281.431	94.31
281.662	98.31
281.894	79.31
282.125	81.31
282.356	112.31
282.588	127.31
282.819	106.31
283.051	104.31
283.282	80.31
283.513	79.31
283.745	74.31
283.976	81.31
284.207	93.31
284.439	85.31
284.67	91.31
284.901	99.31
285.132	92.31
285.364	89.31
285.595	84.31
285.826	85.31
286.057	87.31
286.288	89.31
286.52	89.31
286.751	82.31
286.982	89.31
287.213	80.31
287.444	79.31
287.675	80.31
287.906	86.31
288.138	85.31
288.369	90.31
288.6	85.31
288.831	83.31
289.062	77.31
289.293	85.31
289.524	91.31
289.755	82.31
289.986	84.31
290.217	82.31
290.448	89.31
290.679	82.31
290.91	92.31
291.141	91.31
291.371	101.31
291.602	84.31
291.833	91.31
292.064	81.31
292.295	75.31
292.526	84.31
292.757	94.31
292.987	83.31
293.218	83.31
293.449	84.31
293.68	79.31
293.91	89.31
294.141	87.31
294.372	86.31
294.603	92.31
294.833	85.31
295.064	107.31
295.295	88.31
295.525	105.31
295.756	102.31
295.987	119.31
296.217	116.31
296.448	109.31
296.679	101.31
296.909	105.31
297.14	91.31
297.37	97.31
297.601	99.31
297.831	88.31
298.062	88.31
298.292	82.31
298.523	84.31
298.753	84.31
298.984	92.31
299.214	82.31
299.445	75.31
299.675	81.31
299.905	101.31
300.136	90.31
300.366	86.31
300.597	91.31
300.827	75.31
301.057	107.31
301.288	100.31
301.518	83.31
301.748	86.31
301.979	108.31
302.209	97.31
302.439	98.31
302.669	88.31
302.9	88.31
303.13	83.31
303.36	98.31
303.59	97.31
303.82	96.31
304.051	85.31
304.281	93.31
304.511	100.31
304.741	85.31
304.971	88.31
305.201	87.31
305.431	105.31
305.661	105.31
305.891	75.31
306.121	93.31
306.352	91.31
306.582	104.31
306.812	75.31
307.042	96.31
307.272	108.31
307.502	105.31
307.731	106.31
307.961	88.31
308.191	92.31
308.421	89.31
308.651	98.31
308.881	90.31
309.111	80.31
309.341	85.31
309.571	87.31
309.8	94.31
310.03	91.31
310.26	87.31
310.49	91.31
310.72	92.31
310.949	100.31
311.179	102.31
311.409	91.31
311.639	88.31
311.868	103.31
312.098	76.31
312.328	97.31
312.557	102.31
312.787	84.31
313.017	102.31
313.246	96.31
313.476	97.31
313.706	76.31
313.935	91.31
314.165	87.31
314.394	86.31
314.624	100.31
314.853	87.31
315.083	101.31
315.312	104.31
315.542	90.31
315.771	107.31
316.001	92.31
316.23	76.31
316.46	94.31
316.689	85.31
316.919	86.31
317.148	95.31
317.377	93.31
317.607	104.31
317.836	89.31
318.065	103.31
318.295	98.31
318.524	101.31
318.753	94.31
318.983	93.31
319.212	96.31
319.441	98.31
319.67	95.31
319.9	89.31
320.129	96.31
320.358	83.31
320.587	92.31
320.816	95.31
321.046	99.31
321.275	88.31
321.504	81.31
321.733	90.31
321.962	98.31
322.191	100.31
322.42	104.31
322.649	118.31
322.878	112.31
323.108	104.31
323.337	112.31
323.566	128.31
323.795	159.31
324.024	191.31
324.253	370.31
324.482	801.31
324.71	1608.31
324.939	2109.31
325.168	795.31
325.397	224.31
325.626	143.31
325.855	137.31
326.084	125.31
326.313	122.31
326.542	148.31
326.77	222.31
326.999	453.31
327.228	907.31
327.457	1642.31
327.686	1318.31
327.914	340.31
328.143	183.31
328.372	130.31
328.6	107.31
328.829	121.31
329.058	120.31
329.287	131.31
329.515	104.31
329.744	119.31
329.972	106.31
330.201	92.31
330.43	107.31
330.658	116.31
330.887	138.31
331.115	101.31
331.344	100.31
331.572	110.31
331.801	108.31
332.03	99.31
332.258	98.31
332.486	98.31
332.715	90.31
332.943	98.31
333.172	112.31
333.4	108.31
333.629	100.31
333.857	98.31
334.085	101.31
334.314	98.31
334.542	105.31
334.771	90.31
334.999	90.31
335.227	87.31
335.455	92.31
335.684	80.31
335.912	102.31
336.14	103.31
336.369	105.31
336.597	101.31
336.825	106.31
337.053	108.31
337.281	88.31
337.51	95.31
337.738	92.31
337.966	93.31
338.194	94.31
338.422	102.31
338.65	88.31
338.878	95.31
339.106	89.31
339.334	91.31
339.562	89.31
339.79	97.31
340.018	90.31
340.246	93.31
340.474	93.31
340.702	87.31
340.93	88.31
341.158	102.31
341.386	97.31
341.614	101.31
341.842	91.31
342.07	79.31
342.298	91.31
342.526	86.31
342.754	96.31
342.981	92.31
343.209	101.31
343.437	101.31
343.665	108.31
343.893	111.31
344.12	103.31
344.348	106.31
344.576	79.31
344.804	91.31
345.031	108.31
345.259	100.31
345.487	99.31
345.714	91.31
345.942	103.31
346.17	84.31
346.397	88.31
346.625	87.31
346.853	101.31
347.08	91.31
347.308	87.31
347.535	93.31
347.763	91.31
347.99	90.31
348.218	107.31
348.445	125.31
348.673	104.31
348.9	100.31
349.128	95.31
349.355	97.31
349.583	101.31
349.81	91.31
350.037	104.31
350.265	91.31
350.492	95.31
350.72	103.31
350.947	87.31
351.174	108.31
351.402	128.31
351.629	114.31
351.856	99.31
352.083	107.31
352.311	97.31
352.538	92.31
352.765	106.31
352.992	105.31
353.22	109.31
353.447	113.31
353.674	102.31
353.901	97.31
354.128	95.31
354.355	97.31
354.583	95.31
354.81	95.31
355.037	106.31
355.264	109.31
355.491	94.31
355.718	92.31
355.945	97.31
356.172	113.31
356.399	97.31
356.626	112.31
356.853	98.31
357.08	95.31
357.307	90.31
357.534	93.31
357.761	101.31
357.988	105.31
358.215	101.31
358.441	109.31
358.668	102.31
358.895	87.31
359.122	95.31
359.349	86.31
359.576	91.31
359.802	103.31
360.029	102.31
360.256	107.31
360.483	106.31
360.709	82.31
360.936	107.31
361.163	95.31
361.39	86.31
361.616	88.31
361.843	81.31
362.07	87.31
362.296	98.31
362.523	92.31
362.749	95.31
362.976	93.31
363.203	101.31
363.429	96.31
363.656	96.31
363.882	84.31
364.109	95.31
364.335	98.31
364.562	80.31
364.788	84.31
365.015	95.31
365.241	104.31
365.468	101.31
365.694	97.31
365.92	96.31
366.147	85.31
366.373	97.31
366.599	96.31
366.826	107.31
367.052	97.31
367.278	103.31
367.505	87.31
367.731	96.31
367.957	95.31
368.184	69.31
368.41	89.31
368.636	112.31
368.862	116.31
369.089	113.31
369.315	99.31
369.541	101.31
369.767	89.31
369.993	98.31
370.219	72.31
370.445	84.31
370.672	98.31
370.898	83.31
371.124	90.31
371.35	91.31
371.576	95.31
371.802	78.31
372.028	87.31
372.254	80.31
372.48	79.31
372.706	97.31
372.932	77.31
373.158	92.31
373.384	91.31
373.61	88.31
373.835	91.31
374.061	81.31
374.287	89.31
374.513	90.31
374.739	90.31
374.965	88.31
375.191	85.31
375.416	99.31
375.642	82.31
375.868	92.31
376.094	105.31
376.319	79.31
376.545	99.31
376.771	92.31
376.997	93.31
377.222	89.31
377.448	86.31
377.674	89.31
377.899	87.31
378.125	80.31
378.35	100.31
378.576	96.31
378.802	89.31
379.027	102.31
379.253	95.31
379.478	90.31
379.704	104.31
379.929	97.31
380.155	111.31
380.38	77.31
380.606	89.31
380.831	92.31
381.057	84.31
381.282	111.31
381.507	98.31
381.733	103.31
381.958	95.31
382.184	109.31
382.409	94.31
382.634	100.31
382.86	112.31
383.085	103.31
383.31	95.31
383.535	109.31
383.761	107.31
383.986	99.31
384.211	100.31
384.436	87.31
384.662	92.31
384.887	105.31
385.112	94.31
385.337	120.31
385.562	110.31
385.787	93.31
386.013	121.31
386.238	106.31
386.463	119.31
386.688	117.31
386.913	118.31
387.138	93.31
387.363	97.31
387.588	113.31
387.813	108.31
388.038	112.31
388.263	122.31
388.488	117.31
388.713	89.31
388.938	105.31
389.163	77.31
389.387	93.31
389.612	93.31
389.837	103.31
390.062	87.31
390.287	85.31
390.512	85.31
390.736	99.31
390.961	102.31
391.186	91.31
391.411	90.31
391.636	95.31
391.86	83.31
392.085	80.31
392.31	87.31
392.534	91.31
392.759	91.31
392.984	94.31
393.208	89.31
393.433	101.31
393.658	98.31
393.882	87.31
394.107	73.31
394.331	87.31
394.556	90.31
394.78	92.31
395.005	96.31
395.229	74.31
395.454	83.31
395.678	96.31
395.903	82.31
396.127	87.31
396.352	101.31
396.576	89.31
396.801	103.31
397.025	105.31
397.249	85.31
397.474	91.31
397.698	85.31
397.922	83.31
398.147	89.31
398.371	95.31
398.595	87.31
398.82	91.31
399.044	106.31
399.268	93.31
399.492	87.31
399.717	97.31
399.941	95.31
400.165	89.31
400.389	92.31
400.613	84.31
400.837	85.31
401.062	89.31
401.286	91.31
401.51	87.31
401.734	83.31
401.958	89.31
402.182	99.31
402.406	136.31
402.63	108.31
402.854	103.31
403.078	100.31
403.302	96.31
403.526	88.31
403.75	83.31
403.974	81.31
404.198	84.31
404.422	89.31
404.645	98.31
404.869	102.31
405.093	97.31
405.317	99.31
405.541	94.31
405.765	98.31
405.988	115.31
406.212	167.31
406.436	200.31
406.66	131.31
406.883	96.31
407.107	92.31
407.331	100.31
407.555	103.31
407.778	93.31
408.002	89.31
408.226	92.31
408.449	84.31
408.673	93.31
408.896	88.31
409.12	100.31
409.344	89.31
409.567	97.31
409.791	99.31
410.014	101.31
410.238	93.31
410.461	95.31
410.685	95.31
410.908	98.31
411.132	93.31
411.355	106.31
411.578	92.31
411.802	95.31
412.025	92.31
412.249	80.31
412.472	76.31
412.695	90.31
412.919	97.31
413.142	84.31
413.365	106.31
413.589	91.31
413.812	92.31
414.035	87.31
414.258	83.31
414.482	107.31
414.705	91.31
414.928	90.31
415.151	93.31
415.374	84.31
415.597	85.31
415.821	76.31
416.044	74.31
416.267	82.31
416.49	83.31
416.713	82.31
416.936	89.31
417.159	74.31
417.382	87.31
417.605	89.31
417.828	91.31
418.051	87.31
418.274	85.31
418.497	83.31
418.72	76.31
418.943	95.31
419.166	84.31
419.389	71.31
419.611	85.31
419.834	88.31
420.057	82.31
420.28	85.31
420.503	97.31
420.726	89.31
420.948	99.31
421.171	101.31
421.394	94.31
421.617	85.31
421.839	86.31
422.062	95.31
422.285	102.31
422.507	95.31
422.73	106.31
422.953	96.31
423.175	90.31
423.398	76.31
423.621	87.31
423.843	104.31
424.066	86.31
424.288	99.31
424.511	90.31
424.733	97.31
424.956	111.31
425.178	95.31
425.401	87.31
425.623	94.31
425.846	91.31
426.068	97.31
426.291	103.31
426.513	93.31
426.735	98.31
426.958	106.31
427.18	114.31
427.402	124.31
427.625	139.31
427.847	119.31
428.069	102.31
428.292	92.31
428.514	82.31
428.736	89.31
428.958	83.31
429.181	89.31
429.403	93.31
429.625	90.31
429.847	93.31
430.069	108.31
430.292	88.31
430.514	95.31
430.736	83.31
430.958	87.31
431.18	85.31
431.402	77.31
431.624	87.31
431.846	86.31
432.068	81.31
432.29	98.31
432.512	101.31
432.734	88.31
432.956	84.31
433.178	97.31
433.4	88.31
433.622	90.31
433.844	95.31
434.066	87.31
434.287	100.31
434.509	97.31
434.731	92.31
434.953	75.31
435.175	79.31
435.397	85.31
435.618	93.31
435.84	101.31
436.062	132.31
436.284	104.31
436.505	98.31
436.727	101.31
436.949	91.31
437.17	75.31
437.392	89.31
437.614	100.31
437.835	106.31
438.057	129.31
438.278	125.31
438.5	112.31
438.721	115.31
438.943	105.31
439.165	89.31
439.386	91.31
439.608	81.31
439.829	103.31
440.05	132.31
440.272	136.31
440.493	98.31
440.715	90.31
440.936	76.31
441.158	83.31
441.379	84.31
441.6	100.31
441.822	97.31
442.043	108.31
442.264	98.31
442.486	95.31
442.707	92.31
442.928	108.31
443.149	128.31
443.371	127.31
443.592	110.31
443.813	113.31
444.034	107.31
444.255	83.31
444.476	103.31
444.698	89.31
444.919	93.31
445.14	122.31
445.361	112.31
445.582	123.31
445.803	126.31
446.024	134.31
446.245	133.31
446.466	117.31
446.687	102.31
446.908	78.31
447.129	76.31
447.35	87.31
447.571	93.31
447.792	88.31
448.013	99.31
448.234	103.31
448.455	96.31
448.675	114.31
448.896	114.31
449.117	101.31
449.338	117.31
449.559	116.31
449.779	124.31
450	99.31
450.221	109.31
450.442	106.31
450.662	95.31
450.883	107.31
451.104	104.31
451.324	90.31
451.545	96.31
451.766	85.31
451.986	99.31
452.207	85.31
452.428	102.31
452.648	108.31
452.869	108.31
453.089	97.31
453.31	108.31
453.53	87.31
453.751	97.31
453.971	92.31
454.192	105.31
454.412	99.31
454.633	90.31
454.853	90.31
455.073	91.31
455.294	88.31
455.514	103.31
455.734	75.31
455.955	84.31
456.175	66.31
456.395	80.31
456.616	83.31
456.836	99.31
457.056	83.31
457.276	80.31
457.497	89.31
457.717	80.31
457.937	92.31
458.157	85.31
458.377	93.31
458.598	96.31
458.818	119.31
459.038	133.31
459.258	103.31
459.478	93.31
459.698	76.31
459.918	92.31
460.138	99.31
460.358	95.31
460.578	72.31
460.798	84.31
461.018	98.31
461.238	86.31
461.458	77.31
461.678	73.31
461.898	79.31
462.118	93.31
462.338	83.31
462.558	81.31
462.777	75.31
462.997	101.31
463.217	89.31
463.437	91.31
463.657	86.31
463.876	94.31
464.096	94.31
464.316	94.31
464.536	92.31
464.755	95.31
464.975	101.31
465.195	146.31
465.414	137.31
465.634	92.31
465.854	92.31
466.073	87.31
466.293	89.31
466.512	81.31
466.732	89.31
466.951	77.31
467.171	87.31
467.391	106.31
467.61	101.31
467.829	101.31
468.049	77.31
468.268	89.31
468.488	80.31
468.707	97.31
468.927	101.31
469.146	91.31
469.365	96.31
469.585	85.31
469.804	106.31
470.023	86.31
470.243	85.31
470.462	91.31
470.681	108.31
470.901	95.31
471.12	86.31
471.339	86.31
471.558	89.31
471.777	89.31
471.997	100.31
472.216	100.31
472.435	88.31
472.654	85.31
472.873	89.31
473.092	76.31
473.311	75.31
473.53	91.31
473.749	85.31
473.968	89.31
474.187	87.31
474.406	92.31
474.625	93.31
474.844	92.31
475.063	91.31
475.282	90.31
475.501	89.31
475.72	92.31
475.939	75.31
476.158	91.31
476.377	93.31
476.596	96.31
476.814	92.31
477.033	85.31
477.252	93.31
477.471	76.31
477.69	89.31
477.908	91.31
478.127	91.31
478.346	81.31
478.564	98.31
478.783	99.31
479.002	96.31
479.22	84.31
479.439	103.31
479.658	99.31
479.876	96.31
480.095	77.31
480.313	92.31
480.532	91.31
480.751	105.31
480.969	104.31
481.188	98.31
481.406	100.31
481.624	95.31
481.843	87.31
482.061	94.31
482.28	97.31
482.498	87.31
482.717	87.31
482.935	93.31
483.153	85.31
483.372	76.31
483.59	94.31
483.808	106.31
484.027	86.31
484.245	96.31
484.463	99.31
484.681	110.31
484.9	95.31
485.118	84.31
485.336	86.31
485.554	111.31
485.772	107.31
485.99	100.31
486.209	111.31
486.427	106.31
486.645	98.31
486.863	113.31
487.081	91.31
487.299	98.31
487.517	101.31
487.735	95.31
487.953	92.31
488.171	96.31
488.389	107.31
488.607	79.31
488.825	87.31
489.043	97.31
489.261	93.31
489.479	82.31
489.696	82.31
489.914	70.31
490.132	90.31
490.35	110.31
490.568	94.31
490.786	91.31
491.003	92.31
491.221	90.31
491.439	97.31
491.657	91.31
491.874	99.31
492.092	76.31
492.31	87.31
492.527	88.31
492.745	81.31
492.963	91.31
493.18	100.31
493.398	91.31
493.615	89.31
493.833	76.31
494.05	92.31
494.268	100.31
494.485	106.31
494.703	72.31
494.92	81.31
495.138	83.31
495.355	87.31
495.573	87.31
495.79	88.31
496.008	86.31
496.225	104.31
496.442	89.31
496.66	93.31
496.877	85.31
497.094	96.31
497.312	93.31
497.529	96.31
497.746	85.31
497.963	93.31
498.181	100.31
498.398	93.31
498.615	100.31
498.832	112.31
499.049	95.31
499.267	89.31
499.484	92.31
499.701	92.31
499.918	94.31
500.135	89.31
500.352	95.31
500.569	95.31
500.786	104.31
501.003	87.31
501.22	92.31
501.437	90.31
501.654	90.31
501.871	104.31
502.088	97.31
502.305	102.31
502.522	87.31
502.739	84.31
502.956	95.31
503.172	76.31
503.389	93.31
503.606	101.31
503.823	96.31
504.04	96.31
504.256	88.31
504.473	89.31
504.69	85.31
504.907	90.31
505.123	87.31
505.34	92.31
505.557	95.31
505.773	90.31
505.99	98.31
506.207	96.31
506.423	95.31
506.64	89.31
506.856	89.31
507.073	82.31
507.289	98.31
507.506	108.31
507.722	105.31
507.939	111.31
508.155	100.31
508.372	107.31
508.588	98.31
508.805	101.31
509.021	93.31
509.238	97.31
509.454	95.31
509.67	91.31
509.887	96.31
510.103	121.31
510.319	208.31
510.536	685.31
510.752	2154.31
510.968	593.31
511.184	149.31
511.401	120.31
511.617	102.31
511.833	99.31
512.049	98.31
512.265	86.31
512.481	105.31
512.698	89.31
512.914	97.31
513.13	91.31
513.346	98.31
513.562	87.31
513.778	95.31
513.994	107.31
514.21	103.31
514.426	115.31
514.642	131.31
514.858	130.31
515.074	145.31
515.29	406.31
515.506	1263.31
