Data from Uncirc_1984_H10_HRD10591_00016.txt Node
Date: Wed Jan 03 12:21:40 EST 2024
User: Yrep
Spectrometer: HR+D1059
Trigger mode: 1
Integration Time (sec): 1.000000E-1
Scans to average: 1
Electric dark correction enabled: true
Nonlinearity correction enabled: false
Boxcar width: 0
XAxis mode: Wavelengths
Number of Pixels in Spectrum: 2048
>>>>>Begin Spectral Data<<<<<
223.165	-23.38
223.4	-23.38
223.635	-23.38
223.869	-16.38
224.104	-18.38
224.338	-10.38
224.573	-23.38
224.808	-2.38
225.042	-3.38
225.277	-9.38
225.511	-10.38
225.746	-1.38
225.98	15.62
226.215	13.62
226.449	12.62
226.683	10.62
226.918	32.62
227.152	33.62
227.387	35.62
227.621	41.62
227.856	43.62
228.09	26.62
228.324	57.62
228.559	52.62
228.793	68.62
229.027	62.62
229.262	52.62
229.496	68.62
229.73	79.62
229.964	72.62
230.199	73.62
230.433	76.62
230.667	92.62
230.901	82.62
231.136	59.62
231.37	73.62
231.604	70.62
231.838	82.62
232.072	86.62
232.306	88.62
232.541	75.62
232.775	88.62
233.009	88.62
233.243	59.62
233.477	77.62
233.711	74.62
233.945	92.62
234.179	92.62
234.413	78.62
234.647	98.62
234.881	77.62
235.115	80.62
235.349	93.62
235.583	94.62
235.817	82.62
236.051	86.62
236.285	78.62
236.519	84.62
236.753	74.62
236.987	81.62
237.221	92.62
237.455	93.62
237.689	76.62
237.922	69.62
238.156	74.62
238.39	67.62
238.624	66.62
238.858	70.62
239.091	73.62
239.325	85.62
239.559	77.62
239.793	87.62
240.027	88.62
240.26	68.62
240.494	76.62
240.728	72.62
240.961	82.62
241.195	70.62
241.429	84.62
241.662	91.62
241.896	64.62
242.13	81.62
242.363	82.62
242.597	65.62
242.83	75.62
243.064	74.62
243.298	69.62
243.531	80.62
243.765	85.62
243.998	80.62
244.232	92.62
244.465	80.62
244.699	80.62
244.932	55.62
245.166	77.62
245.399	63.62
245.633	74.62
245.866	70.62
246.099	87.62
246.333	74.62
246.566	76.62
246.8	82.62
247.033	85.62
247.266	70.62
247.5	81.62
247.733	93.62
247.966	97.62
248.2	89.62
248.433	83.62
248.666	81.62
248.899	90.62
249.133	90.62
249.366	91.62
249.599	104.62
249.832	96.62
250.066	74.62
250.299	86.62
250.532	69.62
250.765	76.62
250.998	65.62
251.231	75.62
251.465	81.62
251.698	77.62
251.931	80.62
252.164	89.62
252.397	85.62
252.63	81.62
252.863	88.62
253.096	94.62
253.329	91.62
253.562	89.62
253.795	82.62
254.028	84.62
254.261	83.62
254.494	85.62
254.727	82.62
254.96	83.62
255.193	81.62
255.426	88.62
255.659	85.62
255.892	79.62
256.124	87.62
256.357	76.62
256.59	84.62
256.823	66.62
257.056	73.62
257.289	88.62
257.521	70.62
257.754	86.62
257.987	88.62
258.22	91.62
258.452	85.62
258.685	75.62
258.918	88.62
259.151	92.62
259.383	88.62
259.616	80.62
259.849	87.62
260.081	91.62
260.314	88.62
260.547	86.62
260.779	96.62
261.012	87.62
261.244	64.62
261.477	85.62
261.71	92.62
261.942	107.62
262.175	114.62
262.407	86.62
262.64	84.62
262.872	104.62
263.105	94.62
263.337	90.62
263.57	69.62
263.802	76.62
264.035	77.62
264.267	81.62
264.499	90.62
264.732	89.62
264.964	94.62
265.197	82.62
265.429	88.62
265.661	74.62
265.894	80.62
266.126	92.62
266.358	82.62
266.591	92.62
266.823	84.62
267.055	72.62
267.287	79.62
267.52	67.62
267.752	94.62
267.984	86.62
268.216	77.62
268.448	88.62
268.681	86.62
268.913	82.62
269.145	79.62
269.377	75.62
269.609	72.62
269.841	91.62
270.073	100.62
270.306	106.62
270.538	82.62
270.77	89.62
271.002	73.62
271.234	81.62
271.466	84.62
271.698	86.62
271.93	81.62
272.162	72.62
272.394	94.62
272.626	84.62
272.858	82.62
273.09	89.62
273.322	87.62
273.553	80.62
273.785	85.62
274.017	96.62
274.249	97.62
274.481	84.62
274.713	80.62
274.945	93.62
275.176	85.62
275.408	92.62
275.64	87.62
275.872	93.62
276.104	86.62
276.335	77.62
276.567	102.62
276.799	117.62
277.031	92.62
277.262	78.62
277.494	79.62
277.726	93.62
277.957	80.62
278.189	82.62
278.421	94.62
278.652	80.62
278.884	74.62
279.115	88.62
279.347	87.62
279.579	95.62
279.81	97.62
280.042	88.62
280.273	76.62
280.505	88.62
280.736	71.62
280.968	84.62
281.199	94.62
281.431	98.62
281.662	85.62
281.894	82.62
282.125	94.62
282.356	109.62
282.588	129.62
282.819	121.62
283.051	112.62
283.282	98.62
283.513	89.62
283.745	86.62
283.976	84.62
284.207	93.62
284.439	96.62
284.67	84.62
284.901	87.62
285.132	97.62
285.364	86.62
285.595	71.62
285.826	73.62
286.057	96.62
286.288	82.62
286.52	96.62
286.751	99.62
286.982	86.62
287.213	90.62
287.444	96.62
287.675	96.62
287.906	94.62
288.138	97.62
288.369	88.62
288.6	94.62
288.831	84.62
289.062	88.62
289.293	73.62
289.524	98.62
289.755	96.62
289.986	102.62
290.217	101.62
290.448	83.62
290.679	94.62
290.91	90.62
291.141	86.62
291.371	84.62
291.602	90.62
291.833	85.62
292.064	94.62
292.295	95.62
292.526	83.62
292.757	82.62
292.987	97.62
293.218	98.62
293.449	82.62
293.68	99.62
293.91	88.62
294.141	85.62
294.372	84.62
294.603	88.62
294.833	78.62
295.064	92.62
295.295	88.62
295.525	92.62
295.756	101.62
295.987	109.62
296.217	125.62
296.448	107.62
296.679	94.62
296.909	102.62
297.14	102.62
297.37	94.62
297.601	93.62
297.831	93.62
298.062	102.62
298.292	93.62
298.523	101.62
298.753	75.62
298.984	96.62
299.214	94.62
299.445	86.62
299.675	102.62
299.905	113.62
300.136	96.62
300.366	88.62
300.597	90.62
300.827	99.62
301.057	94.62
301.288	96.62
301.518	98.62
301.748	91.62
301.979	114.62
302.209	93.62
302.439	68.62
302.669	73.62
302.9	72.62
303.13	82.62
303.36	108.62
303.59	99.62
303.82	105.62
304.051	100.62
304.281	89.62
304.511	94.62
304.741	93.62
304.971	93.62
305.201	89.62
305.431	92.62
305.661	72.62
305.891	75.62
306.121	96.62
306.352	91.62
306.582	104.62
306.812	97.62
307.042	94.62
307.272	93.62
307.502	92.62
307.731	97.62
307.961	99.62
308.191	92.62
308.421	105.62
308.651	97.62
308.881	99.62
309.111	94.62
309.341	77.62
309.571	106.62
309.8	98.62
310.03	98.62
310.26	100.62
310.49	89.62
310.72	79.62
310.949	120.62
311.179	107.62
311.409	90.62
311.639	99.62
311.868	103.62
312.098	120.62
312.328	95.62
312.557	100.62
312.787	97.62
313.017	106.62
313.246	97.62
313.476	90.62
313.706	99.62
313.935	96.62
314.165	90.62
314.394	106.62
314.624	84.62
314.853	91.62
315.083	97.62
315.312	106.62
315.542	84.62
315.771	100.62
316.001	98.62
316.23	86.62
316.46	98.62
316.689	88.62
316.919	88.62
317.148	84.62
317.377	94.62
317.607	98.62
317.836	98.62
318.065	92.62
318.295	101.62
318.524	76.62
318.753	84.62
318.983	100.62
319.212	89.62
319.441	104.62
319.67	94.62
319.9	88.62
320.129	94.62
320.358	91.62
320.587	94.62
320.816	103.62
321.046	91.62
321.275	107.62
321.504	102.62
321.733	104.62
321.962	90.62
322.191	98.62
322.42	102.62
322.649	113.62
322.878	96.62
323.108	113.62
323.337	133.62
323.566	147.62
323.795	156.62
324.024	196.62
324.253	375.62
324.482	786.62
324.71	1652.62
324.939	2266.62
325.168	828.62
325.397	256.62
325.626	162.62
325.855	131.62
326.084	124.62
326.313	138.62
326.542	146.62
326.77	216.62
326.999	450.62
327.228	956.62
327.457	1772.62
327.686	1398.62
327.914	376.62
328.143	172.62
328.372	153.62
328.6	121.62
328.829	112.62
329.058	109.62
329.287	118.62
329.515	109.62
329.744	118.62
329.972	100.62
330.201	93.62
330.43	118.62
330.658	131.62
330.887	123.62
331.115	118.62
331.344	94.62
331.572	106.62
331.801	114.62
332.03	87.62
332.258	108.62
332.486	99.62
332.715	101.62
332.943	93.62
333.172	89.62
333.4	104.62
333.629	94.62
333.857	115.62
334.085	110.62
334.314	93.62
334.542	110.62
334.771	110.62
334.999	98.62
335.227	97.62
335.455	100.62
335.684	97.62
335.912	103.62
336.14	96.62
336.369	99.62
336.597	94.62
336.825	97.62
337.053	97.62
337.281	90.62
337.51	91.62
337.738	92.62
337.966	92.62
338.194	99.62
338.422	100.62
338.65	92.62
338.878	97.62
339.106	94.62
339.334	92.62
339.562	85.62
339.79	94.62
340.018	102.62
340.246	94.62
340.474	97.62
340.702	100.62
340.93	101.62
341.158	96.62
341.386	94.62
341.614	92.62
341.842	88.62
342.07	86.62
342.298	94.62
342.526	103.62
342.754	103.62
342.981	95.62
343.209	87.62
343.437	91.62
343.665	86.62
343.893	74.62
344.12	99.62
344.348	93.62
344.576	100.62
344.804	96.62
345.031	91.62
345.259	97.62
345.487	92.62
345.714	97.62
345.942	114.62
346.17	100.62
346.397	92.62
346.625	91.62
346.853	88.62
347.08	88.62
347.308	99.62
347.535	92.62
347.763	95.62
347.99	109.62
348.218	97.62
348.445	96.62
348.673	103.62
348.9	84.62
349.128	99.62
349.355	102.62
349.583	96.62
349.81	94.62
350.037	107.62
350.265	93.62
350.492	112.62
350.72	102.62
350.947	100.62
351.174	99.62
351.402	104.62
351.629	109.62
351.856	102.62
352.083	95.62
352.311	112.62
352.538	108.62
352.765	100.62
352.992	103.62
353.22	115.62
353.447	114.62
353.674	97.62
353.901	93.62
354.128	100.62
354.355	102.62
354.583	97.62
354.81	97.62
355.037	87.62
355.264	87.62
355.491	96.62
355.718	101.62
355.945	88.62
356.172	91.62
356.399	106.62
356.626	96.62
356.853	91.62
357.08	96.62
357.307	98.62
357.534	99.62
357.761	95.62
357.988	99.62
358.215	79.62
358.441	89.62
358.668	91.62
358.895	112.62
359.122	98.62
359.349	83.62
359.576	86.62
359.802	97.62
360.029	115.62
360.256	102.62
360.483	98.62
360.709	83.62
360.936	99.62
361.163	91.62
361.39	99.62
361.616	92.62
361.843	88.62
362.07	110.62
362.296	104.62
362.523	100.62
362.749	87.62
362.976	92.62
363.203	93.62
363.429	93.62
363.656	104.62
363.882	97.62
364.109	97.62
364.335	109.62
364.562	92.62
364.788	97.62
365.015	111.62
365.241	108.62
365.468	115.62
365.694	101.62
365.92	100.62
366.147	108.62
366.373	100.62
366.599	83.62
366.826	104.62
367.052	92.62
367.278	94.62
367.505	85.62
367.731	92.62
367.957	91.62
368.184	90.62
368.41	107.62
368.636	97.62
368.862	107.62
369.089	106.62
369.315	90.62
369.541	105.62
369.767	92.62
369.993	94.62
370.219	96.62
370.445	96.62
370.672	86.62
370.898	83.62
371.124	89.62
371.35	85.62
371.576	104.62
371.802	89.62
372.028	99.62
372.254	82.62
372.48	86.62
372.706	92.62
372.932	85.62
373.158	77.62
373.384	93.62
373.61	94.62
373.835	109.62
374.061	95.62
374.287	92.62
374.513	85.62
374.739	89.62
374.965	75.62
375.191	89.62
375.416	93.62
375.642	108.62
375.868	86.62
376.094	103.62
376.319	84.62
376.545	85.62
376.771	102.62
376.997	93.62
377.222	94.62
377.448	97.62
377.674	84.62
377.899	93.62
378.125	92.62
378.35	88.62
378.576	97.62
378.802	104.62
379.027	86.62
379.253	90.62
379.478	99.62
379.704	106.62
379.929	84.62
380.155	101.62
380.38	92.62
380.606	101.62
380.831	95.62
381.057	94.62
381.282	101.62
381.507	93.62
381.733	96.62
381.958	90.62
382.184	96.62
382.409	97.62
382.634	102.62
382.86	101.62
383.085	100.62
383.31	115.62
383.535	102.62
383.761	87.62
383.986	101.62
384.211	98.62
384.436	89.62
384.662	87.62
384.887	93.62
385.112	94.62
385.337	114.62
385.562	96.62
385.787	88.62
386.013	99.62
386.238	108.62
386.463	87.62
386.688	118.62
386.913	109.62
387.138	104.62
387.363	102.62
387.588	111.62
387.813	91.62
388.038	97.62
388.263	102.62
388.488	100.62
388.713	104.62
388.938	109.62
389.163	100.62
389.387	105.62
389.612	85.62
389.837	99.62
390.062	100.62
390.287	100.62
390.512	102.62
390.736	82.62
390.961	90.62
391.186	77.62
391.411	93.62
391.636	106.62
391.86	84.62
392.085	100.62
392.31	97.62
392.534	95.62
392.759	100.62
392.984	97.62
393.208	101.62
393.433	99.62
393.658	106.62
393.882	85.62
394.107	77.62
394.331	91.62
394.556	90.62
394.78	75.62
395.005	90.62
395.229	86.62
395.454	90.62
395.678	99.62
395.903	93.62
396.127	94.62
396.352	90.62
396.576	77.62
396.801	90.62
397.025	84.62
397.249	90.62
397.474	91.62
397.698	92.62
397.922	76.62
398.147	84.62
398.371	100.62
398.595	88.62
398.82	91.62
399.044	82.62
399.268	81.62
399.492	81.62
399.717	87.62
399.941	92.62
400.165	92.62
400.389	96.62
400.613	88.62
400.837	83.62
401.062	88.62
401.286	96.62
401.51	102.62
401.734	84.62
401.958	102.62
402.182	119.62
402.406	153.62
402.63	125.62
402.854	84.62
403.078	92.62
403.302	92.62
403.526	94.62
403.75	97.62
403.974	88.62
404.198	81.62
404.422	91.62
404.645	73.62
404.869	89.62
405.093	98.62
405.317	100.62
405.541	96.62
405.765	100.62
405.988	98.62
406.212	139.62
406.436	212.62
406.66	137.62
406.883	105.62
407.107	94.62
407.331	105.62
407.555	99.62
407.778	95.62
408.002	98.62
408.226	102.62
408.449	97.62
408.673	84.62
408.896	92.62
409.12	87.62
409.344	91.62
409.567	88.62
409.791	101.62
410.014	80.62
410.238	82.62
410.461	85.62
410.685	88.62
410.908	92.62
411.132	102.62
411.355	93.62
411.578	96.62
411.802	106.62
412.025	78.62
412.249	91.62
412.472	89.62
412.695	108.62
412.919	99.62
413.142	97.62
413.365	77.62
413.589	84.62
413.812	96.62
414.035	115.62
414.258	92.62
414.482	97.62
414.705	106.62
414.928	93.62
415.151	100.62
415.374	96.62
415.597	89.62
415.821	80.62
416.044	90.62
416.267	82.62
416.49	88.62
416.713	78.62
416.936	97.62
417.159	95.62
417.382	92.62
417.605	96.62
417.828	98.62
418.051	93.62
418.274	89.62
418.497	86.62
418.72	100.62
418.943	94.62
419.166	94.62
419.389	93.62
419.611	102.62
419.834	76.62
420.057	75.62
420.28	98.62
420.503	100.62
420.726	85.62
420.948	81.62
421.171	97.62
421.394	77.62
421.617	89.62
421.839	99.62
422.062	91.62
422.285	93.62
422.507	94.62
422.73	112.62
422.953	98.62
423.175	92.62
423.398	88.62
423.621	96.62
423.843	102.62
424.066	97.62
424.288	96.62
424.511	92.62
424.733	92.62
424.956	109.62
425.178	98.62
425.401	87.62
425.623	107.62
425.846	88.62
426.068	93.62
426.291	100.62
426.513	89.62
426.735	96.62
426.958	102.62
427.18	116.62
427.402	150.62
427.625	168.62
427.847	113.62
428.069	108.62
428.292	91.62
428.514	86.62
428.736	88.62
428.958	80.62
429.181	90.62
429.403	84.62
429.625	87.62
429.847	92.62
430.069	104.62
430.292	92.62
430.514	91.62
430.736	93.62
430.958	83.62
431.18	81.62
431.402	84.62
431.624	84.62
431.846	88.62
432.068	85.62
432.29	80.62
432.512	90.62
432.734	95.62
432.956	96.62
433.178	98.62
433.4	106.62
433.622	89.62
433.844	75.62
434.066	91.62
434.287	105.62
434.509	86.62
434.731	88.62
434.953	88.62
435.175	86.62
435.397	92.62
435.618	102.62
435.84	101.62
436.062	125.62
436.284	103.62
436.505	105.62
436.727	109.62
436.949	94.62
437.17	76.62
437.392	88.62
437.614	111.62
437.835	106.62
438.057	124.62
438.278	112.62
438.5	100.62
438.721	117.62
438.943	110.62
439.165	94.62
439.386	90.62
439.608	90.62
439.829	109.62
440.05	119.62
440.272	131.62
440.493	97.62
440.715	86.62
440.936	84.62
441.158	96.62
441.379	86.62
441.6	89.62
441.822	99.62
442.043	101.62
442.264	104.62
442.486	91.62
442.707	90.62
442.928	98.62
443.149	129.62
443.371	130.62
443.592	119.62
443.813	105.62
444.034	96.62
444.255	97.62
444.476	99.62
444.698	85.62
444.919	92.62
445.14	143.62
445.361	128.62
445.582	112.62
445.803	146.62
446.024	130.62
446.245	139.62
446.466	117.62
446.687	88.62
446.908	80.62
447.129	97.62
447.35	91.62
447.571	78.62
447.792	87.62
448.013	88.62
448.234	83.62
448.455	96.62
448.675	121.62
448.896	124.62
449.117	107.62
449.338	105.62
449.559	151.62
449.779	138.62
450	78.62
450.221	101.62
450.442	105.62
450.662	88.62
450.883	111.62
451.104	115.62
451.324	83.62
451.545	81.62
451.766	86.62
451.986	89.62
452.207	83.62
452.428	90.62
452.648	96.62
452.869	112.62
453.089	123.62
453.31	106.62
453.53	99.62
453.751	95.62
453.971	111.62
454.192	90.62
454.412	93.62
454.633	80.62
454.853	96.62
455.073	88.62
455.294	71.62
455.514	92.62
455.734	92.62
455.955	99.62
456.175	99.62
456.395	77.62
456.616	86.62
456.836	74.62
457.056	88.62
457.276	83.62
457.497	87.62
457.717	73.62
457.937	106.62
458.157	87.62
458.377	82.62
458.598	110.62
458.818	138.62
459.038	141.62
459.258	107.62
459.478	81.62
459.698	88.62
459.918	106.62
460.138	90.62
460.358	97.62
460.578	92.62
460.798	89.62
461.018	81.62
461.238	81.62
461.458	98.62
461.678	78.62
461.898	74.62
462.118	81.62
462.338	85.62
462.558	89.62
462.777	66.62
462.997	98.62
463.217	96.62
463.437	95.62
463.657	83.62
463.876	90.62
464.096	91.62
464.316	96.62
464.536	84.62
464.755	104.62
464.975	106.62
465.195	136.62
465.414	128.62
465.634	107.62
465.854	93.62
466.073	93.62
466.293	84.62
466.512	93.62
466.732	94.62
466.951	96.62
467.171	84.62
467.391	90.62
467.61	96.62
467.829	81.62
468.049	96.62
468.268	92.62
468.488	82.62
468.707	85.62
468.927	77.62
469.146	84.62
469.365	74.62
469.585	102.62
469.804	98.62
470.023	91.62
470.243	102.62
470.462	104.62
470.681	113.62
470.901	100.62
471.12	86.62
471.339	93.62
471.558	101.62
471.777	94.62
471.997	73.62
472.216	90.62
472.435	100.62
472.654	81.62
472.873	71.62
473.092	92.62
473.311	76.62
473.53	102.62
473.749	85.62
473.968	92.62
474.187	112.62
474.406	99.62
474.625	78.62
474.844	90.62
475.063	90.62
475.282	71.62
475.501	93.62
475.72	95.62
475.939	90.62
476.158	100.62
476.377	93.62
476.596	91.62
476.814	90.62
477.033	85.62
477.252	96.62
477.471	76.62
477.69	95.62
477.908	96.62
478.127	86.62
478.346	100.62
478.564	85.62
478.783	96.62
479.002	96.62
479.22	99.62
479.439	96.62
479.658	101.62
479.876	93.62
480.095	82.62
480.313	88.62
480.532	75.62
480.751	86.62
480.969	111.62
481.188	100.62
481.406	97.62
481.624	100.62
481.843	100.62
482.061	92.62
482.28	102.62
482.498	80.62
482.717	90.62
482.935	87.62
483.153	85.62
483.372	80.62
483.59	82.62
483.808	91.62
484.027	105.62
484.245	87.62
484.463	93.62
484.681	86.62
484.9	94.62
485.118	96.62
485.336	86.62
485.554	94.62
485.772	99.62
485.99	114.62
486.209	102.62
486.427	100.62
486.645	97.62
486.863	121.62
487.081	98.62
487.299	92.62
487.517	90.62
487.735	91.62
487.953	92.62
488.171	102.62
488.389	106.62
488.607	86.62
488.825	88.62
489.043	95.62
489.261	89.62
489.479	93.62
489.696	92.62
489.914	99.62
490.132	90.62
490.35	91.62
490.568	72.62
490.786	75.62
491.003	84.62
491.221	106.62
491.439	88.62
491.657	93.62
491.874	94.62
492.092	97.62
492.31	84.62
492.527	82.62
492.745	89.62
492.963	99.62
493.18	89.62
493.398	97.62
493.615	106.62
493.833	98.62
494.05	89.62
494.268	89.62
494.485	93.62
494.703	87.62
494.92	84.62
495.138	99.62
495.355	67.62
495.573	96.62
495.79	90.62
496.008	96.62
496.225	91.62
496.442	90.62
496.66	95.62
496.877	85.62
497.094	104.62
497.312	66.62
497.529	99.62
497.746	92.62
497.963	89.62
498.181	101.62
498.398	102.62
498.615	111.62
498.832	92.62
499.049	89.62
499.267	81.62
499.484	95.62
499.701	89.62
499.918	83.62
500.135	81.62
500.352	82.62
500.569	96.62
500.786	100.62
501.003	86.62
501.22	92.62
501.437	93.62
501.654	82.62
501.871	109.62
502.088	97.62
502.305	81.62
502.522	80.62
502.739	98.62
502.956	96.62
503.172	99.62
503.389	86.62
503.606	111.62
503.823	99.62
504.04	95.62
504.256	82.62
504.473	80.62
504.69	89.62
504.907	88.62
505.123	87.62
505.34	89.62
505.557	88.62
505.773	89.62
505.99	92.62
506.207	89.62
506.423	77.62
506.64	98.62
506.856	88.62
507.073	90.62
507.289	98.62
507.506	87.62
507.722	108.62
507.939	108.62
508.155	88.62
508.372	100.62
508.588	88.62
508.805	83.62
509.021	90.62
509.238	104.62
509.454	92.62
509.67	109.62
509.887	113.62
510.103	139.62
510.319	202.62
510.536	678.62
510.752	2209.62
510.968	626.62
511.184	154.62
511.401	99.62
511.617	94.62
511.833	105.62
512.049	108.62
512.265	94.62
512.481	91.62
512.698	93.62
512.914	92.62
513.13	104.62
513.346	82.62
513.562	97.62
513.778	91.62
513.994	93.62
514.21	98.62
514.426	109.62
514.642	135.62
514.858	117.62
515.074	154.62
515.29	425.62
