Data from Uncirc_1984_H10_HRD10591_00017.txt Node
Date: Wed Jan 03 12:21:40 EST 2024
User: Yrep
Spectrometer: HR+D1059
Trigger mode: 1
Integration Time (sec): 1.000000E-1
Scans to average: 1
Electric dark correction enabled: true
Nonlinearity correction enabled: false
Boxcar width: 0
XAxis mode: Wavelengths
Number of Pixels in Spectrum: 2048
>>>>>Begin Spectral Data<<<<<
223.165	-11.25
223.4	-11.25
223.635	-11.25
223.869	-29.25
224.104	-29.25
224.338	-7.25
224.573	-13.25
224.808	-19.25
225.042	0.75
225.277	8.75
225.511	12.75
225.746	-5.25
225.98	10.75
226.215	17.75
226.449	7.75
226.683	18.75
226.918	23.75
227.152	13.75
227.387	37.75
227.621	29.75
227.856	44.75
228.09	44.75
228.324	48.75
228.559	61.75
228.793	74.75
229.027	67.75
229.262	55.75
229.496	97.75
229.73	82.75
229.964	75.75
230.199	65.75
230.433	85.75
230.667	81.75
230.901	81.75
231.136	78.75
231.37	57.75
231.604	91.75
231.838	88.75
232.072	77.75
232.306	79.75
232.541	83.75
232.775	92.75
233.009	79.75
233.243	83.75
233.477	87.75
233.711	78.75
233.945	81.75
234.179	89.75
234.413	82.75
234.647	68.75
234.881	83.75
235.115	89.75
235.349	97.75
235.583	91.75
235.817	72.75
236.051	74.75
236.285	77.75
236.519	73.75
236.753	79.75
236.987	87.75
237.221	81.75
237.455	71.75
237.689	61.75
237.922	65.75
238.156	82.75
238.39	91.75
238.624	71.75
238.858	85.75
239.091	83.75
239.325	81.75
239.559	73.75
239.793	92.75
240.027	70.75
240.26	72.75
240.494	81.75
240.728	84.75
240.961	87.75
241.195	79.75
241.429	72.75
241.662	81.75
241.896	65.75
242.13	70.75
242.363	79.75
242.597	78.75
242.83	81.75
243.064	83.75
243.298	82.75
243.531	73.75
243.765	87.75
243.998	79.75
244.232	95.75
244.465	82.75
244.699	79.75
244.932	85.75
245.166	97.75
245.399	72.75
245.633	70.75
245.866	76.75
246.099	67.75
246.333	81.75
246.566	65.75
246.8	75.75
247.033	79.75
247.266	66.75
247.5	85.75
247.733	70.75
247.966	83.75
248.2	81.75
248.433	61.75
248.666	73.75
248.899	85.75
249.133	86.75
249.366	96.75
249.599	101.75
249.832	69.75
250.066	75.75
250.299	81.75
250.532	79.75
250.765	68.75
250.998	78.75
251.231	82.75
251.465	76.75
251.698	54.75
251.931	75.75
252.164	83.75
252.397	71.75
252.63	75.75
252.863	81.75
253.096	65.75
253.329	78.75
253.562	84.75
253.795	75.75
254.028	75.75
254.261	85.75
254.494	91.75
254.727	89.75
254.96	74.75
255.193	90.75
255.426	99.75
255.659	85.75
255.892	92.75
256.124	77.75
256.357	86.75
256.59	82.75
256.823	70.75
257.056	68.75
257.289	82.75
257.521	75.75
257.754	75.75
257.987	86.75
258.22	89.75
258.452	74.75
258.685	76.75
258.918	74.75
259.151	93.75
259.383	89.75
259.616	87.75
259.849	90.75
260.081	95.75
260.314	82.75
260.547	87.75
260.779	79.75
261.012	73.75
261.244	82.75
261.477	93.75
261.71	89.75
261.942	108.75
262.175	106.75
262.407	80.75
262.64	92.75
262.872	73.75
263.105	83.75
263.337	97.75
263.57	97.75
263.802	79.75
264.035	87.75
264.267	79.75
264.499	78.75
264.732	100.75
264.964	85.75
265.197	72.75
265.429	86.75
265.661	81.75
265.894	86.75
266.126	89.75
266.358	78.75
266.591	80.75
266.823	94.75
267.055	88.75
267.287	81.75
267.52	87.75
267.752	81.75
267.984	85.75
268.216	76.75
268.448	87.75
268.681	86.75
268.913	84.75
269.145	94.75
269.377	83.75
269.609	90.75
269.841	90.75
270.073	75.75
270.306	86.75
270.538	78.75
270.77	90.75
271.002	90.75
271.234	97.75
271.466	97.75
271.698	97.75
271.93	100.75
272.162	83.75
272.394	81.75
272.626	90.75
272.858	85.75
273.09	93.75
273.322	89.75
273.553	81.75
273.785	85.75
274.017	78.75
274.249	87.75
274.481	87.75
274.713	93.75
274.945	93.75
275.176	94.75
275.408	90.75
275.64	87.75
275.872	95.75
276.104	79.75
276.335	90.75
276.567	100.75
276.799	95.75
277.031	97.75
277.262	95.75
277.494	86.75
277.726	99.75
277.957	90.75
278.189	88.75
278.421	81.75
278.652	95.75
278.884	76.75
279.115	86.75
279.347	89.75
279.579	81.75
279.81	87.75
280.042	78.75
280.273	85.75
280.505	91.75
280.736	76.75
280.968	87.75
281.199	79.75
281.431	83.75
281.662	99.75
281.894	83.75
282.125	98.75
282.356	113.75
282.588	138.75
282.819	107.75
283.051	82.75
283.282	88.75
283.513	94.75
283.745	86.75
283.976	85.75
284.207	83.75
284.439	95.75
284.67	92.75
284.901	90.75
285.132	89.75
285.364	86.75
285.595	77.75
285.826	107.75
286.057	98.75
286.288	89.75
286.52	93.75
286.751	85.75
286.982	105.75
287.213	81.75
287.444	90.75
287.675	101.75
287.906	96.75
288.138	89.75
288.369	91.75
288.6	86.75
288.831	90.75
289.062	94.75
289.293	94.75
289.524	93.75
289.755	76.75
289.986	77.75
290.217	101.75
290.448	91.75
290.679	91.75
290.91	101.75
291.141	86.75
291.371	89.75
291.602	92.75
291.833	84.75
292.064	87.75
292.295	100.75
292.526	81.75
292.757	93.75
292.987	84.75
293.218	89.75
293.449	96.75
293.68	81.75
293.91	84.75
294.141	81.75
294.372	93.75
294.603	84.75
294.833	91.75
295.064	90.75
295.295	82.75
295.525	93.75
295.756	95.75
295.987	100.75
296.217	123.75
296.448	121.75
296.679	97.75
296.909	88.75
297.14	98.75
297.37	87.75
297.601	94.75
297.831	83.75
298.062	92.75
298.292	75.75
298.523	77.75
298.753	81.75
298.984	93.75
299.214	93.75
299.445	92.75
299.675	86.75
299.905	90.75
300.136	86.75
300.366	107.75
300.597	102.75
300.827	86.75
301.057	84.75
301.288	102.75
301.518	100.75
301.748	105.75
301.979	103.75
302.209	94.75
302.439	85.75
302.669	95.75
302.9	85.75
303.13	92.75
303.36	107.75
303.59	92.75
303.82	101.75
304.051	83.75
304.281	100.75
304.511	94.75
304.741	95.75
304.971	92.75
305.201	85.75
305.431	89.75
305.661	81.75
305.891	94.75
306.121	83.75
306.352	81.75
306.582	105.75
306.812	101.75
307.042	85.75
307.272	89.75
307.502	90.75
307.731	97.75
307.961	86.75
308.191	91.75
308.421	90.75
308.651	92.75
308.881	90.75
309.111	95.75
309.341	96.75
309.571	91.75
309.8	101.75
310.03	95.75
310.26	99.75
310.49	100.75
310.72	105.75
310.949	103.75
311.179	93.75
311.409	105.75
311.639	92.75
311.868	104.75
312.098	82.75
312.328	103.75
312.557	111.75
312.787	101.75
313.017	117.75
313.246	91.75
313.476	71.75
313.706	89.75
313.935	97.75
314.165	95.75
314.394	98.75
314.624	107.75
314.853	97.75
315.083	93.75
315.312	97.75
315.542	65.75
315.771	92.75
316.001	99.75
316.23	97.75
316.46	106.75
316.689	100.75
316.919	90.75
317.148	93.75
317.377	93.75
317.607	98.75
317.836	79.75
318.065	96.75
318.295	93.75
318.524	89.75
318.753	99.75
318.983	97.75
319.212	99.75
319.441	97.75
319.67	105.75
319.9	104.75
320.129	83.75
320.358	98.75
320.587	101.75
320.816	94.75
321.046	102.75
321.275	94.75
321.504	87.75
321.733	100.75
321.962	106.75
322.191	105.75
322.42	121.75
322.649	111.75
322.878	129.75
323.108	114.75
323.337	122.75
323.566	126.75
323.795	124.75
324.024	201.75
324.253	347.75
324.482	772.75
324.71	1628.75
324.939	2181.75
325.168	781.75
325.397	248.75
325.626	145.75
325.855	116.75
326.084	126.75
326.313	137.75
326.542	151.75
326.77	237.75
326.999	432.75
327.228	881.75
327.457	1694.75
327.686	1303.75
327.914	345.75
328.143	179.75
328.372	157.75
328.6	114.75
328.829	109.75
329.058	140.75
329.287	127.75
329.515	110.75
329.744	104.75
329.972	93.75
330.201	106.75
330.43	106.75
330.658	118.75
330.887	124.75
331.115	106.75
331.344	102.75
331.572	101.75
331.801	102.75
332.03	106.75
332.258	95.75
332.486	85.75
332.715	98.75
332.943	89.75
333.172	103.75
333.4	93.75
333.629	107.75
333.857	104.75
334.085	94.75
334.314	93.75
334.542	98.75
334.771	103.75
334.999	92.75
335.227	97.75
335.455	95.75
335.684	84.75
335.912	100.75
336.14	97.75
336.369	90.75
336.597	101.75
336.825	85.75
337.053	91.75
337.281	95.75
337.51	94.75
337.738	81.75
337.966	99.75
338.194	105.75
338.422	96.75
338.65	98.75
338.878	98.75
339.106	103.75
339.334	110.75
339.562	93.75
339.79	81.75
340.018	93.75
340.246	93.75
340.474	98.75
340.702	104.75
340.93	89.75
341.158	102.75
341.386	98.75
341.614	89.75
341.842	97.75
342.07	99.75
342.298	93.75
342.526	100.75
342.754	91.75
342.981	104.75
343.209	99.75
343.437	106.75
343.665	82.75
343.893	94.75
344.12	94.75
344.348	98.75
344.576	85.75
344.804	105.75
345.031	106.75
345.259	92.75
345.487	85.75
345.714	100.75
345.942	84.75
346.17	91.75
346.397	84.75
346.625	86.75
346.853	92.75
347.08	104.75
347.308	94.75
347.535	87.75
347.763	96.75
347.99	90.75
348.218	104.75
348.445	102.75
348.673	102.75
348.9	98.75
349.128	88.75
349.355	101.75
349.583	102.75
349.81	89.75
350.037	95.75
350.265	102.75
350.492	88.75
350.72	91.75
350.947	118.75
351.174	91.75
351.402	94.75
351.629	94.75
351.856	96.75
352.083	95.75
352.311	103.75
352.538	115.75
352.765	108.75
352.992	115.75
353.22	110.75
353.447	106.75
353.674	102.75
353.901	107.75
354.128	97.75
354.355	93.75
354.583	96.75
354.81	102.75
355.037	87.75
355.264	95.75
355.491	96.75
355.718	101.75
355.945	102.75
356.172	90.75
356.399	93.75
356.626	95.75
356.853	98.75
357.08	93.75
357.307	79.75
357.534	99.75
357.761	87.75
357.988	88.75
358.215	91.75
358.441	103.75
358.668	102.75
358.895	87.75
359.122	91.75
359.349	77.75
359.576	105.75
359.802	95.75
360.029	103.75
360.256	94.75
360.483	99.75
360.709	82.75
360.936	99.75
361.163	97.75
361.39	102.75
361.616	95.75
361.843	89.75
362.07	93.75
362.296	98.75
362.523	89.75
362.749	86.75
362.976	101.75
363.203	99.75
363.429	92.75
363.656	92.75
363.882	88.75
364.109	94.75
364.335	110.75
364.562	83.75
364.788	87.75
365.015	105.75
365.241	99.75
365.468	99.75
365.694	120.75
365.92	108.75
366.147	87.75
366.373	82.75
366.599	92.75
366.826	73.75
367.052	93.75
367.278	90.75
367.505	81.75
367.731	106.75
367.957	102.75
368.184	99.75
368.41	99.75
368.636	113.75
368.862	110.75
369.089	101.75
369.315	90.75
369.541	97.75
369.767	98.75
369.993	92.75
370.219	94.75
370.445	101.75
370.672	91.75
370.898	83.75
371.124	97.75
371.35	90.75
371.576	79.75
371.802	99.75
372.028	101.75
372.254	90.75
372.48	77.75
372.706	105.75
372.932	94.75
373.158	91.75
373.384	107.75
373.61	91.75
373.835	85.75
374.061	93.75
374.287	90.75
374.513	90.75
374.739	88.75
374.965	93.75
375.191	98.75
375.416	87.75
375.642	84.75
375.868	88.75
376.094	93.75
376.319	91.75
376.545	91.75
376.771	78.75
376.997	83.75
377.222	99.75
377.448	94.75
377.674	94.75
377.899	97.75
378.125	92.75
378.35	91.75
378.576	94.75
378.802	81.75
379.027	97.75
379.253	83.75
379.478	90.75
379.704	83.75
379.929	89.75
380.155	109.75
380.38	85.75
380.606	101.75
380.831	105.75
381.057	105.75
381.282	93.75
381.507	112.75
381.733	90.75
381.958	98.75
382.184	102.75
382.409	102.75
382.634	106.75
382.86	109.75
383.085	100.75
383.31	105.75
383.535	108.75
383.761	109.75
383.986	94.75
384.211	98.75
384.436	103.75
384.662	101.75
384.887	105.75
385.112	105.75
385.337	97.75
385.562	100.75
385.787	92.75
386.013	94.75
386.238	111.75
386.463	103.75
386.688	99.75
386.913	90.75
387.138	118.75
387.363	113.75
387.588	107.75
387.813	108.75
388.038	105.75
388.263	111.75
388.488	94.75
388.713	92.75
388.938	111.75
389.163	98.75
389.387	94.75
389.612	97.75
389.837	91.75
390.062	104.75
390.287	100.75
390.512	95.75
390.736	92.75
390.961	97.75
391.186	97.75
391.411	84.75
391.636	96.75
391.86	85.75
392.085	81.75
392.31	94.75
392.534	92.75
392.759	89.75
392.984	101.75
393.208	97.75
393.433	98.75
393.658	92.75
393.882	85.75
394.107	88.75
394.331	82.75
394.556	102.75
394.78	86.75
395.005	99.75
395.229	87.75
395.454	96.75
395.678	87.75
395.903	104.75
396.127	84.75
396.352	93.75
396.576	90.75
396.801	101.75
397.025	97.75
397.249	94.75
397.474	93.75
397.698	98.75
397.922	87.75
398.147	99.75
398.371	103.75
398.595	110.75
398.82	87.75
399.044	81.75
399.268	101.75
399.492	89.75
399.717	93.75
399.941	100.75
400.165	91.75
400.389	99.75
400.613	89.75
400.837	99.75
401.062	83.75
401.286	75.75
401.51	95.75
401.734	101.75
401.958	92.75
402.182	115.75
402.406	152.75
402.63	115.75
402.854	94.75
403.078	88.75
403.302	82.75
403.526	74.75
403.75	85.75
403.974	97.75
404.198	94.75
404.422	94.75
404.645	85.75
404.869	105.75
405.093	95.75
405.317	93.75
405.541	83.75
405.765	97.75
405.988	106.75
406.212	157.75
406.436	198.75
406.66	142.75
406.883	105.75
407.107	95.75
407.331	105.75
407.555	108.75
407.778	91.75
408.002	94.75
408.226	90.75
408.449	93.75
408.673	77.75
408.896	95.75
409.12	101.75
409.344	77.75
409.567	85.75
409.791	108.75
410.014	97.75
410.238	96.75
410.461	93.75
410.685	87.75
410.908	103.75
411.132	94.75
411.355	116.75
411.578	93.75
411.802	109.75
412.025	87.75
412.249	95.75
412.472	94.75
412.695	103.75
412.919	94.75
413.142	94.75
413.365	91.75
413.589	96.75
413.812	91.75
414.035	97.75
414.258	97.75
414.482	99.75
414.705	91.75
414.928	97.75
415.151	87.75
415.374	90.75
415.597	92.75
415.821	87.75
416.044	94.75
416.267	92.75
416.49	89.75
416.713	95.75
416.936	105.75
417.159	80.75
417.382	96.75
417.605	93.75
417.828	94.75
418.051	93.75
418.274	88.75
418.497	90.75
418.72	107.75
418.943	92.75
419.166	73.75
419.389	93.75
419.611	104.75
419.834	101.75
420.057	94.75
420.28	83.75
420.503	81.75
420.726	93.75
420.948	92.75
421.171	98.75
421.394	105.75
421.617	95.75
421.839	106.75
422.062	79.75
422.285	105.75
422.507	107.75
422.73	105.75
422.953	97.75
423.175	84.75
423.398	90.75
423.621	100.75
423.843	109.75
424.066	89.75
424.288	94.75
424.511	101.75
424.733	93.75
424.956	108.75
425.178	92.75
425.401	99.75
425.623	110.75
425.846	102.75
426.068	88.75
426.291	101.75
426.513	98.75
426.735	104.75
426.958	99.75
427.18	96.75
427.402	123.75
427.625	159.75
427.847	129.75
428.069	104.75
428.292	91.75
428.514	85.75
428.736	95.75
428.958	90.75
429.181	74.75
429.403	90.75
429.625	87.75
429.847	94.75
430.069	100.75
430.292	99.75
430.514	104.75
430.736	94.75
430.958	90.75
431.18	93.75
431.402	90.75
431.624	82.75
431.846	89.75
432.068	81.75
432.29	95.75
432.512	88.75
432.734	83.75
432.956	102.75
433.178	104.75
433.4	112.75
433.622	95.75
433.844	89.75
434.066	87.75
434.287	94.75
434.509	90.75
434.731	87.75
434.953	92.75
435.175	81.75
435.397	84.75
435.618	100.75
435.84	121.75
436.062	137.75
436.284	118.75
436.505	82.75
436.727	111.75
436.949	103.75
437.17	84.75
437.392	87.75
437.614	111.75
437.835	117.75
438.057	105.75
438.278	102.75
438.5	106.75
438.721	117.75
438.943	101.75
439.165	91.75
439.386	104.75
439.608	93.75
439.829	122.75
440.05	123.75
440.272	154.75
440.493	107.75
440.715	85.75
440.936	86.75
441.158	89.75
441.379	81.75
441.6	100.75
441.822	105.75
442.043	97.75
442.264	103.75
442.486	101.75
442.707	87.75
442.928	90.75
443.149	133.75
443.371	117.75
443.592	127.75
443.813	127.75
444.034	103.75
444.255	88.75
444.476	102.75
444.698	88.75
444.919	104.75
445.14	151.75
445.361	123.75
445.582	110.75
445.803	120.75
446.024	130.75
446.245	122.75
446.466	118.75
446.687	93.75
446.908	89.75
447.129	100.75
447.35	83.75
447.571	85.75
447.792	83.75
448.013	105.75
448.234	111.75
448.455	92.75
448.675	99.75
448.896	117.75
449.117	115.75
449.338	104.75
449.559	118.75
449.779	133.75
450	100.75
450.221	88.75
450.442	89.75
450.662	95.75
450.883	109.75
451.104	110.75
451.324	87.75
451.545	93.75
451.766	95.75
451.986	95.75
452.207	92.75
452.428	103.75
452.648	87.75
452.869	105.75
453.089	116.75
453.31	110.75
453.53	81.75
453.751	88.75
453.971	113.75
454.192	111.75
454.412	91.75
454.633	91.75
454.853	90.75
455.073	109.75
455.294	83.75
455.514	92.75
455.734	100.75
455.955	94.75
456.175	77.75
456.395	98.75
456.616	73.75
456.836	105.75
457.056	85.75
457.276	89.75
457.497	109.75
457.717	86.75
457.937	81.75
458.157	80.75
458.377	86.75
458.598	110.75
458.818	147.75
459.038	136.75
459.258	113.75
459.478	91.75
459.698	107.75
459.918	95.75
460.138	102.75
460.358	85.75
460.578	97.75
460.798	79.75
461.018	91.75
461.238	97.75
461.458	89.75
461.678	90.75
461.898	89.75
462.118	69.75
462.338	81.75
462.558	86.75
462.777	96.75
462.997	102.75
463.217	86.75
463.437	88.75
463.657	85.75
463.876	95.75
464.096	92.75
464.316	83.75
464.536	90.75
464.755	95.75
464.975	104.75
465.195	169.75
465.414	154.75
465.634	116.75
465.854	91.75
466.073	78.75
466.293	89.75
466.512	85.75
466.732	91.75
466.951	101.75
467.171	94.75
467.391	105.75
467.61	92.75
467.829	99.75
468.049	88.75
468.268	83.75
468.488	90.75
468.707	75.75
468.927	94.75
469.146	90.75
469.365	94.75
469.585	93.75
469.804	100.75
470.023	90.75
470.243	87.75
470.462	103.75
470.681	119.75
470.901	81.75
471.12	83.75
471.339	92.75
471.558	98.75
471.777	85.75
471.997	77.75
472.216	92.75
472.435	93.75
472.654	84.75
472.873	90.75
473.092	84.75
473.311	87.75
473.53	90.75
473.749	85.75
473.968	92.75
474.187	97.75
474.406	102.75
474.625	97.75
474.844	99.75
475.063	95.75
475.282	78.75
475.501	87.75
475.72	93.75
475.939	79.75
476.158	77.75
476.377	93.75
476.596	96.75
476.814	93.75
477.033	105.75
477.252	84.75
477.471	97.75
477.69	89.75
477.908	87.75
478.127	86.75
478.346	98.75
478.564	84.75
478.783	112.75
479.002	89.75
479.22	81.75
479.439	96.75
479.658	104.75
479.876	99.75
480.095	105.75
480.313	86.75
480.532	104.75
480.751	95.75
480.969	93.75
481.188	108.75
481.406	92.75
481.624	101.75
481.843	87.75
482.061	87.75
482.28	86.75
482.498	85.75
482.717	97.75
482.935	77.75
483.153	89.75
483.372	96.75
483.59	95.75
483.808	90.75
484.027	94.75
484.245	108.75
484.463	82.75
484.681	100.75
484.9	88.75
485.118	98.75
485.336	77.75
485.554	105.75
485.772	116.75
485.99	106.75
486.209	105.75
486.427	113.75
486.645	97.75
486.863	106.75
487.081	91.75
487.299	77.75
487.517	92.75
487.735	106.75
487.953	102.75
488.171	90.75
488.389	89.75
488.607	102.75
488.825	106.75
489.043	88.75
489.261	102.75
489.479	95.75
489.696	91.75
489.914	105.75
490.132	94.75
490.35	91.75
490.568	95.75
490.786	93.75
491.003	88.75
491.221	78.75
491.439	94.75
491.657	89.75
491.874	91.75
492.092	95.75
492.31	86.75
492.527	96.75
492.745	92.75
492.963	89.75
493.18	84.75
493.398	107.75
493.615	102.75
493.833	95.75
494.05	99.75
494.268	106.75
494.485	82.75
494.703	75.75
494.92	89.75
495.138	95.75
495.355	90.75
495.573	77.75
495.79	87.75
496.008	83.75
496.225	94.75
496.442	91.75
496.66	101.75
496.877	92.75
497.094	99.75
497.312	88.75
497.529	87.75
497.746	103.75
497.963	92.75
498.181	90.75
498.398	108.75
498.615	114.75
498.832	101.75
499.049	102.75
499.267	82.75
499.484	88.75
499.701	90.75
499.918	95.75
500.135	102.75
500.352	106.75
500.569	97.75
500.786	100.75
501.003	105.75
501.22	75.75
501.437	96.75
501.654	89.75
501.871	96.75
502.088	101.75
502.305	102.75
502.522	101.75
502.739	93.75
502.956	89.75
503.172	99.75
503.389	97.75
503.606	117.75
503.823	93.75
504.04	101.75
504.256	89.75
504.473	98.75
504.69	100.75
504.907	88.75
505.123	89.75
505.34	86.75
505.557	95.75
505.773	84.75
505.99	94.75
506.207	95.75
506.423	85.75
506.64	86.75
506.856	89.75
507.073	75.75
507.289	93.75
507.506	102.75
507.722	110.75
507.939	119.75
508.155	105.75
508.372	95.75
508.588	101.75
508.805	98.75
509.021	100.75
509.238	102.75
509.454	91.75
509.67	108.75
509.887	109.75
510.103	120.75
510.319	201.75
510.536	665.75
510.752	2153.75
510.968	601.75
511.184	154.75
511.401	119.75
511.617	107.75
511.833	115.75
512.049	90.75
512.265	69.75
512.481	93.75
512.698	85.75
512.914	95.75
513.13	82.75
513.346	92.75
513.562	72.75
513.778	111.75
513.994	98.75
514.21	110.75
514.426	115.75
514.642	120.75
514.858	116.75
