Data from Uncirc_1984_H10_HRD10591_00034.txt Node
Date: Wed Jan 03 12:21:44 EST 2024
User: Yrep
Spectrometer: HR+D1059
Trigger mode: 1
Integration Time (sec): 1.000000E-1
Scans to average: 1
Electric dark correction enabled: true
Nonlinearity correction enabled: false
Boxcar width: 0
XAxis mode: Wavelengths
Number of Pixels in Spectrum: 2048
>>>>>Begin Spectral Data<<<<<
223.165	-17.94
223.4	-17.94
223.635	-17.94
223.869	-13.94
224.104	-18.94
224.338	-13.94
224.573	-13.94
224.808	-13.94
225.042	-18.94
225.277	-9.94
225.511	-3.94
225.746	5.06
225.98	11.06
226.215	7.06
226.449	21.06
226.683	24.06
226.918	24.06
227.152	33.06
227.387	25.06
227.621	53.06
227.856	54.06
228.09	46.06
228.324	44.06
228.559	44.06
228.793	54.06
229.027	64.06
229.262	62.06
229.496	62.06
229.73	76.06
229.964	76.06
230.199	69.06
230.433	81.06
230.667	88.06
230.901	70.06
231.136	84.06
231.37	73.06
231.604	68.06
231.838	86.06
232.072	69.06
232.306	78.06
232.541	79.06
232.775	88.06
233.009	82.06
233.243	102.06
233.477	92.06
233.711	86.06
233.945	85.06
234.179	96.06
234.413	87.06
234.647	81.06
234.881	75.06
235.115	86.06
235.349	78.06
235.583	73.06
235.817	90.06
236.051	88.06
236.285	86.06
236.519	81.06
236.753	76.06
236.987	87.06
237.221	82.06
237.455	78.06
237.689	80.06
237.922	79.06
238.156	76.06
238.39	70.06
238.624	70.06
238.858	81.06
239.091	60.06
239.325	70.06
239.559	78.06
239.793	81.06
240.027	80.06
240.26	81.06
240.494	66.06
240.728	67.06
240.961	76.06
241.195	74.06
241.429	85.06
241.662	82.06
241.896	80.06
242.13	73.06
242.363	82.06
242.597	84.06
242.83	78.06
243.064	70.06
243.298	76.06
243.531	76.06
243.765	74.06
243.998	71.06
244.232	73.06
244.465	81.06
244.699	84.06
244.932	92.06
245.166	73.06
245.399	78.06
245.633	82.06
245.866	65.06
246.099	74.06
246.333	77.06
246.566	67.06
246.8	70.06
247.033	99.06
247.266	78.06
247.5	64.06
247.733	77.06
247.966	84.06
248.2	91.06
248.433	82.06
248.666	73.06
248.899	75.06
249.133	68.06
249.366	83.06
249.599	76.06
249.832	78.06
250.066	81.06
250.299	98.06
250.532	75.06
250.765	64.06
250.998	76.06
251.231	76.06
251.465	69.06
251.698	67.06
251.931	77.06
252.164	72.06
252.397	81.06
252.63	86.06
252.863	84.06
253.096	73.06
253.329	81.06
253.562	82.06
253.795	77.06
254.028	80.06
254.261	92.06
254.494	86.06
254.727	93.06
254.96	75.06
255.193	84.06
255.426	88.06
255.659	77.06
255.892	97.06
256.124	74.06
256.357	93.06
256.59	71.06
256.823	78.06
257.056	87.06
257.289	85.06
257.521	77.06
257.754	86.06
257.987	88.06
258.22	80.06
258.452	77.06
258.685	84.06
258.918	82.06
259.151	90.06
259.383	77.06
259.616	77.06
259.849	89.06
260.081	80.06
260.314	86.06
260.547	76.06
260.779	90.06
261.012	68.06
261.244	75.06
261.477	81.06
261.71	77.06
261.942	114.06
262.175	107.06
262.407	80.06
262.64	80.06
262.872	77.06
263.105	92.06
263.337	82.06
263.57	66.06
263.802	85.06
264.035	75.06
264.267	92.06
264.499	91.06
264.732	90.06
264.964	90.06
265.197	84.06
265.429	84.06
265.661	78.06
265.894	87.06
266.126	92.06
266.358	84.06
266.591	99.06
266.823	80.06
267.055	72.06
267.287	87.06
267.52	69.06
267.752	91.06
267.984	96.06
268.216	88.06
268.448	88.06
268.681	83.06
268.913	74.06
269.145	74.06
269.377	114.06
269.609	80.06
269.841	83.06
270.073	70.06
270.306	75.06
270.538	82.06
270.77	92.06
271.002	89.06
271.234	93.06
271.466	88.06
271.698	88.06
271.93	85.06
272.162	96.06
272.394	73.06
272.626	85.06
272.858	92.06
273.09	69.06
273.322	80.06
273.553	81.06
273.785	91.06
274.017	82.06
274.249	93.06
274.481	82.06
274.713	87.06
274.945	86.06
275.176	94.06
275.408	93.06
275.64	80.06
275.872	86.06
276.104	85.06
276.335	90.06
276.567	107.06
276.799	104.06
277.031	98.06
277.262	94.06
277.494	89.06
277.726	100.06
277.957	88.06
278.189	87.06
278.421	80.06
278.652	87.06
278.884	81.06
279.115	93.06
279.347	93.06
279.579	91.06
279.81	94.06
280.042	97.06
280.273	105.06
280.505	90.06
280.736	82.06
280.968	97.06
281.199	97.06
281.431	82.06
281.662	84.06
281.894	82.06
282.125	112.06
282.356	115.06
282.588	148.06
282.819	111.06
283.051	85.06
283.282	87.06
283.513	88.06
283.745	90.06
283.976	86.06
284.207	85.06
284.439	76.06
284.67	89.06
284.901	96.06
285.132	69.06
285.364	88.06
285.595	88.06
285.826	85.06
286.057	92.06
286.288	86.06
286.52	69.06
286.751	83.06
286.982	87.06
287.213	90.06
287.444	88.06
287.675	77.06
287.906	82.06
288.138	84.06
288.369	81.06
288.6	102.06
288.831	84.06
289.062	85.06
289.293	101.06
289.524	90.06
289.755	93.06
289.986	93.06
290.217	90.06
290.448	85.06
290.679	88.06
290.91	87.06
291.141	76.06
291.371	96.06
291.602	82.06
291.833	92.06
292.064	77.06
292.295	93.06
292.526	88.06
292.757	88.06
292.987	83.06
293.218	92.06
293.449	88.06
293.68	93.06
293.91	89.06
294.141	97.06
294.372	85.06
294.603	89.06
294.833	93.06
295.064	91.06
295.295	102.06
295.525	88.06
295.756	84.06
295.987	106.06
296.217	144.06
296.448	126.06
296.679	90.06
296.909	86.06
297.14	107.06
297.37	103.06
297.601	94.06
297.831	89.06
298.062	95.06
298.292	83.06
298.523	80.06
298.753	84.06
298.984	93.06
299.214	103.06
299.445	94.06
299.675	84.06
299.905	81.06
300.136	115.06
300.366	85.06
300.597	76.06
300.827	88.06
301.057	88.06
301.288	99.06
301.518	99.06
301.748	79.06
301.979	116.06
302.209	89.06
302.439	76.06
302.669	86.06
302.9	90.06
303.13	87.06
303.36	81.06
303.59	83.06
303.82	116.06
304.051	88.06
304.281	86.06
304.511	93.06
304.741	82.06
304.971	98.06
305.201	76.06
305.431	100.06
305.661	93.06
305.891	77.06
306.121	81.06
306.352	107.06
306.582	105.06
306.812	90.06
307.042	90.06
307.272	93.06
307.502	99.06
307.731	96.06
307.961	97.06
308.191	91.06
308.421	106.06
308.651	88.06
308.881	88.06
309.111	98.06
309.341	96.06
309.571	98.06
309.8	94.06
310.03	100.06
310.26	98.06
310.49	96.06
310.72	87.06
310.949	108.06
311.179	91.06
311.409	108.06
311.639	83.06
311.868	92.06
312.098	93.06
312.328	102.06
312.557	104.06
312.787	96.06
313.017	94.06
313.246	96.06
313.476	94.06
313.706	101.06
313.935	100.06
314.165	106.06
314.394	86.06
314.624	105.06
314.853	86.06
315.083	95.06
315.312	89.06
315.542	89.06
315.771	104.06
316.001	98.06
316.23	103.06
316.46	93.06
316.689	83.06
316.919	83.06
317.148	80.06
317.377	84.06
317.607	76.06
317.836	87.06
318.065	85.06
318.295	96.06
318.524	82.06
318.753	82.06
318.983	105.06
319.212	114.06
319.441	113.06
319.67	110.06
319.9	90.06
320.129	94.06
320.358	97.06
320.587	96.06
320.816	104.06
321.046	95.06
321.275	87.06
321.504	86.06
321.733	104.06
321.962	86.06
322.191	105.06
322.42	107.06
322.649	91.06
322.878	114.06
323.108	126.06
323.337	122.06
323.566	121.06
323.795	136.06
324.024	193.06
324.253	388.06
324.482	814.06
324.71	1669.06
324.939	2238.06
325.168	820.06
325.397	245.06
325.626	142.06
325.855	132.06
326.084	131.06
326.313	140.06
326.542	130.06
326.77	237.06
326.999	464.06
327.228	948.06
327.457	1742.06
327.686	1380.06
327.914	375.06
328.143	187.06
328.372	132.06
328.6	125.06
328.829	119.06
329.058	124.06
329.287	114.06
329.515	108.06
329.744	96.06
329.972	97.06
330.201	100.06
330.43	108.06
330.658	113.06
330.887	119.06
331.115	124.06
331.344	97.06
331.572	91.06
331.801	98.06
332.03	104.06
332.258	93.06
332.486	89.06
332.715	89.06
332.943	100.06
333.172	86.06
333.4	101.06
333.629	100.06
333.857	109.06
334.085	113.06
334.314	97.06
334.542	94.06
334.771	106.06
334.999	85.06
335.227	105.06
335.455	82.06
335.684	99.06
335.912	99.06
336.14	92.06
336.369	94.06
336.597	101.06
336.825	70.06
337.053	87.06
337.281	112.06
337.51	100.06
337.738	94.06
337.966	86.06
338.194	102.06
338.422	96.06
338.65	97.06
338.878	83.06
339.106	86.06
339.334	89.06
339.562	86.06
339.79	91.06
340.018	94.06
340.246	92.06
340.474	92.06
340.702	89.06
340.93	83.06
341.158	99.06
341.386	98.06
341.614	94.06
341.842	102.06
342.07	93.06
342.298	90.06
342.526	94.06
342.754	93.06
342.981	85.06
343.209	110.06
343.437	85.06
343.665	88.06
343.893	92.06
344.12	98.06
344.348	88.06
344.576	84.06
344.804	83.06
345.031	93.06
345.259	103.06
345.487	97.06
345.714	93.06
345.942	101.06
346.17	99.06
346.397	103.06
346.625	83.06
346.853	82.06
347.08	87.06
347.308	108.06
347.535	96.06
347.763	89.06
347.99	105.06
348.218	103.06
348.445	110.06
348.673	103.06
348.9	93.06
349.128	91.06
349.355	86.06
349.583	101.06
349.81	98.06
350.037	103.06
350.265	109.06
350.492	100.06
350.72	99.06
350.947	112.06
351.174	110.06
351.402	102.06
351.629	107.06
351.856	109.06
352.083	107.06
352.311	106.06
352.538	92.06
352.765	120.06
352.992	122.06
353.22	106.06
353.447	96.06
353.674	107.06
353.901	101.06
354.128	93.06
354.355	92.06
354.583	97.06
354.81	106.06
355.037	104.06
355.264	93.06
355.491	100.06
355.718	105.06
355.945	86.06
356.172	89.06
356.399	102.06
356.626	81.06
356.853	96.06
357.08	108.06
357.307	82.06
357.534	113.06
357.761	102.06
357.988	103.06
358.215	93.06
358.441	96.06
358.668	90.06
358.895	88.06
359.122	101.06
359.349	102.06
359.576	104.06
359.802	106.06
360.029	94.06
360.256	110.06
360.483	100.06
360.709	97.06
360.936	95.06
361.163	76.06
361.39	98.06
361.616	101.06
361.843	97.06
362.07	97.06
362.296	85.06
362.523	74.06
362.749	84.06
362.976	84.06
363.203	88.06
363.429	84.06
363.656	98.06
363.882	68.06
364.109	92.06
364.335	98.06
364.562	84.06
364.788	90.06
365.015	97.06
365.241	95.06
365.468	118.06
365.694	103.06
365.92	89.06
366.147	91.06
366.373	105.06
366.599	84.06
366.826	95.06
367.052	91.06
367.278	98.06
367.505	94.06
367.731	85.06
367.957	96.06
368.184	92.06
368.41	103.06
368.636	97.06
368.862	117.06
369.089	104.06
369.315	90.06
369.541	89.06
369.767	77.06
369.993	84.06
370.219	104.06
370.445	81.06
370.672	89.06
370.898	87.06
371.124	94.06
371.35	99.06
371.576	80.06
371.802	90.06
372.028	95.06
372.254	95.06
372.48	94.06
372.706	100.06
372.932	85.06
373.158	95.06
373.384	93.06
373.61	102.06
373.835	82.06
374.061	84.06
374.287	86.06
374.513	87.06
374.739	98.06
374.965	95.06
375.191	101.06
375.416	86.06
375.642	82.06
375.868	97.06
376.094	90.06
376.319	93.06
376.545	87.06
376.771	100.06
376.997	95.06
377.222	86.06
377.448	108.06
377.674	97.06
377.899	94.06
378.125	97.06
378.35	96.06
378.576	85.06
378.802	93.06
379.027	96.06
379.253	94.06
379.478	98.06
379.704	95.06
379.929	90.06
380.155	90.06
380.38	103.06
380.606	89.06
380.831	93.06
381.057	100.06
381.282	76.06
381.507	92.06
381.733	82.06
381.958	86.06
382.184	95.06
382.409	107.06
382.634	84.06
382.86	93.06
383.085	98.06
383.31	101.06
383.535	99.06
383.761	98.06
383.986	104.06
384.211	91.06
384.436	107.06
384.662	110.06
384.887	104.06
385.112	101.06
385.337	121.06
385.562	84.06
385.787	92.06
386.013	115.06
386.238	114.06
386.463	105.06
386.688	107.06
386.913	101.06
387.138	113.06
387.363	97.06
387.588	93.06
387.813	104.06
388.038	116.06
388.263	118.06
388.488	102.06
388.713	96.06
388.938	96.06
389.163	106.06
389.387	101.06
389.612	90.06
389.837	108.06
390.062	91.06
390.287	98.06
390.512	97.06
390.736	98.06
390.961	94.06
391.186	97.06
391.411	97.06
391.636	93.06
391.86	81.06
392.085	91.06
392.31	79.06
392.534	84.06
392.759	102.06
392.984	95.06
393.208	99.06
393.433	94.06
393.658	91.06
393.882	89.06
394.107	93.06
394.331	85.06
394.556	73.06
394.78	99.06
395.005	100.06
395.229	76.06
395.454	100.06
395.678	97.06
395.903	98.06
396.127	101.06
396.352	77.06
396.576	86.06
396.801	93.06
397.025	93.06
397.249	73.06
397.474	92.06
397.698	89.06
397.922	92.06
398.147	90.06
398.371	96.06
398.595	91.06
398.82	72.06
399.044	88.06
399.268	102.06
399.492	74.06
399.717	84.06
399.941	81.06
400.165	87.06
400.389	93.06
400.613	90.06
400.837	102.06
401.062	95.06
401.286	90.06
401.51	100.06
401.734	103.06
401.958	94.06
402.182	118.06
402.406	150.06
402.63	111.06
402.854	99.06
403.078	87.06
403.302	94.06
403.526	103.06
403.75	86.06
403.974	87.06
404.198	88.06
404.422	90.06
404.645	86.06
404.869	100.06
405.093	100.06
405.317	80.06
405.541	105.06
405.765	94.06
405.988	109.06
406.212	164.06
406.436	222.06
406.66	138.06
406.883	98.06
407.107	97.06
407.331	104.06
407.555	85.06
407.778	100.06
408.002	97.06
408.226	84.06
408.449	90.06
408.673	90.06
408.896	98.06
409.12	107.06
409.344	106.06
409.567	94.06
409.791	95.06
410.014	101.06
410.238	91.06
410.461	97.06
410.685	103.06
410.908	118.06
411.132	108.06
411.355	90.06
411.578	109.06
411.802	81.06
412.025	92.06
412.249	96.06
412.472	88.06
412.695	86.06
412.919	94.06
413.142	96.06
413.365	95.06
413.589	90.06
413.812	90.06
414.035	93.06
414.258	90.06
414.482	99.06
414.705	90.06
414.928	87.06
415.151	93.06
415.374	88.06
415.597	80.06
415.821	101.06
416.044	70.06
416.267	77.06
416.49	70.06
416.713	83.06
416.936	92.06
417.159	86.06
417.382	98.06
417.605	105.06
417.828	99.06
418.051	88.06
418.274	88.06
418.497	84.06
418.72	89.06
418.943	84.06
419.166	91.06
419.389	96.06
419.611	91.06
419.834	86.06
420.057	77.06
420.28	96.06
420.503	85.06
420.726	110.06
420.948	85.06
421.171	84.06
421.394	94.06
421.617	87.06
421.839	87.06
422.062	87.06
422.285	97.06
422.507	112.06
422.73	98.06
422.953	100.06
423.175	88.06
423.398	86.06
423.621	107.06
423.843	96.06
424.066	94.06
424.288	104.06
424.511	108.06
424.733	83.06
424.956	99.06
425.178	99.06
425.401	96.06
425.623	98.06
425.846	77.06
426.068	78.06
426.291	94.06
426.513	100.06
426.735	94.06
426.958	96.06
427.18	111.06
427.402	139.06
427.625	165.06
427.847	114.06
428.069	99.06
428.292	103.06
428.514	102.06
428.736	101.06
428.958	81.06
429.181	92.06
429.403	88.06
429.625	87.06
429.847	85.06
430.069	97.06
430.292	101.06
430.514	96.06
430.736	76.06
430.958	73.06
431.18	101.06
431.402	90.06
431.624	100.06
431.846	93.06
432.068	97.06
432.29	77.06
432.512	96.06
432.734	94.06
432.956	84.06
433.178	104.06
433.4	99.06
433.622	96.06
433.844	97.06
434.066	91.06
434.287	92.06
434.509	98.06
434.731	82.06
434.953	86.06
435.175	88.06
435.397	97.06
435.618	87.06
435.84	97.06
436.062	123.06
436.284	115.06
436.505	115.06
436.727	112.06
436.949	101.06
437.17	100.06
437.392	85.06
437.614	76.06
437.835	107.06
438.057	118.06
438.278	103.06
438.5	104.06
438.721	128.06
438.943	112.06
439.165	83.06
439.386	95.06
439.608	103.06
439.829	99.06
440.05	129.06
440.272	130.06
440.493	92.06
440.715	85.06
440.936	81.06
441.158	73.06
441.379	94.06
441.6	106.06
441.822	95.06
442.043	94.06
442.264	125.06
442.486	93.06
442.707	99.06
442.928	105.06
443.149	129.06
443.371	119.06
443.592	101.06
443.813	110.06
444.034	114.06
444.255	90.06
444.476	93.06
444.698	92.06
444.919	87.06
445.14	149.06
445.361	126.06
445.582	113.06
445.803	141.06
446.024	136.06
446.245	135.06
446.466	116.06
446.687	96.06
446.908	91.06
447.129	88.06
447.35	93.06
447.571	101.06
447.792	94.06
448.013	94.06
448.234	101.06
448.455	109.06
448.675	119.06
448.896	118.06
449.117	106.06
449.338	107.06
449.559	141.06
449.779	134.06
450	105.06
450.221	90.06
450.442	76.06
450.662	92.06
450.883	90.06
451.104	104.06
451.324	85.06
451.545	90.06
451.766	96.06
451.986	84.06
452.207	93.06
452.428	97.06
452.648	97.06
452.869	108.06
453.089	103.06
453.31	113.06
453.53	100.06
453.751	116.06
453.971	117.06
454.192	114.06
454.412	83.06
454.633	69.06
454.853	80.06
455.073	113.06
455.294	82.06
455.514	99.06
455.734	94.06
455.955	96.06
456.175	82.06
456.395	101.06
456.616	73.06
456.836	88.06
457.056	87.06
457.276	88.06
457.497	86.06
457.717	80.06
457.937	87.06
458.157	83.06
458.377	93.06
458.598	105.06
458.818	150.06
459.038	141.06
459.258	115.06
459.478	103.06
459.698	87.06
459.918	81.06
460.138	93.06
460.358	82.06
460.578	94.06
460.798	81.06
461.018	94.06
461.238	84.06
461.458	88.06
461.678	80.06
461.898	74.06
462.118	91.06
462.338	88.06
462.558	77.06
462.777	91.06
462.997	101.06
463.217	82.06
463.437	70.06
463.657	77.06
463.876	96.06
464.096	98.06
464.316	100.06
464.536	92.06
464.755	106.06
464.975	105.06
465.195	152.06
465.414	159.06
465.634	112.06
465.854	82.06
466.073	78.06
466.293	90.06
466.512	91.06
466.732	91.06
466.951	87.06
467.171	88.06
467.391	107.06
467.61	117.06
467.829	92.06
468.049	75.06
468.268	93.06
468.488	77.06
468.707	87.06
468.927	83.06
469.146	90.06
469.365	74.06
469.585	88.06
469.804	89.06
470.023	101.06
470.243	85.06
470.462	106.06
470.681	112.06
470.901	93.06
471.12	87.06
471.339	89.06
471.558	87.06
471.777	85.06
471.997	91.06
472.216	90.06
472.435	85.06
472.654	70.06
472.873	85.06
473.092	83.06
473.311	81.06
473.53	83.06
473.749	84.06
473.968	93.06
474.187	87.06
474.406	91.06
474.625	72.06
474.844	80.06
475.063	84.06
475.282	98.06
475.501	89.06
475.72	97.06
475.939	89.06
476.158	88.06
476.377	64.06
476.596	101.06
476.814	90.06
477.033	98.06
477.252	101.06
477.471	96.06
477.69	84.06
477.908	90.06
478.127	96.06
478.346	84.06
478.564	91.06
478.783	91.06
479.002	92.06
479.22	78.06
479.439	105.06
479.658	94.06
479.876	95.06
480.095	92.06
480.313	92.06
480.532	91.06
480.751	93.06
480.969	92.06
481.188	101.06
481.406	109.06
481.624	76.06
481.843	92.06
482.061	96.06
482.28	93.06
482.498	86.06
482.717	90.06
482.935	99.06
483.153	91.06
483.372	91.06
483.59	100.06
483.808	96.06
484.027	88.06
484.245	97.06
484.463	88.06
484.681	93.06
484.9	100.06
485.118	86.06
485.336	89.06
485.554	92.06
485.772	98.06
485.99	97.06
486.209	105.06
486.427	103.06
486.645	110.06
486.863	97.06
487.081	114.06
487.299	93.06
487.517	106.06
487.735	94.06
487.953	91.06
488.171	92.06
488.389	92.06
488.607	98.06
488.825	99.06
489.043	80.06
489.261	90.06
489.479	101.06
489.696	88.06
489.914	75.06
490.132	80.06
490.35	76.06
490.568	92.06
490.786	92.06
491.003	97.06
491.221	96.06
491.439	84.06
491.657	82.06
491.874	95.06
492.092	94.06
492.31	90.06
492.527	93.06
492.745	99.06
492.963	88.06
493.18	94.06
493.398	102.06
493.615	102.06
493.833	100.06
494.05	97.06
494.268	83.06
494.485	91.06
494.703	87.06
494.92	85.06
495.138	94.06
495.355	104.06
495.573	96.06
495.79	95.06
496.008	103.06
496.225	98.06
496.442	95.06
496.66	106.06
496.877	97.06
497.094	86.06
497.312	89.06
497.529	105.06
497.746	77.06
497.963	96.06
498.181	91.06
498.398	92.06
498.615	115.06
498.832	111.06
499.049	82.06
499.267	98.06
499.484	115.06
499.701	92.06
499.918	84.06
500.135	88.06
500.352	94.06
500.569	104.06
500.786	86.06
501.003	94.06
501.22	86.06
501.437	87.06
501.654	86.06
501.871	105.06
502.088	85.06
502.305	89.06
502.522	102.06
502.739	86.06
502.956	89.06
503.172	95.06
503.389	88.06
503.606	96.06
503.823	108.06
504.04	101.06
504.256	91.06
504.473	93.06
504.69	90.06
504.907	102.06
505.123	84.06
505.34	92.06
505.557	84.06
505.773	102.06
505.99	92.06
506.207	96.06
506.423	91.06
506.64	90.06
506.856	82.06
507.073	98.06
507.289	75.06
507.506	97.06
507.722	112.06
507.939	104.06
508.155	97.06
508.372	82.06
508.588	102.06
508.805	99.06
509.021	101.06
509.238	81.06
509.454	93.06
509.67	98.06
509.887	119.06
510.103	137.06
510.319	228.06
510.536	776.06
510.752	2388.06
510.968	649.06
511.184	158.06
511.401	108.06
511.617	97.06
511.833	101.06
512.049	89.06
512.265	92.06
512.481	99.06
512.698	78.06
512.914	84.06
513.13	103.06
513.346	98.06
513.562	92.06
513.778	98.06
513.994	82.06
514.21	98.06
514.426	118.06
514.642	118.06
514.858	120.06
515.074	176.06
515.29	448.06
