Data from Uncirc_1984_H10_HRD10591_00026.txt Node
Date: Wed Jan 03 12:21:42 EST 2024
User: Yrep
Spectrometer: HR+D1059
Trigger mode: 1
Integration Time (sec): 1.000000E-1
Scans to average: 1
Electric dark correction enabled: true
Nonlinearity correction enabled: false
Boxcar width: 0
XAxis mode: Wavelengths
Number of Pixels in Spectrum: 2048
>>>>>Begin Spectral Data<<<<<
223.165	-9.56
223.4	-9.56
223.635	-9.56
223.869	-21.56
224.104	-21.56
224.338	-10.56
224.573	-21.56
224.808	-14.56
225.042	-7.56
225.277	-4.56
225.511	-8.56
225.746	-3.56
225.98	3.44
226.215	20.44
226.449	16.44
226.683	16.44
226.918	20.44
227.152	46.44
227.387	43.44
227.621	45.44
227.856	50.44
228.09	55.44
228.324	53.44
228.559	44.44
228.793	38.44
229.027	73.44
229.262	70.44
229.496	60.44
229.73	91.44
229.964	85.44
230.199	58.44
230.433	68.44
230.667	75.44
230.901	66.44
231.136	72.44
231.37	64.44
231.604	72.44
231.838	80.44
232.072	73.44
232.306	80.44
232.541	64.44
232.775	90.44
233.009	64.44
233.243	80.44
233.477	89.44
233.711	79.44
233.945	71.44
234.179	74.44
234.413	78.44
234.647	89.44
234.881	78.44
235.115	72.44
235.349	81.44
235.583	87.44
235.817	76.44
236.051	74.44
236.285	70.44
236.519	75.44
236.753	78.44
236.987	85.44
237.221	79.44
237.455	86.44
237.689	75.44
237.922	84.44
238.156	69.44
238.39	66.44
238.624	72.44
238.858	65.44
239.091	67.44
239.325	73.44
239.559	70.44
239.793	90.44
240.027	73.44
240.26	76.44
240.494	83.44
240.728	76.44
240.961	66.44
241.195	79.44
241.429	69.44
241.662	71.44
241.896	73.44
242.13	80.44
242.363	74.44
242.597	94.44
242.83	72.44
243.064	85.44
243.298	72.44
243.531	63.44
243.765	83.44
243.998	82.44
244.232	72.44
244.465	80.44
244.699	82.44
244.932	80.44
245.166	58.44
245.399	84.44
245.633	80.44
245.866	82.44
246.099	74.44
246.333	77.44
246.566	83.44
246.8	74.44
247.033	71.44
247.266	59.44
247.5	69.44
247.733	75.44
247.966	78.44
248.2	78.44
248.433	70.44
248.666	82.44
248.899	90.44
249.133	94.44
249.366	104.44
249.599	99.44
249.832	86.44
250.066	73.44
250.299	73.44
250.532	70.44
250.765	73.44
250.998	78.44
251.231	71.44
251.465	58.44
251.698	78.44
251.931	66.44
252.164	81.44
252.397	82.44
252.63	76.44
252.863	71.44
253.096	93.44
253.329	77.44
253.562	78.44
253.795	80.44
254.028	75.44
254.261	73.44
254.494	87.44
254.727	84.44
254.96	95.44
255.193	94.44
255.426	82.44
255.659	79.44
255.892	69.44
256.124	80.44
256.357	76.44
256.59	76.44
256.823	76.44
257.056	95.44
257.289	69.44
257.521	93.44
257.754	90.44
257.987	87.44
258.22	94.44
258.452	88.44
258.685	79.44
258.918	70.44
259.151	81.44
259.383	94.44
259.616	83.44
259.849	74.44
260.081	88.44
260.314	85.44
260.547	83.44
260.779	73.44
261.012	80.44
261.244	78.44
261.477	91.44
261.71	95.44
261.942	120.44
262.175	101.44
262.407	80.44
262.64	67.44
262.872	96.44
263.105	90.44
263.337	86.44
263.57	91.44
263.802	90.44
264.035	80.44
264.267	87.44
264.499	80.44
264.732	99.44
264.964	71.44
265.197	92.44
265.429	81.44
265.661	92.44
265.894	79.44
266.126	85.44
266.358	88.44
266.591	88.44
266.823	77.44
267.055	73.44
267.287	82.44
267.52	78.44
267.752	74.44
267.984	100.44
268.216	95.44
268.448	73.44
268.681	84.44
268.913	86.44
269.145	84.44
269.377	94.44
269.609	75.44
269.841	88.44
270.073	94.44
270.306	79.44
270.538	92.44
270.77	89.44
271.002	80.44
271.234	90.44
271.466	83.44
271.698	89.44
271.93	84.44
272.162	87.44
272.394	90.44
272.626	74.44
272.858	89.44
273.09	84.44
273.322	85.44
273.553	91.44
273.785	92.44
274.017	78.44
274.249	75.44
274.481	68.44
274.713	78.44
274.945	79.44
275.176	82.44
275.408	83.44
275.64	84.44
275.872	66.44
276.104	87.44
276.335	94.44
276.567	108.44
276.799	115.44
277.031	89.44
277.262	99.44
277.494	89.44
277.726	83.44
277.957	83.44
278.189	82.44
278.421	92.44
278.652	90.44
278.884	94.44
279.115	85.44
279.347	96.44
279.579	87.44
279.81	86.44
280.042	84.44
280.273	84.44
280.505	101.44
280.736	87.44
280.968	79.44
281.199	78.44
281.431	88.44
281.662	78.44
281.894	95.44
282.125	99.44
282.356	112.44
282.588	138.44
282.819	115.44
283.051	90.44
283.282	80.44
283.513	93.44
283.745	91.44
283.976	79.44
284.207	108.44
284.439	94.44
284.67	85.44
284.901	84.44
285.132	85.44
285.364	84.44
285.595	82.44
285.826	83.44
286.057	100.44
286.288	82.44
286.52	91.44
286.751	91.44
286.982	80.44
287.213	82.44
287.444	101.44
287.675	97.44
287.906	82.44
288.138	95.44
288.369	91.44
288.6	88.44
288.831	92.44
289.062	88.44
289.293	88.44
289.524	87.44
289.755	106.44
289.986	95.44
290.217	82.44
290.448	89.44
290.679	75.44
290.91	90.44
291.141	96.44
291.371	95.44
291.602	91.44
291.833	96.44
292.064	78.44
292.295	93.44
292.526	82.44
292.757	92.44
292.987	100.44
293.218	90.44
293.449	83.44
293.68	95.44
293.91	84.44
294.141	91.44
294.372	88.44
294.603	96.44
294.833	96.44
295.064	83.44
295.295	86.44
295.525	88.44
295.756	98.44
295.987	127.44
296.217	158.44
296.448	135.44
296.679	90.44
296.909	83.44
297.14	102.44
297.37	97.44
297.601	100.44
297.831	90.44
298.062	95.44
298.292	88.44
298.523	94.44
298.753	82.44
298.984	86.44
299.214	89.44
299.445	86.44
299.675	101.44
299.905	99.44
300.136	94.44
300.366	88.44
300.597	82.44
300.827	91.44
301.057	94.44
301.288	114.44
301.518	93.44
301.748	89.44
301.979	103.44
302.209	92.44
302.439	89.44
302.669	89.44
302.9	92.44
303.13	89.44
303.36	108.44
303.59	105.44
303.82	86.44
304.051	98.44
304.281	85.44
304.511	88.44
304.741	91.44
304.971	90.44
305.201	86.44
305.431	93.44
305.661	83.44
305.891	79.44
306.121	100.44
306.352	100.44
306.582	114.44
306.812	97.44
307.042	86.44
307.272	91.44
307.502	94.44
307.731	87.44
307.961	90.44
308.191	95.44
308.421	76.44
308.651	83.44
308.881	82.44
309.111	78.44
309.341	105.44
309.571	102.44
309.8	93.44
310.03	101.44
310.26	115.44
310.49	88.44
310.72	111.44
310.949	114.44
311.179	102.44
311.409	102.44
311.639	99.44
311.868	96.44
312.098	100.44
312.328	94.44
312.557	93.44
312.787	101.44
313.017	101.44
313.246	90.44
313.476	97.44
313.706	81.44
313.935	91.44
314.165	94.44
314.394	98.44
314.624	85.44
314.853	103.44
315.083	88.44
315.312	94.44
315.542	86.44
315.771	100.44
316.001	97.44
316.23	95.44
316.46	95.44
316.689	88.44
316.919	99.44
317.148	98.44
317.377	85.44
317.607	118.44
317.836	97.44
318.065	97.44
318.295	99.44
318.524	82.44
318.753	77.44
318.983	90.44
319.212	107.44
319.441	97.44
319.67	104.44
319.9	101.44
320.129	83.44
320.358	96.44
320.587	107.44
320.816	98.44
321.046	101.44
321.275	95.44
321.504	89.44
321.733	94.44
321.962	85.44
322.191	109.44
322.42	92.44
322.649	112.44
322.878	124.44
323.108	105.44
323.337	123.44
323.566	137.44
323.795	158.44
324.024	227.44
324.253	450.44
324.482	928.44
324.71	1976.44
324.939	2681.44
325.168	970.44
325.397	280.44
325.626	169.44
325.855	133.44
326.084	130.44
326.313	142.44
326.542	161.44
326.77	237.44
326.999	494.44
327.228	1061.44
327.457	1963.44
327.686	1594.44
327.914	418.44
328.143	201.44
328.372	143.44
328.6	127.44
328.829	121.44
329.058	128.44
329.287	131.44
329.515	98.44
329.744	86.44
329.972	101.44
330.201	92.44
330.43	100.44
330.658	118.44
330.887	143.44
331.115	134.44
331.344	112.44
331.572	99.44
331.801	91.44
332.03	95.44
332.258	88.44
332.486	84.44
332.715	89.44
332.943	91.44
333.172	88.44
333.4	87.44
333.629	104.44
333.857	128.44
334.085	96.44
334.314	98.44
334.542	87.44
334.771	87.44
334.999	104.44
335.227	105.44
335.455	92.44
335.684	114.44
335.912	99.44
336.14	113.44
336.369	100.44
336.597	104.44
336.825	99.44
337.053	96.44
337.281	92.44
337.51	95.44
337.738	98.44
337.966	100.44
338.194	113.44
338.422	96.44
338.65	95.44
338.878	98.44
339.106	100.44
339.334	106.44
339.562	80.44
339.79	88.44
340.018	104.44
340.246	90.44
340.474	100.44
340.702	87.44
340.93	108.44
341.158	107.44
341.386	95.44
341.614	96.44
341.842	101.44
342.07	88.44
342.298	90.44
342.526	103.44
342.754	86.44
342.981	100.44
343.209	87.44
343.437	100.44
343.665	92.44
343.893	99.44
344.12	102.44
344.348	93.44
344.576	111.44
344.804	94.44
345.031	88.44
345.259	118.44
345.487	101.44
345.714	91.44
345.942	98.44
346.17	112.44
346.397	93.44
346.625	88.44
346.853	97.44
347.08	100.44
347.308	88.44
347.535	97.44
347.763	114.44
347.99	86.44
348.218	101.44
348.445	95.44
348.673	98.44
348.9	106.44
349.128	99.44
349.355	99.44
349.583	81.44
349.81	95.44
350.037	108.44
350.265	100.44
350.492	94.44
350.72	103.44
350.947	100.44
351.174	108.44
351.402	117.44
351.629	90.44
351.856	110.44
352.083	97.44
352.311	89.44
352.538	112.44
352.765	108.44
352.992	116.44
353.22	112.44
353.447	116.44
353.674	119.44
353.901	107.44
354.128	94.44
354.355	118.44
354.583	94.44
354.81	98.44
355.037	104.44
355.264	87.44
355.491	88.44
355.718	78.44
355.945	92.44
356.172	93.44
356.399	97.44
356.626	96.44
356.853	94.44
357.08	90.44
357.307	81.44
357.534	93.44
357.761	98.44
357.988	107.44
358.215	105.44
358.441	111.44
358.668	90.44
358.895	101.44
359.122	95.44
359.349	92.44
359.576	102.44
359.802	105.44
360.029	112.44
360.256	114.44
360.483	91.44
360.709	97.44
360.936	87.44
361.163	89.44
361.39	85.44
361.616	83.44
361.843	97.44
362.07	84.44
362.296	102.44
362.523	88.44
362.749	97.44
362.976	89.44
363.203	90.44
363.429	88.44
363.656	89.44
363.882	98.44
364.109	87.44
364.335	83.44
364.562	89.44
364.788	101.44
365.015	108.44
365.241	98.44
365.468	118.44
365.694	111.44
365.92	95.44
366.147	94.44
366.373	82.44
366.599	86.44
366.826	106.44
367.052	93.44
367.278	96.44
367.505	89.44
367.731	90.44
367.957	105.44
368.184	104.44
368.41	96.44
368.636	105.44
368.862	120.44
369.089	103.44
369.315	101.44
369.541	107.44
369.767	84.44
369.993	92.44
370.219	83.44
370.445	83.44
370.672	80.44
370.898	85.44
371.124	72.44
371.35	94.44
371.576	87.44
371.802	87.44
372.028	83.44
372.254	98.44
372.48	99.44
372.706	102.44
372.932	88.44
373.158	86.44
373.384	97.44
373.61	80.44
373.835	86.44
374.061	85.44
374.287	91.44
374.513	79.44
374.739	90.44
374.965	87.44
375.191	98.44
375.416	94.44
375.642	92.44
375.868	96.44
376.094	93.44
376.319	86.44
376.545	91.44
376.771	85.44
376.997	89.44
377.222	93.44
377.448	94.44
377.674	97.44
377.899	87.44
378.125	99.44
378.35	82.44
378.576	99.44
378.802	67.44
379.027	105.44
379.253	94.44
379.478	89.44
379.704	102.44
379.929	94.44
380.155	94.44
380.38	85.44
380.606	96.44
380.831	83.44
381.057	84.44
381.282	81.44
381.507	97.44
381.733	85.44
381.958	87.44
382.184	112.44
382.409	107.44
382.634	92.44
382.86	92.44
383.085	97.44
383.31	102.44
383.535	96.44
383.761	95.44
383.986	106.44
384.211	86.44
384.436	111.44
384.662	111.44
384.887	88.44
385.112	86.44
385.337	89.44
385.562	117.44
385.787	99.44
386.013	102.44
386.238	103.44
386.463	107.44
386.688	93.44
386.913	101.44
387.138	101.44
387.363	100.44
387.588	100.44
387.813	90.44
388.038	92.44
388.263	106.44
388.488	111.44
388.713	99.44
388.938	90.44
389.163	89.44
389.387	103.44
389.612	95.44
389.837	97.44
390.062	96.44
390.287	91.44
390.512	95.44
390.736	98.44
390.961	97.44
391.186	100.44
391.411	91.44
391.636	114.44
391.86	82.44
392.085	82.44
392.31	87.44
392.534	95.44
392.759	99.44
392.984	84.44
393.208	95.44
393.433	102.44
393.658	86.44
393.882	97.44
394.107	99.44
394.331	91.44
394.556	88.44
394.78	91.44
395.005	86.44
395.229	80.44
395.454	97.44
395.678	80.44
395.903	97.44
396.127	82.44
396.352	96.44
396.576	96.44
396.801	97.44
397.025	95.44
397.249	82.44
397.474	99.44
397.698	79.44
397.922	97.44
398.147	81.44
398.371	88.44
398.595	80.44
398.82	75.44
399.044	81.44
399.268	87.44
399.492	95.44
399.717	94.44
399.941	89.44
400.165	85.44
400.389	93.44
400.613	78.44
400.837	83.44
401.062	80.44
401.286	89.44
401.51	91.44
401.734	86.44
401.958	94.44
402.182	115.44
402.406	159.44
402.63	134.44
402.854	90.44
403.078	105.44
403.302	94.44
403.526	84.44
403.75	84.44
403.974	86.44
404.198	91.44
404.422	89.44
404.645	89.44
404.869	100.44
405.093	93.44
405.317	102.44
405.541	97.44
405.765	103.44
405.988	120.44
406.212	185.44
406.436	246.44
406.66	148.44
406.883	113.44
407.107	100.44
407.331	84.44
407.555	105.44
407.778	96.44
408.002	101.44
408.226	95.44
408.449	83.44
408.673	76.44
408.896	101.44
409.12	94.44
409.344	87.44
409.567	98.44
409.791	95.44
410.014	91.44
410.238	90.44
410.461	96.44
410.685	93.44
410.908	101.44
411.132	101.44
411.355	103.44
411.578	90.44
411.802	93.44
412.025	86.44
412.249	78.44
412.472	86.44
412.695	77.44
412.919	86.44
413.142	95.44
413.365	78.44
413.589	86.44
413.812	99.44
414.035	92.44
414.258	92.44
414.482	97.44
414.705	84.44
414.928	89.44
415.151	81.44
415.374	102.44
415.597	84.44
415.821	88.44
416.044	79.44
416.267	90.44
416.49	83.44
416.713	91.44
416.936	85.44
417.159	98.44
417.382	80.44
417.605	75.44
417.828	74.44
418.051	87.44
418.274	102.44
418.497	95.44
418.72	96.44
418.943	99.44
419.166	99.44
419.389	95.44
419.611	81.44
419.834	73.44
420.057	82.44
420.28	82.44
420.503	92.44
420.726	109.44
420.948	94.44
421.171	91.44
421.394	100.44
421.617	87.44
421.839	91.44
422.062	80.44
422.285	111.44
422.507	112.44
422.73	117.44
422.953	95.44
423.175	92.44
423.398	98.44
423.621	100.44
423.843	94.44
424.066	79.44
424.288	68.44
424.511	90.44
424.733	98.44
424.956	112.44
425.178	114.44
425.401	107.44
425.623	104.44
425.846	109.44
426.068	85.44
426.291	87.44
426.513	91.44
426.735	98.44
426.958	93.44
427.18	96.44
427.402	154.44
427.625	174.44
427.847	130.44
428.069	103.44
428.292	80.44
428.514	89.44
428.736	86.44
428.958	82.44
429.181	84.44
429.403	81.44
429.625	96.44
429.847	100.44
430.069	108.44
430.292	97.44
430.514	85.44
430.736	90.44
430.958	97.44
431.18	91.44
431.402	84.44
431.624	99.44
431.846	85.44
432.068	88.44
432.29	82.44
432.512	86.44
432.734	82.44
432.956	92.44
433.178	103.44
433.4	94.44
433.622	93.44
433.844	93.44
434.066	102.44
434.287	91.44
434.509	95.44
434.731	98.44
434.953	76.44
435.175	86.44
435.397	87.44
435.618	94.44
435.84	111.44
436.062	128.44
436.284	121.44
436.505	115.44
436.727	99.44
436.949	101.44
437.17	84.44
437.392	84.44
437.614	87.44
437.835	117.44
438.057	122.44
438.278	106.44
438.5	112.44
438.721	122.44
438.943	117.44
439.165	85.44
439.386	95.44
439.608	91.44
439.829	108.44
440.05	127.44
440.272	158.44
440.493	104.44
440.715	98.44
440.936	77.44
441.158	83.44
441.379	98.44
441.6	86.44
441.822	96.44
442.043	78.44
442.264	96.44
442.486	108.44
442.707	93.44
442.928	107.44
443.149	138.44
443.371	145.44
443.592	116.44
443.813	123.44
444.034	128.44
444.255	90.44
444.476	89.44
444.698	98.44
444.919	87.44
445.14	138.44
445.361	139.44
445.582	106.44
445.803	155.44
446.024	138.44
446.245	150.44
446.466	122.44
446.687	96.44
446.908	83.44
447.129	88.44
447.35	97.44
447.571	106.44
447.792	83.44
448.013	95.44
448.234	100.44
448.455	98.44
448.675	120.44
448.896	125.44
449.117	103.44
449.338	100.44
449.559	132.44
449.779	131.44
450	97.44
450.221	66.44
450.442	89.44
450.662	99.44
450.883	116.44
451.104	113.44
451.324	101.44
451.545	93.44
451.766	96.44
451.986	88.44
452.207	86.44
452.428	101.44
452.648	107.44
452.869	105.44
453.089	112.44
453.31	120.44
453.53	100.44
453.751	107.44
453.971	105.44
454.192	125.44
454.412	91.44
454.633	85.44
454.853	91.44
455.073	99.44
455.294	98.44
455.514	92.44
455.734	91.44
455.955	87.44
456.175	90.44
456.395	93.44
456.616	85.44
456.836	91.44
457.056	102.44
457.276	91.44
457.497	102.44
457.717	80.44
457.937	79.44
458.157	100.44
458.377	97.44
458.598	105.44
458.818	159.44
459.038	169.44
459.258	126.44
459.478	83.44
459.698	86.44
459.918	99.44
460.138	97.44
460.358	86.44
460.578	87.44
460.798	79.44
461.018	107.44
461.238	71.44
461.458	86.44
461.678	74.44
461.898	80.44
462.118	86.44
462.338	72.44
462.558	81.44
462.777	71.44
462.997	82.44
463.217	75.44
463.437	86.44
463.657	81.44
463.876	96.44
464.096	78.44
464.316	78.44
464.536	87.44
464.755	107.44
464.975	126.44
465.195	159.44
465.414	170.44
465.634	92.44
465.854	92.44
466.073	95.44
466.293	90.44
466.512	79.44
466.732	83.44
466.951	87.44
467.171	91.44
467.391	95.44
467.61	107.44
467.829	96.44
468.049	82.44
468.268	71.44
468.488	82.44
468.707	78.44
468.927	100.44
469.146	82.44
469.365	105.44
469.585	88.44
469.804	95.44
470.023	96.44
470.243	98.44
470.462	117.44
470.681	107.44
470.901	82.44
471.12	76.44
471.339	97.44
471.558	89.44
471.777	89.44
471.997	92.44
472.216	86.44
472.435	84.44
472.654	91.44
472.873	95.44
473.092	90.44
473.311	99.44
473.53	81.44
473.749	104.44
473.968	96.44
474.187	115.44
474.406	97.44
474.625	89.44
474.844	87.44
475.063	76.44
475.282	103.44
475.501	96.44
475.72	99.44
475.939	78.44
476.158	97.44
476.377	90.44
476.596	89.44
476.814	85.44
477.033	92.44
477.252	85.44
477.471	92.44
477.69	91.44
477.908	96.44
478.127	87.44
478.346	74.44
478.564	88.44
478.783	113.44
479.002	97.44
479.22	85.44
479.439	102.44
479.658	104.44
479.876	104.44
480.095	97.44
480.313	88.44
480.532	79.44
480.751	79.44
480.969	86.44
481.188	92.44
481.406	96.44
481.624	97.44
481.843	86.44
482.061	84.44
482.28	94.44
482.498	104.44
482.717	85.44
482.935	86.44
483.153	94.44
483.372	93.44
483.59	99.44
483.808	82.44
484.027	90.44
484.245	89.44
484.463	83.44
484.681	95.44
484.9	92.44
485.118	107.44
485.336	104.44
485.554	97.44
485.772	97.44
485.99	101.44
486.209	101.44
486.427	97.44
486.645	111.44
486.863	100.44
487.081	96.44
487.299	107.44
487.517	98.44
487.735	87.44
487.953	103.44
488.171	82.44
488.389	90.44
488.607	112.44
488.825	86.44
489.043	94.44
489.261	99.44
489.479	97.44
489.696	80.44
489.914	98.44
490.132	85.44
490.35	82.44
490.568	87.44
490.786	101.44
491.003	100.44
491.221	90.44
491.439	89.44
491.657	99.44
491.874	98.44
492.092	95.44
492.31	84.44
492.527	90.44
492.745	84.44
492.963	99.44
493.18	95.44
493.398	86.44
493.615	106.44
493.833	103.44
494.05	92.44
494.268	96.44
494.485	96.44
494.703	94.44
494.92	88.44
495.138	75.44
495.355	74.44
495.573	88.44
495.79	95.44
496.008	103.44
496.225	92.44
496.442	96.44
496.66	101.44
496.877	96.44
497.094	107.44
497.312	92.44
497.529	84.44
497.746	97.44
497.963	99.44
498.181	78.44
498.398	102.44
498.615	110.44
498.832	116.44
499.049	85.44
499.267	100.44
499.484	90.44
499.701	88.44
499.918	81.44
500.135	80.44
500.352	91.44
500.569	94.44
500.786	102.44
501.003	92.44
501.22	106.44
501.437	87.44
501.654	96.44
501.871	112.44
502.088	92.44
502.305	86.44
502.522	90.44
502.739	82.44
502.956	84.44
503.172	94.44
503.389	108.44
503.606	119.44
503.823	106.44
504.04	94.44
504.256	91.44
504.473	85.44
504.69	95.44
504.907	102.44
505.123	106.44
505.34	95.44
505.557	94.44
505.773	102.44
505.99	96.44
506.207	87.44
506.423	88.44
506.64	103.44
506.856	83.44
507.073	91.44
507.289	98.44
507.506	105.44
507.722	112.44
507.939	119.44
508.155	103.44
508.372	86.44
508.588	102.44
508.805	90.44
509.021	96.44
509.238	106.44
509.454	76.44
509.67	83.44
509.887	99.44
510.103	139.44
510.319	229.44
510.536	863.44
510.752	2866.44
510.968	752.44
511.184	174.44
511.401	134.44
511.617	121.44
511.833	95.44
512.049	92.44
512.265	83.44
512.481	97.44
512.698	96.44
512.914	92.44
513.13	97.44
513.346	83.44
513.562	107.44
513.778	83.44
513.994	95.44
514.21	96.44
514.426	135.44
514.642	148.44
514.858	132.44
515.074	161.44
515.29	529.44
