Data from Uncirc_1984_H10_HRD10591_00065.txt Node
Date: Wed Jan 03 12:21:50 EST 2024
User: Yrep
Spectrometer: HR+D1059
Trigger mode: 1
Integration Time (sec): 1.000000E-1
Scans to average: 1
Electric dark correction enabled: true
Nonlinearity correction enabled: false
Boxcar width: 0
XAxis mode: Wavelengths
Number of Pixels in Spectrum: 2048
>>>>>Begin Spectral Data<<<<<
223.165	-15.12
223.4	-15.12
223.635	-15.12
223.869	-22.12
224.104	-8.12
224.338	-25.12
224.573	-14.12
224.808	-13.12
225.042	-16.12
225.277	-12.12
225.511	-9.12
225.746	16.88
225.98	7.88
226.215	5.88
226.449	11.88
226.683	36.88
226.918	19.88
227.152	35.88
227.387	23.88
227.621	57.88
227.856	46.88
228.09	42.88
228.324	47.88
228.559	59.88
228.793	51.88
229.027	44.88
229.262	72.88
229.496	83.88
229.73	83.88
229.964	76.88
230.199	82.88
230.433	60.88
230.667	80.88
230.901	81.88
231.136	81.88
231.37	88.88
231.604	73.88
231.838	74.88
232.072	87.88
232.306	89.88
232.541	72.88
232.775	83.88
233.009	98.88
233.243	66.88
233.477	88.88
233.711	83.88
233.945	84.88
234.179	70.88
234.413	97.88
234.647	81.88
234.881	80.88
235.115	74.88
235.349	82.88
235.583	85.88
235.817	71.88
236.051	65.88
236.285	87.88
236.519	90.88
236.753	86.88
236.987	89.88
237.221	70.88
237.455	91.88
237.689	87.88
237.922	100.88
238.156	90.88
238.39	76.88
238.624	80.88
238.858	94.88
239.091	71.88
239.325	93.88
239.559	68.88
239.793	80.88
240.027	85.88
240.26	80.88
240.494	64.88
240.728	80.88
240.961	77.88
241.195	87.88
241.429	71.88
241.662	74.88
241.896	84.88
242.13	76.88
242.363	92.88
242.597	75.88
242.83	84.88
243.064	85.88
243.298	65.88
243.531	74.88
243.765	80.88
243.998	74.88
244.232	83.88
244.465	88.88
244.699	82.88
244.932	78.88
245.166	73.88
245.399	75.88
245.633	72.88
245.866	71.88
246.099	75.88
246.333	77.88
246.566	88.88
246.8	72.88
247.033	73.88
247.266	80.88
247.5	84.88
247.733	84.88
247.966	80.88
248.2	80.88
248.433	96.88
248.666	82.88
248.899	70.88
249.133	81.88
249.366	97.88
249.599	88.88
249.832	89.88
250.066	95.88
250.299	89.88
250.532	82.88
250.765	87.88
250.998	85.88
251.231	75.88
251.465	93.88
251.698	75.88
251.931	75.88
252.164	77.88
252.397	82.88
252.63	78.88
252.863	80.88
253.096	80.88
253.329	87.88
253.562	80.88
253.795	85.88
254.028	77.88
254.261	85.88
254.494	80.88
254.727	92.88
254.96	87.88
255.193	76.88
255.426	76.88
255.659	61.88
255.892	83.88
256.124	91.88
256.357	79.88
256.59	88.88
256.823	84.88
257.056	82.88
257.289	84.88
257.521	75.88
257.754	76.88
257.987	76.88
258.22	87.88
258.452	82.88
258.685	99.88
258.918	83.88
259.151	81.88
259.383	86.88
259.616	83.88
259.849	85.88
260.081	87.88
260.314	87.88
260.547	90.88
260.779	95.88
261.012	80.88
261.244	82.88
261.477	91.88
261.71	88.88
261.942	111.88
262.175	99.88
262.407	89.88
262.64	93.88
262.872	92.88
263.105	82.88
263.337	93.88
263.57	81.88
263.802	87.88
264.035	80.88
264.267	76.88
264.499	65.88
264.732	92.88
264.964	95.88
265.197	72.88
265.429	86.88
265.661	91.88
265.894	76.88
266.126	71.88
266.358	80.88
266.591	83.88
266.823	88.88
267.055	90.88
267.287	91.88
267.52	85.88
267.752	88.88
267.984	99.88
268.216	88.88
268.448	98.88
268.681	98.88
268.913	74.88
269.145	79.88
269.377	76.88
269.609	80.88
269.841	84.88
270.073	75.88
270.306	79.88
270.538	89.88
270.77	76.88
271.002	69.88
271.234	77.88
271.466	102.88
271.698	90.88
271.93	82.88
272.162	80.88
272.394	94.88
272.626	82.88
272.858	75.88
273.09	83.88
273.322	91.88
273.553	88.88
273.785	86.88
274.017	86.88
274.249	87.88
274.481	87.88
274.713	84.88
274.945	83.88
275.176	90.88
275.408	76.88
275.64	77.88
275.872	88.88
276.104	83.88
276.335	91.88
276.567	101.88
276.799	100.88
277.031	93.88
277.262	88.88
277.494	89.88
277.726	96.88
277.957	71.88
278.189	91.88
278.421	79.88
278.652	84.88
278.884	99.88
279.115	99.88
279.347	76.88
279.579	86.88
279.81	72.88
280.042	108.88
280.273	95.88
280.505	85.88
280.736	91.88
280.968	80.88
281.199	88.88
281.431	97.88
281.662	107.88
281.894	79.88
282.125	77.88
282.356	115.88
282.588	119.88
282.819	105.88
283.051	92.88
283.282	83.88
283.513	75.88
283.745	86.88
283.976	90.88
284.207	92.88
284.439	84.88
284.67	81.88
284.901	99.88
285.132	85.88
285.364	87.88
285.595	95.88
285.826	97.88
286.057	89.88
286.288	100.88
286.52	81.88
286.751	97.88
286.982	92.88
287.213	83.88
287.444	91.88
287.675	91.88
287.906	96.88
288.138	96.88
288.369	95.88
288.6	102.88
288.831	99.88
289.062	85.88
289.293	101.88
289.524	96.88
289.755	95.88
289.986	79.88
290.217	91.88
290.448	96.88
290.679	86.88
290.91	95.88
291.141	94.88
291.371	88.88
291.602	91.88
291.833	79.88
292.064	76.88
292.295	99.88
292.526	98.88
292.757	87.88
292.987	97.88
293.218	84.88
293.449	87.88
293.68	93.88
293.91	88.88
294.141	98.88
294.372	89.88
294.603	100.88
294.833	98.88
295.064	81.88
295.295	88.88
295.525	88.88
295.756	108.88
295.987	117.88
296.217	130.88
296.448	121.88
296.679	93.88
296.909	86.88
297.14	79.88
297.37	96.88
297.601	95.88
297.831	93.88
298.062	89.88
298.292	84.88
298.523	80.88
298.753	85.88
298.984	89.88
299.214	102.88
299.445	90.88
299.675	91.88
299.905	99.88
300.136	99.88
300.366	83.88
300.597	91.88
300.827	95.88
301.057	91.88
301.288	85.88
301.518	81.88
301.748	85.88
301.979	97.88
302.209	78.88
302.439	79.88
302.669	92.88
302.9	81.88
303.13	101.88
303.36	92.88
303.59	103.88
303.82	107.88
304.051	94.88
304.281	98.88
304.511	91.88
304.741	68.88
304.971	85.88
305.201	85.88
305.431	108.88
305.661	94.88
305.891	105.88
306.121	103.88
306.352	95.88
306.582	99.88
306.812	106.88
307.042	84.88
307.272	91.88
307.502	97.88
307.731	93.88
307.961	84.88
308.191	79.88
308.421	94.88
308.651	110.88
308.881	96.88
309.111	98.88
309.341	103.88
309.571	80.88
309.8	97.88
310.03	110.88
310.26	104.88
310.49	87.88
310.72	88.88
310.949	98.88
311.179	95.88
311.409	101.88
311.639	90.88
311.868	99.88
312.098	87.88
312.328	101.88
312.557	95.88
312.787	97.88
313.017	96.88
313.246	92.88
313.476	89.88
313.706	89.88
313.935	98.88
314.165	81.88
314.394	89.88
314.624	109.88
314.853	88.88
315.083	100.88
315.312	88.88
315.542	95.88
315.771	83.88
316.001	85.88
316.23	93.88
316.46	89.88
316.689	82.88
316.919	99.88
317.148	101.88
317.377	99.88
317.607	75.88
317.836	80.88
318.065	81.88
318.295	100.88
318.524	90.88
318.753	95.88
318.983	93.88
319.212	112.88
319.441	102.88
319.67	108.88
319.9	103.88
320.129	97.88
320.358	84.88
320.587	97.88
320.816	91.88
321.046	93.88
321.275	97.88
321.504	99.88
321.733	95.88
321.962	105.88
322.191	103.88
322.42	86.88
322.649	102.88
322.878	118.88
323.108	115.88
323.337	119.88
323.566	139.88
323.795	143.88
324.024	198.88
324.253	351.88
324.482	743.88
324.71	1535.88
324.939	2055.88
325.168	743.88
325.397	241.88
325.626	142.88
325.855	136.88
326.084	118.88
326.313	128.88
326.542	140.88
326.77	228.88
326.999	410.88
327.228	871.88
327.457	1585.88
327.686	1277.88
327.914	362.88
328.143	171.88
328.372	136.88
328.6	117.88
328.829	110.88
329.058	116.88
329.287	129.88
329.515	98.88
329.744	99.88
329.972	94.88
330.201	83.88
330.43	104.88
330.658	121.88
330.887	126.88
331.115	117.88
331.344	88.88
331.572	99.88
331.801	95.88
332.03	112.88
332.258	91.88
332.486	102.88
332.715	101.88
332.943	87.88
333.172	107.88
333.4	94.88
333.629	97.88
333.857	124.88
334.085	99.88
334.314	81.88
334.542	106.88
334.771	107.88
334.999	95.88
335.227	104.88
335.455	98.88
335.684	93.88
335.912	99.88
336.14	87.88
336.369	96.88
336.597	84.88
336.825	101.88
337.053	89.88
337.281	81.88
337.51	96.88
337.738	92.88
337.966	97.88
338.194	113.88
338.422	83.88
338.65	109.88
338.878	100.88
339.106	79.88
339.334	90.88
339.562	85.88
339.79	80.88
340.018	93.88
340.246	89.88
340.474	90.88
340.702	98.88
340.93	100.88
341.158	107.88
341.386	87.88
341.614	108.88
341.842	81.88
342.07	93.88
342.298	100.88
342.526	91.88
342.754	91.88
342.981	92.88
343.209	102.88
343.437	98.88
343.665	94.88
343.893	89.88
344.12	87.88
344.348	91.88
344.576	98.88
344.804	103.88
345.031	103.88
345.259	105.88
345.487	95.88
345.714	76.88
345.942	103.88
346.17	103.88
346.397	92.88
346.625	93.88
346.853	88.88
347.08	95.88
347.308	90.88
347.535	85.88
347.763	97.88
347.99	96.88
348.218	97.88
348.445	91.88
348.673	119.88
348.9	104.88
349.128	108.88
349.355	103.88
349.583	96.88
349.81	106.88
350.037	100.88
350.265	84.88
350.492	107.88
350.72	98.88
350.947	106.88
351.174	110.88
351.402	100.88
351.629	100.88
351.856	101.88
352.083	97.88
352.311	99.88
352.538	104.88
352.765	116.88
352.992	119.88
353.22	122.88
353.447	111.88
353.674	98.88
353.901	87.88
354.128	104.88
354.355	87.88
354.583	98.88
354.81	104.88
355.037	77.88
355.264	90.88
355.491	95.88
355.718	94.88
355.945	93.88
356.172	100.88
356.399	89.88
356.626	96.88
356.853	90.88
357.08	106.88
357.307	102.88
357.534	86.88
357.761	99.88
357.988	87.88
358.215	101.88
358.441	92.88
358.668	95.88
358.895	81.88
359.122	89.88
359.349	89.88
359.576	82.88
359.802	93.88
360.029	109.88
360.256	96.88
360.483	94.88
360.709	75.88
360.936	96.88
361.163	102.88
361.39	95.88
361.616	82.88
361.843	96.88
362.07	96.88
362.296	96.88
362.523	97.88
362.749	97.88
362.976	98.88
363.203	90.88
363.429	92.88
363.656	87.88
363.882	75.88
364.109	87.88
364.335	94.88
364.562	85.88
364.788	99.88
365.015	85.88
365.241	100.88
365.468	90.88
365.694	114.88
365.92	87.88
366.147	99.88
366.373	98.88
366.599	101.88
366.826	88.88
367.052	91.88
367.278	101.88
367.505	89.88
367.731	90.88
367.957	89.88
368.184	105.88
368.41	90.88
368.636	92.88
368.862	109.88
369.089	105.88
369.315	85.88
369.541	100.88
369.767	90.88
369.993	101.88
370.219	88.88
370.445	79.88
370.672	92.88
370.898	101.88
371.124	87.88
371.35	80.88
371.576	94.88
371.802	91.88
372.028	83.88
372.254	85.88
372.48	91.88
372.706	93.88
372.932	73.88
373.158	89.88
373.384	84.88
373.61	89.88
373.835	95.88
374.061	77.88
374.287	87.88
374.513	89.88
374.739	90.88
374.965	85.88
375.191	87.88
375.416	85.88
375.642	76.88
375.868	93.88
376.094	93.88
376.319	71.88
376.545	81.88
376.771	79.88
376.997	99.88
377.222	101.88
377.448	104.88
377.674	90.88
377.899	104.88
378.125	84.88
378.35	91.88
378.576	83.88
378.802	91.88
379.027	72.88
379.253	88.88
379.478	92.88
379.704	81.88
379.929	85.88
380.155	106.88
380.38	93.88
380.606	84.88
380.831	89.88
381.057	89.88
381.282	98.88
381.507	98.88
381.733	81.88
381.958	101.88
382.184	108.88
382.409	88.88
382.634	101.88
382.86	99.88
383.085	107.88
383.31	91.88
383.535	112.88
383.761	103.88
383.986	101.88
384.211	106.88
384.436	91.88
384.662	108.88
384.887	87.88
385.112	95.88
385.337	108.88
385.562	89.88
385.787	94.88
386.013	111.88
386.238	97.88
386.463	97.88
386.688	101.88
386.913	104.88
387.138	85.88
387.363	103.88
387.588	103.88
387.813	103.88
388.038	93.88
388.263	102.88
388.488	105.88
388.713	93.88
388.938	91.88
389.163	95.88
389.387	95.88
389.612	92.88
389.837	98.88
390.062	87.88
390.287	95.88
390.512	97.88
390.736	91.88
390.961	94.88
391.186	85.88
391.411	84.88
391.636	99.88
391.86	100.88
392.085	84.88
392.31	79.88
392.534	113.88
392.759	97.88
392.984	83.88
393.208	83.88
393.433	106.88
393.658	88.88
393.882	89.88
394.107	93.88
394.331	91.88
394.556	82.88
394.78	89.88
395.005	66.88
395.229	93.88
395.454	82.88
395.678	94.88
395.903	86.88
396.127	92.88
396.352	92.88
396.576	81.88
396.801	77.88
397.025	84.88
397.249	94.88
397.474	90.88
397.698	81.88
397.922	74.88
398.147	83.88
398.371	77.88
398.595	65.88
398.82	55.88
399.044	88.88
399.268	85.88
399.492	81.88
399.717	88.88
399.941	102.88
400.165	71.88
400.389	86.88
400.613	86.88
400.837	87.88
401.062	76.88
401.286	90.88
401.51	86.88
401.734	89.88
401.958	103.88
402.182	109.88
402.406	151.88
402.63	105.88
402.854	71.88
403.078	96.88
403.302	100.88
403.526	95.88
403.75	88.88
403.974	100.88
404.198	85.88
404.422	93.88
404.645	85.88
404.869	96.88
405.093	103.88
405.317	101.88
405.541	86.88
405.765	108.88
405.988	108.88
406.212	170.88
406.436	211.88
406.66	139.88
406.883	100.88
407.107	104.88
407.331	94.88
407.555	101.88
407.778	98.88
408.002	93.88
408.226	89.88
408.449	91.88
408.673	94.88
408.896	100.88
409.12	76.88
409.344	83.88
409.567	77.88
409.791	84.88
410.014	103.88
410.238	89.88
410.461	79.88
410.685	90.88
410.908	95.88
411.132	105.88
411.355	100.88
411.578	102.88
411.802	94.88
412.025	79.88
412.249	73.88
412.472	76.88
412.695	86.88
412.919	86.88
413.142	92.88
413.365	95.88
413.589	88.88
413.812	87.88
414.035	94.88
414.258	90.88
414.482	82.88
414.705	93.88
414.928	93.88
415.151	84.88
415.374	102.88
415.597	91.88
415.821	93.88
416.044	84.88
416.267	70.88
416.49	90.88
416.713	96.88
416.936	91.88
417.159	77.88
417.382	84.88
417.605	85.88
417.828	110.88
418.051	91.88
418.274	83.88
418.497	73.88
418.72	87.88
418.943	92.88
419.166	93.88
419.389	85.88
419.611	83.88
419.834	79.88
420.057	86.88
420.28	90.88
420.503	77.88
420.726	105.88
420.948	80.88
421.171	84.88
421.394	89.88
421.617	98.88
421.839	91.88
422.062	78.88
422.285	81.88
422.507	98.88
422.73	104.88
422.953	86.88
423.175	92.88
423.398	87.88
423.621	88.88
423.843	92.88
424.066	86.88
424.288	87.88
424.511	71.88
424.733	95.88
424.956	105.88
425.178	101.88
425.401	107.88
425.623	104.88
425.846	77.88
426.068	89.88
426.291	100.88
426.513	96.88
426.735	97.88
426.958	95.88
427.18	99.88
427.402	128.88
427.625	148.88
427.847	135.88
428.069	87.88
428.292	75.88
428.514	86.88
428.736	90.88
428.958	73.88
429.181	81.88
429.403	88.88
429.625	88.88
429.847	80.88
430.069	88.88
430.292	81.88
430.514	79.88
430.736	95.88
430.958	88.88
431.18	90.88
431.402	78.88
431.624	89.88
431.846	82.88
432.068	80.88
432.29	85.88
432.512	83.88
432.734	65.88
432.956	82.88
433.178	90.88
433.4	102.88
433.622	87.88
433.844	80.88
434.066	95.88
434.287	99.88
434.509	95.88
434.731	83.88
434.953	91.88
435.175	91.88
435.397	82.88
435.618	100.88
435.84	87.88
436.062	123.88
436.284	115.88
436.505	97.88
436.727	105.88
436.949	95.88
437.17	91.88
437.392	75.88
437.614	95.88
437.835	96.88
438.057	95.88
438.278	105.88
438.5	93.88
438.721	112.88
438.943	103.88
439.165	82.88
439.386	82.88
439.608	96.88
439.829	94.88
440.05	109.88
440.272	141.88
440.493	98.88
440.715	78.88
440.936	90.88
441.158	85.88
441.379	87.88
441.6	95.88
441.822	86.88
442.043	100.88
442.264	104.88
442.486	102.88
442.707	102.88
442.928	101.88
443.149	129.88
443.371	121.88
443.592	109.88
443.813	110.88
444.034	90.88
444.255	100.88
444.476	87.88
444.698	75.88
444.919	83.88
445.14	131.88
445.361	118.88
445.582	113.88
445.803	124.88
446.024	117.88
446.245	120.88
446.466	113.88
446.687	91.88
446.908	90.88
447.129	83.88
447.35	91.88
447.571	88.88
447.792	89.88
448.013	95.88
448.234	98.88
448.455	109.88
448.675	130.88
448.896	119.88
449.117	102.88
449.338	102.88
449.559	119.88
449.779	126.88
450	91.88
450.221	85.88
450.442	103.88
450.662	93.88
450.883	100.88
451.104	107.88
451.324	85.88
451.545	88.88
451.766	66.88
451.986	80.88
452.207	83.88
452.428	91.88
452.648	98.88
452.869	121.88
453.089	109.88
453.31	102.88
453.53	86.88
453.751	84.88
453.971	91.88
454.192	94.88
454.412	101.88
454.633	85.88
454.853	85.88
455.073	80.88
455.294	81.88
455.514	89.88
455.734	94.88
455.955	76.88
456.175	83.88
456.395	85.88
456.616	86.88
456.836	76.88
457.056	96.88
457.276	91.88
457.497	76.88
457.717	79.88
457.937	88.88
458.157	88.88
458.377	83.88
458.598	108.88
458.818	138.88
459.038	155.88
459.258	99.88
459.478	79.88
459.698	82.88
459.918	84.88
460.138	92.88
460.358	89.88
460.578	72.88
460.798	74.88
461.018	94.88
461.238	109.88
461.458	80.88
461.678	82.88
461.898	103.88
462.118	87.88
462.338	74.88
462.558	90.88
462.777	79.88
462.997	88.88
463.217	83.88
463.437	82.88
463.657	70.88
463.876	73.88
464.096	95.88
464.316	93.88
464.536	84.88
464.755	97.88
464.975	92.88
465.195	136.88
465.414	136.88
465.634	98.88
465.854	81.88
466.073	82.88
466.293	86.88
466.512	77.88
466.732	78.88
466.951	77.88
467.171	99.88
467.391	97.88
467.61	90.88
467.829	79.88
468.049	81.88
468.268	100.88
468.488	93.88
468.707	76.88
468.927	104.88
469.146	91.88
469.365	84.88
469.585	86.88
469.804	100.88
470.023	101.88
470.243	95.88
470.462	101.88
470.681	106.88
470.901	76.88
471.12	89.88
471.339	105.88
471.558	93.88
471.777	95.88
471.997	95.88
472.216	90.88
472.435	90.88
472.654	96.88
472.873	94.88
473.092	82.88
473.311	87.88
473.53	67.88
473.749	99.88
473.968	98.88
474.187	91.88
474.406	108.88
474.625	104.88
474.844	92.88
475.063	84.88
475.282	85.88
475.501	84.88
475.72	79.88
475.939	75.88
476.158	95.88
476.377	92.88
476.596	78.88
476.814	82.88
477.033	88.88
477.252	92.88
477.471	87.88
477.69	103.88
477.908	96.88
478.127	94.88
478.346	85.88
478.564	93.88
478.783	107.88
479.002	103.88
479.22	83.88
479.439	98.88
479.658	89.88
479.876	106.88
480.095	86.88
480.313	95.88
480.532	89.88
480.751	89.88
480.969	77.88
481.188	94.88
481.406	95.88
481.624	93.88
481.843	79.88
482.061	87.88
482.28	81.88
482.498	84.88
482.717	105.88
482.935	72.88
483.153	74.88
483.372	83.88
483.59	87.88
483.808	84.88
484.027	79.88
484.245	95.88
484.463	75.88
484.681	103.88
484.9	88.88
485.118	96.88
485.336	76.88
485.554	98.88
485.772	89.88
485.99	111.88
486.209	117.88
486.427	104.88
486.645	97.88
486.863	103.88
487.081	110.88
487.299	95.88
487.517	87.88
487.735	106.88
487.953	94.88
488.171	96.88
488.389	96.88
488.607	92.88
488.825	103.88
489.043	96.88
489.261	97.88
489.479	90.88
489.696	95.88
489.914	83.88
490.132	98.88
490.35	100.88
490.568	92.88
490.786	104.88
491.003	90.88
491.221	79.88
491.439	88.88
491.657	99.88
491.874	113.88
492.092	93.88
492.31	106.88
492.527	88.88
492.745	87.88
492.963	96.88
493.18	102.88
493.398	106.88
493.615	101.88
493.833	77.88
494.05	95.88
494.268	89.88
494.485	82.88
494.703	82.88
494.92	81.88
495.138	98.88
495.355	79.88
495.573	88.88
495.79	84.88
496.008	103.88
496.225	95.88
496.442	84.88
496.66	94.88
496.877	77.88
497.094	91.88
497.312	81.88
497.529	98.88
497.746	88.88
497.963	86.88
498.181	91.88
498.398	97.88
498.615	111.88
498.832	91.88
499.049	86.88
499.267	81.88
499.484	96.88
499.701	82.88
499.918	97.88
500.135	91.88
500.352	68.88
500.569	86.88
500.786	95.88
501.003	83.88
501.22	100.88
501.437	100.88
501.654	89.88
501.871	111.88
502.088	89.88
502.305	79.88
502.522	95.88
502.739	90.88
502.956	91.88
503.172	93.88
503.389	96.88
503.606	91.88
503.823	97.88
504.04	91.88
504.256	110.88
504.473	91.88
504.69	100.88
504.907	81.88
505.123	87.88
505.34	90.88
505.557	84.88
505.773	86.88
505.99	84.88
506.207	100.88
506.423	95.88
506.64	92.88
506.856	87.88
507.073	92.88
507.289	87.88
507.506	106.88
507.722	114.88
507.939	107.88
508.155	95.88
508.372	97.88
508.588	87.88
508.805	96.88
509.021	98.88
509.238	87.88
509.454	106.88
509.67	90.88
509.887	108.88
510.103	126.88
510.319	209.88
510.536	679.88
510.752	2229.88
510.968	597.88
511.184	147.88
511.401	111.88
511.617	112.88
511.833	99.88
512.049	86.88
512.265	75.88
512.481	88.88
512.698	87.88
512.914	101.88
513.13	103.88
513.346	98.88
513.562	93.88
513.778	97.88
513.994	78.88
514.21	106.88
514.426	108.88
514.642	128.88
514.858	108.88
515.074	155.88
515.29	382.88
515.506	1255.88
515.721	470.88
