Data from Uncirc_1984_H10_HRD10591_00022.txt Node
Date: Wed Jan 03 12:21:41 EST 2024
User: Yrep
Spectrometer: HR+D1059
Trigger mode: 1
Integration Time (sec): 1.000000E-1
Scans to average: 1
Electric dark correction enabled: true
Nonlinearity correction enabled: false
Boxcar width: 0
XAxis mode: Wavelengths
Number of Pixels in Spectrum: 2048
>>>>>Begin Spectral Data<<<<<
223.165	-18.38
223.4	-18.38
223.635	-18.38
223.869	-13.38
224.104	-24.38
224.338	-26.38
224.573	-9.38
224.808	-14.38
225.042	-11.38
225.277	-6.38
225.511	12.62
225.746	6.62
225.98	8.62
226.215	-0.38
226.449	7.62
226.683	24.62
226.918	32.62
227.152	31.62
227.387	28.62
227.621	35.62
227.856	61.62
228.09	40.62
228.324	53.62
228.559	47.62
228.793	54.62
229.027	44.62
229.262	58.62
229.496	62.62
229.73	79.62
229.964	84.62
230.199	70.62
230.433	67.62
230.667	78.62
230.901	76.62
231.136	73.62
231.37	64.62
231.604	77.62
231.838	70.62
232.072	91.62
232.306	98.62
232.541	80.62
232.775	83.62
233.009	79.62
233.243	80.62
233.477	86.62
233.711	72.62
233.945	96.62
234.179	81.62
234.413	74.62
234.647	77.62
234.881	79.62
235.115	69.62
235.349	85.62
235.583	80.62
235.817	80.62
236.051	87.62
236.285	83.62
236.519	81.62
236.753	68.62
236.987	82.62
237.221	65.62
237.455	65.62
237.689	79.62
237.922	83.62
238.156	66.62
238.39	78.62
238.624	61.62
238.858	74.62
239.091	70.62
239.325	77.62
239.559	85.62
239.793	74.62
240.027	82.62
240.26	67.62
240.494	70.62
240.728	79.62
240.961	81.62
241.195	76.62
241.429	72.62
241.662	63.62
241.896	68.62
242.13	78.62
242.363	70.62
242.597	79.62
242.83	80.62
243.064	66.62
243.298	72.62
243.531	87.62
243.765	78.62
243.998	84.62
244.232	76.62
244.465	67.62
244.699	84.62
244.932	73.62
245.166	80.62
245.399	82.62
245.633	84.62
245.866	72.62
246.099	76.62
246.333	67.62
246.566	69.62
246.8	63.62
247.033	77.62
247.266	76.62
247.5	94.62
247.733	97.62
247.966	88.62
248.2	76.62
248.433	85.62
248.666	72.62
248.899	81.62
249.133	86.62
249.366	93.62
249.599	92.62
249.832	69.62
250.066	95.62
250.299	82.62
250.532	81.62
250.765	77.62
250.998	76.62
251.231	84.62
251.465	84.62
251.698	78.62
251.931	84.62
252.164	78.62
252.397	72.62
252.63	79.62
252.863	76.62
253.096	72.62
253.329	79.62
253.562	69.62
253.795	72.62
254.028	65.62
254.261	62.62
254.494	78.62
254.727	100.62
254.96	85.62
255.193	73.62
255.426	77.62
255.659	75.62
255.892	87.62
256.124	78.62
256.357	84.62
256.59	89.62
256.823	74.62
257.056	78.62
257.289	85.62
257.521	82.62
257.754	87.62
257.987	81.62
258.22	88.62
258.452	89.62
258.685	81.62
258.918	72.62
259.151	68.62
259.383	77.62
259.616	95.62
259.849	77.62
260.081	89.62
260.314	82.62
260.547	84.62
260.779	70.62
261.012	92.62
261.244	82.62
261.477	95.62
261.71	96.62
261.942	99.62
262.175	93.62
262.407	82.62
262.64	69.62
262.872	80.62
263.105	88.62
263.337	84.62
263.57	83.62
263.802	72.62
264.035	82.62
264.267	68.62
264.499	76.62
264.732	84.62
264.964	93.62
265.197	80.62
265.429	65.62
265.661	71.62
265.894	84.62
266.126	67.62
266.358	82.62
266.591	97.62
266.823	73.62
267.055	76.62
267.287	88.62
267.52	81.62
267.752	82.62
267.984	83.62
268.216	89.62
268.448	79.62
268.681	105.62
268.913	96.62
269.145	84.62
269.377	88.62
269.609	77.62
269.841	77.62
270.073	84.62
270.306	80.62
270.538	81.62
270.77	87.62
271.002	87.62
271.234	74.62
271.466	84.62
271.698	79.62
271.93	102.62
272.162	98.62
272.394	81.62
272.626	86.62
272.858	78.62
273.09	78.62
273.322	64.62
273.553	99.62
273.785	77.62
274.017	74.62
274.249	81.62
274.481	86.62
274.713	78.62
274.945	89.62
275.176	86.62
275.408	79.62
275.64	92.62
275.872	91.62
276.104	81.62
276.335	76.62
276.567	108.62
276.799	104.62
277.031	96.62
277.262	77.62
277.494	81.62
277.726	98.62
277.957	68.62
278.189	86.62
278.421	85.62
278.652	72.62
278.884	75.62
279.115	79.62
279.347	69.62
279.579	78.62
279.81	86.62
280.042	69.62
280.273	84.62
280.505	89.62
280.736	82.62
280.968	94.62
281.199	95.62
281.431	95.62
281.662	94.62
281.894	99.62
282.125	92.62
282.356	111.62
282.588	112.62
282.819	99.62
283.051	92.62
283.282	90.62
283.513	84.62
283.745	72.62
283.976	88.62
284.207	85.62
284.439	83.62
284.67	80.62
284.901	89.62
285.132	91.62
285.364	86.62
285.595	102.62
285.826	92.62
286.057	90.62
286.288	79.62
286.52	92.62
286.751	89.62
286.982	70.62
287.213	71.62
287.444	85.62
287.675	96.62
287.906	86.62
288.138	92.62
288.369	96.62
288.6	78.62
288.831	77.62
289.062	94.62
289.293	81.62
289.524	76.62
289.755	68.62
289.986	78.62
290.217	82.62
290.448	81.62
290.679	87.62
290.91	83.62
291.141	88.62
291.371	88.62
291.602	100.62
291.833	100.62
292.064	87.62
292.295	68.62
292.526	86.62
292.757	78.62
292.987	77.62
293.218	87.62
293.449	76.62
293.68	70.62
293.91	79.62
294.141	86.62
294.372	81.62
294.603	89.62
294.833	95.62
295.064	86.62
295.295	84.62
295.525	70.62
295.756	100.62
295.987	107.62
296.217	126.62
296.448	119.62
296.679	89.62
296.909	79.62
297.14	97.62
297.37	83.62
297.601	82.62
297.831	84.62
298.062	82.62
298.292	83.62
298.523	86.62
298.753	83.62
298.984	93.62
299.214	83.62
299.445	82.62
299.675	72.62
299.905	90.62
300.136	109.62
300.366	98.62
300.597	90.62
300.827	102.62
301.057	108.62
301.288	93.62
301.518	85.62
301.748	87.62
301.979	93.62
302.209	91.62
302.439	88.62
302.669	92.62
302.9	86.62
303.13	85.62
303.36	89.62
303.59	103.62
303.82	89.62
304.051	80.62
304.281	95.62
304.511	90.62
304.741	86.62
304.971	84.62
305.201	93.62
305.431	92.62
305.661	88.62
305.891	91.62
306.121	100.62
306.352	86.62
306.582	91.62
306.812	94.62
307.042	81.62
307.272	86.62
307.502	71.62
307.731	86.62
307.961	90.62
308.191	86.62
308.421	83.62
308.651	97.62
308.881	80.62
309.111	72.62
309.341	93.62
309.571	101.62
309.8	89.62
310.03	101.62
310.26	81.62
310.49	86.62
310.72	98.62
310.949	99.62
311.179	91.62
311.409	94.62
311.639	90.62
311.868	90.62
312.098	86.62
312.328	88.62
312.557	104.62
312.787	92.62
313.017	92.62
313.246	84.62
313.476	86.62
313.706	87.62
313.935	90.62
314.165	87.62
314.394	101.62
314.624	94.62
314.853	103.62
315.083	85.62
315.312	93.62
315.542	88.62
315.771	95.62
316.001	89.62
316.23	78.62
316.46	84.62
316.689	86.62
316.919	96.62
317.148	100.62
317.377	87.62
317.607	84.62
317.836	99.62
318.065	73.62
318.295	97.62
318.524	82.62
318.753	99.62
318.983	84.62
319.212	99.62
319.441	95.62
319.67	103.62
319.9	96.62
320.129	86.62
320.358	87.62
320.587	88.62
320.816	97.62
321.046	96.62
321.275	86.62
321.504	93.62
321.733	97.62
321.962	89.62
322.191	101.62
322.42	104.62
322.649	101.62
322.878	106.62
323.108	104.62
323.337	99.62
323.566	111.62
323.795	138.62
324.024	180.62
324.253	334.62
324.482	704.62
324.71	1401.62
324.939	1924.62
325.168	699.62
325.397	224.62
325.626	140.62
325.855	106.62
326.084	114.62
326.313	126.62
326.542	137.62
326.77	205.62
326.999	386.62
327.228	808.62
327.457	1454.62
327.686	1160.62
327.914	320.62
328.143	169.62
328.372	111.62
328.6	99.62
328.829	109.62
329.058	110.62
329.287	133.62
329.515	112.62
329.744	92.62
329.972	95.62
330.201	84.62
330.43	87.62
330.658	116.62
330.887	134.62
331.115	106.62
331.344	90.62
331.572	101.62
331.801	96.62
332.03	94.62
332.258	101.62
332.486	87.62
332.715	91.62
332.943	91.62
333.172	85.62
333.4	96.62
333.629	92.62
333.857	88.62
334.085	100.62
334.314	90.62
334.542	86.62
334.771	95.62
334.999	88.62
335.227	80.62
335.455	87.62
335.684	95.62
335.912	99.62
336.14	96.62
336.369	100.62
336.597	99.62
336.825	81.62
337.053	90.62
337.281	98.62
337.51	82.62
337.738	90.62
337.966	88.62
338.194	82.62
338.422	97.62
338.65	80.62
338.878	86.62
339.106	85.62
339.334	92.62
339.562	88.62
339.79	84.62
340.018	78.62
340.246	84.62
340.474	102.62
340.702	105.62
340.93	97.62
341.158	93.62
341.386	99.62
341.614	87.62
341.842	89.62
342.07	93.62
342.298	89.62
342.526	82.62
342.754	81.62
342.981	88.62
343.209	90.62
343.437	97.62
343.665	87.62
343.893	94.62
344.12	97.62
344.348	90.62
344.576	97.62
344.804	81.62
345.031	89.62
345.259	93.62
345.487	93.62
345.714	85.62
345.942	80.62
346.17	93.62
346.397	94.62
346.625	94.62
346.853	93.62
347.08	92.62
347.308	84.62
347.535	90.62
347.763	79.62
347.99	94.62
348.218	99.62
348.445	88.62
348.673	96.62
348.9	90.62
349.128	80.62
349.355	106.62
349.583	83.62
349.81	100.62
350.037	89.62
350.265	87.62
350.492	82.62
350.72	93.62
350.947	102.62
351.174	104.62
351.402	99.62
351.629	94.62
351.856	97.62
352.083	84.62
352.311	107.62
352.538	92.62
352.765	109.62
352.992	134.62
353.22	111.62
353.447	92.62
353.674	98.62
353.901	95.62
354.128	86.62
354.355	87.62
354.583	84.62
354.81	94.62
355.037	94.62
355.264	90.62
355.491	89.62
355.718	76.62
355.945	71.62
356.172	92.62
356.399	96.62
356.626	97.62
356.853	93.62
357.08	88.62
357.307	94.62
357.534	91.62
357.761	94.62
357.988	90.62
358.215	99.62
358.441	91.62
358.668	80.62
358.895	76.62
359.122	88.62
359.349	92.62
359.576	96.62
359.802	91.62
360.029	100.62
360.256	113.62
360.483	97.62
360.709	82.62
360.936	100.62
361.163	81.62
361.39	107.62
361.616	85.62
361.843	89.62
362.07	91.62
362.296	84.62
362.523	89.62
362.749	82.62
362.976	84.62
363.203	91.62
363.429	86.62
363.656	100.62
363.882	101.62
364.109	85.62
364.335	87.62
364.562	85.62
364.788	74.62
365.015	82.62
365.241	85.62
365.468	95.62
365.694	97.62
365.92	98.62
366.147	83.62
366.373	78.62
366.599	81.62
366.826	79.62
367.052	78.62
367.278	81.62
367.505	83.62
367.731	95.62
367.957	97.62
368.184	89.62
368.41	88.62
368.636	110.62
368.862	106.62
369.089	98.62
369.315	81.62
369.541	90.62
369.767	89.62
369.993	101.62
370.219	98.62
370.445	85.62
370.672	97.62
370.898	83.62
371.124	84.62
371.35	77.62
371.576	92.62
371.802	87.62
372.028	90.62
372.254	86.62
372.48	70.62
372.706	82.62
372.932	88.62
373.158	73.62
373.384	84.62
373.61	95.62
373.835	95.62
374.061	82.62
374.287	91.62
374.513	80.62
374.739	92.62
374.965	90.62
375.191	89.62
375.416	72.62
375.642	70.62
375.868	99.62
376.094	90.62
376.319	78.62
376.545	83.62
376.771	76.62
376.997	90.62
377.222	79.62
377.448	92.62
377.674	88.62
377.899	73.62
378.125	73.62
378.35	86.62
378.576	76.62
378.802	85.62
379.027	95.62
379.253	83.62
379.478	91.62
379.704	97.62
379.929	98.62
380.155	95.62
380.38	85.62
380.606	94.62
380.831	93.62
381.057	103.62
381.282	82.62
381.507	93.62
381.733	89.62
381.958	93.62
382.184	96.62
382.409	71.62
382.634	97.62
382.86	95.62
383.085	94.62
383.31	89.62
383.535	109.62
383.761	96.62
383.986	93.62
384.211	100.62
384.436	99.62
384.662	99.62
384.887	86.62
385.112	88.62
385.337	88.62
385.562	92.62
385.787	96.62
386.013	89.62
386.238	113.62
386.463	97.62
386.688	92.62
386.913	108.62
387.138	97.62
387.363	100.62
387.588	97.62
387.813	94.62
388.038	109.62
388.263	101.62
388.488	112.62
388.713	88.62
388.938	96.62
389.163	106.62
389.387	83.62
389.612	84.62
389.837	99.62
390.062	85.62
390.287	84.62
390.512	78.62
390.736	79.62
390.961	93.62
391.186	86.62
391.411	83.62
391.636	81.62
391.86	82.62
392.085	83.62
392.31	83.62
392.534	92.62
392.759	82.62
392.984	84.62
393.208	104.62
393.433	97.62
393.658	99.62
393.882	90.62
394.107	89.62
394.331	91.62
394.556	87.62
394.78	84.62
395.005	87.62
395.229	71.62
395.454	88.62
395.678	77.62
395.903	86.62
396.127	77.62
396.352	73.62
396.576	80.62
396.801	90.62
397.025	72.62
397.249	84.62
397.474	87.62
397.698	84.62
397.922	103.62
398.147	95.62
398.371	79.62
398.595	102.62
398.82	94.62
399.044	77.62
399.268	84.62
399.492	98.62
399.717	87.62
399.941	77.62
400.165	90.62
400.389	80.62
400.613	86.62
400.837	83.62
401.062	84.62
401.286	89.62
401.51	84.62
401.734	83.62
401.958	101.62
402.182	132.62
402.406	132.62
402.63	105.62
402.854	86.62
403.078	82.62
403.302	81.62
403.526	81.62
403.75	94.62
403.974	78.62
404.198	82.62
404.422	85.62
404.645	84.62
404.869	82.62
405.093	81.62
405.317	93.62
405.541	96.62
405.765	88.62
405.988	87.62
406.212	143.62
406.436	176.62
406.66	129.62
406.883	90.62
407.107	97.62
407.331	96.62
407.555	98.62
407.778	106.62
408.002	85.62
408.226	88.62
408.449	86.62
408.673	86.62
408.896	83.62
409.12	78.62
409.344	88.62
409.567	96.62
409.791	64.62
410.014	88.62
410.238	94.62
410.461	94.62
410.685	84.62
410.908	87.62
411.132	88.62
411.355	95.62
411.578	104.62
411.802	79.62
412.025	84.62
412.249	91.62
412.472	89.62
412.695	76.62
412.919	94.62
413.142	84.62
413.365	86.62
413.589	95.62
413.812	90.62
414.035	80.62
414.258	80.62
414.482	82.62
414.705	78.62
414.928	93.62
415.151	100.62
415.374	92.62
415.597	79.62
415.821	92.62
416.044	73.62
416.267	78.62
416.49	80.62
416.713	83.62
416.936	80.62
417.159	86.62
417.382	87.62
417.605	86.62
417.828	105.62
418.051	97.62
418.274	83.62
418.497	82.62
418.72	79.62
418.943	66.62
419.166	81.62
419.389	92.62
419.611	85.62
419.834	96.62
420.057	87.62
420.28	85.62
420.503	81.62
420.726	90.62
420.948	90.62
421.171	103.62
421.394	84.62
421.617	81.62
421.839	70.62
422.062	78.62
422.285	104.62
422.507	90.62
422.73	106.62
422.953	89.62
423.175	88.62
423.398	77.62
423.621	80.62
423.843	93.62
424.066	72.62
424.288	102.62
424.511	74.62
424.733	98.62
424.956	84.62
425.178	95.62
425.401	98.62
425.623	87.62
425.846	86.62
426.068	84.62
426.291	74.62
426.513	82.62
426.735	79.62
426.958	90.62
427.18	92.62
427.402	128.62
427.625	137.62
427.847	113.62
428.069	94.62
428.292	81.62
428.514	92.62
428.736	70.62
428.958	80.62
429.181	83.62
429.403	79.62
429.625	78.62
429.847	77.62
430.069	98.62
430.292	70.62
430.514	72.62
430.736	72.62
430.958	88.62
431.18	90.62
431.402	89.62
431.624	95.62
431.846	84.62
432.068	85.62
432.29	94.62
432.512	98.62
432.734	72.62
432.956	88.62
433.178	105.62
433.4	94.62
433.622	86.62
433.844	80.62
434.066	81.62
434.287	78.62
434.509	88.62
434.731	74.62
434.953	72.62
435.175	92.62
435.397	88.62
435.618	85.62
435.84	90.62
436.062	103.62
436.284	103.62
436.505	105.62
436.727	93.62
436.949	95.62
437.17	78.62
437.392	90.62
437.614	94.62
437.835	108.62
438.057	101.62
438.278	102.62
438.5	92.62
438.721	123.62
438.943	97.62
439.165	95.62
439.386	80.62
439.608	85.62
439.829	82.62
440.05	109.62
440.272	118.62
440.493	94.62
440.715	85.62
440.936	85.62
441.158	68.62
441.379	80.62
441.6	85.62
441.822	91.62
442.043	94.62
442.264	96.62
442.486	90.62
442.707	81.62
442.928	96.62
443.149	116.62
443.371	127.62
443.592	103.62
443.813	101.62
444.034	97.62
444.255	88.62
444.476	101.62
444.698	81.62
444.919	86.62
445.14	136.62
445.361	115.62
445.582	101.62
445.803	117.62
446.024	129.62
446.245	116.62
446.466	100.62
446.687	92.62
446.908	76.62
447.129	83.62
447.35	90.62
447.571	88.62
447.792	79.62
448.013	88.62
448.234	92.62
448.455	92.62
448.675	107.62
448.896	101.62
449.117	92.62
449.338	103.62
449.559	126.62
449.779	120.62
450	76.62
450.221	77.62
450.442	88.62
450.662	92.62
450.883	96.62
451.104	94.62
451.324	92.62
451.545	66.62
451.766	78.62
451.986	76.62
452.207	78.62
452.428	76.62
452.648	87.62
452.869	109.62
453.089	102.62
453.31	114.62
453.53	84.62
453.751	83.62
453.971	90.62
454.192	95.62
454.412	94.62
454.633	83.62
454.853	67.62
455.073	78.62
455.294	82.62
455.514	95.62
455.734	79.62
455.955	82.62
456.175	85.62
456.395	81.62
456.616	84.62
456.836	89.62
457.056	78.62
457.276	74.62
457.497	89.62
457.717	90.62
457.937	93.62
458.157	85.62
458.377	85.62
458.598	93.62
458.818	109.62
459.038	141.62
459.258	98.62
459.478	90.62
459.698	78.62
459.918	82.62
460.138	87.62
460.358	97.62
460.578	79.62
460.798	76.62
461.018	72.62
461.238	78.62
461.458	93.62
461.678	82.62
461.898	95.62
462.118	98.62
462.338	99.62
462.558	88.62
462.777	82.62
462.997	82.62
463.217	82.62
463.437	82.62
463.657	88.62
463.876	80.62
464.096	86.62
464.316	91.62
464.536	84.62
464.755	100.62
464.975	88.62
465.195	132.62
465.414	150.62
465.634	94.62
465.854	85.62
466.073	88.62
466.293	93.62
466.512	82.62
466.732	80.62
466.951	74.62
467.171	82.62
467.391	89.62
467.61	100.62
467.829	99.62
468.049	90.62
468.268	77.62
468.488	79.62
468.707	84.62
468.927	88.62
469.146	87.62
469.365	92.62
469.585	96.62
469.804	89.62
470.023	92.62
470.243	92.62
470.462	90.62
470.681	103.62
470.901	96.62
471.12	93.62
471.339	84.62
471.558	84.62
471.777	78.62
471.997	88.62
472.216	81.62
472.435	97.62
472.654	88.62
472.873	86.62
473.092	88.62
473.311	93.62
473.53	81.62
473.749	87.62
473.968	104.62
474.187	101.62
474.406	81.62
474.625	71.62
474.844	92.62
475.063	91.62
475.282	82.62
475.501	77.62
475.72	88.62
475.939	71.62
476.158	86.62
476.377	78.62
476.596	99.62
476.814	96.62
477.033	70.62
477.252	91.62
477.471	101.62
477.69	82.62
477.908	86.62
478.127	90.62
478.346	85.62
478.564	98.62
478.783	90.62
479.002	91.62
479.22	83.62
479.439	80.62
479.658	103.62
479.876	82.62
480.095	81.62
480.313	71.62
480.532	93.62
480.751	96.62
480.969	91.62
481.188	93.62
481.406	101.62
481.624	88.62
481.843	92.62
482.061	72.62
482.28	92.62
482.498	81.62
482.717	87.62
482.935	81.62
483.153	96.62
483.372	80.62
483.59	74.62
483.808	97.62
484.027	89.62
484.245	96.62
484.463	81.62
484.681	92.62
484.9	94.62
485.118	88.62
485.336	102.62
485.554	88.62
485.772	101.62
485.99	103.62
486.209	121.62
486.427	96.62
486.645	115.62
486.863	108.62
487.081	99.62
487.299	88.62
487.517	102.62
487.735	108.62
487.953	82.62
488.171	67.62
488.389	96.62
488.607	93.62
488.825	89.62
489.043	93.62
489.261	94.62
489.479	84.62
489.696	88.62
489.914	73.62
490.132	84.62
490.35	97.62
490.568	97.62
490.786	100.62
491.003	95.62
491.221	82.62
491.439	82.62
491.657	80.62
491.874	75.62
492.092	72.62
492.31	90.62
492.527	82.62
492.745	83.62
492.963	81.62
493.18	94.62
493.398	85.62
493.615	101.62
493.833	86.62
494.05	80.62
494.268	70.62
494.485	72.62
494.703	83.62
494.92	92.62
495.138	93.62
495.355	99.62
495.573	84.62
495.79	83.62
496.008	71.62
496.225	72.62
496.442	81.62
496.66	97.62
496.877	88.62
497.094	92.62
497.312	88.62
497.529	90.62
497.746	82.62
497.963	96.62
498.181	77.62
498.398	88.62
498.615	94.62
498.832	92.62
499.049	89.62
499.267	82.62
499.484	94.62
499.701	96.62
499.918	92.62
500.135	83.62
500.352	95.62
500.569	89.62
500.786	90.62
501.003	99.62
501.22	85.62
501.437	83.62
501.654	88.62
501.871	101.62
502.088	89.62
502.305	114.62
502.522	80.62
502.739	93.62
502.956	88.62
503.172	93.62
503.389	93.62
503.606	89.62
503.823	95.62
504.04	78.62
504.256	94.62
504.473	95.62
504.69	80.62
504.907	84.62
505.123	88.62
505.34	74.62
505.557	94.62
505.773	75.62
505.99	83.62
506.207	87.62
506.423	81.62
506.64	79.62
506.856	80.62
507.073	96.62
507.289	86.62
507.506	106.62
507.722	107.62
507.939	104.62
508.155	96.62
508.372	96.62
508.588	84.62
508.805	94.62
509.021	79.62
509.238	83.62
509.454	94.62
509.67	89.62
509.887	102.62
510.103	113.62
510.319	201.62
510.536	674.62
510.752	2152.62
510.968	590.62
511.184	152.62
511.401	94.62
511.617	100.62
511.833	89.62
512.049	82.62
512.265	99.62
512.481	96.62
512.698	89.62
512.914	94.62
513.13	92.62
513.346	95.62
513.562	101.62
513.778	80.62
513.994	97.62
514.21	106.62
514.426	111.62
514.642	122.62
514.858	118.62
515.074	164.62
515.29	386.62
515.506	1238.62
515.721	463.62
515.937	148.62
516.153	94.62
516.369	101.62
516.585	98.62
516.801	88.62
517.016	86.62
517.232	97.62
517.448	85.62
