Data from Uncirc_1984_H10_HRD10591_00008.txt Node
Date: Wed Jan 03 12:21:38 EST 2024
User: Yrep
Spectrometer: HR+D1059
Trigger mode: 1
Integration Time (sec): 1.000000E-1
Scans to average: 1
Electric dark correction enabled: true
Nonlinearity correction enabled: false
Boxcar width: 0
XAxis mode: Wavelengths
Number of Pixels in Spectrum: 2048
>>>>>Begin Spectral Data<<<<<
223.165	-21.69
223.4	-21.69
223.635	-21.69
223.869	-14.69
224.104	-21.69
224.338	-13.69
224.573	-3.69
224.808	-18.69
225.042	-10.69
225.277	-1.69
225.511	-14.69
225.746	10.31
225.98	1.31
226.215	13.31
226.449	11.31
226.683	21.31
226.918	29.31
227.152	34.31
227.387	32.31
227.621	32.31
227.856	45.31
228.09	51.31
228.324	55.31
228.559	57.31
228.793	44.31
229.027	43.31
229.262	51.31
229.496	60.31
229.73	85.31
229.964	71.31
230.199	79.31
230.433	71.31
230.667	79.31
230.901	77.31
231.136	65.31
231.37	76.31
231.604	80.31
231.838	66.31
232.072	71.31
232.306	77.31
232.541	82.31
232.775	89.31
233.009	71.31
233.243	71.31
233.477	65.31
233.711	76.31
233.945	67.31
234.179	79.31
234.413	83.31
234.647	80.31
234.881	85.31
235.115	67.31
235.349	76.31
235.583	77.31
235.817	68.31
236.051	72.31
236.285	67.31
236.519	81.31
236.753	75.31
236.987	87.31
237.221	70.31
237.455	69.31
237.689	72.31
237.922	64.31
238.156	57.31
238.39	80.31
238.624	67.31
238.858	85.31
239.091	68.31
239.325	51.31
239.559	68.31
239.793	79.31
240.027	72.31
240.26	77.31
240.494	75.31
240.728	81.31
240.961	85.31
241.195	68.31
241.429	83.31
241.662	81.31
241.896	72.31
242.13	79.31
242.363	71.31
242.597	70.31
242.83	75.31
243.064	61.31
243.298	72.31
243.531	84.31
243.765	56.31
243.998	65.31
244.232	73.31
244.465	76.31
244.699	71.31
244.932	73.31
245.166	65.31
245.399	70.31
245.633	68.31
245.866	62.31
246.099	65.31
246.333	81.31
246.566	78.31
246.8	78.31
247.033	65.31
247.266	85.31
247.5	59.31
247.733	63.31
247.966	72.31
248.2	82.31
248.433	69.31
248.666	68.31
248.899	86.31
249.133	91.31
249.366	102.31
249.599	63.31
249.832	80.31
250.066	93.31
250.299	86.31
250.532	70.31
250.765	70.31
250.998	70.31
251.231	80.31
251.465	88.31
251.698	67.31
251.931	73.31
252.164	60.31
252.397	67.31
252.63	86.31
252.863	83.31
253.096	69.31
253.329	75.31
253.562	70.31
253.795	88.31
254.028	61.31
254.261	88.31
254.494	95.31
254.727	84.31
254.96	80.31
255.193	78.31
255.426	61.31
255.659	85.31
255.892	82.31
256.124	80.31
256.357	77.31
256.59	80.31
256.823	79.31
257.056	72.31
257.289	85.31
257.521	91.31
257.754	86.31
257.987	75.31
258.22	92.31
258.452	79.31
258.685	70.31
258.918	73.31
259.151	80.31
259.383	91.31
259.616	67.31
259.849	71.31
260.081	80.31
260.314	85.31
260.547	89.31
260.779	73.31
261.012	68.31
261.244	76.31
261.477	79.31
261.71	73.31
261.942	90.31
262.175	103.31
262.407	89.31
262.64	69.31
262.872	76.31
263.105	75.31
263.337	87.31
263.57	85.31
263.802	70.31
264.035	91.31
264.267	69.31
264.499	87.31
264.732	67.31
264.964	70.31
265.197	86.31
265.429	84.31
265.661	66.31
265.894	72.31
266.126	71.31
266.358	78.31
266.591	84.31
266.823	82.31
267.055	74.31
267.287	79.31
267.52	83.31
267.752	83.31
267.984	81.31
268.216	89.31
268.448	86.31
268.681	69.31
268.913	68.31
269.145	81.31
269.377	90.31
269.609	78.31
269.841	79.31
270.073	81.31
270.306	73.31
270.538	68.31
270.77	78.31
271.002	89.31
271.234	96.31
271.466	72.31
271.698	79.31
271.93	91.31
272.162	82.31
272.394	90.31
272.626	92.31
272.858	96.31
273.09	80.31
273.322	95.31
273.553	81.31
273.785	71.31
274.017	69.31
274.249	64.31
274.481	82.31
274.713	83.31
274.945	85.31
275.176	91.31
275.408	81.31
275.64	72.31
275.872	72.31
276.104	73.31
276.335	86.31
276.567	88.31
276.799	84.31
277.031	79.31
277.262	86.31
277.494	79.31
277.726	70.31
277.957	70.31
278.189	78.31
278.421	69.31
278.652	84.31
278.884	87.31
279.115	80.31
279.347	74.31
279.579	73.31
279.81	79.31
280.042	81.31
280.273	72.31
280.505	86.31
280.736	73.31
280.968	87.31
281.199	77.31
281.431	66.31
281.662	88.31
281.894	85.31
282.125	93.31
282.356	109.31
282.588	102.31
282.819	112.31
283.051	69.31
283.282	96.31
283.513	94.31
283.745	81.31
283.976	85.31
284.207	80.31
284.439	100.31
284.67	89.31
284.901	78.31
285.132	89.31
285.364	75.31
285.595	67.31
285.826	84.31
286.057	73.31
286.288	75.31
286.52	84.31
286.751	68.31
286.982	86.31
287.213	75.31
287.444	80.31
287.675	78.31
287.906	75.31
288.138	78.31
288.369	76.31
288.6	79.31
288.831	76.31
289.062	90.31
289.293	93.31
289.524	77.31
289.755	88.31
289.986	71.31
290.217	71.31
290.448	88.31
290.679	76.31
290.91	89.31
291.141	87.31
291.371	91.31
291.602	84.31
291.833	87.31
292.064	84.31
292.295	80.31
292.526	80.31
292.757	89.31
292.987	79.31
293.218	80.31
293.449	94.31
293.68	101.31
293.91	75.31
294.141	89.31
294.372	69.31
294.603	81.31
294.833	79.31
295.064	93.31
295.295	79.31
295.525	86.31
295.756	90.31
295.987	102.31
296.217	98.31
296.448	116.31
296.679	91.31
296.909	97.31
297.14	98.31
297.37	88.31
297.601	88.31
297.831	89.31
298.062	88.31
298.292	81.31
298.523	79.31
298.753	80.31
298.984	90.31
299.214	83.31
299.445	68.31
299.675	93.31
299.905	88.31
300.136	80.31
300.366	84.31
300.597	83.31
300.827	93.31
301.057	73.31
301.288	96.31
301.518	88.31
301.748	92.31
301.979	110.31
302.209	91.31
302.439	87.31
302.669	91.31
302.9	79.31
303.13	79.31
303.36	100.31
303.59	84.31
303.82	105.31
304.051	104.31
304.281	89.31
304.511	89.31
304.741	89.31
304.971	69.31
305.201	72.31
305.431	91.31
305.661	92.31
305.891	78.31
306.121	81.31
306.352	84.31
306.582	83.31
306.812	94.31
307.042	87.31
307.272	87.31
307.502	80.31
307.731	96.31
307.961	75.31
308.191	83.31
308.421	78.31
308.651	70.31
308.881	91.31
309.111	97.31
309.341	100.31
309.571	95.31
309.8	99.31
310.03	92.31
310.26	103.31
310.49	88.31
310.72	84.31
310.949	108.31
311.179	84.31
311.409	86.31
311.639	84.31
311.868	87.31
312.098	81.31
312.328	87.31
312.557	94.31
312.787	101.31
313.017	92.31
313.246	98.31
313.476	96.31
313.706	97.31
313.935	94.31
314.165	92.31
314.394	102.31
314.624	87.31
314.853	93.31
315.083	82.31
315.312	81.31
315.542	93.31
315.771	104.31
316.001	87.31
316.23	86.31
316.46	88.31
316.689	67.31
316.919	79.31
317.148	101.31
317.377	101.31
317.607	80.31
317.836	90.31
318.065	79.31
318.295	75.31
318.524	78.31
318.753	85.31
318.983	94.31
319.212	80.31
319.441	92.31
319.67	95.31
319.9	79.31
320.129	82.31
320.358	92.31
320.587	89.31
320.816	75.31
321.046	86.31
321.275	95.31
321.504	97.31
321.733	89.31
321.962	103.31
322.191	95.31
322.42	98.31
322.649	103.31
322.878	92.31
323.108	92.31
323.337	97.31
323.566	110.31
323.795	121.31
324.024	172.31
324.253	326.31
324.482	653.31
324.71	1315.31
324.939	1734.31
325.168	619.31
325.397	200.31
325.626	135.31
325.855	114.31
326.084	104.31
326.313	117.31
326.542	142.31
326.77	188.31
326.999	365.31
327.228	719.31
327.457	1339.31
327.686	1049.31
327.914	294.31
328.143	161.31
328.372	123.31
328.6	123.31
328.829	102.31
329.058	113.31
329.287	109.31
329.515	110.31
329.744	105.31
329.972	87.31
330.201	101.31
330.43	100.31
330.658	116.31
330.887	117.31
331.115	104.31
331.344	95.31
331.572	88.31
331.801	117.31
332.03	96.31
332.258	78.31
332.486	86.31
332.715	86.31
332.943	81.31
333.172	82.31
333.4	104.31
333.629	99.31
333.857	99.31
334.085	93.31
334.314	85.31
334.542	104.31
334.771	87.31
334.999	95.31
335.227	87.31
335.455	80.31
335.684	85.31
335.912	92.31
336.14	93.31
336.369	88.31
336.597	103.31
336.825	101.31
337.053	86.31
337.281	94.31
337.51	83.31
337.738	83.31
337.966	81.31
338.194	92.31
338.422	101.31
338.65	103.31
338.878	96.31
339.106	81.31
339.334	98.31
339.562	95.31
339.79	87.31
340.018	91.31
340.246	89.31
340.474	85.31
340.702	93.31
340.93	70.31
341.158	76.31
341.386	82.31
341.614	80.31
341.842	84.31
342.07	101.31
342.298	98.31
342.526	81.31
342.754	69.31
342.981	93.31
343.209	80.31
343.437	83.31
343.665	85.31
343.893	99.31
344.12	100.31
344.348	92.31
344.576	88.31
344.804	76.31
345.031	77.31
345.259	81.31
345.487	82.31
345.714	83.31
345.942	95.31
346.17	102.31
346.397	101.31
346.625	104.31
346.853	71.31
347.08	92.31
347.308	79.31
347.535	89.31
347.763	90.31
347.99	84.31
348.218	95.31
348.445	98.31
348.673	95.31
348.9	96.31
349.128	84.31
349.355	90.31
349.583	93.31
349.81	75.31
350.037	92.31
350.265	95.31
350.492	93.31
350.72	99.31
350.947	96.31
351.174	81.31
351.402	99.31
351.629	93.31
351.856	94.31
352.083	91.31
352.311	93.31
352.538	98.31
352.765	76.31
352.992	98.31
353.22	97.31
353.447	94.31
353.674	96.31
353.901	111.31
354.128	86.31
354.355	98.31
354.583	95.31
354.81	83.31
355.037	95.31
355.264	96.31
355.491	86.31
355.718	99.31
355.945	91.31
356.172	87.31
356.399	96.31
356.626	93.31
356.853	84.31
357.08	88.31
357.307	88.31
357.534	82.31
357.761	79.31
357.988	91.31
358.215	95.31
358.441	95.31
358.668	88.31
358.895	93.31
359.122	68.31
359.349	86.31
359.576	83.31
359.802	81.31
360.029	93.31
360.256	88.31
360.483	96.31
360.709	65.31
360.936	87.31
361.163	86.31
361.39	90.31
361.616	68.31
361.843	88.31
362.07	72.31
362.296	91.31
362.523	111.31
362.749	77.31
362.976	95.31
363.203	82.31
363.429	79.31
363.656	79.31
363.882	86.31
364.109	86.31
364.335	97.31
364.562	87.31
364.788	87.31
365.015	72.31
365.241	86.31
365.468	96.31
365.694	94.31
365.92	96.31
366.147	91.31
366.373	89.31
366.599	80.31
366.826	82.31
367.052	89.31
367.278	95.31
367.505	84.31
367.731	85.31
367.957	97.31
368.184	94.31
368.41	109.31
368.636	101.31
368.862	99.31
369.089	89.31
369.315	92.31
369.541	93.31
369.767	105.31
369.993	92.31
370.219	85.31
370.445	89.31
370.672	87.31
370.898	88.31
371.124	87.31
371.35	83.31
371.576	78.31
371.802	73.31
372.028	85.31
372.254	89.31
372.48	79.31
372.706	70.31
372.932	97.31
373.158	69.31
373.384	91.31
373.61	79.31
373.835	89.31
374.061	84.31
374.287	90.31
374.513	81.31
374.739	87.31
374.965	95.31
375.191	99.31
375.416	93.31
375.642	86.31
375.868	98.31
376.094	86.31
376.319	93.31
376.545	92.31
376.771	99.31
376.997	96.31
377.222	91.31
377.448	84.31
377.674	88.31
377.899	80.31
378.125	87.31
378.35	80.31
378.576	88.31
378.802	87.31
379.027	82.31
379.253	98.31
379.478	79.31
379.704	86.31
379.929	87.31
380.155	101.31
380.38	97.31
380.606	107.31
380.831	92.31
381.057	80.31
381.282	92.31
381.507	91.31
381.733	76.31
381.958	83.31
382.184	95.31
382.409	102.31
382.634	91.31
382.86	95.31
383.085	95.31
383.31	107.31
383.535	104.31
383.761	104.31
383.986	85.31
384.211	85.31
384.436	98.31
384.662	102.31
384.887	98.31
385.112	99.31
385.337	84.31
385.562	96.31
385.787	94.31
386.013	103.31
386.238	108.31
386.463	109.31
386.688	115.31
386.913	98.31
387.138	111.31
387.363	100.31
387.588	106.31
387.813	87.31
388.038	101.31
388.263	108.31
388.488	110.31
388.713	95.31
388.938	88.31
389.163	97.31
389.387	91.31
389.612	105.31
389.837	85.31
390.062	82.31
390.287	90.31
390.512	91.31
390.736	87.31
390.961	93.31
391.186	98.31
391.411	84.31
391.636	96.31
391.86	79.31
392.085	83.31
392.31	79.31
392.534	84.31
392.759	87.31
392.984	97.31
393.208	89.31
393.433	105.31
393.658	97.31
393.882	89.31
394.107	82.31
394.331	81.31
394.556	94.31
394.78	83.31
395.005	90.31
395.229	80.31
395.454	85.31
395.678	85.31
395.903	84.31
396.127	97.31
396.352	84.31
396.576	91.31
396.801	87.31
397.025	95.31
397.249	102.31
397.474	83.31
397.698	91.31
397.922	86.31
398.147	95.31
398.371	93.31
398.595	84.31
398.82	82.31
399.044	80.31
399.268	77.31
399.492	70.31
399.717	100.31
399.941	95.31
400.165	93.31
400.389	91.31
400.613	77.31
400.837	96.31
401.062	96.31
401.286	94.31
401.51	79.31
401.734	89.31
401.958	97.31
402.182	120.31
402.406	139.31
402.63	109.31
402.854	79.31
403.078	85.31
403.302	88.31
403.526	90.31
403.75	84.31
403.974	81.31
404.198	92.31
404.422	82.31
404.645	85.31
404.869	92.31
405.093	82.31
405.317	80.31
405.541	93.31
405.765	85.31
405.988	92.31
406.212	132.31
406.436	164.31
406.66	114.31
406.883	88.31
407.107	95.31
407.331	91.31
407.555	93.31
407.778	94.31
408.002	100.31
408.226	95.31
408.449	77.31
408.673	95.31
408.896	87.31
409.12	90.31
409.344	84.31
409.567	81.31
409.791	96.31
410.014	88.31
410.238	87.31
410.461	83.31
410.685	85.31
410.908	94.31
411.132	107.31
411.355	96.31
411.578	91.31
411.802	83.31
412.025	90.31
412.249	94.31
412.472	94.31
412.695	88.31
412.919	81.31
413.142	83.31
413.365	82.31
413.589	103.31
413.812	85.31
414.035	85.31
414.258	96.31
414.482	83.31
414.705	103.31
414.928	103.31
415.151	97.31
415.374	89.31
415.597	106.31
415.821	63.31
416.044	83.31
416.267	92.31
416.49	79.31
416.713	85.31
416.936	69.31
417.159	80.31
417.382	80.31
417.605	95.31
417.828	87.31
418.051	85.31
418.274	88.31
418.497	86.31
418.72	81.31
418.943	82.31
419.166	89.31
419.389	77.31
419.611	67.31
419.834	85.31
420.057	92.31
420.28	84.31
420.503	79.31
420.726	91.31
420.948	88.31
421.171	81.31
421.394	85.31
421.617	83.31
421.839	87.31
422.062	82.31
422.285	95.31
422.507	85.31
422.73	99.31
422.953	96.31
423.175	95.31
423.398	91.31
423.621	96.31
423.843	81.31
424.066	80.31
424.288	88.31
424.511	78.31
424.733	90.31
424.956	106.31
425.178	99.31
425.401	88.31
425.623	83.31
425.846	94.31
426.068	81.31
426.291	83.31
426.513	81.31
426.735	99.31
426.958	91.31
427.18	100.31
427.402	116.31
427.625	131.31
427.847	105.31
428.069	87.31
428.292	100.31
428.514	79.31
428.736	104.31
428.958	93.31
429.181	84.31
429.403	85.31
429.625	89.31
429.847	83.31
430.069	84.31
430.292	88.31
430.514	76.31
430.736	81.31
430.958	83.31
431.18	76.31
431.402	85.31
431.624	92.31
431.846	84.31
432.068	89.31
432.29	89.31
432.512	75.31
432.734	89.31
432.956	99.31
433.178	87.31
433.4	92.31
433.622	86.31
433.844	96.31
434.066	83.31
434.287	94.31
434.509	74.31
434.731	84.31
434.953	92.31
435.175	89.31
435.397	77.31
435.618	84.31
435.84	95.31
436.062	113.31
436.284	91.31
436.505	86.31
436.727	78.31
436.949	82.31
437.17	85.31
437.392	91.31
437.614	92.31
437.835	99.31
438.057	109.31
438.278	99.31
438.5	98.31
438.721	104.31
438.943	106.31
439.165	99.31
439.386	89.31
439.608	79.31
439.829	88.31
440.05	103.31
440.272	109.31
440.493	97.31
440.715	94.31
440.936	80.31
441.158	76.31
441.379	92.31
441.6	82.31
441.822	80.31
442.043	83.31
442.264	109.31
442.486	98.31
442.707	86.31
442.928	90.31
443.149	116.31
443.371	108.31
443.592	96.31
443.813	96.31
444.034	103.31
444.255	83.31
444.476	91.31
444.698	81.31
444.919	80.31
445.14	141.31
445.361	112.31
445.582	100.31
445.803	118.31
446.024	125.31
446.245	114.31
446.466	99.31
446.687	96.31
446.908	95.31
447.129	99.31
447.35	100.31
447.571	86.31
447.792	73.31
448.013	101.31
448.234	81.31
448.455	94.31
448.675	109.31
448.896	92.31
449.117	91.31
449.338	100.31
449.559	113.31
449.779	113.31
450	83.31
450.221	101.31
450.442	77.31
450.662	79.31
450.883	95.31
451.104	90.31
451.324	77.31
451.545	85.31
451.766	72.31
451.986	79.31
452.207	90.31
452.428	84.31
452.648	92.31
452.869	91.31
453.089	87.31
453.31	93.31
453.53	93.31
453.751	89.31
453.971	100.31
454.192	84.31
454.412	84.31
454.633	80.31
454.853	90.31
455.073	89.31
455.294	76.31
455.514	93.31
455.734	80.31
455.955	79.31
456.175	92.31
456.395	90.31
456.616	92.31
456.836	89.31
457.056	73.31
457.276	75.31
457.497	81.31
457.717	76.31
457.937	65.31
458.157	77.31
458.377	83.31
458.598	91.31
458.818	118.31
459.038	127.31
459.258	99.31
459.478	86.31
459.698	86.31
459.918	80.31
460.138	84.31
460.358	77.31
460.578	91.31
460.798	81.31
461.018	78.31
461.238	94.31
461.458	84.31
461.678	80.31
461.898	93.31
462.118	80.31
462.338	83.31
462.558	88.31
462.777	87.31
462.997	93.31
463.217	89.31
463.437	67.31
463.657	71.31
463.876	76.31
464.096	81.31
464.316	83.31
464.536	91.31
464.755	94.31
464.975	111.31
465.195	133.31
465.414	124.31
465.634	95.31
465.854	77.31
466.073	78.31
466.293	96.31
466.512	83.31
466.732	83.31
466.951	80.31
467.171	79.31
467.391	78.31
467.61	93.31
467.829	95.31
468.049	76.31
468.268	87.31
468.488	89.31
468.707	71.31
468.927	91.31
469.146	79.31
469.365	79.31
469.585	72.31
469.804	87.31
470.023	80.31
470.243	86.31
470.462	82.31
470.681	83.31
470.901	72.31
471.12	99.31
471.339	90.31
471.558	81.31
471.777	79.31
471.997	81.31
472.216	89.31
472.435	85.31
472.654	67.31
472.873	89.31
473.092	84.31
473.311	78.31
473.53	79.31
473.749	89.31
473.968	87.31
474.187	83.31
474.406	69.31
474.625	103.31
474.844	86.31
475.063	89.31
475.282	80.31
475.501	83.31
475.72	78.31
475.939	75.31
476.158	73.31
476.377	79.31
476.596	91.31
476.814	88.31
477.033	79.31
477.252	82.31
477.471	82.31
477.69	94.31
477.908	93.31
478.127	99.31
478.346	95.31
478.564	79.31
478.783	89.31
479.002	90.31
479.22	88.31
479.439	96.31
479.658	94.31
479.876	98.31
480.095	91.31
480.313	93.31
480.532	81.31
480.751	78.31
480.969	94.31
481.188	96.31
481.406	89.31
481.624	87.31
481.843	89.31
482.061	95.31
482.28	81.31
482.498	78.31
482.717	60.31
482.935	88.31
483.153	85.31
483.372	72.31
483.59	96.31
483.808	77.31
484.027	85.31
484.245	95.31
484.463	75.31
484.681	84.31
484.9	86.31
485.118	76.31
485.336	72.31
485.554	96.31
485.772	103.31
485.99	94.31
486.209	104.31
486.427	91.31
486.645	97.31
486.863	102.31
487.081	93.31
487.299	95.31
487.517	86.31
487.735	95.31
487.953	80.31
488.171	90.31
488.389	95.31
488.607	105.31
488.825	80.31
489.043	86.31
489.261	88.31
489.479	83.31
489.696	77.31
489.914	76.31
490.132	76.31
490.35	89.31
490.568	85.31
490.786	85.31
491.003	86.31
491.221	86.31
491.439	89.31
491.657	89.31
491.874	79.31
492.092	82.31
492.31	95.31
492.527	84.31
492.745	81.31
492.963	87.31
493.18	70.31
493.398	92.31
493.615	93.31
493.833	93.31
494.05	88.31
494.268	80.31
494.485	96.31
494.703	91.31
494.92	98.31
495.138	101.31
495.355	79.31
495.573	84.31
495.79	90.31
496.008	85.31
496.225	99.31
496.442	90.31
496.66	89.31
496.877	93.31
497.094	91.31
497.312	75.31
497.529	72.31
497.746	87.31
497.963	81.31
498.181	86.31
498.398	97.31
498.615	110.31
498.832	80.31
499.049	78.31
499.267	82.31
499.484	85.31
499.701	85.31
499.918	78.31
500.135	84.31
500.352	99.31
500.569	88.31
500.786	97.31
501.003	79.31
501.22	93.31
501.437	92.31
501.654	87.31
501.871	104.31
502.088	81.31
502.305	82.31
502.522	81.31
502.739	88.31
502.956	85.31
503.172	79.31
503.389	90.31
503.606	78.31
503.823	85.31
504.04	87.31
504.256	91.31
504.473	101.31
504.69	84.31
504.907	82.31
505.123	86.31
505.34	81.31
505.557	84.31
505.773	87.31
505.99	83.31
506.207	75.31
506.423	85.31
506.64	79.31
506.856	90.31
507.073	79.31
507.289	77.31
507.506	92.31
507.722	99.31
507.939	96.31
508.155	93.31
508.372	80.31
508.588	85.31
508.805	87.31
509.021	91.31
509.238	93.31
509.454	93.31
509.67	94.31
509.887	98.31
510.103	125.31
510.319	196.31
510.536	589.31
510.752	1765.31
510.968	504.31
511.184	125.31
511.401	99.31
511.617	96.31
511.833	86.31
512.049	79.31
512.265	82.31
512.481	78.31
512.698	85.31
512.914	82.31
513.13	88.31
513.346	85.31
513.562	94.31
513.778	92.31
513.994	83.31
514.21	92.31
514.426	102.31
514.642	92.31
514.858	102.31
515.074	115.31
515.29	315.31
515.506	995.31
515.721	379.31
515.937	123.31
516.153	71.31
516.369	84.31
516.585	95.31
516.801	88.31
517.016	92.31
517.232	99.31
517.448	89.31
517.664	96.31
