Data from Uncirc_1984_H10_HRD10591_00010.txt Node
Date: Wed Jan 03 12:21:39 EST 2024
User: Yrep
Spectrometer: HR+D1059
Trigger mode: 1
Integration Time (sec): 1.000000E-1
Scans to average: 1
Electric dark correction enabled: true
Nonlinearity correction enabled: false
Boxcar width: 0
XAxis mode: Wavelengths
Number of Pixels in Spectrum: 2048
>>>>>Begin Spectral Data<<<<<
223.165	-15.88
223.4	-15.88
223.635	-15.88
223.869	-13.88
224.104	-15.88
224.338	-16.88
224.573	-7.88
224.808	-7.88
225.042	-7.88
225.277	-15.88
225.511	0.12
225.746	5.12
225.98	17.12
226.215	16.12
226.449	9.12
226.683	16.12
226.918	18.12
227.152	20.12
227.387	42.12
227.621	31.12
227.856	42.12
228.09	44.12
228.324	26.12
228.559	60.12
228.793	62.12
229.027	42.12
229.262	69.12
229.496	64.12
229.73	77.12
229.964	86.12
230.199	74.12
230.433	56.12
230.667	80.12
230.901	85.12
231.136	74.12
231.37	84.12
231.604	71.12
231.838	84.12
232.072	85.12
232.306	86.12
232.541	98.12
232.775	71.12
233.009	62.12
233.243	74.12
233.477	80.12
233.711	78.12
233.945	82.12
234.179	82.12
234.413	74.12
234.647	76.12
234.881	67.12
235.115	73.12
235.349	76.12
235.583	71.12
235.817	86.12
236.051	80.12
236.285	67.12
236.519	66.12
236.753	62.12
236.987	89.12
237.221	83.12
237.455	80.12
237.689	71.12
237.922	80.12
238.156	73.12
238.39	85.12
238.624	73.12
238.858	59.12
239.091	67.12
239.325	77.12
239.559	76.12
239.793	95.12
240.027	78.12
240.26	69.12
240.494	71.12
240.728	90.12
240.961	69.12
241.195	63.12
241.429	85.12
241.662	81.12
241.896	71.12
242.13	66.12
242.363	79.12
242.597	81.12
242.83	78.12
243.064	90.12
243.298	65.12
243.531	63.12
243.765	60.12
243.998	66.12
244.232	65.12
244.465	85.12
244.699	81.12
244.932	77.12
245.166	78.12
245.399	76.12
245.633	95.12
245.866	85.12
246.099	76.12
246.333	80.12
246.566	76.12
246.8	80.12
247.033	80.12
247.266	80.12
247.5	69.12
247.733	80.12
247.966	76.12
248.2	71.12
248.433	87.12
248.666	86.12
248.899	73.12
249.133	81.12
249.366	100.12
249.599	82.12
249.832	83.12
250.066	80.12
250.299	81.12
250.532	74.12
250.765	58.12
250.998	67.12
251.231	72.12
251.465	84.12
251.698	76.12
251.931	56.12
252.164	90.12
252.397	73.12
252.63	76.12
252.863	73.12
253.096	84.12
253.329	73.12
253.562	71.12
253.795	81.12
254.028	72.12
254.261	83.12
254.494	80.12
254.727	82.12
254.96	70.12
255.193	69.12
255.426	81.12
255.659	78.12
255.892	63.12
256.124	86.12
256.357	83.12
256.59	97.12
256.823	88.12
257.056	78.12
257.289	82.12
257.521	72.12
257.754	79.12
257.987	84.12
258.22	94.12
258.452	71.12
258.685	84.12
258.918	87.12
259.151	75.12
259.383	97.12
259.616	80.12
259.849	85.12
260.081	84.12
260.314	73.12
260.547	75.12
260.779	76.12
261.012	96.12
261.244	85.12
261.477	83.12
261.71	76.12
261.942	89.12
262.175	92.12
262.407	78.12
262.64	93.12
262.872	86.12
263.105	79.12
263.337	85.12
263.57	97.12
263.802	85.12
264.035	80.12
264.267	80.12
264.499	82.12
264.732	89.12
264.964	81.12
265.197	87.12
265.429	97.12
265.661	92.12
265.894	83.12
266.126	76.12
266.358	88.12
266.591	91.12
266.823	88.12
267.055	77.12
267.287	88.12
267.52	79.12
267.752	91.12
267.984	77.12
268.216	73.12
268.448	81.12
268.681	72.12
268.913	92.12
269.145	84.12
269.377	81.12
269.609	81.12
269.841	87.12
270.073	83.12
270.306	71.12
270.538	81.12
270.77	84.12
271.002	82.12
271.234	87.12
271.466	94.12
271.698	95.12
271.93	78.12
272.162	86.12
272.394	96.12
272.626	83.12
272.858	78.12
273.09	72.12
273.322	80.12
273.553	83.12
273.785	73.12
274.017	76.12
274.249	69.12
274.481	78.12
274.713	82.12
274.945	74.12
275.176	79.12
275.408	71.12
275.64	80.12
275.872	80.12
276.104	89.12
276.335	82.12
276.567	78.12
276.799	84.12
277.031	70.12
277.262	76.12
277.494	67.12
277.726	76.12
277.957	66.12
278.189	70.12
278.421	89.12
278.652	80.12
278.884	88.12
279.115	92.12
279.347	91.12
279.579	69.12
279.81	73.12
280.042	82.12
280.273	80.12
280.505	94.12
280.736	80.12
280.968	79.12
281.199	96.12
281.431	93.12
281.662	81.12
281.894	87.12
282.125	82.12
282.356	106.12
282.588	128.12
282.819	106.12
283.051	84.12
283.282	81.12
283.513	80.12
283.745	86.12
283.976	87.12
284.207	87.12
284.439	93.12
284.67	81.12
284.901	91.12
285.132	69.12
285.364	91.12
285.595	91.12
285.826	102.12
286.057	91.12
286.288	53.12
286.52	88.12
286.751	92.12
286.982	88.12
287.213	91.12
287.444	78.12
287.675	92.12
287.906	87.12
288.138	101.12
288.369	79.12
288.6	85.12
288.831	88.12
289.062	81.12
289.293	82.12
289.524	79.12
289.755	87.12
289.986	84.12
290.217	87.12
290.448	84.12
290.679	88.12
290.91	96.12
291.141	80.12
291.371	85.12
291.602	95.12
291.833	68.12
292.064	84.12
292.295	84.12
292.526	64.12
292.757	90.12
292.987	102.12
293.218	81.12
293.449	86.12
293.68	96.12
293.91	82.12
294.141	92.12
294.372	88.12
294.603	77.12
294.833	90.12
295.064	80.12
295.295	82.12
295.525	80.12
295.756	98.12
295.987	96.12
296.217	116.12
296.448	99.12
296.679	98.12
296.909	84.12
297.14	100.12
297.37	84.12
297.601	75.12
297.831	80.12
298.062	77.12
298.292	84.12
298.523	93.12
298.753	80.12
298.984	89.12
299.214	87.12
299.445	88.12
299.675	80.12
299.905	82.12
300.136	91.12
300.366	85.12
300.597	93.12
300.827	92.12
301.057	96.12
301.288	102.12
301.518	85.12
301.748	89.12
301.979	100.12
302.209	80.12
302.439	93.12
302.669	88.12
302.9	88.12
303.13	84.12
303.36	81.12
303.59	102.12
303.82	99.12
304.051	107.12
304.281	83.12
304.511	83.12
304.741	97.12
304.971	79.12
305.201	93.12
305.431	98.12
305.661	76.12
305.891	98.12
306.121	99.12
306.352	94.12
306.582	101.12
306.812	97.12
307.042	91.12
307.272	88.12
307.502	90.12
307.731	100.12
307.961	86.12
308.191	96.12
308.421	90.12
308.651	77.12
308.881	98.12
309.111	88.12
309.341	99.12
309.571	99.12
309.8	80.12
310.03	96.12
310.26	102.12
310.49	103.12
310.72	106.12
310.949	95.12
311.179	92.12
311.409	90.12
311.639	96.12
311.868	94.12
312.098	84.12
312.328	85.12
312.557	87.12
312.787	89.12
313.017	113.12
313.246	93.12
313.476	99.12
313.706	90.12
313.935	86.12
314.165	103.12
314.394	94.12
314.624	78.12
314.853	88.12
315.083	96.12
315.312	108.12
315.542	91.12
315.771	103.12
316.001	83.12
316.23	95.12
316.46	78.12
316.689	85.12
316.919	86.12
317.148	93.12
317.377	93.12
317.607	83.12
317.836	99.12
318.065	87.12
318.295	90.12
318.524	82.12
318.753	80.12
318.983	90.12
319.212	96.12
319.441	98.12
319.67	104.12
319.9	82.12
320.129	86.12
320.358	96.12
320.587	91.12
320.816	88.12
321.046	101.12
321.275	97.12
321.504	97.12
321.733	100.12
321.962	88.12
322.191	87.12
322.42	96.12
322.649	96.12
322.878	114.12
323.108	100.12
323.337	112.12
323.566	116.12
323.795	140.12
324.024	173.12
324.253	327.12
324.482	649.12
324.71	1389.12
324.939	1903.12
325.168	699.12
325.397	218.12
325.626	143.12
325.855	121.12
326.084	106.12
326.313	125.12
326.542	131.12
326.77	210.12
326.999	392.12
327.228	798.12
327.457	1450.12
327.686	1180.12
327.914	329.12
328.143	184.12
328.372	126.12
328.6	106.12
328.829	96.12
329.058	102.12
329.287	101.12
329.515	113.12
329.744	101.12
329.972	87.12
330.201	89.12
330.43	97.12
330.658	98.12
330.887	108.12
331.115	95.12
331.344	104.12
331.572	109.12
331.801	82.12
332.03	80.12
332.258	101.12
332.486	96.12
332.715	78.12
332.943	96.12
333.172	84.12
333.4	84.12
333.629	106.12
333.857	88.12
334.085	88.12
334.314	94.12
334.542	81.12
334.771	95.12
334.999	97.12
335.227	105.12
335.455	91.12
335.684	91.12
335.912	94.12
336.14	90.12
336.369	100.12
336.597	102.12
336.825	87.12
337.053	96.12
337.281	85.12
337.51	90.12
337.738	88.12
337.966	92.12
338.194	100.12
338.422	89.12
338.65	82.12
338.878	85.12
339.106	87.12
339.334	92.12
339.562	93.12
339.79	87.12
340.018	96.12
340.246	84.12
340.474	101.12
340.702	88.12
340.93	87.12
341.158	81.12
341.386	84.12
341.614	106.12
341.842	84.12
342.07	96.12
342.298	95.12
342.526	94.12
342.754	82.12
342.981	93.12
343.209	89.12
343.437	92.12
343.665	88.12
343.893	95.12
344.12	91.12
344.348	89.12
344.576	78.12
344.804	88.12
345.031	78.12
345.259	101.12
345.487	89.12
345.714	85.12
345.942	82.12
346.17	90.12
346.397	97.12
346.625	87.12
346.853	101.12
347.08	86.12
347.308	92.12
347.535	88.12
347.763	92.12
347.99	97.12
348.218	102.12
348.445	109.12
348.673	97.12
348.9	98.12
349.128	88.12
349.355	90.12
349.583	89.12
349.81	94.12
350.037	86.12
350.265	94.12
350.492	79.12
350.72	84.12
350.947	100.12
351.174	97.12
351.402	114.12
351.629	90.12
351.856	78.12
352.083	104.12
352.311	107.12
352.538	97.12
352.765	99.12
352.992	117.12
353.22	97.12
353.447	92.12
353.674	101.12
353.901	110.12
354.128	89.12
354.355	89.12
354.583	94.12
354.81	96.12
355.037	94.12
355.264	79.12
355.491	87.12
355.718	93.12
355.945	93.12
356.172	76.12
356.399	94.12
356.626	84.12
356.853	82.12
357.08	111.12
357.307	91.12
357.534	87.12
357.761	93.12
357.988	85.12
358.215	102.12
358.441	97.12
358.668	90.12
358.895	78.12
359.122	86.12
359.349	97.12
359.576	103.12
359.802	94.12
360.029	97.12
360.256	96.12
360.483	90.12
360.709	97.12
360.936	80.12
361.163	83.12
361.39	84.12
361.616	106.12
361.843	81.12
362.07	81.12
362.296	85.12
362.523	78.12
362.749	81.12
362.976	97.12
363.203	78.12
363.429	86.12
363.656	94.12
363.882	87.12
364.109	82.12
364.335	89.12
364.562	84.12
364.788	91.12
365.015	86.12
365.241	88.12
365.468	100.12
365.694	90.12
365.92	99.12
366.147	90.12
366.373	89.12
366.599	74.12
366.826	77.12
367.052	78.12
367.278	88.12
367.505	84.12
367.731	103.12
367.957	98.12
368.184	102.12
368.41	94.12
368.636	114.12
368.862	108.12
369.089	98.12
369.315	94.12
369.541	85.12
369.767	109.12
369.993	94.12
370.219	76.12
370.445	93.12
370.672	76.12
370.898	82.12
371.124	86.12
371.35	88.12
371.576	97.12
371.802	93.12
372.028	82.12
372.254	77.12
372.48	91.12
372.706	76.12
372.932	88.12
373.158	92.12
373.384	93.12
373.61	86.12
373.835	98.12
374.061	108.12
374.287	83.12
374.513	85.12
374.739	103.12
374.965	80.12
375.191	93.12
375.416	81.12
375.642	89.12
375.868	102.12
376.094	81.12
376.319	82.12
376.545	90.12
376.771	74.12
376.997	92.12
377.222	79.12
377.448	96.12
377.674	84.12
377.899	87.12
378.125	85.12
378.35	77.12
378.576	78.12
378.802	86.12
379.027	86.12
379.253	87.12
379.478	85.12
379.704	107.12
379.929	96.12
380.155	101.12
380.38	85.12
380.606	87.12
380.831	84.12
381.057	98.12
381.282	97.12
381.507	93.12
381.733	85.12
381.958	116.12
382.184	95.12
382.409	103.12
382.634	92.12
382.86	104.12
383.085	105.12
383.31	100.12
383.535	84.12
383.761	94.12
383.986	97.12
384.211	94.12
384.436	80.12
384.662	101.12
384.887	106.12
385.112	108.12
385.337	91.12
385.562	94.12
385.787	76.12
386.013	89.12
386.238	99.12
386.463	119.12
386.688	112.12
386.913	91.12
387.138	91.12
387.363	93.12
387.588	88.12
387.813	96.12
388.038	103.12
388.263	126.12
388.488	108.12
388.713	89.12
388.938	103.12
389.163	98.12
389.387	89.12
389.612	88.12
389.837	89.12
390.062	94.12
390.287	94.12
390.512	98.12
390.736	78.12
390.961	78.12
391.186	92.12
391.411	85.12
391.636	83.12
391.86	88.12
392.085	96.12
392.31	88.12
392.534	90.12
392.759	92.12
392.984	89.12
393.208	95.12
393.433	111.12
393.658	100.12
393.882	92.12
394.107	93.12
394.331	89.12
394.556	81.12
394.78	80.12
395.005	89.12
395.229	86.12
395.454	66.12
395.678	78.12
395.903	86.12
396.127	76.12
396.352	85.12
396.576	94.12
396.801	80.12
397.025	98.12
397.249	93.12
397.474	78.12
397.698	85.12
397.922	94.12
398.147	81.12
398.371	76.12
398.595	97.12
398.82	95.12
399.044	86.12
399.268	84.12
399.492	78.12
399.717	84.12
399.941	77.12
400.165	82.12
400.389	80.12
400.613	85.12
400.837	89.12
401.062	86.12
401.286	76.12
401.51	98.12
401.734	99.12
401.958	102.12
402.182	113.12
402.406	128.12
402.63	98.12
402.854	85.12
403.078	88.12
403.302	71.12
403.526	84.12
403.75	81.12
403.974	80.12
404.198	88.12
404.422	95.12
404.645	88.12
404.869	87.12
405.093	98.12
405.317	99.12
405.541	87.12
405.765	92.12
405.988	110.12
406.212	134.12
406.436	197.12
406.66	119.12
406.883	100.12
407.107	92.12
407.331	102.12
407.555	96.12
407.778	93.12
408.002	93.12
408.226	80.12
408.449	84.12
408.673	83.12
408.896	98.12
409.12	94.12
409.344	82.12
409.567	79.12
409.791	86.12
410.014	101.12
410.238	89.12
410.461	90.12
410.685	97.12
410.908	93.12
411.132	85.12
411.355	99.12
411.578	79.12
411.802	74.12
412.025	96.12
412.249	70.12
412.472	90.12
412.695	84.12
412.919	80.12
413.142	92.12
413.365	89.12
413.589	80.12
413.812	98.12
414.035	103.12
414.258	86.12
414.482	81.12
414.705	92.12
414.928	95.12
415.151	95.12
415.374	96.12
415.597	90.12
415.821	82.12
416.044	74.12
416.267	71.12
416.49	77.12
416.713	68.12
416.936	86.12
417.159	91.12
417.382	90.12
417.605	86.12
417.828	85.12
418.051	86.12
418.274	88.12
418.497	82.12
418.72	86.12
418.943	101.12
419.166	93.12
419.389	103.12
419.611	102.12
419.834	76.12
420.057	82.12
420.28	89.12
420.503	87.12
420.726	83.12
420.948	75.12
421.171	75.12
421.394	88.12
421.617	84.12
421.839	84.12
422.062	80.12
422.285	99.12
422.507	92.12
422.73	110.12
422.953	105.12
423.175	90.12
423.398	90.12
423.621	78.12
423.843	72.12
424.066	96.12
424.288	82.12
424.511	88.12
424.733	91.12
424.956	114.12
425.178	93.12
425.401	93.12
425.623	93.12
425.846	91.12
426.068	92.12
426.291	90.12
426.513	77.12
426.735	88.12
426.958	84.12
427.18	92.12
427.402	120.12
427.625	138.12
427.847	93.12
428.069	93.12
428.292	102.12
428.514	83.12
428.736	97.12
428.958	105.12
429.181	72.12
429.403	84.12
429.625	79.12
429.847	88.12
430.069	94.12
430.292	95.12
430.514	80.12
430.736	81.12
430.958	92.12
431.18	81.12
431.402	89.12
431.624	72.12
431.846	77.12
432.068	74.12
432.29	90.12
432.512	79.12
432.734	80.12
432.956	85.12
433.178	87.12
433.4	104.12
433.622	82.12
433.844	83.12
434.066	88.12
434.287	80.12
434.509	82.12
434.731	88.12
434.953	88.12
435.175	91.12
435.397	87.12
435.618	76.12
435.84	100.12
436.062	105.12
436.284	108.12
436.505	87.12
436.727	93.12
436.949	97.12
437.17	86.12
437.392	86.12
437.614	88.12
437.835	92.12
438.057	116.12
438.278	108.12
438.5	101.12
438.721	112.12
438.943	100.12
439.165	84.12
439.386	91.12
439.608	91.12
439.829	86.12
440.05	104.12
440.272	121.12
440.493	97.12
440.715	81.12
440.936	70.12
441.158	86.12
441.379	87.12
441.6	82.12
441.822	97.12
442.043	97.12
442.264	89.12
442.486	92.12
442.707	79.12
442.928	88.12
443.149	109.12
443.371	111.12
443.592	106.12
443.813	107.12
444.034	103.12
444.255	98.12
444.476	90.12
444.698	85.12
444.919	99.12
445.14	127.12
445.361	106.12
445.582	100.12
445.803	120.12
446.024	106.12
446.245	108.12
446.466	94.12
446.687	79.12
446.908	80.12
447.129	96.12
447.35	79.12
447.571	84.12
447.792	78.12
448.013	106.12
448.234	101.12
448.455	109.12
448.675	96.12
448.896	96.12
449.117	93.12
449.338	99.12
449.559	112.12
449.779	106.12
450	97.12
450.221	93.12
450.442	90.12
450.662	110.12
450.883	100.12
451.104	91.12
451.324	101.12
451.545	102.12
451.766	92.12
451.986	76.12
452.207	74.12
452.428	94.12
452.648	86.12
452.869	95.12
453.089	94.12
453.31	112.12
453.53	82.12
453.751	95.12
453.971	79.12
454.192	92.12
454.412	93.12
454.633	86.12
454.853	76.12
455.073	94.12
455.294	96.12
455.514	88.12
455.734	91.12
455.955	83.12
456.175	71.12
456.395	78.12
456.616	80.12
456.836	96.12
457.056	73.12
457.276	80.12
457.497	78.12
457.717	90.12
457.937	90.12
458.157	89.12
458.377	88.12
458.598	101.12
458.818	119.12
459.038	132.12
459.258	96.12
459.478	78.12
459.698	87.12
459.918	74.12
460.138	83.12
460.358	78.12
460.578	86.12
460.798	83.12
461.018	90.12
461.238	84.12
461.458	89.12
461.678	92.12
461.898	86.12
462.118	84.12
462.338	71.12
462.558	79.12
462.777	74.12
462.997	73.12
463.217	81.12
463.437	96.12
463.657	81.12
463.876	70.12
464.096	97.12
464.316	88.12
464.536	76.12
464.755	88.12
464.975	103.12
465.195	128.12
465.414	120.12
465.634	90.12
465.854	87.12
466.073	105.12
466.293	81.12
466.512	81.12
466.732	84.12
466.951	84.12
467.171	88.12
467.391	86.12
467.61	99.12
467.829	89.12
468.049	84.12
468.268	100.12
468.488	80.12
468.707	66.12
468.927	82.12
469.146	89.12
469.365	86.12
469.585	81.12
469.804	105.12
470.023	105.12
470.243	83.12
470.462	80.12
470.681	87.12
470.901	83.12
471.12	65.12
471.339	86.12
471.558	84.12
471.777	60.12
471.997	84.12
472.216	81.12
472.435	89.12
472.654	88.12
472.873	92.12
473.092	93.12
473.311	95.12
473.53	72.12
473.749	92.12
473.968	93.12
474.187	96.12
474.406	97.12
474.625	96.12
474.844	83.12
475.063	89.12
475.282	89.12
475.501	86.12
475.72	76.12
475.939	76.12
476.158	85.12
476.377	73.12
476.596	80.12
476.814	89.12
477.033	102.12
477.252	76.12
477.471	90.12
477.69	98.12
477.908	72.12
478.127	86.12
478.346	78.12
478.564	66.12
478.783	87.12
479.002	95.12
479.22	82.12
479.439	104.12
479.658	98.12
479.876	85.12
480.095	81.12
480.313	97.12
480.532	84.12
480.751	71.12
480.969	81.12
481.188	84.12
481.406	92.12
481.624	94.12
481.843	93.12
482.061	88.12
482.28	100.12
482.498	78.12
482.717	85.12
482.935	86.12
483.153	86.12
483.372	91.12
483.59	81.12
483.808	80.12
484.027	88.12
484.245	93.12
484.463	79.12
484.681	98.12
484.9	87.12
485.118	99.12
485.336	87.12
485.554	96.12
485.772	96.12
485.99	98.12
486.209	107.12
486.427	92.12
486.645	100.12
486.863	106.12
487.081	84.12
487.299	86.12
487.517	92.12
487.735	85.12
487.953	69.12
488.171	88.12
488.389	83.12
488.607	102.12
488.825	91.12
489.043	99.12
489.261	85.12
489.479	93.12
489.696	91.12
489.914	97.12
490.132	81.12
490.35	97.12
490.568	88.12
490.786	89.12
491.003	91.12
491.221	101.12
491.439	86.12
491.657	80.12
491.874	78.12
492.092	86.12
492.31	93.12
492.527	85.12
492.745	83.12
492.963	87.12
493.18	87.12
493.398	93.12
493.615	85.12
493.833	94.12
494.05	72.12
494.268	89.12
494.485	87.12
494.703	82.12
494.92	84.12
495.138	78.12
495.355	71.12
495.573	84.12
495.79	81.12
496.008	82.12
496.225	98.12
496.442	90.12
496.66	98.12
496.877	92.12
497.094	90.12
497.312	91.12
497.529	95.12
497.746	97.12
497.963	98.12
498.181	89.12
498.398	91.12
498.615	98.12
498.832	85.12
499.049	81.12
499.267	93.12
499.484	83.12
499.701	94.12
499.918	86.12
500.135	89.12
500.352	83.12
500.569	71.12
500.786	71.12
501.003	76.12
501.22	82.12
501.437	79.12
501.654	85.12
501.871	102.12
502.088	83.12
502.305	86.12
502.522	82.12
502.739	92.12
502.956	80.12
503.172	88.12
503.389	83.12
503.606	106.12
503.823	112.12
504.04	95.12
504.256	94.12
504.473	99.12
504.69	88.12
504.907	92.12
505.123	96.12
505.34	108.12
505.557	85.12
505.773	90.12
505.99	89.12
506.207	94.12
506.423	84.12
506.64	79.12
506.856	93.12
507.073	66.12
507.289	94.12
507.506	96.12
507.722	97.12
507.939	104.12
508.155	93.12
508.372	83.12
508.588	99.12
508.805	84.12
509.021	91.12
509.238	90.12
509.454	98.12
509.67	93.12
509.887	111.12
510.103	116.12
510.319	181.12
510.536	643.12
510.752	1952.12
510.968	528.12
511.184	143.12
511.401	97.12
511.617	97.12
511.833	75.12
512.049	89.12
512.265	99.12
512.481	91.12
512.698	83.12
512.914	83.12
513.13	93.12
513.346	80.12
513.562	103.12
513.778	96.12
513.994	91.12
514.21	95.12
514.426	94.12
514.642	109.12
514.858	110.12
515.074	122.12
515.29	380.12
515.506	1123.12
515.721	420.12
515.937	137.12
516.153	98.12
516.369	97.12
516.585	88.12
516.801	78.12
517.016	82.12
517.232	100.12
