Data from Uncirc_1984_H10_HRD10591_00098.txt Node
Date: Wed Jan 03 12:21:56 EST 2024
User: Yrep
Spectrometer: HR+D1059
Trigger mode: 1
Integration Time (sec): 1.000000E-1
Scans to average: 1
Electric dark correction enabled: true
Nonlinearity correction enabled: false
Boxcar width: 0
XAxis mode: Wavelengths
Number of Pixels in Spectrum: 2048
>>>>>Begin Spectral Data<<<<<
223.165	-13.44
223.4	-13.44
223.635	-13.44
223.869	-16.44
224.104	-23.44
224.338	-16.44
224.573	-11.44
224.808	-31.44
225.042	-15.44
225.277	-3.44
225.511	5.56
225.746	10.56
225.98	5.56
226.215	12.56
226.449	23.56
226.683	18.56
226.918	28.56
227.152	26.56
227.387	37.56
227.621	37.56
227.856	47.56
228.09	52.56
228.324	52.56
228.559	55.56
228.793	58.56
229.027	56.56
229.262	72.56
229.496	75.56
229.73	75.56
229.964	83.56
230.199	74.56
230.433	75.56
230.667	72.56
230.901	74.56
231.136	83.56
231.37	71.56
231.604	87.56
231.838	68.56
232.072	72.56
232.306	76.56
232.541	85.56
232.775	71.56
233.009	70.56
233.243	68.56
233.477	82.56
233.711	91.56
233.945	83.56
234.179	84.56
234.413	89.56
234.647	63.56
234.881	68.56
235.115	75.56
235.349	84.56
235.583	78.56
235.817	79.56
236.051	86.56
236.285	78.56
236.519	87.56
236.753	61.56
236.987	75.56
237.221	91.56
237.455	74.56
237.689	78.56
237.922	79.56
238.156	77.56
238.39	80.56
238.624	74.56
238.858	79.56
239.091	73.56
239.325	72.56
239.559	66.56
239.793	72.56
240.027	85.56
240.26	81.56
240.494	74.56
240.728	88.56
240.961	80.56
241.195	69.56
241.429	79.56
241.662	74.56
241.896	68.56
242.13	85.56
242.363	77.56
242.597	83.56
242.83	80.56
243.064	78.56
243.298	65.56
243.531	69.56
243.765	78.56
243.998	89.56
244.232	74.56
244.465	85.56
244.699	70.56
244.932	89.56
245.166	73.56
245.399	72.56
245.633	66.56
245.866	80.56
246.099	84.56
246.333	72.56
246.566	81.56
246.8	73.56
247.033	77.56
247.266	79.56
247.5	70.56
247.733	67.56
247.966	70.56
248.2	76.56
248.433	73.56
248.666	65.56
248.899	73.56
249.133	87.56
249.366	83.56
249.599	93.56
249.832	75.56
250.066	92.56
250.299	103.56
250.532	90.56
250.765	73.56
250.998	71.56
251.231	101.56
251.465	84.56
251.698	73.56
251.931	86.56
252.164	61.56
252.397	82.56
252.63	73.56
252.863	84.56
253.096	90.56
253.329	72.56
253.562	87.56
253.795	83.56
254.028	90.56
254.261	72.56
254.494	59.56
254.727	89.56
254.96	78.56
255.193	80.56
255.426	77.56
255.659	77.56
255.892	73.56
256.124	80.56
256.357	78.56
256.59	82.56
256.823	72.56
257.056	81.56
257.289	86.56
257.521	84.56
257.754	60.56
257.987	85.56
258.22	95.56
258.452	91.56
258.685	70.56
258.918	94.56
259.151	79.56
259.383	75.56
259.616	70.56
259.849	85.56
260.081	71.56
260.314	84.56
260.547	79.56
260.779	93.56
261.012	81.56
261.244	84.56
261.477	98.56
261.71	97.56
261.942	96.56
262.175	100.56
262.407	85.56
262.64	77.56
262.872	90.56
263.105	73.56
263.337	79.56
263.57	79.56
263.802	77.56
264.035	71.56
264.267	93.56
264.499	87.56
264.732	81.56
264.964	93.56
265.197	73.56
265.429	80.56
265.661	81.56
265.894	59.56
266.126	95.56
266.358	80.56
266.591	83.56
266.823	86.56
267.055	77.56
267.287	65.56
267.52	89.56
267.752	65.56
267.984	84.56
268.216	81.56
268.448	88.56
268.681	84.56
268.913	88.56
269.145	88.56
269.377	99.56
269.609	91.56
269.841	84.56
270.073	75.56
270.306	93.56
270.538	79.56
270.77	86.56
271.002	86.56
271.234	99.56
271.466	84.56
271.698	89.56
271.93	93.56
272.162	87.56
272.394	92.56
272.626	73.56
272.858	82.56
273.09	79.56
273.322	91.56
273.553	81.56
273.785	83.56
274.017	94.56
274.249	84.56
274.481	76.56
274.713	82.56
274.945	82.56
275.176	104.56
275.408	79.56
275.64	75.56
275.872	98.56
276.104	93.56
276.335	85.56
276.567	85.56
276.799	100.56
277.031	110.56
277.262	94.56
277.494	86.56
277.726	79.56
277.957	82.56
278.189	81.56
278.421	81.56
278.652	83.56
278.884	105.56
279.115	73.56
279.347	86.56
279.579	74.56
279.81	87.56
280.042	88.56
280.273	89.56
280.505	70.56
280.736	83.56
280.968	83.56
281.199	78.56
281.431	80.56
281.662	85.56
281.894	85.56
282.125	103.56
282.356	104.56
282.588	120.56
282.819	93.56
283.051	90.56
283.282	90.56
283.513	83.56
283.745	88.56
283.976	90.56
284.207	73.56
284.439	87.56
284.67	74.56
284.901	74.56
285.132	91.56
285.364	91.56
285.595	79.56
285.826	95.56
286.057	73.56
286.288	80.56
286.52	83.56
286.751	85.56
286.982	85.56
287.213	93.56
287.444	94.56
287.675	73.56
287.906	83.56
288.138	77.56
288.369	84.56
288.6	89.56
288.831	78.56
289.062	83.56
289.293	94.56
289.524	92.56
289.755	72.56
289.986	92.56
290.217	75.56
290.448	88.56
290.679	84.56
290.91	91.56
291.141	77.56
291.371	96.56
291.602	91.56
291.833	91.56
292.064	80.56
292.295	82.56
292.526	80.56
292.757	86.56
292.987	87.56
293.218	94.56
293.449	104.56
293.68	85.56
293.91	88.56
294.141	85.56
294.372	97.56
294.603	90.56
294.833	86.56
295.064	78.56
295.295	82.56
295.525	78.56
295.756	93.56
295.987	120.56
296.217	121.56
296.448	110.56
296.679	86.56
296.909	82.56
297.14	89.56
297.37	86.56
297.601	81.56
297.831	88.56
298.062	92.56
298.292	94.56
298.523	78.56
298.753	87.56
298.984	88.56
299.214	79.56
299.445	109.56
299.675	105.56
299.905	97.56
300.136	89.56
300.366	73.56
300.597	87.56
300.827	87.56
301.057	103.56
301.288	94.56
301.518	102.56
301.748	83.56
301.979	104.56
302.209	88.56
302.439	97.56
302.669	80.56
302.9	90.56
303.13	100.56
303.36	97.56
303.59	89.56
303.82	99.56
304.051	89.56
304.281	78.56
304.511	97.56
304.741	88.56
304.971	82.56
305.201	100.56
305.431	79.56
305.661	98.56
305.891	79.56
306.121	98.56
306.352	103.56
306.582	99.56
306.812	89.56
307.042	91.56
307.272	96.56
307.502	95.56
307.731	94.56
307.961	90.56
308.191	96.56
308.421	88.56
308.651	86.56
308.881	103.56
309.111	87.56
309.341	83.56
309.571	103.56
309.8	100.56
310.03	95.56
310.26	100.56
310.49	93.56
310.72	101.56
310.949	102.56
311.179	102.56
311.409	84.56
311.639	97.56
311.868	89.56
312.098	83.56
312.328	99.56
312.557	97.56
312.787	99.56
313.017	100.56
313.246	85.56
313.476	73.56
313.706	90.56
313.935	98.56
314.165	93.56
314.394	105.56
314.624	87.56
314.853	87.56
315.083	79.56
315.312	87.56
315.542	91.56
315.771	104.56
316.001	83.56
316.23	85.56
316.46	83.56
316.689	98.56
316.919	83.56
317.148	92.56
317.377	108.56
317.607	103.56
317.836	88.56
318.065	98.56
318.295	90.56
318.524	84.56
318.753	90.56
318.983	99.56
319.212	89.56
319.441	97.56
319.67	105.56
319.9	98.56
320.129	80.56
320.358	97.56
320.587	90.56
320.816	98.56
321.046	91.56
321.275	95.56
321.504	101.56
321.733	95.56
321.962	88.56
322.191	88.56
322.42	86.56
322.649	93.56
322.878	114.56
323.108	104.56
323.337	116.56
323.566	126.56
323.795	131.56
324.024	181.56
324.253	347.56
324.482	717.56
324.71	1447.56
324.939	1957.56
325.168	723.56
325.397	210.56
325.626	122.56
325.855	116.56
326.084	119.56
326.313	125.56
326.542	145.56
326.77	216.56
326.999	390.56
327.228	821.56
327.457	1525.56
327.686	1205.56
327.914	327.56
328.143	183.56
328.372	135.56
328.6	103.56
328.829	94.56
329.058	94.56
329.287	118.56
329.515	107.56
329.744	105.56
329.972	105.56
330.201	101.56
330.43	96.56
330.658	102.56
330.887	127.56
331.115	123.56
331.344	95.56
331.572	92.56
331.801	98.56
332.03	100.56
332.258	89.56
332.486	93.56
332.715	95.56
332.943	101.56
333.172	92.56
333.4	91.56
333.629	98.56
333.857	113.56
334.085	97.56
334.314	101.56
334.542	113.56
334.771	107.56
334.999	85.56
335.227	99.56
335.455	100.56
335.684	93.56
335.912	98.56
336.14	103.56
336.369	97.56
336.597	91.56
336.825	89.56
337.053	82.56
337.281	99.56
337.51	79.56
337.738	92.56
337.966	83.56
338.194	99.56
338.422	96.56
338.65	97.56
338.878	84.56
339.106	81.56
339.334	91.56
339.562	93.56
339.79	86.56
340.018	82.56
340.246	88.56
340.474	83.56
340.702	88.56
340.93	89.56
341.158	85.56
341.386	78.56
341.614	91.56
341.842	81.56
342.07	94.56
342.298	93.56
342.526	82.56
342.754	83.56
342.981	87.56
343.209	87.56
343.437	96.56
343.665	81.56
343.893	97.56
344.12	90.56
344.348	83.56
344.576	98.56
344.804	83.56
345.031	77.56
345.259	89.56
345.487	87.56
345.714	97.56
345.942	93.56
346.17	112.56
346.397	88.56
346.625	102.56
346.853	103.56
347.08	96.56
347.308	99.56
347.535	94.56
347.763	100.56
347.99	105.56
348.218	110.56
348.445	104.56
348.673	87.56
348.9	88.56
349.128	90.56
349.355	91.56
349.583	86.56
349.81	97.56
350.037	91.56
350.265	95.56
350.492	87.56
350.72	102.56
350.947	85.56
351.174	111.56
351.402	110.56
351.629	94.56
351.856	102.56
352.083	112.56
352.311	99.56
352.538	96.56
352.765	97.56
352.992	106.56
353.22	119.56
353.447	107.56
353.674	98.56
353.901	98.56
354.128	103.56
354.355	102.56
354.583	93.56
354.81	97.56
355.037	106.56
355.264	89.56
355.491	84.56
355.718	80.56
355.945	98.56
356.172	94.56
356.399	80.56
356.626	95.56
356.853	83.56
357.08	80.56
357.307	85.56
357.534	85.56
357.761	82.56
357.988	92.56
358.215	85.56
358.441	83.56
358.668	79.56
358.895	88.56
359.122	77.56
359.349	94.56
359.576	82.56
359.802	108.56
360.029	113.56
360.256	112.56
360.483	96.56
360.709	91.56
360.936	105.56
361.163	96.56
361.39	87.56
361.616	82.56
361.843	78.56
362.07	95.56
362.296	89.56
362.523	97.56
362.749	82.56
362.976	88.56
363.203	106.56
363.429	95.56
363.656	90.56
363.882	81.56
364.109	91.56
364.335	96.56
364.562	87.56
364.788	83.56
365.015	90.56
365.241	87.56
365.468	104.56
365.694	87.56
365.92	108.56
366.147	91.56
366.373	94.56
366.599	78.56
366.826	87.56
367.052	83.56
367.278	97.56
367.505	85.56
367.731	87.56
367.957	98.56
368.184	83.56
368.41	91.56
368.636	112.56
368.862	115.56
369.089	88.56
369.315	89.56
369.541	89.56
369.767	95.56
369.993	93.56
370.219	89.56
370.445	77.56
370.672	91.56
370.898	90.56
371.124	87.56
371.35	92.56
371.576	83.56
371.802	85.56
372.028	90.56
372.254	97.56
372.48	97.56
372.706	83.56
372.932	85.56
373.158	99.56
373.384	79.56
373.61	101.56
373.835	87.56
374.061	102.56
374.287	98.56
374.513	91.56
374.739	105.56
374.965	86.56
375.191	73.56
375.416	77.56
375.642	83.56
375.868	88.56
376.094	86.56
376.319	83.56
376.545	91.56
376.771	85.56
376.997	81.56
377.222	80.56
377.448	85.56
377.674	84.56
377.899	84.56
378.125	86.56
378.35	93.56
378.576	106.56
378.802	76.56
379.027	81.56
379.253	91.56
379.478	94.56
379.704	90.56
379.929	95.56
380.155	85.56
380.38	99.56
380.606	81.56
380.831	91.56
381.057	109.56
381.282	89.56
381.507	95.56
381.733	93.56
381.958	96.56
382.184	101.56
382.409	82.56
382.634	99.56
382.86	94.56
383.085	92.56
383.31	95.56
383.535	83.56
383.761	93.56
383.986	95.56
384.211	90.56
384.436	91.56
384.662	93.56
384.887	93.56
385.112	94.56
385.337	100.56
385.562	103.56
385.787	101.56
386.013	105.56
386.238	103.56
386.463	106.56
386.688	109.56
386.913	98.56
387.138	96.56
387.363	101.56
387.588	90.56
387.813	93.56
388.038	100.56
388.263	106.56
388.488	96.56
388.713	96.56
388.938	85.56
389.163	83.56
389.387	93.56
389.612	89.56
389.837	106.56
390.062	94.56
390.287	96.56
390.512	90.56
390.736	87.56
390.961	97.56
391.186	86.56
391.411	87.56
391.636	85.56
391.86	95.56
392.085	88.56
392.31	78.56
392.534	90.56
392.759	89.56
392.984	80.56
393.208	96.56
393.433	87.56
393.658	96.56
393.882	89.56
394.107	67.56
394.331	105.56
394.556	84.56
394.78	74.56
395.005	77.56
395.229	98.56
395.454	85.56
395.678	92.56
395.903	91.56
396.127	81.56
396.352	93.56
396.576	98.56
396.801	81.56
397.025	77.56
397.249	79.56
397.474	82.56
397.698	85.56
397.922	98.56
398.147	104.56
398.371	91.56
398.595	88.56
398.82	83.56
399.044	78.56
399.268	79.56
399.492	91.56
399.717	89.56
399.941	89.56
400.165	89.56
400.389	96.56
400.613	94.56
400.837	96.56
401.062	96.56
401.286	93.56
401.51	88.56
401.734	81.56
401.958	89.56
402.182	114.56
402.406	124.56
402.63	111.56
402.854	85.56
403.078	79.56
403.302	73.56
403.526	83.56
403.75	90.56
403.974	90.56
404.198	85.56
404.422	83.56
404.645	82.56
404.869	87.56
405.093	84.56
405.317	90.56
405.541	83.56
405.765	90.56
405.988	110.56
406.212	143.56
406.436	195.56
406.66	122.56
406.883	85.56
407.107	88.56
407.331	93.56
407.555	88.56
407.778	78.56
408.002	82.56
408.226	91.56
408.449	100.56
408.673	79.56
408.896	80.56
409.12	94.56
409.344	89.56
409.567	93.56
409.791	82.56
410.014	97.56
410.238	95.56
410.461	87.56
410.685	91.56
410.908	86.56
411.132	89.56
411.355	81.56
411.578	85.56
411.802	94.56
412.025	81.56
412.249	81.56
412.472	86.56
412.695	93.56
412.919	89.56
413.142	95.56
413.365	104.56
413.589	74.56
413.812	86.56
414.035	103.56
414.258	94.56
414.482	74.56
414.705	97.56
414.928	89.56
415.151	98.56
415.374	89.56
415.597	77.56
415.821	78.56
416.044	99.56
416.267	73.56
416.49	72.56
416.713	74.56
416.936	80.56
417.159	88.56
417.382	86.56
417.605	92.56
417.828	95.56
418.051	101.56
418.274	89.56
418.497	91.56
418.72	80.56
418.943	93.56
419.166	104.56
419.389	108.56
419.611	95.56
419.834	94.56
420.057	79.56
420.28	89.56
420.503	79.56
420.726	86.56
420.948	70.56
421.171	97.56
421.394	91.56
421.617	91.56
421.839	86.56
422.062	89.56
422.285	98.56
422.507	77.56
422.73	101.56
422.953	84.56
423.175	89.56
423.398	87.56
423.621	62.56
423.843	81.56
424.066	81.56
424.288	90.56
424.511	81.56
424.733	86.56
424.956	97.56
425.178	81.56
425.401	87.56
425.623	100.56
425.846	74.56
426.068	91.56
426.291	85.56
426.513	81.56
426.735	94.56
426.958	96.56
427.18	116.56
427.402	120.56
427.625	150.56
427.847	119.56
428.069	93.56
428.292	89.56
428.514	82.56
428.736	74.56
428.958	78.56
429.181	83.56
429.403	101.56
429.625	95.56
429.847	93.56
430.069	101.56
430.292	75.56
430.514	66.56
430.736	83.56
430.958	89.56
431.18	83.56
431.402	81.56
431.624	96.56
431.846	91.56
432.068	84.56
432.29	86.56
432.512	87.56
432.734	75.56
432.956	79.56
433.178	81.56
433.4	88.56
433.622	94.56
433.844	85.56
434.066	83.56
434.287	91.56
434.509	88.56
434.731	97.56
434.953	96.56
435.175	93.56
435.397	71.56
435.618	86.56
435.84	87.56
436.062	113.56
436.284	107.56
436.505	87.56
436.727	98.56
436.949	87.56
437.17	77.56
437.392	86.56
437.614	97.56
437.835	95.56
438.057	86.56
438.278	103.56
438.5	85.56
438.721	115.56
438.943	99.56
439.165	101.56
439.386	65.56
439.608	86.56
439.829	87.56
440.05	87.56
440.272	141.56
440.493	101.56
440.715	80.56
440.936	69.56
441.158	83.56
441.379	94.56
441.6	82.56
441.822	89.56
442.043	67.56
442.264	112.56
442.486	89.56
442.707	94.56
442.928	106.56
443.149	109.56
443.371	113.56
443.592	106.56
443.813	116.56
444.034	105.56
444.255	77.56
444.476	76.56
444.698	87.56
444.919	71.56
445.14	115.56
445.361	113.56
445.582	125.56
445.803	112.56
446.024	133.56
446.245	128.56
446.466	94.56
446.687	99.56
446.908	84.56
447.129	85.56
447.35	81.56
447.571	87.56
447.792	92.56
448.013	110.56
448.234	96.56
448.455	95.56
448.675	101.56
448.896	111.56
449.117	88.56
449.338	91.56
449.559	122.56
449.779	116.56
450	89.56
450.221	75.56
450.442	85.56
450.662	75.56
450.883	99.56
451.104	118.56
451.324	81.56
451.545	87.56
451.766	78.56
451.986	83.56
452.207	73.56
452.428	87.56
452.648	77.56
452.869	91.56
453.089	101.56
453.31	110.56
453.53	91.56
453.751	83.56
453.971	99.56
454.192	94.56
454.412	81.56
454.633	72.56
454.853	96.56
455.073	93.56
455.294	89.56
455.514	88.56
455.734	69.56
455.955	96.56
456.175	93.56
456.395	91.56
456.616	87.56
456.836	81.56
457.056	94.56
457.276	88.56
457.497	90.56
457.717	89.56
457.937	95.56
458.157	84.56
458.377	87.56
458.598	103.56
458.818	150.56
459.038	151.56
459.258	109.56
459.478	88.56
459.698	89.56
459.918	75.56
460.138	84.56
460.358	85.56
460.578	85.56
460.798	71.56
461.018	86.56
461.238	80.56
461.458	77.56
461.678	72.56
461.898	88.56
462.118	89.56
462.338	74.56
462.558	90.56
462.777	87.56
462.997	93.56
463.217	87.56
463.437	69.56
463.657	91.56
463.876	79.56
464.096	83.56
464.316	86.56
464.536	85.56
464.755	97.56
464.975	107.56
465.195	133.56
465.414	123.56
465.634	93.56
465.854	83.56
466.073	83.56
466.293	82.56
466.512	81.56
466.732	80.56
466.951	73.56
467.171	93.56
467.391	91.56
467.61	91.56
467.829	93.56
468.049	90.56
468.268	89.56
468.488	79.56
468.707	85.56
468.927	94.56
469.146	79.56
469.365	94.56
469.585	86.56
469.804	88.56
470.023	93.56
470.243	85.56
470.462	82.56
470.681	109.56
470.901	88.56
471.12	76.56
471.339	91.56
471.558	77.56
471.777	83.56
471.997	78.56
472.216	96.56
472.435	98.56
472.654	84.56
472.873	79.56
473.092	94.56
473.311	95.56
473.53	85.56
473.749	87.56
473.968	81.56
474.187	103.56
474.406	96.56
474.625	80.56
474.844	97.56
475.063	85.56
475.282	76.56
475.501	77.56
475.72	91.56
475.939	90.56
476.158	88.56
476.377	95.56
476.596	85.56
476.814	80.56
477.033	89.56
477.252	72.56
477.471	81.56
477.69	79.56
477.908	90.56
478.127	79.56
478.346	91.56
478.564	85.56
478.783	96.56
479.002	84.56
479.22	93.56
479.439	94.56
479.658	97.56
479.876	77.56
480.095	85.56
480.313	105.56
480.532	80.56
480.751	87.56
480.969	97.56
481.188	104.56
481.406	95.56
481.624	91.56
481.843	81.56
482.061	74.56
482.28	80.56
482.498	91.56
482.717	80.56
482.935	73.56
483.153	85.56
483.372	77.56
483.59	95.56
483.808	91.56
484.027	87.56
484.245	81.56
484.463	101.56
484.681	85.56
484.9	101.56
485.118	82.56
485.336	94.56
485.554	92.56
485.772	79.56
485.99	85.56
486.209	98.56
486.427	99.56
486.645	106.56
486.863	98.56
487.081	90.56
487.299	96.56
487.517	93.56
487.735	97.56
487.953	96.56
488.171	93.56
488.389	82.56
488.607	83.56
488.825	87.56
489.043	85.56
489.261	87.56
489.479	83.56
489.696	104.56
489.914	83.56
490.132	87.56
490.35	81.56
490.568	86.56
490.786	84.56
491.003	89.56
491.221	81.56
491.439	73.56
491.657	85.56
491.874	91.56
492.092	86.56
492.31	87.56
492.527	80.56
492.745	83.56
492.963	99.56
493.18	93.56
493.398	97.56
493.615	100.56
493.833	88.56
494.05	84.56
494.268	90.56
494.485	88.56
494.703	75.56
494.92	81.56
495.138	90.56
495.355	96.56
495.573	81.56
495.79	87.56
496.008	81.56
496.225	94.56
496.442	90.56
496.66	93.56
496.877	83.56
497.094	90.56
497.312	90.56
497.529	85.56
497.746	80.56
497.963	90.56
498.181	99.56
498.398	101.56
498.615	101.56
498.832	104.56
499.049	82.56
499.267	81.56
499.484	99.56
499.701	100.56
499.918	75.56
500.135	91.56
500.352	90.56
500.569	85.56
500.786	100.56
501.003	93.56
501.22	90.56
501.437	81.56
501.654	99.56
501.871	102.56
502.088	72.56
502.305	85.56
502.522	95.56
502.739	102.56
502.956	78.56
503.172	91.56
503.389	86.56
503.606	89.56
503.823	88.56
504.04	89.56
504.256	104.56
504.473	82.56
504.69	85.56
504.907	89.56
505.123	93.56
505.34	97.56
505.557	79.56
505.773	66.56
505.99	91.56
506.207	89.56
506.423	89.56
506.64	95.56
506.856	96.56
507.073	85.56
507.289	96.56
507.506	81.56
507.722	104.56
507.939	102.56
508.155	85.56
508.372	88.56
508.588	96.56
508.805	105.56
509.021	101.56
509.238	95.56
509.454	107.56
509.67	83.56
509.887	103.56
510.103	115.56
510.319	197.56
510.536	700.56
510.752	2202.56
510.968	606.56
511.184	147.56
511.401	111.56
511.617	99.56
511.833	86.56
512.049	89.56
512.265	78.56
512.481	97.56
512.698	99.56
512.914	98.56
513.13	93.56
513.346	85.56
513.562	100.56
513.778	85.56
513.994	101.56
514.21	94.56
514.426	109.56
514.642	124.56
514.858	118.56
515.074	145.56
515.29	381.56
515.506	1250.56
515.721	463.56
515.937	162.56
516.153	90.56
516.369	89.56
516.585	87.56
516.801	89.56
517.016	83.56
