Data from Uncirc_1984_H10_HRD10591_00049.txt Node
Date: Wed Jan 03 12:21:47 EST 2024
User: Yrep
Spectrometer: HR+D1059
Trigger mode: 1
Integration Time (sec): 1.000000E-1
Scans to average: 1
Electric dark correction enabled: true
Nonlinearity correction enabled: false
Boxcar width: 0
XAxis mode: Wavelengths
Number of Pixels in Spectrum: 2048
>>>>>Begin Spectral Data<<<<<
223.165	-1.69
223.4	-1.69
223.635	-1.69
223.869	-13.69
224.104	-25.69
224.338	-11.69
224.573	-14.69
224.808	-16.69
225.042	-5.69
225.277	-1.69
225.511	-2.69
225.746	9.31
225.98	-0.69
226.215	5.31
226.449	20.31
226.683	12.31
226.918	18.31
227.152	29.31
227.387	31.31
227.621	28.31
227.856	41.31
228.09	51.31
228.324	53.31
228.559	61.31
228.793	53.31
229.027	46.31
229.262	63.31
229.496	68.31
229.73	83.31
229.964	89.31
230.199	68.31
230.433	71.31
230.667	67.31
230.901	69.31
231.136	71.31
231.37	67.31
231.604	82.31
231.838	65.31
232.072	84.31
232.306	90.31
232.541	84.31
232.775	81.31
233.009	55.31
233.243	76.31
233.477	70.31
233.711	73.31
233.945	93.31
234.179	66.31
234.413	89.31
234.647	68.31
234.881	73.31
235.115	73.31
235.349	84.31
235.583	88.31
235.817	86.31
236.051	80.31
236.285	69.31
236.519	80.31
236.753	64.31
236.987	72.31
237.221	72.31
237.455	87.31
237.689	81.31
237.922	73.31
238.156	69.31
238.39	83.31
238.624	78.31
238.858	78.31
239.091	64.31
239.325	82.31
239.559	78.31
239.793	61.31
240.027	72.31
240.26	70.31
240.494	69.31
240.728	73.31
240.961	74.31
241.195	89.31
241.429	64.31
241.662	76.31
241.896	78.31
242.13	78.31
242.363	76.31
242.597	64.31
242.83	80.31
243.064	79.31
243.298	76.31
243.531	66.31
243.765	80.31
243.998	80.31
244.232	89.31
244.465	85.31
244.699	80.31
244.932	90.31
245.166	73.31
245.399	65.31
245.633	69.31
245.866	64.31
246.099	72.31
246.333	76.31
246.566	70.31
246.8	71.31
247.033	54.31
247.266	67.31
247.5	84.31
247.733	81.31
247.966	85.31
248.2	72.31
248.433	72.31
248.666	78.31
248.899	101.31
249.133	66.31
249.366	86.31
249.599	86.31
249.832	79.31
250.066	71.31
250.299	77.31
250.532	93.31
250.765	63.31
250.998	62.31
251.231	81.31
251.465	71.31
251.698	70.31
251.931	87.31
252.164	73.31
252.397	56.31
252.63	87.31
252.863	87.31
253.096	79.31
253.329	78.31
253.562	70.31
253.795	69.31
254.028	75.31
254.261	78.31
254.494	80.31
254.727	87.31
254.96	91.31
255.193	81.31
255.426	81.31
255.659	76.31
255.892	88.31
256.124	82.31
256.357	84.31
256.59	67.31
256.823	84.31
257.056	82.31
257.289	55.31
257.521	66.31
257.754	85.31
257.987	97.31
258.22	95.31
258.452	76.31
258.685	78.31
258.918	79.31
259.151	81.31
259.383	90.31
259.616	78.31
259.849	79.31
260.081	81.31
260.314	79.31
260.547	73.31
260.779	88.31
261.012	70.31
261.244	84.31
261.477	78.31
261.71	97.31
261.942	88.31
262.175	108.31
262.407	76.31
262.64	89.31
262.872	74.31
263.105	82.31
263.337	81.31
263.57	66.31
263.802	76.31
264.035	74.31
264.267	80.31
264.499	94.31
264.732	94.31
264.964	70.31
265.197	69.31
265.429	79.31
265.661	69.31
265.894	86.31
266.126	85.31
266.358	75.31
266.591	85.31
266.823	94.31
267.055	85.31
267.287	63.31
267.52	91.31
267.752	80.31
267.984	87.31
268.216	76.31
268.448	82.31
268.681	67.31
268.913	89.31
269.145	81.31
269.377	89.31
269.609	86.31
269.841	68.31
270.073	77.31
270.306	71.31
270.538	95.31
270.77	72.31
271.002	98.31
271.234	77.31
271.466	82.31
271.698	79.31
271.93	96.31
272.162	94.31
272.394	94.31
272.626	89.31
272.858	84.31
273.09	88.31
273.322	76.31
273.553	84.31
273.785	87.31
274.017	77.31
274.249	80.31
274.481	84.31
274.713	82.31
274.945	84.31
275.176	78.31
275.408	71.31
275.64	87.31
275.872	72.31
276.104	76.31
276.335	92.31
276.567	97.31
276.799	96.31
277.031	101.31
277.262	99.31
277.494	67.31
277.726	71.31
277.957	81.31
278.189	87.31
278.421	85.31
278.652	96.31
278.884	86.31
279.115	78.31
279.347	85.31
279.579	85.31
279.81	78.31
280.042	85.31
280.273	85.31
280.505	84.31
280.736	85.31
280.968	86.31
281.199	92.31
281.431	80.31
281.662	80.31
281.894	79.31
282.125	98.31
282.356	112.31
282.588	140.31
282.819	107.31
283.051	99.31
283.282	88.31
283.513	76.31
283.745	87.31
283.976	87.31
284.207	80.31
284.439	76.31
284.67	89.31
284.901	98.31
285.132	98.31
285.364	82.31
285.595	68.31
285.826	80.31
286.057	71.31
286.288	87.31
286.52	88.31
286.751	86.31
286.982	80.31
287.213	95.31
287.444	90.31
287.675	85.31
287.906	113.31
288.138	89.31
288.369	97.31
288.6	95.31
288.831	69.31
289.062	78.31
289.293	85.31
289.524	78.31
289.755	100.31
289.986	91.31
290.217	89.31
290.448	71.31
290.679	85.31
290.91	99.31
291.141	71.31
291.371	89.31
291.602	92.31
291.833	73.31
292.064	86.31
292.295	85.31
292.526	86.31
292.757	88.31
292.987	78.31
293.218	95.31
293.449	87.31
293.68	87.31
293.91	82.31
294.141	87.31
294.372	67.31
294.603	83.31
294.833	88.31
295.064	93.31
295.295	90.31
295.525	71.31
295.756	100.31
295.987	112.31
296.217	128.31
296.448	115.31
296.679	93.31
296.909	93.31
297.14	97.31
297.37	77.31
297.601	82.31
297.831	103.31
298.062	81.31
298.292	85.31
298.523	89.31
298.753	86.31
298.984	76.31
299.214	73.31
299.445	80.31
299.675	101.31
299.905	95.31
300.136	88.31
300.366	103.31
300.597	92.31
300.827	85.31
301.057	89.31
301.288	100.31
301.518	96.31
301.748	92.31
301.979	110.31
302.209	72.31
302.439	94.31
302.669	87.31
302.9	77.31
303.13	87.31
303.36	96.31
303.59	105.31
303.82	93.31
304.051	90.31
304.281	89.31
304.511	89.31
304.741	89.31
304.971	84.31
305.201	78.31
305.431	88.31
305.661	92.31
305.891	88.31
306.121	96.31
306.352	86.31
306.582	106.31
306.812	99.31
307.042	84.31
307.272	101.31
307.502	93.31
307.731	77.31
307.961	87.31
308.191	90.31
308.421	86.31
308.651	96.31
308.881	93.31
309.111	89.31
309.341	83.31
309.571	97.31
309.8	91.31
310.03	87.31
310.26	97.31
310.49	100.31
310.72	100.31
310.949	82.31
311.179	91.31
311.409	93.31
311.639	93.31
311.868	93.31
312.098	91.31
312.328	82.31
312.557	82.31
312.787	77.31
313.017	103.31
313.246	76.31
313.476	89.31
313.706	77.31
313.935	86.31
314.165	104.31
314.394	104.31
314.624	103.31
314.853	96.31
315.083	93.31
315.312	101.31
315.542	99.31
315.771	87.31
316.001	94.31
316.23	89.31
316.46	87.31
316.689	78.31
316.919	90.31
317.148	88.31
317.377	112.31
317.607	94.31
317.836	88.31
318.065	97.31
318.295	90.31
318.524	91.31
318.753	78.31
318.983	105.31
319.212	97.31
319.441	96.31
319.67	112.31
319.9	95.31
320.129	97.31
320.358	93.31
320.587	100.31
320.816	90.31
321.046	86.31
321.275	88.31
321.504	92.31
321.733	84.31
321.962	89.31
322.191	87.31
322.42	106.31
322.649	105.31
322.878	97.31
323.108	120.31
323.337	131.31
323.566	129.31
323.795	142.31
324.024	191.31
324.253	398.31
324.482	808.31
324.71	1712.31
324.939	2198.31
325.168	790.31
325.397	250.31
325.626	136.31
325.855	126.31
326.084	128.31
326.313	122.31
326.542	164.31
326.77	230.31
326.999	425.31
327.228	942.31
327.457	1749.31
327.686	1360.31
327.914	360.31
328.143	180.31
328.372	148.31
328.6	115.31
328.829	121.31
329.058	126.31
329.287	122.31
329.515	103.31
329.744	102.31
329.972	105.31
330.201	97.31
330.43	84.31
330.658	104.31
330.887	145.31
331.115	110.31
331.344	89.31
331.572	104.31
331.801	105.31
332.03	108.31
332.258	90.31
332.486	82.31
332.715	92.31
332.943	88.31
333.172	87.31
333.4	97.31
333.629	96.31
333.857	109.31
334.085	90.31
334.314	82.31
334.542	103.31
334.771	104.31
334.999	99.31
335.227	95.31
335.455	101.31
335.684	97.31
335.912	104.31
336.14	90.31
336.369	94.31
336.597	78.31
336.825	101.31
337.053	86.31
337.281	92.31
337.51	89.31
337.738	81.31
337.966	95.31
338.194	84.31
338.422	103.31
338.65	85.31
338.878	79.31
339.106	78.31
339.334	82.31
339.562	85.31
339.79	81.31
340.018	100.31
340.246	94.31
340.474	84.31
340.702	89.31
340.93	79.31
341.158	88.31
341.386	90.31
341.614	85.31
341.842	100.31
342.07	82.31
342.298	84.31
342.526	85.31
342.754	95.31
342.981	92.31
343.209	78.31
343.437	93.31
343.665	74.31
343.893	92.31
344.12	91.31
344.348	94.31
344.576	93.31
344.804	90.31
345.031	96.31
345.259	95.31
345.487	88.31
345.714	79.31
345.942	93.31
346.17	96.31
346.397	86.31
346.625	81.31
346.853	81.31
347.08	76.31
347.308	84.31
347.535	92.31
347.763	98.31
347.99	89.31
348.218	91.31
348.445	98.31
348.673	93.31
348.9	96.31
349.128	98.31
349.355	87.31
349.583	87.31
349.81	88.31
350.037	82.31
350.265	88.31
350.492	86.31
350.72	88.31
350.947	104.31
351.174	99.31
351.402	107.31
351.629	106.31
351.856	117.31
352.083	106.31
352.311	111.31
352.538	98.31
352.765	96.31
352.992	105.31
353.22	114.31
353.447	102.31
353.674	83.31
353.901	101.31
354.128	95.31
354.355	94.31
354.583	96.31
354.81	91.31
355.037	96.31
355.264	90.31
355.491	102.31
355.718	94.31
355.945	106.31
356.172	94.31
356.399	89.31
356.626	90.31
356.853	81.31
357.08	77.31
357.307	86.31
357.534	96.31
357.761	89.31
357.988	86.31
358.215	93.31
358.441	101.31
358.668	87.31
358.895	97.31
359.122	82.31
359.349	91.31
359.576	90.31
359.802	87.31
360.029	116.31
360.256	115.31
360.483	93.31
360.709	93.31
360.936	93.31
361.163	94.31
361.39	80.31
361.616	96.31
361.843	70.31
362.07	93.31
362.296	86.31
362.523	88.31
362.749	81.31
362.976	80.31
363.203	100.31
363.429	91.31
363.656	86.31
363.882	79.31
364.109	85.31
364.335	94.31
364.562	96.31
364.788	91.31
365.015	89.31
365.241	92.31
365.468	98.31
365.694	103.31
365.92	95.31
366.147	103.31
366.373	95.31
366.599	89.31
366.826	78.31
367.052	70.31
367.278	95.31
367.505	83.31
367.731	84.31
367.957	83.31
368.184	96.31
368.41	99.31
368.636	115.31
368.862	108.31
369.089	80.31
369.315	95.31
369.541	93.31
369.767	81.31
369.993	84.31
370.219	105.31
370.445	93.31
370.672	93.31
370.898	79.31
371.124	68.31
371.35	78.31
371.576	86.31
371.802	102.31
372.028	96.31
372.254	78.31
372.48	77.31
372.706	84.31
372.932	80.31
373.158	88.31
373.384	105.31
373.61	96.31
373.835	100.31
374.061	86.31
374.287	82.31
374.513	87.31
374.739	97.31
374.965	88.31
375.191	80.31
375.416	98.31
375.642	86.31
375.868	100.31
376.094	85.31
376.319	85.31
376.545	80.31
376.771	96.31
376.997	105.31
377.222	82.31
377.448	85.31
377.674	93.31
377.899	83.31
378.125	73.31
378.35	93.31
378.576	92.31
378.802	81.31
379.027	81.31
379.253	98.31
379.478	90.31
379.704	83.31
379.929	100.31
380.155	89.31
380.38	91.31
380.606	86.31
380.831	74.31
381.057	81.31
381.282	88.31
381.507	99.31
381.733	84.31
381.958	86.31
382.184	100.31
382.409	79.31
382.634	97.31
382.86	88.31
383.085	89.31
383.31	103.31
383.535	103.31
383.761	82.31
383.986	85.31
384.211	92.31
384.436	112.31
384.662	101.31
384.887	87.31
385.112	92.31
385.337	107.31
385.562	105.31
385.787	92.31
386.013	105.31
386.238	116.31
386.463	101.31
386.688	99.31
386.913	98.31
387.138	112.31
387.363	103.31
387.588	78.31
387.813	101.31
388.038	87.31
388.263	103.31
388.488	94.31
388.713	87.31
388.938	74.31
389.163	80.31
389.387	96.31
389.612	109.31
389.837	90.31
390.062	91.31
390.287	92.31
390.512	93.31
390.736	97.31
390.961	93.31
391.186	84.31
391.411	92.31
391.636	76.31
391.86	85.31
392.085	87.31
392.31	79.31
392.534	84.31
392.759	79.31
392.984	77.31
393.208	103.31
393.433	85.31
393.658	100.31
393.882	88.31
394.107	70.31
394.331	88.31
394.556	86.31
394.78	95.31
395.005	84.31
395.229	70.31
395.454	85.31
395.678	83.31
395.903	73.31
396.127	78.31
396.352	80.31
396.576	76.31
396.801	71.31
397.025	92.31
397.249	78.31
397.474	86.31
397.698	83.31
397.922	80.31
398.147	97.31
398.371	84.31
398.595	84.31
398.82	84.31
399.044	77.31
399.268	91.31
399.492	98.31
399.717	95.31
399.941	94.31
400.165	85.31
400.389	83.31
400.613	82.31
400.837	86.31
401.062	90.31
401.286	85.31
401.51	81.31
401.734	93.31
401.958	107.31
402.182	112.31
402.406	137.31
402.63	110.31
402.854	88.31
403.078	79.31
403.302	90.31
403.526	84.31
403.75	88.31
403.974	87.31
404.198	102.31
404.422	81.31
404.645	98.31
404.869	93.31
405.093	86.31
405.317	104.31
405.541	88.31
405.765	97.31
405.988	117.31
406.212	164.31
406.436	196.31
406.66	124.31
406.883	94.31
407.107	115.31
407.331	99.31
407.555	94.31
407.778	92.31
408.002	90.31
408.226	87.31
408.449	106.31
408.673	90.31
408.896	98.31
409.12	92.31
409.344	98.31
409.567	84.31
409.791	92.31
410.014	108.31
410.238	99.31
410.461	98.31
410.685	90.31
410.908	89.31
411.132	99.31
411.355	103.31
411.578	90.31
411.802	91.31
412.025	88.31
412.249	77.31
412.472	85.31
412.695	83.31
412.919	80.31
413.142	89.31
413.365	95.31
413.589	85.31
413.812	89.31
414.035	89.31
414.258	81.31
414.482	84.31
414.705	85.31
414.928	92.31
415.151	92.31
415.374	81.31
415.597	89.31
415.821	82.31
416.044	74.31
416.267	84.31
416.49	97.31
416.713	80.31
416.936	93.31
417.159	78.31
417.382	79.31
417.605	86.31
417.828	87.31
418.051	88.31
418.274	87.31
418.497	81.31
418.72	95.31
418.943	70.31
419.166	74.31
419.389	84.31
419.611	98.31
419.834	83.31
420.057	87.31
420.28	75.31
420.503	89.31
420.726	94.31
420.948	92.31
421.171	97.31
421.394	83.31
421.617	84.31
421.839	89.31
422.062	96.31
422.285	92.31
422.507	90.31
422.73	95.31
422.953	94.31
423.175	88.31
423.398	91.31
423.621	79.31
423.843	85.31
424.066	82.31
424.288	84.31
424.511	96.31
424.733	103.31
424.956	103.31
425.178	96.31
425.401	86.31
425.623	88.31
425.846	97.31
426.068	85.31
426.291	79.31
426.513	81.31
426.735	82.31
426.958	90.31
427.18	121.31
427.402	111.31
427.625	146.31
427.847	120.31
428.069	108.31
428.292	90.31
428.514	81.31
428.736	87.31
428.958	79.31
429.181	77.31
429.403	66.31
429.625	73.31
429.847	88.31
430.069	103.31
430.292	95.31
430.514	84.31
430.736	78.31
430.958	89.31
431.18	78.31
431.402	75.31
431.624	84.31
431.846	77.31
432.068	88.31
432.29	80.31
432.512	86.31
432.734	87.31
432.956	90.31
433.178	96.31
433.4	104.31
433.622	93.31
433.844	66.31
434.066	72.31
434.287	85.31
434.509	104.31
434.731	82.31
434.953	72.31
435.175	86.31
435.397	87.31
435.618	97.31
435.84	81.31
436.062	123.31
436.284	125.31
436.505	107.31
436.727	96.31
436.949	80.31
437.17	82.31
437.392	87.31
437.614	89.31
437.835	99.31
438.057	102.31
438.278	103.31
438.5	97.31
438.721	113.31
438.943	88.31
439.165	76.31
439.386	85.31
439.608	92.31
439.829	101.31
440.05	117.31
440.272	127.31
440.493	103.31
440.715	59.31
440.936	94.31
441.158	96.31
441.379	82.31
441.6	81.31
441.822	90.31
442.043	77.31
442.264	96.31
442.486	87.31
442.707	97.31
442.928	90.31
443.149	120.31
443.371	136.31
443.592	103.31
443.813	112.31
444.034	98.31
444.255	96.31
444.476	86.31
444.698	81.31
444.919	72.31
445.14	120.31
445.361	111.31
445.582	117.31
445.803	130.31
446.024	122.31
446.245	136.31
446.466	106.31
446.687	85.31
446.908	102.31
447.129	79.31
447.35	87.31
447.571	81.31
447.792	80.31
448.013	100.31
448.234	98.31
448.455	86.31
448.675	122.31
448.896	111.31
449.117	101.31
449.338	101.31
449.559	129.31
449.779	142.31
450	82.31
450.221	93.31
450.442	92.31
450.662	91.31
450.883	88.31
451.104	113.31
451.324	92.31
451.545	100.31
451.766	84.31
451.986	89.31
452.207	82.31
452.428	89.31
452.648	101.31
452.869	102.31
453.089	94.31
453.31	106.31
453.53	92.31
453.751	85.31
453.971	99.31
454.192	116.31
454.412	85.31
454.633	87.31
454.853	106.31
455.073	87.31
455.294	74.31
455.514	95.31
455.734	88.31
455.955	78.31
456.175	71.31
456.395	90.31
456.616	97.31
456.836	98.31
457.056	94.31
457.276	71.31
457.497	78.31
457.717	84.31
457.937	92.31
458.157	87.31
458.377	91.31
458.598	99.31
458.818	133.31
459.038	147.31
459.258	105.31
459.478	84.31
459.698	80.31
459.918	92.31
460.138	85.31
460.358	83.31
460.578	82.31
460.798	91.31
461.018	91.31
461.238	92.31
461.458	61.31
461.678	81.31
461.898	76.31
462.118	73.31
462.338	78.31
462.558	72.31
462.777	89.31
462.997	84.31
463.217	82.31
463.437	74.31
463.657	94.31
463.876	79.31
464.096	84.31
464.316	85.31
464.536	81.31
464.755	87.31
464.975	105.31
465.195	148.31
465.414	149.31
465.634	89.31
465.854	95.31
466.073	85.31
466.293	100.31
466.512	71.31
466.732	82.31
466.951	86.31
467.171	77.31
467.391	84.31
467.61	113.31
467.829	99.31
468.049	68.31
468.268	74.31
468.488	92.31
468.707	71.31
468.927	100.31
469.146	76.31
469.365	61.31
469.585	79.31
469.804	86.31
470.023	98.31
470.243	88.31
470.462	99.31
470.681	100.31
470.901	67.31
471.12	87.31
471.339	88.31
471.558	86.31
471.777	89.31
471.997	82.31
472.216	106.31
472.435	95.31
472.654	68.31
472.873	86.31
473.092	65.31
473.311	89.31
473.53	76.31
473.749	94.31
473.968	96.31
474.187	93.31
474.406	103.31
474.625	85.31
474.844	99.31
475.063	97.31
475.282	73.31
475.501	81.31
475.72	94.31
475.939	83.31
476.158	84.31
476.377	82.31
476.596	70.31
476.814	86.31
477.033	77.31
477.252	73.31
477.471	81.31
477.69	83.31
477.908	65.31
478.127	89.31
478.346	77.31
478.564	80.31
478.783	92.31
479.002	77.31
479.22	99.31
479.439	102.31
479.658	100.31
479.876	81.31
480.095	92.31
480.313	98.31
480.532	94.31
480.751	77.31
480.969	76.31
481.188	84.31
481.406	82.31
481.624	104.31
481.843	89.31
482.061	79.31
482.28	86.31
482.498	75.31
482.717	100.31
482.935	78.31
483.153	82.31
483.372	87.31
483.59	93.31
483.808	94.31
484.027	90.31
484.245	77.31
484.463	89.31
484.681	95.31
484.9	91.31
485.118	84.31
485.336	82.31
485.554	91.31
485.772	98.31
485.99	103.31
486.209	100.31
486.427	88.31
486.645	99.31
486.863	94.31
487.081	84.31
487.299	91.31
487.517	91.31
487.735	82.31
487.953	77.31
488.171	83.31
488.389	81.31
488.607	89.31
488.825	80.31
489.043	85.31
489.261	73.31
489.479	85.31
489.696	80.31
489.914	81.31
490.132	85.31
490.35	88.31
490.568	83.31
490.786	86.31
491.003	90.31
491.221	88.31
491.439	92.31
491.657	90.31
491.874	89.31
492.092	95.31
492.31	78.31
492.527	78.31
492.745	91.31
492.963	83.31
493.18	92.31
493.398	93.31
493.615	95.31
493.833	78.31
494.05	94.31
494.268	91.31
494.485	91.31
494.703	84.31
494.92	92.31
495.138	96.31
495.355	90.31
495.573	84.31
495.79	82.31
496.008	91.31
496.225	86.31
496.442	89.31
496.66	100.31
496.877	87.31
497.094	95.31
497.312	79.31
497.529	82.31
497.746	80.31
497.963	91.31
498.181	89.31
498.398	101.31
498.615	100.31
498.832	111.31
499.049	81.31
499.267	98.31
499.484	106.31
499.701	93.31
499.918	90.31
500.135	94.31
500.352	96.31
500.569	95.31
500.786	88.31
501.003	85.31
501.22	92.31
501.437	86.31
501.654	69.31
501.871	92.31
502.088	99.31
502.305	95.31
502.522	97.31
502.739	103.31
502.956	102.31
503.172	82.31
503.389	95.31
503.606	92.31
503.823	100.31
504.04	94.31
504.256	88.31
504.473	96.31
504.69	82.31
504.907	93.31
505.123	92.31
505.34	94.31
505.557	82.31
505.773	86.31
505.99	81.31
506.207	83.31
506.423	80.31
506.64	94.31
506.856	91.31
507.073	89.31
507.289	86.31
507.506	93.31
507.722	114.31
507.939	102.31
508.155	92.31
508.372	88.31
508.588	94.31
508.805	92.31
509.021	85.31
509.238	91.31
509.454	106.31
509.67	108.31
509.887	105.31
510.103	134.31
510.319	189.31
510.536	738.31
510.752	2233.31
510.968	623.31
511.184	149.31
511.401	102.31
511.617	102.31
511.833	101.31
512.049	88.31
512.265	91.31
512.481	100.31
512.698	99.31
512.914	96.31
513.13	95.31
513.346	73.31
513.562	89.31
513.778	102.31
513.994	95.31
514.21	95.31
514.426	104.31
514.642	113.31
514.858	117.31
515.074	151.31
515.29	426.31
515.506	1356.31
515.721	500.31
515.937	166.31
516.153	101.31
516.369	105.31
516.585	95.31
516.801	99.31
