Data from Uncirc_1984_H10_HRD10591_00096.txt Node
Date: Wed Jan 03 12:21:56 EST 2024
User: Yrep
Spectrometer: HR+D1059
Trigger mode: 1
Integration Time (sec): 1.000000E-1
Scans to average: 1
Electric dark correction enabled: true
Nonlinearity correction enabled: false
Boxcar width: 0
XAxis mode: Wavelengths
Number of Pixels in Spectrum: 2048
>>>>>Begin Spectral Data<<<<<
223.165	-22.94
223.4	-22.94
223.635	-22.94
223.869	-23.94
224.104	-29.94
224.338	-14.94
224.573	-12.94
224.808	-3.94
225.042	-8.94
225.277	-11.94
225.511	6.06
225.746	3.06
225.98	19.06
226.215	10.06
226.449	13.06
226.683	26.06
226.918	17.06
227.152	35.06
227.387	29.06
227.621	50.06
227.856	36.06
228.09	47.06
228.324	43.06
228.559	53.06
228.793	63.06
229.027	48.06
229.262	68.06
229.496	74.06
229.73	84.06
229.964	76.06
230.199	60.06
230.433	83.06
230.667	83.06
230.901	92.06
231.136	76.06
231.37	82.06
231.604	85.06
231.838	62.06
232.072	65.06
232.306	84.06
232.541	73.06
232.775	73.06
233.009	87.06
233.243	74.06
233.477	83.06
233.711	76.06
233.945	85.06
234.179	88.06
234.413	73.06
234.647	65.06
234.881	82.06
235.115	84.06
235.349	100.06
235.583	88.06
235.817	84.06
236.051	70.06
236.285	84.06
236.519	65.06
236.753	79.06
236.987	88.06
237.221	80.06
237.455	89.06
237.689	90.06
237.922	73.06
238.156	88.06
238.39	92.06
238.624	74.06
238.858	55.06
239.091	83.06
239.325	96.06
239.559	67.06
239.793	80.06
240.027	86.06
240.26	85.06
240.494	72.06
240.728	69.06
240.961	74.06
241.195	65.06
241.429	94.06
241.662	66.06
241.896	77.06
242.13	71.06
242.363	67.06
242.597	72.06
242.83	70.06
243.064	71.06
243.298	71.06
243.531	76.06
243.765	90.06
243.998	83.06
244.232	84.06
244.465	89.06
244.699	72.06
244.932	75.06
245.166	74.06
245.399	80.06
245.633	73.06
245.866	81.06
246.099	91.06
246.333	85.06
246.566	79.06
246.8	71.06
247.033	73.06
247.266	68.06
247.5	80.06
247.733	71.06
247.966	91.06
248.2	72.06
248.433	76.06
248.666	78.06
248.899	87.06
249.133	85.06
249.366	95.06
249.599	84.06
249.832	87.06
250.066	85.06
250.299	79.06
250.532	80.06
250.765	76.06
250.998	84.06
251.231	68.06
251.465	76.06
251.698	96.06
251.931	84.06
252.164	88.06
252.397	77.06
252.63	91.06
252.863	70.06
253.096	72.06
253.329	80.06
253.562	74.06
253.795	75.06
254.028	86.06
254.261	87.06
254.494	75.06
254.727	88.06
254.96	72.06
255.193	88.06
255.426	71.06
255.659	80.06
255.892	82.06
256.124	79.06
256.357	65.06
256.59	103.06
256.823	67.06
257.056	71.06
257.289	69.06
257.521	93.06
257.754	83.06
257.987	83.06
258.22	74.06
258.452	83.06
258.685	84.06
258.918	92.06
259.151	84.06
259.383	58.06
259.616	75.06
259.849	85.06
260.081	91.06
260.314	84.06
260.547	85.06
260.779	94.06
261.012	99.06
261.244	89.06
261.477	84.06
261.71	83.06
261.942	100.06
262.175	105.06
262.407	83.06
262.64	81.06
262.872	85.06
263.105	87.06
263.337	81.06
263.57	72.06
263.802	79.06
264.035	78.06
264.267	100.06
264.499	85.06
264.732	81.06
264.964	83.06
265.197	81.06
265.429	67.06
265.661	87.06
265.894	95.06
266.126	71.06
266.358	83.06
266.591	88.06
266.823	84.06
267.055	79.06
267.287	64.06
267.52	90.06
267.752	75.06
267.984	93.06
268.216	89.06
268.448	86.06
268.681	92.06
268.913	89.06
269.145	75.06
269.377	81.06
269.609	87.06
269.841	91.06
270.073	96.06
270.306	77.06
270.538	88.06
270.77	95.06
271.002	77.06
271.234	76.06
271.466	69.06
271.698	74.06
271.93	76.06
272.162	90.06
272.394	96.06
272.626	82.06
272.858	84.06
273.09	81.06
273.322	84.06
273.553	87.06
273.785	77.06
274.017	93.06
274.249	95.06
274.481	91.06
274.713	88.06
274.945	80.06
275.176	95.06
275.408	93.06
275.64	72.06
275.872	79.06
276.104	94.06
276.335	97.06
276.567	93.06
276.799	104.06
277.031	107.06
277.262	95.06
277.494	75.06
277.726	87.06
277.957	82.06
278.189	105.06
278.421	105.06
278.652	104.06
278.884	83.06
279.115	97.06
279.347	100.06
279.579	73.06
279.81	75.06
280.042	79.06
280.273	79.06
280.505	92.06
280.736	101.06
280.968	93.06
281.199	73.06
281.431	87.06
281.662	68.06
281.894	97.06
282.125	92.06
282.356	107.06
282.588	123.06
282.819	114.06
283.051	87.06
283.282	95.06
283.513	101.06
283.745	84.06
283.976	80.06
284.207	79.06
284.439	94.06
284.67	82.06
284.901	96.06
285.132	89.06
285.364	92.06
285.595	88.06
285.826	89.06
286.057	80.06
286.288	90.06
286.52	81.06
286.751	89.06
286.982	91.06
287.213	95.06
287.444	72.06
287.675	62.06
287.906	89.06
288.138	85.06
288.369	77.06
288.6	111.06
288.831	91.06
289.062	91.06
289.293	84.06
289.524	85.06
289.755	76.06
289.986	85.06
290.217	96.06
290.448	87.06
290.679	86.06
290.91	98.06
291.141	88.06
291.371	100.06
291.602	90.06
291.833	96.06
292.064	93.06
292.295	102.06
292.526	98.06
292.757	83.06
292.987	98.06
293.218	108.06
293.449	88.06
293.68	90.06
293.91	79.06
294.141	82.06
294.372	82.06
294.603	76.06
294.833	84.06
295.064	92.06
295.295	76.06
295.525	90.06
295.756	99.06
295.987	109.06
296.217	119.06
296.448	114.06
296.679	85.06
296.909	87.06
297.14	93.06
297.37	95.06
297.601	88.06
297.831	93.06
298.062	87.06
298.292	94.06
298.523	94.06
298.753	106.06
298.984	88.06
299.214	93.06
299.445	96.06
299.675	80.06
299.905	81.06
300.136	86.06
300.366	80.06
300.597	95.06
300.827	99.06
301.057	95.06
301.288	105.06
301.518	89.06
301.748	92.06
301.979	95.06
302.209	107.06
302.439	88.06
302.669	100.06
302.9	70.06
303.13	97.06
303.36	109.06
303.59	109.06
303.82	103.06
304.051	81.06
304.281	91.06
304.511	95.06
304.741	88.06
304.971	103.06
305.201	99.06
305.431	90.06
305.661	87.06
305.891	88.06
306.121	80.06
306.352	93.06
306.582	102.06
306.812	100.06
307.042	96.06
307.272	87.06
307.502	95.06
307.731	81.06
307.961	105.06
308.191	90.06
308.421	80.06
308.651	89.06
308.881	94.06
309.111	91.06
309.341	101.06
309.571	100.06
309.8	80.06
310.03	100.06
310.26	83.06
310.49	105.06
310.72	100.06
310.949	97.06
311.179	103.06
311.409	91.06
311.639	103.06
311.868	84.06
312.098	108.06
312.328	93.06
312.557	89.06
312.787	101.06
313.017	100.06
313.246	93.06
313.476	105.06
313.706	82.06
313.935	85.06
314.165	96.06
314.394	104.06
314.624	95.06
314.853	91.06
315.083	101.06
315.312	87.06
315.542	97.06
315.771	84.06
316.001	88.06
316.23	87.06
316.46	99.06
316.689	83.06
316.919	99.06
317.148	101.06
317.377	114.06
317.607	87.06
317.836	82.06
318.065	97.06
318.295	114.06
318.524	91.06
318.753	97.06
318.983	98.06
319.212	99.06
319.441	108.06
319.67	98.06
319.9	100.06
320.129	104.06
320.358	103.06
320.587	83.06
320.816	83.06
321.046	116.06
321.275	109.06
321.504	93.06
321.733	95.06
321.962	100.06
322.191	89.06
322.42	116.06
322.649	100.06
322.878	113.06
323.108	115.06
323.337	123.06
323.566	131.06
323.795	144.06
324.024	191.06
324.253	343.06
324.482	723.06
324.71	1525.06
324.939	2045.06
325.168	737.06
325.397	235.06
325.626	155.06
325.855	130.06
326.084	112.06
326.313	107.06
326.542	151.06
326.77	218.06
326.999	417.06
327.228	853.06
327.457	1540.06
327.686	1241.06
327.914	343.06
328.143	182.06
328.372	121.06
328.6	124.06
328.829	113.06
329.058	120.06
329.287	120.06
329.515	113.06
329.744	103.06
329.972	97.06
330.201	89.06
330.43	95.06
330.658	99.06
330.887	118.06
331.115	108.06
331.344	98.06
331.572	120.06
331.801	96.06
332.03	95.06
332.258	94.06
332.486	90.06
332.715	98.06
332.943	85.06
333.172	96.06
333.4	102.06
333.629	99.06
333.857	95.06
334.085	95.06
334.314	108.06
334.542	103.06
334.771	95.06
334.999	98.06
335.227	92.06
335.455	98.06
335.684	103.06
335.912	97.06
336.14	89.06
336.369	104.06
336.597	99.06
336.825	121.06
337.053	84.06
337.281	92.06
337.51	99.06
337.738	100.06
337.966	95.06
338.194	73.06
338.422	100.06
338.65	87.06
338.878	105.06
339.106	88.06
339.334	81.06
339.562	89.06
339.79	95.06
340.018	105.06
340.246	91.06
340.474	86.06
340.702	81.06
340.93	88.06
341.158	98.06
341.386	89.06
341.614	95.06
341.842	97.06
342.07	110.06
342.298	95.06
342.526	103.06
342.754	95.06
342.981	90.06
343.209	102.06
343.437	100.06
343.665	93.06
343.893	89.06
344.12	92.06
344.348	101.06
344.576	101.06
344.804	99.06
345.031	108.06
345.259	92.06
345.487	88.06
345.714	83.06
345.942	89.06
346.17	99.06
346.397	102.06
346.625	98.06
346.853	86.06
347.08	88.06
347.308	87.06
347.535	99.06
347.763	90.06
347.99	94.06
348.218	106.06
348.445	81.06
348.673	92.06
348.9	97.06
349.128	93.06
349.355	97.06
349.583	99.06
349.81	80.06
350.037	96.06
350.265	96.06
350.492	75.06
350.72	101.06
350.947	98.06
351.174	95.06
351.402	103.06
351.629	93.06
351.856	87.06
352.083	109.06
352.311	100.06
352.538	111.06
352.765	104.06
352.992	99.06
353.22	90.06
353.447	95.06
353.674	116.06
353.901	93.06
354.128	105.06
354.355	103.06
354.583	91.06
354.81	104.06
355.037	97.06
355.264	96.06
355.491	109.06
355.718	84.06
355.945	105.06
356.172	110.06
356.399	91.06
356.626	88.06
356.853	87.06
357.08	91.06
357.307	101.06
357.534	80.06
357.761	101.06
357.988	97.06
358.215	97.06
358.441	76.06
358.668	83.06
358.895	91.06
359.122	95.06
359.349	76.06
359.576	81.06
359.802	109.06
360.029	109.06
360.256	107.06
360.483	89.06
360.709	74.06
360.936	96.06
361.163	93.06
361.39	85.06
361.616	92.06
361.843	87.06
362.07	93.06
362.296	69.06
362.523	81.06
362.749	84.06
362.976	98.06
363.203	92.06
363.429	89.06
363.656	99.06
363.882	85.06
364.109	84.06
364.335	84.06
364.562	84.06
364.788	104.06
365.015	98.06
365.241	114.06
365.468	115.06
365.694	81.06
365.92	95.06
366.147	85.06
366.373	86.06
366.599	98.06
366.826	91.06
367.052	92.06
367.278	79.06
367.505	67.06
367.731	98.06
367.957	83.06
368.184	83.06
368.41	116.06
368.636	107.06
368.862	105.06
369.089	113.06
369.315	97.06
369.541	100.06
369.767	89.06
369.993	100.06
370.219	93.06
370.445	68.06
370.672	91.06
370.898	91.06
371.124	97.06
371.35	100.06
371.576	71.06
371.802	85.06
372.028	89.06
372.254	85.06
372.48	99.06
372.706	90.06
372.932	99.06
373.158	83.06
373.384	74.06
373.61	83.06
373.835	100.06
374.061	74.06
374.287	88.06
374.513	83.06
374.739	102.06
374.965	83.06
375.191	82.06
375.416	95.06
375.642	95.06
375.868	85.06
376.094	89.06
376.319	86.06
376.545	87.06
376.771	93.06
376.997	85.06
377.222	90.06
377.448	89.06
377.674	111.06
377.899	92.06
378.125	78.06
378.35	88.06
378.576	95.06
378.802	78.06
379.027	85.06
379.253	91.06
379.478	75.06
379.704	85.06
379.929	87.06
380.155	92.06
380.38	87.06
380.606	82.06
380.831	93.06
381.057	89.06
381.282	85.06
381.507	87.06
381.733	87.06
381.958	98.06
382.184	99.06
382.409	98.06
382.634	113.06
382.86	89.06
383.085	103.06
383.31	99.06
383.535	121.06
383.761	105.06
383.986	88.06
384.211	86.06
384.436	95.06
384.662	85.06
384.887	95.06
385.112	83.06
385.337	104.06
385.562	92.06
385.787	115.06
386.013	95.06
386.238	103.06
386.463	97.06
386.688	100.06
386.913	120.06
387.138	95.06
387.363	104.06
387.588	97.06
387.813	100.06
388.038	101.06
388.263	108.06
388.488	83.06
388.713	97.06
388.938	93.06
389.163	91.06
389.387	107.06
389.612	97.06
389.837	101.06
390.062	102.06
390.287	79.06
390.512	83.06
390.736	88.06
390.961	70.06
391.186	87.06
391.411	91.06
391.636	85.06
391.86	73.06
392.085	86.06
392.31	79.06
392.534	81.06
392.759	104.06
392.984	91.06
393.208	87.06
393.433	76.06
393.658	87.06
393.882	84.06
394.107	89.06
394.331	73.06
394.556	82.06
394.78	97.06
395.005	105.06
395.229	88.06
395.454	85.06
395.678	83.06
395.903	90.06
396.127	88.06
396.352	85.06
396.576	96.06
396.801	85.06
397.025	86.06
397.249	89.06
397.474	88.06
397.698	84.06
397.922	81.06
398.147	73.06
398.371	77.06
398.595	84.06
398.82	86.06
399.044	98.06
399.268	85.06
399.492	85.06
399.717	94.06
399.941	95.06
400.165	95.06
400.389	77.06
400.613	91.06
400.837	73.06
401.062	81.06
401.286	102.06
401.51	81.06
401.734	95.06
401.958	99.06
402.182	118.06
402.406	138.06
402.63	104.06
402.854	87.06
403.078	87.06
403.302	74.06
403.526	83.06
403.75	75.06
403.974	95.06
404.198	78.06
404.422	86.06
404.645	88.06
404.869	80.06
405.093	110.06
405.317	98.06
405.541	91.06
405.765	106.06
405.988	116.06
406.212	152.06
406.436	187.06
406.66	130.06
406.883	89.06
407.107	99.06
407.331	88.06
407.555	94.06
407.778	74.06
408.002	81.06
408.226	101.06
408.449	87.06
408.673	89.06
408.896	89.06
409.12	88.06
409.344	84.06
409.567	89.06
409.791	91.06
410.014	87.06
410.238	84.06
410.461	92.06
410.685	88.06
410.908	109.06
411.132	103.06
411.355	98.06
411.578	99.06
411.802	96.06
412.025	82.06
412.249	79.06
412.472	95.06
412.695	99.06
412.919	94.06
413.142	84.06
413.365	87.06
413.589	97.06
413.812	83.06
414.035	96.06
414.258	86.06
414.482	86.06
414.705	92.06
414.928	98.06
415.151	91.06
415.374	90.06
415.597	98.06
415.821	90.06
416.044	79.06
416.267	85.06
416.49	86.06
416.713	87.06
416.936	92.06
417.159	91.06
417.382	94.06
417.605	79.06
417.828	96.06
418.051	92.06
418.274	92.06
418.497	89.06
418.72	91.06
418.943	102.06
419.166	86.06
419.389	67.06
419.611	88.06
419.834	85.06
420.057	85.06
420.28	97.06
420.503	104.06
420.726	84.06
420.948	95.06
421.171	93.06
421.394	91.06
421.617	95.06
421.839	87.06
422.062	70.06
422.285	75.06
422.507	104.06
422.73	95.06
422.953	85.06
423.175	87.06
423.398	80.06
423.621	73.06
423.843	85.06
424.066	72.06
424.288	97.06
424.511	83.06
424.733	88.06
424.956	95.06
425.178	109.06
425.401	104.06
425.623	92.06
425.846	94.06
426.068	104.06
426.291	79.06
426.513	97.06
426.735	94.06
426.958	89.06
427.18	104.06
427.402	118.06
427.625	144.06
427.847	102.06
428.069	77.06
428.292	84.06
428.514	73.06
428.736	74.06
428.958	95.06
429.181	79.06
429.403	92.06
429.625	104.06
429.847	79.06
430.069	106.06
430.292	86.06
430.514	100.06
430.736	66.06
430.958	71.06
431.18	85.06
431.402	95.06
431.624	77.06
431.846	86.06
432.068	86.06
432.29	87.06
432.512	89.06
432.734	92.06
432.956	83.06
433.178	86.06
433.4	105.06
433.622	82.06
433.844	82.06
434.066	84.06
434.287	62.06
434.509	89.06
434.731	92.06
434.953	97.06
435.175	95.06
435.397	89.06
435.618	92.06
435.84	91.06
436.062	117.06
436.284	110.06
436.505	98.06
436.727	106.06
436.949	88.06
437.17	88.06
437.392	98.06
437.614	87.06
437.835	97.06
438.057	94.06
438.278	102.06
438.5	90.06
438.721	112.06
438.943	101.06
439.165	89.06
439.386	96.06
439.608	85.06
439.829	96.06
440.05	118.06
440.272	127.06
440.493	91.06
440.715	90.06
440.936	96.06
441.158	91.06
441.379	80.06
441.6	71.06
441.822	88.06
442.043	83.06
442.264	125.06
442.486	106.06
442.707	99.06
442.928	99.06
443.149	116.06
443.371	119.06
443.592	104.06
443.813	105.06
444.034	111.06
444.255	92.06
444.476	89.06
444.698	87.06
444.919	94.06
445.14	121.06
445.361	132.06
445.582	83.06
445.803	135.06
446.024	123.06
446.245	123.06
446.466	109.06
446.687	106.06
446.908	98.06
447.129	94.06
447.35	82.06
447.571	79.06
447.792	89.06
448.013	95.06
448.234	102.06
448.455	96.06
448.675	108.06
448.896	108.06
449.117	92.06
449.338	103.06
449.559	112.06
449.779	136.06
450	91.06
450.221	97.06
450.442	81.06
450.662	92.06
450.883	106.06
451.104	109.06
451.324	84.06
451.545	81.06
451.766	75.06
451.986	98.06
452.207	85.06
452.428	84.06
452.648	101.06
452.869	111.06
453.089	104.06
453.31	89.06
453.53	99.06
453.751	87.06
453.971	89.06
454.192	102.06
454.412	77.06
454.633	85.06
454.853	82.06
455.073	88.06
455.294	100.06
455.514	81.06
455.734	83.06
455.955	98.06
456.175	95.06
456.395	92.06
456.616	92.06
456.836	82.06
457.056	87.06
457.276	87.06
457.497	81.06
457.717	96.06
457.937	81.06
458.157	95.06
458.377	89.06
458.598	110.06
458.818	138.06
459.038	144.06
459.258	124.06
459.478	87.06
459.698	85.06
459.918	87.06
460.138	80.06
460.358	86.06
460.578	85.06
460.798	86.06
461.018	93.06
461.238	90.06
461.458	87.06
461.678	89.06
461.898	98.06
462.118	69.06
462.338	71.06
462.558	94.06
462.777	76.06
462.997	80.06
463.217	79.06
463.437	92.06
463.657	98.06
463.876	77.06
464.096	95.06
464.316	98.06
464.536	82.06
464.755	87.06
464.975	110.06
465.195	166.06
465.414	136.06
465.634	101.06
465.854	91.06
466.073	88.06
466.293	92.06
466.512	99.06
466.732	96.06
466.951	87.06
467.171	91.06
467.391	93.06
467.61	101.06
467.829	95.06
468.049	95.06
468.268	84.06
468.488	79.06
468.707	92.06
468.927	98.06
469.146	74.06
469.365	80.06
469.585	92.06
469.804	106.06
470.023	97.06
470.243	90.06
470.462	87.06
470.681	97.06
470.901	97.06
471.12	97.06
471.339	94.06
471.558	107.06
471.777	88.06
471.997	83.06
472.216	97.06
472.435	90.06
472.654	95.06
472.873	91.06
473.092	77.06
473.311	90.06
473.53	81.06
473.749	77.06
473.968	95.06
474.187	105.06
474.406	80.06
474.625	80.06
474.844	74.06
475.063	93.06
475.282	102.06
475.501	86.06
475.72	99.06
475.939	98.06
476.158	91.06
476.377	74.06
476.596	87.06
476.814	95.06
477.033	109.06
477.252	98.06
477.471	75.06
477.69	73.06
477.908	88.06
478.127	97.06
478.346	68.06
478.564	104.06
478.783	80.06
479.002	101.06
479.22	91.06
479.439	101.06
479.658	97.06
479.876	99.06
480.095	82.06
480.313	91.06
480.532	93.06
480.751	82.06
480.969	111.06
481.188	107.06
481.406	109.06
481.624	93.06
481.843	86.06
482.061	79.06
482.28	86.06
482.498	99.06
482.717	92.06
482.935	76.06
483.153	103.06
483.372	91.06
483.59	88.06
483.808	86.06
484.027	95.06
484.245	91.06
484.463	81.06
484.681	85.06
484.9	91.06
485.118	104.06
485.336	81.06
485.554	95.06
485.772	94.06
485.99	111.06
486.209	96.06
486.427	104.06
486.645	100.06
486.863	105.06
487.081	85.06
487.299	84.06
487.517	101.06
487.735	93.06
487.953	90.06
488.171	92.06
488.389	96.06
488.607	97.06
488.825	96.06
489.043	92.06
489.261	102.06
489.479	104.06
489.696	93.06
489.914	87.06
490.132	76.06
490.35	84.06
490.568	85.06
490.786	100.06
491.003	88.06
491.221	83.06
491.439	90.06
491.657	100.06
491.874	87.06
492.092	81.06
492.31	88.06
492.527	88.06
492.745	80.06
492.963	89.06
493.18	94.06
493.398	88.06
493.615	94.06
493.833	104.06
494.05	95.06
494.268	87.06
494.485	97.06
494.703	82.06
494.92	96.06
495.138	102.06
495.355	85.06
495.573	89.06
495.79	91.06
496.008	90.06
496.225	96.06
496.442	87.06
496.66	93.06
496.877	84.06
497.094	89.06
497.312	89.06
497.529	98.06
497.746	89.06
497.963	86.06
498.181	87.06
498.398	93.06
498.615	117.06
498.832	112.06
499.049	84.06
499.267	92.06
499.484	80.06
499.701	91.06
499.918	89.06
500.135	89.06
500.352	100.06
500.569	92.06
500.786	99.06
501.003	83.06
501.22	79.06
501.437	84.06
501.654	83.06
501.871	116.06
502.088	90.06
502.305	105.06
502.522	99.06
502.739	87.06
502.956	92.06
503.172	112.06
503.389	92.06
503.606	98.06
503.823	96.06
504.04	95.06
504.256	89.06
504.473	99.06
504.69	87.06
504.907	91.06
505.123	108.06
505.34	85.06
505.557	81.06
505.773	93.06
505.99	94.06
506.207	87.06
506.423	93.06
506.64	82.06
506.856	90.06
507.073	89.06
507.289	96.06
507.506	106.06
507.722	110.06
507.939	114.06
508.155	103.06
508.372	91.06
508.588	88.06
508.805	98.06
509.021	97.06
509.238	90.06
509.454	85.06
509.67	112.06
509.887	115.06
510.103	141.06
510.319	191.06
510.536	704.06
510.752	2138.06
510.968	579.06
511.184	139.06
511.401	107.06
511.617	116.06
511.833	95.06
512.049	84.06
512.265	107.06
512.481	101.06
512.698	105.06
512.914	101.06
513.13	100.06
513.346	99.06
513.562	97.06
513.778	91.06
513.994	91.06
514.21	109.06
514.426	122.06
514.642	117.06
514.858	119.06
515.074	153.06
515.29	400.06
515.506	1279.06
515.721	457.06
515.937	133.06
