Data from Uncirc_1984_H10_HRD10591_00061.txt Node
Date: Wed Jan 03 12:21:49 EST 2024
User: Yrep
Spectrometer: HR+D1059
Trigger mode: 1
Integration Time (sec): 1.000000E-1
Scans to average: 1
Electric dark correction enabled: true
Nonlinearity correction enabled: false
Boxcar width: 0
XAxis mode: Wavelengths
Number of Pixels in Spectrum: 2048
>>>>>Begin Spectral Data<<<<<
223.165	-21.19
223.4	-21.19
223.635	-21.19
223.869	-25.19
224.104	-26.19
224.338	-4.19
224.573	-5.19
224.808	-21.19
225.042	-14.19
225.277	4.81
225.511	-4.19
225.746	8.81
225.98	8.81
226.215	14.81
226.449	20.81
226.683	14.81
226.918	15.81
227.152	32.81
227.387	29.81
227.621	41.81
227.856	52.81
228.09	57.81
228.324	49.81
228.559	53.81
228.793	58.81
229.027	62.81
229.262	70.81
229.496	72.81
229.73	63.81
229.964	58.81
230.199	66.81
230.433	79.81
230.667	66.81
230.901	78.81
231.136	84.81
231.37	73.81
231.604	74.81
231.838	68.81
232.072	78.81
232.306	85.81
232.541	83.81
232.775	75.81
233.009	85.81
233.243	85.81
233.477	91.81
233.711	67.81
233.945	73.81
234.179	84.81
234.413	91.81
234.647	64.81
234.881	72.81
235.115	86.81
235.349	83.81
235.583	72.81
235.817	70.81
236.051	87.81
236.285	79.81
236.519	73.81
236.753	69.81
236.987	73.81
237.221	80.81
237.455	88.81
237.689	71.81
237.922	72.81
238.156	64.81
238.39	85.81
238.624	86.81
238.858	83.81
239.091	74.81
239.325	70.81
239.559	86.81
239.793	69.81
240.027	76.81
240.26	86.81
240.494	80.81
240.728	85.81
240.961	76.81
241.195	80.81
241.429	72.81
241.662	76.81
241.896	66.81
242.13	66.81
242.363	69.81
242.597	59.81
242.83	69.81
243.064	88.81
243.298	62.81
243.531	79.81
243.765	91.81
243.998	93.81
244.232	69.81
244.465	79.81
244.699	81.81
244.932	75.81
245.166	73.81
245.399	71.81
245.633	73.81
245.866	80.81
246.099	78.81
246.333	88.81
246.566	80.81
246.8	76.81
247.033	72.81
247.266	82.81
247.5	70.81
247.733	69.81
247.966	86.81
248.2	79.81
248.433	70.81
248.666	73.81
248.899	82.81
249.133	90.81
249.366	89.81
249.599	94.81
249.832	75.81
250.066	70.81
250.299	73.81
250.532	79.81
250.765	70.81
250.998	84.81
251.231	84.81
251.465	80.81
251.698	78.81
251.931	83.81
252.164	75.81
252.397	85.81
252.63	76.81
252.863	90.81
253.096	72.81
253.329	86.81
253.562	82.81
253.795	68.81
254.028	80.81
254.261	78.81
254.494	70.81
254.727	88.81
254.96	73.81
255.193	82.81
255.426	91.81
255.659	78.81
255.892	90.81
256.124	79.81
256.357	69.81
256.59	84.81
256.823	77.81
257.056	84.81
257.289	72.81
257.521	81.81
257.754	82.81
257.987	79.81
258.22	83.81
258.452	79.81
258.685	67.81
258.918	72.81
259.151	90.81
259.383	82.81
259.616	85.81
259.849	82.81
260.081	97.81
260.314	85.81
260.547	92.81
260.779	84.81
261.012	80.81
261.244	73.81
261.477	80.81
261.71	104.81
261.942	101.81
262.175	102.81
262.407	84.81
262.64	78.81
262.872	92.81
263.105	76.81
263.337	92.81
263.57	81.81
263.802	92.81
264.035	86.81
264.267	79.81
264.499	88.81
264.732	80.81
264.964	87.81
265.197	82.81
265.429	79.81
265.661	84.81
265.894	79.81
266.126	73.81
266.358	82.81
266.591	92.81
266.823	85.81
267.055	86.81
267.287	80.81
267.52	84.81
267.752	91.81
267.984	73.81
268.216	60.81
268.448	75.81
268.681	88.81
268.913	85.81
269.145	82.81
269.377	96.81
269.609	87.81
269.841	76.81
270.073	87.81
270.306	74.81
270.538	87.81
270.77	96.81
271.002	70.81
271.234	80.81
271.466	84.81
271.698	82.81
271.93	82.81
272.162	75.81
272.394	86.81
272.626	82.81
272.858	69.81
273.09	84.81
273.322	82.81
273.553	83.81
273.785	87.81
274.017	82.81
274.249	94.81
274.481	80.81
274.713	71.81
274.945	89.81
275.176	76.81
275.408	86.81
275.64	78.81
275.872	66.81
276.104	103.81
276.335	99.81
276.567	87.81
276.799	105.81
277.031	99.81
277.262	81.81
277.494	74.81
277.726	83.81
277.957	88.81
278.189	94.81
278.421	78.81
278.652	77.81
278.884	76.81
279.115	67.81
279.347	89.81
279.579	73.81
279.81	82.81
280.042	67.81
280.273	78.81
280.505	91.81
280.736	94.81
280.968	90.81
281.199	93.81
281.431	78.81
281.662	85.81
281.894	83.81
282.125	85.81
282.356	110.81
282.588	104.81
282.819	92.81
283.051	80.81
283.282	88.81
283.513	97.81
283.745	94.81
283.976	89.81
284.207	95.81
284.439	100.81
284.67	86.81
284.901	107.81
285.132	73.81
285.364	85.81
285.595	87.81
285.826	91.81
286.057	93.81
286.288	86.81
286.52	102.81
286.751	78.81
286.982	89.81
287.213	84.81
287.444	70.81
287.675	86.81
287.906	68.81
288.138	90.81
288.369	94.81
288.6	87.81
288.831	76.81
289.062	86.81
289.293	66.81
289.524	92.81
289.755	92.81
289.986	91.81
290.217	93.81
290.448	80.81
290.679	66.81
290.91	86.81
291.141	89.81
291.371	87.81
291.602	79.81
291.833	84.81
292.064	86.81
292.295	88.81
292.526	90.81
292.757	94.81
292.987	82.81
293.218	95.81
293.449	89.81
293.68	79.81
293.91	97.81
294.141	80.81
294.372	94.81
294.603	78.81
294.833	70.81
295.064	84.81
295.295	90.81
295.525	76.81
295.756	100.81
295.987	108.81
296.217	126.81
296.448	99.81
296.679	103.81
296.909	81.81
297.14	71.81
297.37	91.81
297.601	86.81
297.831	77.81
298.062	82.81
298.292	84.81
298.523	96.81
298.753	90.81
298.984	78.81
299.214	92.81
299.445	99.81
299.675	92.81
299.905	99.81
300.136	96.81
300.366	95.81
300.597	91.81
300.827	85.81
301.057	90.81
301.288	82.81
301.518	91.81
301.748	88.81
301.979	116.81
302.209	92.81
302.439	91.81
302.669	79.81
302.9	91.81
303.13	81.81
303.36	92.81
303.59	91.81
303.82	101.81
304.051	98.81
304.281	74.81
304.511	90.81
304.741	73.81
304.971	90.81
305.201	91.81
305.431	86.81
305.661	87.81
305.891	82.81
306.121	94.81
306.352	95.81
306.582	101.81
306.812	91.81
307.042	85.81
307.272	90.81
307.502	90.81
307.731	86.81
307.961	89.81
308.191	86.81
308.421	94.81
308.651	104.81
308.881	84.81
309.111	70.81
309.341	78.81
309.571	99.81
309.8	90.81
310.03	87.81
310.26	89.81
310.49	105.81
310.72	96.81
310.949	108.81
311.179	95.81
311.409	99.81
311.639	76.81
311.868	92.81
312.098	99.81
312.328	97.81
312.557	97.81
312.787	95.81
313.017	88.81
313.246	78.81
313.476	89.81
313.706	92.81
313.935	85.81
314.165	107.81
314.394	110.81
314.624	93.81
314.853	99.81
315.083	93.81
315.312	89.81
315.542	91.81
315.771	83.81
316.001	90.81
316.23	93.81
316.46	80.81
316.689	75.81
316.919	78.81
317.148	75.81
317.377	104.81
317.607	86.81
317.836	88.81
318.065	88.81
318.295	83.81
318.524	80.81
318.753	78.81
318.983	96.81
319.212	97.81
319.441	110.81
319.67	96.81
319.9	87.81
320.129	100.81
320.358	104.81
320.587	85.81
320.816	80.81
321.046	91.81
321.275	111.81
321.504	106.81
321.733	96.81
321.962	100.81
322.191	87.81
322.42	106.81
322.649	102.81
322.878	117.81
323.108	115.81
323.337	99.81
323.566	127.81
323.795	145.81
324.024	212.81
324.253	352.81
324.482	722.81
324.71	1481.81
324.939	2021.81
325.168	723.81
325.397	224.81
325.626	146.81
325.855	123.81
326.084	120.81
326.313	127.81
326.542	148.81
326.77	218.81
326.999	427.81
327.228	872.81
327.457	1582.81
327.686	1259.81
327.914	352.81
328.143	168.81
328.372	140.81
328.6	110.81
328.829	128.81
329.058	124.81
329.287	120.81
329.515	95.81
329.744	104.81
329.972	99.81
330.201	103.81
330.43	106.81
330.658	108.81
330.887	124.81
331.115	109.81
331.344	88.81
331.572	99.81
331.801	98.81
332.03	108.81
332.258	90.81
332.486	89.81
332.715	94.81
332.943	103.81
333.172	98.81
333.4	90.81
333.629	97.81
333.857	111.81
334.085	112.81
334.314	106.81
334.542	89.81
334.771	105.81
334.999	87.81
335.227	83.81
335.455	84.81
335.684	100.81
335.912	106.81
336.14	97.81
336.369	92.81
336.597	82.81
336.825	92.81
337.053	81.81
337.281	89.81
337.51	87.81
337.738	97.81
337.966	94.81
338.194	97.81
338.422	98.81
338.65	99.81
338.878	102.81
339.106	95.81
339.334	83.81
339.562	95.81
339.79	92.81
340.018	84.81
340.246	80.81
340.474	94.81
340.702	91.81
340.93	87.81
341.158	82.81
341.386	101.81
341.614	96.81
341.842	95.81
342.07	88.81
342.298	99.81
342.526	95.81
342.754	95.81
342.981	88.81
343.209	90.81
343.437	104.81
343.665	82.81
343.893	99.81
344.12	88.81
344.348	94.81
344.576	70.81
344.804	90.81
345.031	87.81
345.259	100.81
345.487	90.81
345.714	82.81
345.942	85.81
346.17	91.81
346.397	107.81
346.625	96.81
346.853	84.81
347.08	82.81
347.308	97.81
347.535	99.81
347.763	107.81
347.99	88.81
348.218	114.81
348.445	110.81
348.673	103.81
348.9	94.81
349.128	82.81
349.355	85.81
349.583	84.81
349.81	104.81
350.037	114.81
350.265	88.81
350.492	91.81
350.72	95.81
350.947	98.81
351.174	100.81
351.402	95.81
351.629	91.81
351.856	85.81
352.083	107.81
352.311	94.81
352.538	99.81
352.765	105.81
352.992	113.81
353.22	100.81
353.447	104.81
353.674	101.81
353.901	106.81
354.128	91.81
354.355	100.81
354.583	107.81
354.81	96.81
355.037	90.81
355.264	88.81
355.491	94.81
355.718	95.81
355.945	90.81
356.172	86.81
356.399	99.81
356.626	84.81
356.853	90.81
357.08	92.81
357.307	81.81
357.534	84.81
357.761	100.81
357.988	83.81
358.215	96.81
358.441	102.81
358.668	76.81
358.895	83.81
359.122	85.81
359.349	89.81
359.576	106.81
359.802	93.81
360.029	102.81
360.256	98.81
360.483	99.81
360.709	87.81
360.936	102.81
361.163	92.81
361.39	97.81
361.616	91.81
361.843	70.81
362.07	88.81
362.296	89.81
362.523	90.81
362.749	75.81
362.976	87.81
363.203	93.81
363.429	73.81
363.656	92.81
363.882	72.81
364.109	93.81
364.335	98.81
364.562	95.81
364.788	89.81
365.015	91.81
365.241	91.81
365.468	89.81
365.694	111.81
365.92	100.81
366.147	87.81
366.373	71.81
366.599	90.81
366.826	86.81
367.052	83.81
367.278	87.81
367.505	92.81
367.731	91.81
367.957	78.81
368.184	81.81
368.41	82.81
368.636	104.81
368.862	111.81
369.089	106.81
369.315	104.81
369.541	87.81
369.767	85.81
369.993	95.81
370.219	105.81
370.445	86.81
370.672	104.81
370.898	83.81
371.124	86.81
371.35	85.81
371.576	105.81
371.802	89.81
372.028	77.81
372.254	89.81
372.48	99.81
372.706	85.81
372.932	95.81
373.158	94.81
373.384	104.81
373.61	86.81
373.835	71.81
374.061	98.81
374.287	98.81
374.513	108.81
374.739	87.81
374.965	91.81
375.191	75.81
375.416	96.81
375.642	80.81
375.868	94.81
376.094	107.81
376.319	98.81
376.545	91.81
376.771	100.81
376.997	101.81
377.222	78.81
377.448	98.81
377.674	85.81
377.899	94.81
378.125	76.81
378.35	99.81
378.576	81.81
378.802	92.81
379.027	96.81
379.253	89.81
379.478	84.81
379.704	102.81
379.929	98.81
380.155	96.81
380.38	82.81
380.606	83.81
380.831	95.81
381.057	106.81
381.282	97.81
381.507	87.81
381.733	98.81
381.958	98.81
382.184	100.81
382.409	108.81
382.634	94.81
382.86	90.81
383.085	108.81
383.31	114.81
383.535	107.81
383.761	103.81
383.986	103.81
384.211	100.81
384.436	102.81
384.662	82.81
384.887	104.81
385.112	91.81
385.337	90.81
385.562	112.81
385.787	108.81
386.013	96.81
386.238	114.81
386.463	90.81
386.688	100.81
386.913	99.81
387.138	91.81
387.363	90.81
387.588	102.81
387.813	92.81
388.038	104.81
388.263	103.81
388.488	105.81
388.713	100.81
388.938	106.81
389.163	93.81
389.387	99.81
389.612	87.81
389.837	92.81
390.062	96.81
390.287	91.81
390.512	87.81
390.736	79.81
390.961	71.81
391.186	100.81
391.411	88.81
391.636	92.81
391.86	88.81
392.085	105.81
392.31	67.81
392.534	79.81
392.759	90.81
392.984	91.81
393.208	89.81
393.433	88.81
393.658	84.81
393.882	92.81
394.107	85.81
394.331	94.81
394.556	90.81
394.78	83.81
395.005	79.81
395.229	87.81
395.454	86.81
395.678	95.81
395.903	91.81
396.127	86.81
396.352	85.81
396.576	96.81
396.801	94.81
397.025	91.81
397.249	73.81
397.474	84.81
397.698	93.81
397.922	86.81
398.147	98.81
398.371	75.81
398.595	92.81
398.82	83.81
399.044	76.81
399.268	85.81
399.492	88.81
399.717	99.81
399.941	96.81
400.165	86.81
400.389	94.81
400.613	87.81
400.837	89.81
401.062	94.81
401.286	89.81
401.51	77.81
401.734	90.81
401.958	98.81
402.182	117.81
402.406	131.81
402.63	104.81
402.854	93.81
403.078	109.81
403.302	92.81
403.526	92.81
403.75	91.81
403.974	103.81
404.198	87.81
404.422	98.81
404.645	73.81
404.869	79.81
405.093	75.81
405.317	106.81
405.541	100.81
405.765	100.81
405.988	115.81
406.212	157.81
406.436	199.81
406.66	134.81
406.883	88.81
407.107	96.81
407.331	97.81
407.555	91.81
407.778	90.81
408.002	83.81
408.226	99.81
408.449	88.81
408.673	101.81
408.896	103.81
409.12	108.81
409.344	91.81
409.567	88.81
409.791	97.81
410.014	88.81
410.238	87.81
410.461	103.81
410.685	89.81
410.908	88.81
411.132	105.81
411.355	86.81
411.578	82.81
411.802	85.81
412.025	83.81
412.249	94.81
412.472	97.81
412.695	87.81
412.919	98.81
413.142	91.81
413.365	89.81
413.589	88.81
413.812	83.81
414.035	91.81
414.258	94.81
414.482	90.81
414.705	93.81
414.928	98.81
415.151	74.81
415.374	87.81
415.597	90.81
415.821	95.81
416.044	85.81
416.267	81.81
416.49	99.81
416.713	101.81
416.936	95.81
417.159	90.81
417.382	82.81
417.605	86.81
417.828	83.81
418.051	92.81
418.274	86.81
418.497	85.81
418.72	78.81
418.943	98.81
419.166	83.81
419.389	81.81
419.611	81.81
419.834	89.81
420.057	81.81
420.28	78.81
420.503	91.81
420.726	94.81
420.948	93.81
421.171	93.81
421.394	97.81
421.617	99.81
421.839	93.81
422.062	84.81
422.285	98.81
422.507	96.81
422.73	113.81
422.953	91.81
423.175	103.81
423.398	69.81
423.621	90.81
423.843	90.81
424.066	95.81
424.288	95.81
424.511	85.81
424.733	87.81
424.956	120.81
425.178	91.81
425.401	93.81
425.623	88.81
425.846	92.81
426.068	74.81
426.291	76.81
426.513	100.81
426.735	99.81
426.958	97.81
427.18	91.81
427.402	137.81
427.625	150.81
427.847	116.81
428.069	105.81
428.292	78.81
428.514	102.81
428.736	90.81
428.958	79.81
429.181	78.81
429.403	87.81
429.625	81.81
429.847	94.81
430.069	96.81
430.292	91.81
430.514	88.81
430.736	87.81
430.958	85.81
431.18	89.81
431.402	83.81
431.624	86.81
431.846	92.81
432.068	81.81
432.29	80.81
432.512	86.81
432.734	82.81
432.956	95.81
433.178	103.81
433.4	94.81
433.622	101.81
433.844	102.81
434.066	88.81
434.287	82.81
434.509	87.81
434.731	87.81
434.953	84.81
435.175	95.81
435.397	94.81
435.618	86.81
435.84	100.81
436.062	107.81
436.284	115.81
436.505	94.81
436.727	97.81
436.949	97.81
437.17	92.81
437.392	97.81
437.614	94.81
437.835	99.81
438.057	116.81
438.278	116.81
438.5	109.81
438.721	131.81
438.943	108.81
439.165	93.81
439.386	99.81
439.608	94.81
439.829	92.81
440.05	124.81
440.272	120.81
440.493	100.81
440.715	81.81
440.936	73.81
441.158	89.81
441.379	74.81
441.6	79.81
441.822	87.81
442.043	105.81
442.264	94.81
442.486	95.81
442.707	96.81
442.928	111.81
443.149	113.81
443.371	121.81
443.592	115.81
443.813	112.81
444.034	106.81
444.255	90.81
444.476	95.81
444.698	87.81
444.919	90.81
445.14	137.81
445.361	116.81
445.582	105.81
445.803	122.81
446.024	139.81
446.245	98.81
446.466	98.81
446.687	89.81
446.908	83.81
447.129	79.81
447.35	82.81
447.571	98.81
447.792	95.81
448.013	89.81
448.234	110.81
448.455	92.81
448.675	118.81
448.896	122.81
449.117	99.81
449.338	94.81
449.559	124.81
449.779	128.81
450	98.81
450.221	92.81
450.442	82.81
450.662	84.81
450.883	98.81
451.104	89.81
451.324	97.81
451.545	86.81
451.766	74.81
451.986	83.81
452.207	85.81
452.428	80.81
452.648	94.81
452.869	116.81
453.089	111.81
453.31	115.81
453.53	83.81
453.751	87.81
453.971	95.81
454.192	99.81
454.412	98.81
454.633	86.81
454.853	76.81
455.073	83.81
455.294	104.81
455.514	98.81
455.734	81.81
455.955	92.81
456.175	75.81
456.395	91.81
456.616	84.81
456.836	86.81
457.056	88.81
457.276	84.81
457.497	83.81
457.717	91.81
457.937	83.81
458.157	87.81
458.377	98.81
458.598	98.81
458.818	137.81
459.038	154.81
459.258	105.81
459.478	97.81
459.698	87.81
459.918	90.81
460.138	82.81
460.358	79.81
460.578	78.81
460.798	108.81
461.018	82.81
461.238	87.81
461.458	80.81
461.678	82.81
461.898	97.81
462.118	80.81
462.338	83.81
462.558	84.81
462.777	93.81
462.997	87.81
463.217	85.81
463.437	76.81
463.657	86.81
463.876	87.81
464.096	84.81
464.316	100.81
464.536	87.81
464.755	94.81
464.975	98.81
465.195	135.81
465.414	135.81
465.634	100.81
465.854	81.81
466.073	90.81
466.293	83.81
466.512	92.81
466.732	83.81
466.951	94.81
467.171	106.81
467.391	94.81
467.61	97.81
467.829	80.81
468.049	91.81
468.268	82.81
468.488	93.81
468.707	86.81
468.927	81.81
469.146	95.81
469.365	89.81
469.585	78.81
469.804	87.81
470.023	87.81
470.243	90.81
470.462	99.81
470.681	98.81
470.901	92.81
471.12	89.81
471.339	81.81
471.558	72.81
471.777	78.81
471.997	97.81
472.216	70.81
472.435	97.81
472.654	84.81
472.873	85.81
473.092	97.81
473.311	102.81
473.53	86.81
473.749	85.81
473.968	97.81
474.187	95.81
474.406	97.81
474.625	99.81
474.844	73.81
475.063	89.81
475.282	83.81
475.501	87.81
475.72	82.81
475.939	85.81
476.158	89.81
476.377	83.81
476.596	97.81
476.814	88.81
477.033	92.81
477.252	86.81
477.471	88.81
477.69	82.81
477.908	86.81
478.127	97.81
478.346	87.81
478.564	80.81
478.783	88.81
479.002	92.81
479.22	90.81
479.439	102.81
479.658	91.81
479.876	101.81
480.095	82.81
480.313	92.81
480.532	89.81
480.751	67.81
480.969	94.81
481.188	86.81
481.406	97.81
481.624	84.81
481.843	98.81
482.061	75.81
482.28	87.81
482.498	87.81
482.717	92.81
482.935	87.81
483.153	91.81
483.372	104.81
483.59	74.81
483.808	84.81
484.027	86.81
484.245	76.81
484.463	90.81
484.681	75.81
484.9	97.81
485.118	94.81
485.336	87.81
485.554	113.81
485.772	114.81
485.99	93.81
486.209	98.81
486.427	88.81
486.645	97.81
486.863	117.81
487.081	110.81
487.299	93.81
487.517	95.81
487.735	88.81
487.953	86.81
488.171	86.81
488.389	87.81
488.607	83.81
488.825	88.81
489.043	103.81
489.261	89.81
489.479	75.81
489.696	85.81
489.914	100.81
490.132	84.81
490.35	87.81
490.568	98.81
490.786	94.81
491.003	89.81
491.221	99.81
491.439	79.81
491.657	99.81
491.874	89.81
492.092	83.81
492.31	89.81
492.527	84.81
492.745	102.81
492.963	96.81
493.18	92.81
493.398	107.81
493.615	90.81
493.833	103.81
494.05	82.81
494.268	97.81
494.485	89.81
494.703	75.81
494.92	100.81
495.138	92.81
495.355	96.81
495.573	98.81
495.79	83.81
496.008	89.81
496.225	84.81
496.442	84.81
496.66	80.81
496.877	97.81
497.094	108.81
497.312	84.81
497.529	80.81
497.746	92.81
497.963	88.81
498.181	101.81
498.398	105.81
498.615	114.81
498.832	102.81
499.049	83.81
499.267	100.81
499.484	91.81
499.701	86.81
499.918	92.81
500.135	86.81
500.352	81.81
500.569	83.81
500.786	105.81
501.003	93.81
501.22	80.81
501.437	67.81
501.654	93.81
501.871	92.81
502.088	74.81
502.305	84.81
502.522	78.81
502.739	81.81
502.956	92.81
503.172	75.81
503.389	83.81
503.606	107.81
503.823	94.81
504.04	87.81
504.256	95.81
504.473	103.81
504.69	81.81
504.907	95.81
505.123	83.81
505.34	81.81
505.557	87.81
505.773	93.81
505.99	81.81
506.207	81.81
506.423	81.81
506.64	96.81
506.856	86.81
507.073	87.81
507.289	88.81
507.506	86.81
507.722	109.81
507.939	101.81
508.155	94.81
508.372	93.81
508.588	90.81
508.805	86.81
509.021	90.81
509.238	92.81
509.454	101.81
509.67	94.81
509.887	97.81
510.103	101.81
510.319	190.81
510.536	688.81
510.752	2005.81
510.968	600.81
511.184	154.81
511.401	104.81
511.617	90.81
511.833	86.81
512.049	82.81
512.265	87.81
512.481	99.81
512.698	95.81
512.914	97.81
513.13	100.81
513.346	83.81
513.562	90.81
513.778	92.81
513.994	79.81
514.21	99.81
514.426	105.81
514.642	129.81
514.858	107.81
515.074	152.81
515.29	388.81
515.506	1232.81
515.721	457.81
515.937	133.81
516.153	118.81
516.369	100.81
516.585	86.81
