Data from Uncirc_1984_H10_HRD10591_00018.txt Node
Date: Wed Jan 03 12:21:40 EST 2024
User: Yrep
Spectrometer: HR+D1059
Trigger mode: 1
Integration Time (sec): 1.000000E-1
Scans to average: 1
Electric dark correction enabled: true
Nonlinearity correction enabled: false
Boxcar width: 0
XAxis mode: Wavelengths
Number of Pixels in Spectrum: 2048
>>>>>Begin Spectral Data<<<<<
223.165	-22.38
223.4	-22.38
223.635	-22.38
223.869	-4.38
224.104	-19.38
224.338	-16.38
224.573	-18.38
224.808	-16.38
225.042	-8.38
225.277	-2.38
225.511	-10.38
225.746	-4.38
225.98	13.62
226.215	11.62
226.449	21.62
226.683	19.62
226.918	34.62
227.152	21.62
227.387	38.62
227.621	47.62
227.856	48.62
228.09	43.62
228.324	52.62
228.559	67.62
228.793	165.62
229.027	447.62
229.262	511.62
229.496	584.62
229.73	777.62
229.964	764.62
230.199	517.62
230.433	466.62
230.667	454.62
230.901	455.62
231.136	425.62
231.37	455.62
231.604	473.62
231.838	447.62
232.072	471.62
232.306	470.62
232.541	458.62
232.775	463.62
233.009	465.62
233.243	471.62
233.477	474.62
233.711	463.62
233.945	494.62
234.179	499.62
234.413	513.62
234.647	512.62
234.881	514.62
235.115	512.62
235.349	549.62
235.583	561.62
235.817	586.62
236.051	633.62
236.285	615.62
236.519	605.62
236.753	695.62
236.987	892.62
237.221	1325.62
237.455	1442.62
237.689	887.62
237.922	738.62
238.156	709.62
238.39	667.62
238.624	638.62
238.858	648.62
239.091	637.62
239.325	652.62
239.559	683.62
239.793	699.62
240.027	772.62
240.26	901.62
240.494	933.62
240.728	928.62
240.961	909.62
241.195	823.62
241.429	810.62
241.662	792.62
241.896	784.62
242.13	748.62
242.363	771.62
242.597	770.62
242.83	820.62
243.064	817.62
243.298	850.62
243.531	818.62
243.765	817.62
243.998	851.62
244.232	857.62
244.465	884.62
244.699	881.62
244.932	885.62
245.166	907.62
245.399	904.62
245.633	909.62
245.866	911.62
246.099	910.62
246.333	939.62
246.566	951.62
246.8	965.62
247.033	1020.62
247.266	1028.62
247.5	1092.62
247.733	1154.62
247.966	1152.62
248.2	1121.62
248.433	1160.62
248.666	1187.62
248.899	1333.62
249.133	1391.62
249.366	1450.62
249.599	1292.62
249.832	1215.62
250.066	1212.62
250.299	1232.62
250.532	1303.62
250.765	1470.62
250.998	1669.62
251.231	1607.62
251.465	1490.62
251.698	1416.62
251.931	1357.62
252.164	1402.62
252.397	1404.62
252.63	1452.62
252.863	1531.62
253.096	1633.62
253.329	1713.62
253.562	1623.62
253.795	1565.62
254.028	1556.62
254.261	1636.62
254.494	1770.62
254.727	2101.62
254.96	2171.62
255.193	1922.62
255.426	1704.62
255.659	1603.62
255.892	1542.62
256.124	1522.62
256.357	1498.62
256.59	1498.62
256.823	1513.62
257.056	1520.62
257.289	1536.62
257.521	1523.62
257.754	1515.62
257.987	1520.62
258.22	1497.62
258.452	1539.62
258.685	1541.62
258.918	1612.62
259.151	1584.62
259.383	1676.62
259.616	1697.62
259.849	1754.62
260.081	1871.62
260.314	2056.62
260.547	2004.62
260.779	1861.62
261.012	1772.62
261.244	1717.62
261.477	1692.62
261.71	1715.62
261.942	1705.62
262.175	1730.62
262.407	1706.62
262.64	1650.62
262.872	1654.62
263.105	1645.62
263.337	1606.62
263.57	1642.62
263.802	1663.62
264.035	1664.62
264.267	1650.62
264.499	1650.62
264.732	1698.62
264.964	1684.62
265.197	1704.62
265.429	1719.62
265.661	1725.62
265.894	1703.62
266.126	1746.62
266.358	1778.62
266.591	1813.62
266.823	1867.62
267.055	1890.62
267.287	1896.62
267.52	1830.62
267.752	1843.62
267.984	1854.62
268.216	1909.62
268.448	1884.62
268.681	1967.62
268.913	2083.62
269.145	2275.62
269.377	2335.62
269.609	2272.62
269.841	2279.62
270.073	2325.62
270.306	2615.62
270.538	2758.62
270.77	2583.62
271.002	2489.62
271.234	2436.62
271.466	2580.62
271.698	2721.62
271.93	2667.62
272.162	2723.62
272.394	2624.62
272.626	2499.62
272.858	2304.62
273.09	2247.62
273.322	2233.62
273.553	2206.62
273.785	2228.62
274.017	2229.62
274.249	2228.62
274.481	2263.62
274.713	2240.62
274.945	2255.62
275.176	2247.62
275.408	2255.62
275.64	2215.62
275.872	2242.62
276.104	2270.62
276.335	2283.62
276.567	2321.62
276.799	2516.62
277.031	2684.62
277.262	2820.62
277.494	2708.62
277.726	2539.62
277.957	2489.62
278.189	2430.62
278.421	2387.62
278.652	2375.62
278.884	2353.62
279.115	2359.62
279.347	2332.62
279.579	2331.62
279.81	2370.62
280.042	2337.62
280.273	2376.62
280.505	2396.62
280.736	2364.62
280.968	2388.62
281.199	2390.62
281.431	2435.62
281.662	2422.62
281.894	2471.62
282.125	2468.62
282.356	2668.62
282.588	2788.62
282.819	2629.62
283.051	2501.62
283.282	2552.62
283.513	2564.62
283.745	2596.62
283.976	2646.62
284.207	2640.62
284.439	2588.62
284.67	2628.62
284.901	2627.62
285.132	2597.62
285.364	2578.62
285.595	2618.62
285.826	2582.62
286.057	2640.62
286.288	2644.62
286.52	2643.62
286.751	2703.62
286.982	2655.62
287.213	2674.62
287.444	2685.62
287.675	2742.62
287.906	2878.62
288.138	2905.62
288.369	2876.62
288.6	2885.62
288.831	2864.62
289.062	2783.62
289.293	2834.62
289.524	2771.62
289.755	2716.62
289.986	2788.62
290.217	2783.62
290.448	2783.62
290.679	2787.62
290.91	2789.62
291.141	2776.62
291.371	2767.62
291.602	2757.62
291.833	2744.62
292.064	2802.62
292.295	2844.62
292.526	2781.62
292.757	2802.62
292.987	2784.62
293.218	2745.62
293.449	2837.62
293.68	2805.62
293.91	2795.62
294.141	2811.62
294.372	2815.62
294.603	2856.62
294.833	2926.62
295.064	2873.62
295.295	2892.62
295.525	2873.62
295.756	2921.62
295.987	3035.62
296.217	3161.62
296.448	3076.62
296.679	3005.62
296.909	2978.62
297.14	2950.62
297.37	3009.62
297.601	3076.62
297.831	3060.62
298.062	2980.62
298.292	3051.62
298.523	3093.62
298.753	3077.62
298.984	3063.62
299.214	3060.62
299.445	3048.62
299.675	3039.62
299.905	3102.62
300.136	3051.62
300.366	3125.62
300.597	3122.62
300.827	3215.62
301.057	3330.62
301.288	3379.62
301.518	3263.62
301.748	3302.62
301.979	3328.62
302.209	3357.62
302.439	3367.62
302.669	3303.62
302.9	3308.62
303.13	3271.62
303.36	3320.62
303.59	3336.62
303.82	3316.62
304.051	3335.62
304.281	3266.62
304.511	3237.62
304.741	3259.62
304.971	3271.62
305.201	3272.62
305.431	3253.62
305.661	3282.62
305.891	3225.62
306.121	3172.62
306.352	3255.62
306.582	3275.62
306.812	3131.62
307.042	3208.62
307.272	3239.62
307.502	3186.62
307.731	3216.62
307.961	3281.62
308.191	3253.62
308.421	3194.62
308.651	3250.62
308.881	3247.62
309.111	3324.62
309.341	3331.62
309.571	3436.62
309.8	3459.62
310.03	3523.62
310.26	3547.62
310.49	3472.62
310.72	3654.62
310.949	3700.62
311.179	3743.62
311.409	3571.62
311.639	3599.62
311.868	3597.62
312.098	3642.62
312.328	3722.62
312.557	3862.62
312.787	3898.62
313.017	3763.62
313.246	3776.62
313.476	3643.62
313.706	3736.62
313.935	3829.62
314.165	3935.62
314.394	3922.62
314.624	3844.62
314.853	3847.62
315.083	3681.62
315.312	3659.62
315.542	3655.62
315.771	3635.62
316.001	3677.62
316.23	3602.62
316.46	3618.62
316.689	3747.62
316.919	3691.62
317.148	3724.62
317.377	3730.62
317.607	3724.62
317.836	3681.62
318.065	3670.62
318.295	3671.62
318.524	3683.62
318.753	3686.62
318.983	3604.62
319.212	3593.62
319.441	3681.62
319.67	3730.62
319.9	3649.62
320.129	3638.62
320.358	3704.62
320.587	3745.62
320.816	3782.62
321.046	3783.62
321.275	3775.62
321.504	3772.62
321.733	3851.62
321.962	3896.62
322.191	3899.62
322.42	3994.62
322.649	4138.62
322.878	4158.62
323.108	4255.62
323.337	4545.62
323.566	4626.62
323.795	4895.62
324.024	5500.62
324.253	7069.62
324.482	10632.62
324.71	14946.62
324.939	15629.62
325.168	12556.62
325.397	6433.62
325.626	5205.62
325.855	4826.62
326.084	4685.62
326.313	4688.62
326.542	4868.62
326.77	5422.62
326.999	6794.62
327.228	9941.62
327.457	14077.62
327.686	13246.62
327.914	7143.62
328.143	5624.62
328.372	5265.62
328.6	5121.62
328.829	5149.62
329.058	5191.62
329.287	5187.62
329.515	4839.62
329.744	4715.62
329.972	4702.62
330.201	4800.62
330.43	4993.62
330.658	5324.62
330.887	5610.62
331.115	5143.62
331.344	4864.62
331.572	4739.62
331.801	4929.62
332.03	4939.62
332.258	4823.62
332.486	4874.62
332.715	4894.62
332.943	5139.62
333.172	5285.62
333.4	5315.62
333.629	5435.62
333.857	5413.62
334.085	5362.62
334.314	5324.62
334.542	5279.62
334.771	5275.62
334.999	5148.62
335.227	5108.62
335.455	5064.62
335.684	4980.62
335.912	4955.62
336.14	4901.62
336.369	4846.62
336.597	4959.62
336.825	4807.62
337.053	4841.62
337.281	4708.62
337.51	4678.62
337.738	4696.62
337.966	4605.62
338.194	4609.62
338.422	4616.62
338.65	4437.62
338.878	4440.62
339.106	4480.62
339.334	4461.62
339.562	4380.62
339.79	4253.62
340.018	4339.62
340.246	4362.62
340.474	4438.62
340.702	4344.62
340.93	4276.62
341.158	4326.62
341.386	4333.62
341.614	4320.62
341.842	4292.62
342.07	4260.62
342.298	4259.62
342.526	4180.62
342.754	4190.62
342.981	4317.62
343.209	4389.62
343.437	4609.62
343.665	4867.62
343.893	5061.62
344.12	5117.62
344.348	4923.62
344.576	4758.62
344.804	4697.62
345.031	4600.62
345.259	4514.62
345.487	4296.62
345.714	4298.62
345.942	4258.62
346.17	4229.62
346.397	4158.62
346.625	4161.62
346.853	4107.62
347.08	4113.62
347.308	4138.62
347.535	4264.62
347.763	4296.62
347.99	4215.62
348.218	4223.62
348.445	4240.62
348.673	4189.62
348.9	4171.62
349.128	4128.62
349.355	3997.62
349.583	4024.62
349.81	4045.62
350.037	3992.62
350.265	3975.62
350.492	3964.62
350.72	4028.62
350.947	4047.62
351.174	4099.62
351.402	4169.62
351.629	4132.62
351.856	4125.62
352.083	4188.62
352.311	4217.62
352.538	4209.62
352.765	4178.62
352.992	4067.62
353.22	4005.62
353.447	4064.62
353.674	3945.62
353.901	3935.62
354.128	3943.62
354.355	3922.62
354.583	3900.62
354.81	3864.62
355.037	3885.62
355.264	3928.62
355.491	3886.62
355.718	3903.62
355.945	3885.62
356.172	3939.62
356.399	3894.62
356.626	3911.62
356.853	3914.62
357.08	3921.62
357.307	3846.62
357.534	3869.62
357.761	3899.62
357.988	3975.62
358.215	3892.62
358.441	3904.62
358.668	3919.62
358.895	4031.62
359.122	3994.62
359.349	4120.62
359.576	4266.62
359.802	4411.62
360.029	4572.62
360.256	4511.62
360.483	4322.62
360.709	4178.62
360.936	4138.62
361.163	4100.62
361.39	4147.62
361.616	4123.62
361.843	4102.62
362.07	4111.62
362.296	4197.62
362.523	4085.62
362.749	4141.62
362.976	4052.62
363.203	3987.62
363.429	3980.62
363.656	3999.62
363.882	3978.62
364.109	3955.62
364.335	3967.62
364.562	4005.62
364.788	3964.62
365.015	4012.62
365.241	4010.62
365.468	4013.62
365.694	4024.62
365.92	4048.62
366.147	3934.62
366.373	3981.62
366.599	3947.62
366.826	3916.62
367.052	3924.62
367.278	3986.62
367.505	4005.62
367.731	4024.62
367.957	4020.62
368.184	4128.62
368.41	4176.62
368.636	4119.62
368.862	4167.62
369.089	4078.62
369.315	4090.62
369.541	4082.62
369.767	4122.62
369.993	4128.62
370.219	4153.62
370.445	4131.62
370.672	4133.62
370.898	4192.62
371.124	4255.62
371.35	4275.62
371.576	4248.62
371.802	4276.62
372.028	4234.62
372.254	4264.62
372.48	4315.62
372.706	4427.62
372.932	4441.62
373.158	4351.62
373.384	4313.62
373.61	4272.62
373.835	4310.62
374.061	4290.62
374.287	4379.62
374.513	4457.62
374.739	4550.62
374.965	4640.62
375.191	4657.62
375.416	4641.62
375.642	4454.62
375.868	4488.62
376.094	4359.62
376.319	4290.62
376.545	4348.62
376.771	4350.62
376.997	4264.62
377.222	4273.62
377.448	4214.62
377.674	4221.62
377.899	4201.62
378.125	4199.62
378.35	4183.62
378.576	4185.62
378.802	4209.62
379.027	4272.62
379.253	4229.62
379.478	4144.62
379.704	4197.62
379.929	4311.62
380.155	4212.62
380.38	4242.62
380.606	4268.62
380.831	4220.62
381.057	4332.62
381.282	4277.62
381.507	4259.62
381.733	4333.62
381.958	4355.62
382.184	4386.62
382.409	4460.62
382.634	4507.62
382.86	4519.62
383.085	4568.62
383.31	4605.62
383.535	4710.62
383.761	4714.62
383.986	4881.62
384.211	4877.62
384.436	4981.62
384.662	5075.62
384.887	5047.62
385.112	5097.62
385.337	5181.62
385.562	5106.62
385.787	5120.62
386.013	5211.62
386.238	5220.62
386.463	5179.62
386.688	5157.62
386.913	5106.62
387.138	5106.62
387.363	5057.62
387.588	4956.62
387.813	5032.62
388.038	5109.62
388.263	5122.62
388.488	5072.62
388.713	5111.62
388.938	5070.62
389.163	5044.62
389.387	5092.62
389.612	5008.62
389.837	5043.62
390.062	5007.62
390.287	5002.62
390.512	5009.62
390.736	5019.62
390.961	5210.62
391.186	5247.62
391.411	5344.62
391.636	5583.62
391.86	5663.62
392.085	5805.62
392.31	5567.62
392.534	5553.62
392.759	5424.62
392.984	5355.62
393.208	5375.62
393.433	5335.62
393.658	5323.62
393.882	5284.62
394.107	5253.62
394.331	5333.62
394.556	5328.62
394.78	5381.62
395.005	5426.62
395.229	5495.62
395.454	5632.62
395.678	5807.62
395.903	5724.62
396.127	5771.62
396.352	5596.62
396.576	5455.62
396.801	5392.62
397.025	5519.62
397.249	5535.62
397.474	5782.62
397.698	5745.62
397.922	5887.62
398.147	6054.62
398.371	6106.62
398.595	6200.62
398.82	6506.62
399.044	7044.62
399.268	7816.62
399.492	8847.62
399.717	9433.62
399.941	9179.62
400.165	8541.62
400.389	7938.62
400.613	7225.62
400.837	6785.62
401.062	6581.62
401.286	6492.62
401.51	6443.62
401.734	6290.62
401.958	6536.62
402.182	6577.62
402.406	6686.62
402.63	6879.62
402.854	6761.62
403.078	7052.62
403.302	7116.62
403.526	7203.62
403.75	7228.62
403.974	7315.62
404.198	7311.62
404.422	7348.62
404.645	7255.62
404.869	7148.62
405.093	7273.62
405.317	7361.62
405.541	7365.62
405.765	7121.62
405.988	7056.62
406.212	7186.62
406.436	7446.62
406.66	7636.62
406.883	7568.62
407.107	8216.62
407.331	8804.62
407.555	9211.62
407.778	8797.62
408.002	8117.62
408.226	7872.62
408.449	7708.62
408.673	7558.62
408.896	7764.62
409.12	7917.62
409.344	7383.62
409.567	7004.62
409.791	7031.62
410.014	6906.62
410.238	6866.62
410.461	6959.62
410.685	7046.62
410.908	7024.62
411.132	7293.62
411.355	7240.62
411.578	6901.62
411.802	6658.62
412.025	6596.62
412.249	6719.62
412.472	6706.62
412.695	6557.62
412.919	6377.62
413.142	6397.62
413.365	6325.62
413.589	6366.62
413.812	6189.62
414.035	6130.62
414.258	6278.62
414.482	6268.62
414.705	6297.62
414.928	6342.62
415.151	6298.62
415.374	6345.62
415.597	6225.62
415.821	6189.62
416.044	6208.62
416.267	6123.62
416.49	6143.62
416.713	6106.62
416.936	6203.62
417.159	6189.62
417.382	6225.62
417.605	6216.62
417.828	6342.62
418.051	6522.62
418.274	6351.62
418.497	6293.62
418.72	6435.62
418.943	6332.62
419.166	6747.62
419.389	7147.62
419.611	6994.62
419.834	6808.62
420.057	6680.62
420.28	6540.62
420.503	6364.62
420.726	6294.62
420.948	6599.62
421.171	6893.62
421.394	6879.62
421.617	6439.62
421.839	6385.62
422.062	6501.62
422.285	6704.62
422.507	7383.62
422.73	7811.62
422.953	7191.62
423.175	6879.62
423.398	6855.62
423.621	6851.62
423.843	7078.62
424.066	7082.62
424.288	7020.62
424.511	7137.62
424.733	7745.62
424.956	8061.62
425.178	7665.62
425.401	7794.62
425.623	7655.62
425.846	6703.62
426.068	6558.62
426.291	6535.62
426.513	6505.62
426.735	6496.62
426.958	7114.62
427.18	7731.62
427.402	8850.62
427.625	8785.62
427.847	7459.62
428.069	6653.62
428.292	6272.62
428.514	6036.62
428.736	5920.62
428.958	5935.62
429.181	5738.62
429.403	5735.62
429.625	5978.62
429.847	6230.62
430.069	6782.62
430.292	6276.62
430.514	5722.62
430.736	5751.62
430.958	5633.62
431.18	5544.62
431.402	5539.62
431.624	5551.62
431.846	5671.62
432.068	5624.62
432.29	5822.62
432.512	5666.62
432.734	5739.62
432.956	5683.62
433.178	5759.62
433.4	5724.62
433.622	5696.62
433.844	5737.62
434.066	5739.62
434.287	5851.62
434.509	6067.62
434.731	6280.62
434.953	6408.62
435.175	6561.62
435.397	6634.62
435.618	6455.62
435.84	6929.62
436.062	7740.62
436.284	7628.62
436.505	6405.62
436.727	6163.62
436.949	5909.62
437.17	5712.62
437.392	5713.62
437.614	5864.62
437.835	6224.62
438.057	7233.62
438.278	7888.62
438.5	7829.62
438.721	8627.62
438.943	7532.62
439.165	6285.62
439.386	6146.62
439.608	6176.62
439.829	6265.62
440.05	6602.62
440.272	6929.62
440.493	6347.62
440.715	6038.62
440.936	6010.62
441.158	6099.62
441.379	6219.62
441.6	6467.62
441.822	6683.62
442.043	7119.62
442.264	7873.62
442.486	7666.62
442.707	6794.62
442.928	6570.62
443.149	6821.62
443.371	7053.62
443.592	7590.62
443.813	8529.62
444.034	8464.62
444.255	7400.62
444.476	7242.62
444.698	7413.62
444.919	7507.62
445.14	7269.62
445.361	7156.62
445.582	7269.62
445.803	7736.62
446.024	8443.62
446.245	8153.62
446.466	7299.62
446.687	6340.62
446.908	6125.62
447.129	5706.62
447.35	5685.62
447.571	5582.62
447.792	5459.62
448.013	5553.62
448.234	5662.62
448.455	6367.62
448.675	7624.62
448.896	7987.62
449.117	6572.62
449.338	6835.62
449.559	8156.62
449.779	8264.62
450	6378.62
450.221	5667.62
450.442	5537.62
450.662	5365.62
450.883	5463.62
451.104	5609.62
451.324	5394.62
451.545	5359.62
451.766	5179.62
451.986	5048.62
452.207	5017.62
452.428	4956.62
452.648	5051.62
452.869	5075.62
453.089	5057.62
453.31	5101.62
453.53	5016.62
453.751	4985.62
453.971	4936.62
454.192	4989.62
454.412	4853.62
454.633	4868.62
454.853	4892.62
455.073	4886.62
455.294	5347.62
455.514	5759.62
455.734	5216.62
455.955	4815.62
456.175	4638.62
456.395	4560.62
456.616	4585.62
456.836	4646.62
457.056	4537.62
457.276	4521.62
457.497	4693.62
457.717	4667.62
457.937	4706.62
458.157	4823.62
458.377	4879.62
458.598	5299.62
458.818	5831.62
459.038	6555.62
459.258	6587.62
459.478	5926.62
459.698	5773.62
459.918	5783.62
460.138	5974.62
460.358	6199.62
460.578	6218.62
460.798	6336.62
461.018	6246.62
461.238	6159.62
461.458	6211.62
461.678	6123.62
461.898	6265.62
462.118	6297.62
462.338	6604.62
462.558	6798.62
462.777	7003.62
462.997	7559.62
463.217	8041.62
463.437	7754.62
463.657	7195.62
463.876	7002.62
464.096	7075.62
464.316	7139.62
464.536	7146.62
464.755	6882.62
464.975	6720.62
465.195	6927.62
465.414	6888.62
465.634	6088.62
465.854	5731.62
466.073	5617.62
466.293	5444.62
466.512	5297.62
466.732	5117.62
466.951	5153.62
467.171	5145.62
467.391	5263.62
467.61	5245.62
467.829	5231.62
468.049	5063.62
468.268	4956.62
468.488	4923.62
468.707	4862.62
468.927	4890.62
469.146	4839.62
469.365	4970.62
469.585	4997.62
469.804	5196.62
470.023	5406.62
470.243	5359.62
470.462	5421.62
470.681	5549.62
470.901	5422.62
471.12	5263.62
471.339	5207.62
471.558	5216.62
471.777	5055.62
471.997	5002.62
472.216	4947.62
472.435	5000.62
472.654	4925.62
472.873	4801.62
473.092	4854.62
473.311	4807.62
473.53	4979.62
473.749	5027.62
473.968	5529.62
474.187	6520.62
474.406	6044.62
474.625	5219.62
474.844	5035.62
475.063	4863.62
475.282	4910.62
475.501	5087.62
475.72	5030.62
475.939	5105.62
476.158	5106.62
476.377	5162.62
476.596	5075.62
476.814	5266.62
477.033	5293.62
477.252	5392.62
477.471	5517.62
477.69	5665.62
477.908	5677.62
478.127	5822.62
478.346	5868.62
478.564	5972.62
478.783	6010.62
479.002	6149.62
479.22	6210.62
479.439	6307.62
479.658	6463.62
479.876	6416.62
480.095	6668.62
480.313	7049.62
480.532	6916.62
480.751	6771.62
480.969	6630.62
481.188	6506.62
481.406	6320.62
481.624	6139.62
481.843	5945.62
482.061	5889.62
482.28	5856.62
482.498	5808.62
482.717	5762.62
482.935	5787.62
483.153	5762.62
483.372	5752.62
483.59	5798.62
483.808	5799.62
484.027	5706.62
484.245	5939.62
484.463	5808.62
484.681	6031.62
484.9	5996.62
485.118	6001.62
485.336	6067.62
485.554	6140.62
485.772	6119.62
485.99	6161.62
486.209	6237.62
486.427	6215.62
486.645	6123.62
486.863	6413.62
487.081	6296.62
487.299	6252.62
487.517	6223.62
487.735	6237.62
