Data from Uncirc_1984_H10_HRD10591_00043.txt Node
Date: Wed Jan 03 12:21:45 EST 2024
User: Yrep
Spectrometer: HR+D1059
Trigger mode: 1
Integration Time (sec): 1.000000E-1
Scans to average: 1
Electric dark correction enabled: true
Nonlinearity correction enabled: false
Boxcar width: 0
XAxis mode: Wavelengths
Number of Pixels in Spectrum: 2048
>>>>>Begin Spectral Data<<<<<
223.165	-14.44
223.4	-14.44
223.635	-14.44
223.869	-17.44
224.104	-12.44
224.338	-27.44
224.573	-16.44
224.808	-0.44
225.042	-9.44
225.277	-9.44
225.511	-6.44
225.746	-8.44
225.98	4.56
226.215	18.56
226.449	17.56
226.683	25.56
226.918	26.56
227.152	29.56
227.387	25.56
227.621	37.56
227.856	31.56
228.09	48.56
228.324	50.56
228.559	56.56
228.793	45.56
229.027	49.56
229.262	56.56
229.496	58.56
229.73	74.56
229.964	66.56
230.199	69.56
230.433	78.56
230.667	79.56
230.901	76.56
231.136	78.56
231.37	84.56
231.604	76.56
231.838	58.56
232.072	76.56
232.306	73.56
232.541	77.56
232.775	77.56
233.009	84.56
233.243	90.56
233.477	80.56
233.711	86.56
233.945	74.56
234.179	67.56
234.413	68.56
234.647	83.56
234.881	101.56
235.115	93.56
235.349	71.56
235.583	61.56
235.817	79.56
236.051	74.56
236.285	72.56
236.519	69.56
236.753	66.56
236.987	79.56
237.221	94.56
237.455	83.56
237.689	83.56
237.922	80.56
238.156	65.56
238.39	80.56
238.624	72.56
238.858	72.56
239.091	76.56
239.325	81.56
239.559	73.56
239.793	63.56
240.027	63.56
240.26	67.56
240.494	79.56
240.728	69.56
240.961	72.56
241.195	97.56
241.429	71.56
241.662	79.56
241.896	89.56
242.13	78.56
242.363	74.56
242.597	78.56
242.83	77.56
243.064	71.56
243.298	77.56
243.531	67.56
243.765	72.56
243.998	76.56
244.232	74.56
244.465	73.56
244.699	81.56
244.932	78.56
245.166	89.56
245.399	77.56
245.633	89.56
245.866	64.56
246.099	78.56
246.333	79.56
246.566	65.56
246.8	66.56
247.033	78.56
247.266	80.56
247.5	75.56
247.733	79.56
247.966	67.56
248.2	83.56
248.433	79.56
248.666	85.56
248.899	91.56
249.133	90.56
249.366	91.56
249.599	93.56
249.832	82.56
250.066	73.56
250.299	73.56
250.532	70.56
250.765	71.56
250.998	78.56
251.231	85.56
251.465	72.56
251.698	71.56
251.931	69.56
252.164	77.56
252.397	74.56
252.63	78.56
252.863	69.56
253.096	74.56
253.329	81.56
253.562	73.56
253.795	76.56
254.028	85.56
254.261	86.56
254.494	80.56
254.727	88.56
254.96	88.56
255.193	81.56
255.426	77.56
255.659	70.56
255.892	71.56
256.124	82.56
256.357	79.56
256.59	80.56
256.823	74.56
257.056	73.56
257.289	83.56
257.521	81.56
257.754	74.56
257.987	85.56
258.22	83.56
258.452	82.56
258.685	80.56
258.918	95.56
259.151	81.56
259.383	89.56
259.616	86.56
259.849	78.56
260.081	81.56
260.314	82.56
260.547	90.56
260.779	69.56
261.012	76.56
261.244	93.56
261.477	92.56
261.71	83.56
261.942	107.56
262.175	112.56
262.407	74.56
262.64	75.56
262.872	72.56
263.105	81.56
263.337	83.56
263.57	86.56
263.802	92.56
264.035	85.56
264.267	79.56
264.499	93.56
264.732	75.56
264.964	91.56
265.197	83.56
265.429	91.56
265.661	80.56
265.894	77.56
266.126	85.56
266.358	90.56
266.591	77.56
266.823	78.56
267.055	60.56
267.287	85.56
267.52	79.56
267.752	81.56
267.984	86.56
268.216	72.56
268.448	87.56
268.681	89.56
268.913	81.56
269.145	70.56
269.377	81.56
269.609	73.56
269.841	74.56
270.073	88.56
270.306	78.56
270.538	88.56
270.77	77.56
271.002	85.56
271.234	82.56
271.466	72.56
271.698	94.56
271.93	80.56
272.162	93.56
272.394	84.56
272.626	59.56
272.858	87.56
273.09	97.56
273.322	81.56
273.553	81.56
273.785	79.56
274.017	83.56
274.249	74.56
274.481	75.56
274.713	88.56
274.945	74.56
275.176	77.56
275.408	82.56
275.64	83.56
275.872	83.56
276.104	85.56
276.335	96.56
276.567	87.56
276.799	95.56
277.031	101.56
277.262	72.56
277.494	85.56
277.726	87.56
277.957	94.56
278.189	95.56
278.421	84.56
278.652	83.56
278.884	81.56
279.115	81.56
279.347	81.56
279.579	77.56
279.81	77.56
280.042	82.56
280.273	87.56
280.505	87.56
280.736	96.56
280.968	81.56
281.199	82.56
281.431	81.56
281.662	82.56
281.894	85.56
282.125	93.56
282.356	115.56
282.588	113.56
282.819	99.56
283.051	82.56
283.282	69.56
283.513	88.56
283.745	75.56
283.976	90.56
284.207	97.56
284.439	80.56
284.67	101.56
284.901	86.56
285.132	87.56
285.364	84.56
285.595	92.56
285.826	100.56
286.057	97.56
286.288	86.56
286.52	72.56
286.751	75.56
286.982	74.56
287.213	84.56
287.444	88.56
287.675	70.56
287.906	87.56
288.138	71.56
288.369	95.56
288.6	94.56
288.831	96.56
289.062	93.56
289.293	95.56
289.524	76.56
289.755	75.56
289.986	85.56
290.217	86.56
290.448	87.56
290.679	102.56
290.91	84.56
291.141	81.56
291.371	94.56
291.602	63.56
291.833	91.56
292.064	91.56
292.295	76.56
292.526	79.56
292.757	86.56
292.987	85.56
293.218	73.56
293.449	77.56
293.68	91.56
293.91	85.56
294.141	82.56
294.372	87.56
294.603	98.56
294.833	93.56
295.064	91.56
295.295	104.56
295.525	96.56
295.756	98.56
295.987	103.56
296.217	132.56
296.448	117.56
296.679	88.56
296.909	102.56
297.14	83.56
297.37	87.56
297.601	101.56
297.831	89.56
298.062	90.56
298.292	98.56
298.523	81.56
298.753	85.56
298.984	81.56
299.214	89.56
299.445	90.56
299.675	79.56
299.905	99.56
300.136	94.56
300.366	77.56
300.597	87.56
300.827	105.56
301.057	102.56
301.288	87.56
301.518	97.56
301.748	93.56
301.979	88.56
302.209	84.56
302.439	95.56
302.669	83.56
302.9	93.56
303.13	80.56
303.36	95.56
303.59	111.56
303.82	98.56
304.051	94.56
304.281	87.56
304.511	85.56
304.741	88.56
304.971	89.56
305.201	87.56
305.431	83.56
305.661	96.56
305.891	88.56
306.121	96.56
306.352	98.56
306.582	94.56
306.812	97.56
307.042	83.56
307.272	100.56
307.502	93.56
307.731	106.56
307.961	89.56
308.191	85.56
308.421	83.56
308.651	81.56
308.881	89.56
309.111	88.56
309.341	102.56
309.571	88.56
309.8	87.56
310.03	82.56
310.26	94.56
310.49	89.56
310.72	79.56
310.949	80.56
311.179	83.56
311.409	87.56
311.639	91.56
311.868	71.56
312.098	85.56
312.328	109.56
312.557	96.56
312.787	92.56
313.017	98.56
313.246	80.56
313.476	95.56
313.706	97.56
313.935	86.56
314.165	96.56
314.394	100.56
314.624	102.56
314.853	88.56
315.083	94.56
315.312	91.56
315.542	100.56
315.771	89.56
316.001	94.56
316.23	91.56
316.46	88.56
316.689	88.56
316.919	88.56
317.148	94.56
317.377	79.56
317.607	86.56
317.836	81.56
318.065	89.56
318.295	94.56
318.524	89.56
318.753	95.56
318.983	90.56
319.212	109.56
319.441	106.56
319.67	97.56
319.9	82.56
320.129	101.56
320.358	83.56
320.587	77.56
320.816	93.56
321.046	96.56
321.275	114.56
321.504	107.56
321.733	95.56
321.962	80.56
322.191	89.56
322.42	105.56
322.649	95.56
322.878	119.56
323.108	95.56
323.337	119.56
323.566	119.56
323.795	125.56
324.024	187.56
324.253	346.56
324.482	734.56
324.71	1511.56
324.939	2027.56
325.168	755.56
325.397	242.56
325.626	143.56
325.855	132.56
326.084	124.56
326.313	125.56
326.542	130.56
326.77	213.56
326.999	411.56
327.228	851.56
327.457	1536.56
327.686	1280.56
327.914	360.56
328.143	177.56
328.372	123.56
328.6	106.56
328.829	119.56
329.058	121.56
329.287	129.56
329.515	109.56
329.744	105.56
329.972	104.56
330.201	99.56
330.43	92.56
330.658	112.56
330.887	121.56
331.115	105.56
331.344	98.56
331.572	90.56
331.801	71.56
332.03	82.56
332.258	97.56
332.486	96.56
332.715	83.56
332.943	100.56
333.172	93.56
333.4	95.56
333.629	109.56
333.857	81.56
334.085	86.56
334.314	102.56
334.542	82.56
334.771	102.56
334.999	86.56
335.227	90.56
335.455	88.56
335.684	93.56
335.912	94.56
336.14	98.56
336.369	92.56
336.597	101.56
336.825	104.56
337.053	90.56
337.281	86.56
337.51	89.56
337.738	79.56
337.966	90.56
338.194	98.56
338.422	109.56
338.65	83.56
338.878	90.56
339.106	86.56
339.334	92.56
339.562	86.56
339.79	90.56
340.018	94.56
340.246	90.56
340.474	95.56
340.702	87.56
340.93	98.56
341.158	94.56
341.386	76.56
341.614	88.56
341.842	94.56
342.07	86.56
342.298	103.56
342.526	95.56
342.754	81.56
342.981	83.56
343.209	96.56
343.437	89.56
343.665	79.56
343.893	81.56
344.12	114.56
344.348	84.56
344.576	93.56
344.804	93.56
345.031	94.56
345.259	95.56
345.487	84.56
345.714	74.56
345.942	79.56
346.17	83.56
346.397	73.56
346.625	90.56
346.853	84.56
347.08	85.56
347.308	98.56
347.535	85.56
347.763	105.56
347.99	96.56
348.218	100.56
348.445	82.56
348.673	93.56
348.9	81.56
349.128	99.56
349.355	98.56
349.583	90.56
349.81	88.56
350.037	91.56
350.265	84.56
350.492	85.56
350.72	84.56
350.947	91.56
351.174	93.56
351.402	93.56
351.629	93.56
351.856	101.56
352.083	106.56
352.311	102.56
352.538	106.56
352.765	108.56
352.992	109.56
353.22	103.56
353.447	97.56
353.674	87.56
353.901	94.56
354.128	93.56
354.355	114.56
354.583	89.56
354.81	82.56
355.037	89.56
355.264	99.56
355.491	82.56
355.718	85.56
355.945	112.56
356.172	91.56
356.399	94.56
356.626	105.56
356.853	94.56
357.08	82.56
357.307	88.56
357.534	86.56
357.761	89.56
357.988	87.56
358.215	95.56
358.441	95.56
358.668	89.56
358.895	95.56
359.122	91.56
359.349	87.56
359.576	95.56
359.802	112.56
360.029	111.56
360.256	101.56
360.483	81.56
360.709	93.56
360.936	98.56
361.163	103.56
361.39	92.56
361.616	87.56
361.843	66.56
362.07	77.56
362.296	75.56
362.523	111.56
362.749	103.56
362.976	77.56
363.203	87.56
363.429	90.56
363.656	97.56
363.882	101.56
364.109	97.56
364.335	96.56
364.562	89.56
364.788	92.56
365.015	105.56
365.241	97.56
365.468	106.56
365.694	100.56
365.92	92.56
366.147	93.56
366.373	87.56
366.599	95.56
366.826	96.56
367.052	87.56
367.278	96.56
367.505	86.56
367.731	97.56
367.957	101.56
368.184	92.56
368.41	105.56
368.636	102.56
368.862	98.56
369.089	103.56
369.315	100.56
369.541	92.56
369.767	81.56
369.993	95.56
370.219	91.56
370.445	72.56
370.672	83.56
370.898	79.56
371.124	94.56
371.35	78.56
371.576	87.56
371.802	98.56
372.028	88.56
372.254	77.56
372.48	81.56
372.706	93.56
372.932	88.56
373.158	92.56
373.384	88.56
373.61	93.56
373.835	81.56
374.061	85.56
374.287	87.56
374.513	93.56
374.739	87.56
374.965	86.56
375.191	72.56
375.416	94.56
375.642	81.56
375.868	79.56
376.094	87.56
376.319	79.56
376.545	66.56
376.771	80.56
376.997	75.56
377.222	91.56
377.448	95.56
377.674	83.56
377.899	93.56
378.125	73.56
378.35	93.56
378.576	87.56
378.802	97.56
379.027	83.56
379.253	87.56
379.478	88.56
379.704	95.56
379.929	83.56
380.155	97.56
380.38	83.56
380.606	79.56
380.831	90.56
381.057	94.56
381.282	89.56
381.507	101.56
381.733	102.56
381.958	98.56
382.184	97.56
382.409	87.56
382.634	88.56
382.86	93.56
383.085	90.56
383.31	76.56
383.535	94.56
383.761	98.56
383.986	102.56
384.211	89.56
384.436	92.56
384.662	112.56
384.887	98.56
385.112	90.56
385.337	94.56
385.562	97.56
385.787	92.56
386.013	101.56
386.238	97.56
386.463	99.56
386.688	106.56
386.913	99.56
387.138	97.56
387.363	106.56
387.588	108.56
387.813	102.56
388.038	95.56
388.263	94.56
388.488	106.56
388.713	98.56
388.938	82.56
389.163	102.56
389.387	91.56
389.612	97.56
389.837	91.56
390.062	103.56
390.287	96.56
390.512	98.56
390.736	112.56
390.961	86.56
391.186	88.56
391.411	104.56
391.636	88.56
391.86	79.56
392.085	95.56
392.31	69.56
392.534	86.56
392.759	83.56
392.984	86.56
393.208	83.56
393.433	90.56
393.658	98.56
393.882	83.56
394.107	95.56
394.331	104.56
394.556	97.56
394.78	103.56
395.005	93.56
395.229	89.56
395.454	99.56
395.678	73.56
395.903	93.56
396.127	90.56
396.352	70.56
396.576	82.56
396.801	87.56
397.025	86.56
397.249	97.56
397.474	70.56
397.698	85.56
397.922	88.56
398.147	80.56
398.371	62.56
398.595	73.56
398.82	86.56
399.044	92.56
399.268	93.56
399.492	94.56
399.717	85.56
399.941	85.56
400.165	84.56
400.389	86.56
400.613	79.56
400.837	86.56
401.062	78.56
401.286	78.56
401.51	90.56
401.734	78.56
401.958	110.56
402.182	89.56
402.406	138.56
402.63	93.56
402.854	97.56
403.078	93.56
403.302	67.56
403.526	90.56
403.75	73.56
403.974	97.56
404.198	80.56
404.422	84.56
404.645	82.56
404.869	81.56
405.093	89.56
405.317	89.56
405.541	101.56
405.765	95.56
405.988	111.56
406.212	147.56
406.436	201.56
406.66	121.56
406.883	104.56
407.107	98.56
407.331	100.56
407.555	94.56
407.778	92.56
408.002	70.56
408.226	97.56
408.449	95.56
408.673	74.56
408.896	81.56
409.12	86.56
409.344	90.56
409.567	93.56
409.791	82.56
410.014	81.56
410.238	81.56
410.461	69.56
410.685	97.56
410.908	99.56
411.132	105.56
411.355	94.56
411.578	89.56
411.802	83.56
412.025	89.56
412.249	88.56
412.472	93.56
412.695	79.56
412.919	87.56
413.142	92.56
413.365	91.56
413.589	84.56
413.812	87.56
414.035	80.56
414.258	91.56
414.482	93.56
414.705	85.56
414.928	91.56
415.151	96.56
415.374	98.56
415.597	85.56
415.821	83.56
416.044	82.56
416.267	97.56
416.49	88.56
416.713	99.56
416.936	91.56
417.159	82.56
417.382	76.56
417.605	68.56
417.828	92.56
418.051	91.56
418.274	93.56
418.497	84.56
418.72	86.56
418.943	87.56
419.166	75.56
419.389	89.56
419.611	83.56
419.834	89.56
420.057	103.56
420.28	89.56
420.503	86.56
420.726	87.56
420.948	73.56
421.171	86.56
421.394	101.56
421.617	77.56
421.839	84.56
422.062	81.56
422.285	70.56
422.507	99.56
422.73	93.56
422.953	87.56
423.175	90.56
423.398	81.56
423.621	79.56
423.843	83.56
424.066	91.56
424.288	86.56
424.511	81.56
424.733	101.56
424.956	94.56
425.178	91.56
425.401	94.56
425.623	99.56
425.846	89.56
426.068	86.56
426.291	89.56
426.513	98.56
426.735	93.56
426.958	96.56
427.18	99.56
427.402	119.56
427.625	148.56
427.847	117.56
428.069	89.56
428.292	103.56
428.514	75.56
428.736	79.56
428.958	88.56
429.181	85.56
429.403	94.56
429.625	70.56
429.847	102.56
430.069	90.56
430.292	83.56
430.514	93.56
430.736	103.56
430.958	93.56
431.18	83.56
431.402	72.56
431.624	78.56
431.846	82.56
432.068	86.56
432.29	97.56
432.512	79.56
432.734	84.56
432.956	100.56
433.178	92.56
433.4	91.56
433.622	93.56
433.844	80.56
434.066	97.56
434.287	96.56
434.509	81.56
434.731	86.56
434.953	84.56
435.175	74.56
435.397	93.56
435.618	75.56
435.84	100.56
436.062	114.56
436.284	112.56
436.505	94.56
436.727	91.56
436.949	107.56
437.17	87.56
437.392	102.56
437.614	81.56
437.835	97.56
438.057	101.56
438.278	97.56
438.5	97.56
438.721	98.56
438.943	92.56
439.165	83.56
439.386	91.56
439.608	87.56
439.829	101.56
440.05	104.56
440.272	140.56
440.493	94.56
440.715	85.56
440.936	89.56
441.158	65.56
441.379	73.56
441.6	84.56
441.822	95.56
442.043	87.56
442.264	88.56
442.486	85.56
442.707	98.56
442.928	93.56
443.149	129.56
443.371	125.56
443.592	112.56
443.813	107.56
444.034	103.56
444.255	94.56
444.476	89.56
444.698	89.56
444.919	85.56
445.14	117.56
445.361	113.56
445.582	113.56
445.803	127.56
446.024	109.56
446.245	129.56
446.466	96.56
446.687	73.56
446.908	86.56
447.129	90.56
447.35	90.56
447.571	94.56
447.792	100.56
448.013	89.56
448.234	96.56
448.455	99.56
448.675	120.56
448.896	108.56
449.117	79.56
449.338	98.56
449.559	113.56
449.779	109.56
450	101.56
450.221	92.56
450.442	93.56
450.662	88.56
450.883	107.56
451.104	93.56
451.324	79.56
451.545	103.56
451.766	86.56
451.986	87.56
452.207	90.56
452.428	97.56
452.648	76.56
452.869	103.56
453.089	103.56
453.31	105.56
453.53	89.56
453.751	87.56
453.971	95.56
454.192	99.56
454.412	88.56
454.633	71.56
454.853	95.56
455.073	90.56
455.294	90.56
455.514	88.56
455.734	98.56
455.955	89.56
456.175	88.56
456.395	77.56
456.616	71.56
456.836	89.56
457.056	84.56
457.276	85.56
457.497	90.56
457.717	75.56
457.937	82.56
458.157	89.56
458.377	86.56
458.598	102.56
458.818	130.56
459.038	139.56
459.258	93.56
459.478	98.56
459.698	99.56
459.918	73.56
460.138	80.56
460.358	77.56
460.578	90.56
460.798	79.56
461.018	98.56
461.238	79.56
461.458	90.56
461.678	88.56
461.898	81.56
462.118	86.56
462.338	81.56
462.558	74.56
462.777	79.56
462.997	97.56
463.217	80.56
463.437	68.56
463.657	87.56
463.876	93.56
464.096	90.56
464.316	79.56
464.536	103.56
464.755	91.56
464.975	106.56
465.195	134.56
465.414	146.56
465.634	87.56
465.854	90.56
466.073	88.56
466.293	88.56
466.512	89.56
466.732	80.56
466.951	80.56
467.171	83.56
467.391	90.56
467.61	79.56
467.829	83.56
468.049	92.56
468.268	79.56
468.488	84.56
468.707	84.56
468.927	90.56
469.146	75.56
469.365	91.56
469.585	89.56
469.804	91.56
470.023	75.56
470.243	88.56
470.462	82.56
470.681	95.56
470.901	85.56
471.12	99.56
471.339	83.56
471.558	90.56
471.777	85.56
471.997	73.56
472.216	86.56
472.435	89.56
472.654	93.56
472.873	90.56
473.092	96.56
473.311	98.56
473.53	90.56
473.749	70.56
473.968	86.56
474.187	109.56
474.406	93.56
474.625	86.56
474.844	84.56
475.063	72.56
475.282	103.56
475.501	72.56
475.72	87.56
475.939	85.56
476.158	95.56
476.377	89.56
476.596	85.56
476.814	94.56
477.033	96.56
477.252	95.56
477.471	71.56
477.69	84.56
477.908	82.56
478.127	81.56
478.346	78.56
478.564	77.56
478.783	94.56
479.002	90.56
479.22	77.56
479.439	101.56
479.658	98.56
479.876	91.56
480.095	87.56
480.313	91.56
480.532	101.56
480.751	90.56
480.969	114.56
481.188	101.56
481.406	95.56
481.624	89.56
481.843	83.56
482.061	79.56
482.28	77.56
482.498	83.56
482.717	92.56
482.935	87.56
483.153	81.56
483.372	91.56
483.59	82.56
483.808	71.56
484.027	83.56
484.245	81.56
484.463	89.56
484.681	74.56
484.9	107.56
485.118	90.56
485.336	82.56
485.554	93.56
485.772	99.56
485.99	88.56
486.209	93.56
486.427	87.56
486.645	97.56
486.863	111.56
487.081	87.56
487.299	100.56
487.517	98.56
487.735	85.56
487.953	81.56
488.171	100.56
488.389	102.56
488.607	82.56
488.825	91.56
489.043	74.56
489.261	97.56
489.479	88.56
489.696	69.56
489.914	77.56
490.132	102.56
490.35	90.56
490.568	98.56
490.786	97.56
491.003	95.56
491.221	92.56
491.439	93.56
491.657	97.56
491.874	77.56
492.092	90.56
492.31	90.56
492.527	97.56
492.745	88.56
492.963	78.56
493.18	97.56
493.398	85.56
493.615	89.56
493.833	95.56
494.05	88.56
494.268	94.56
494.485	88.56
494.703	85.56
494.92	83.56
495.138	68.56
495.355	82.56
495.573	90.56
495.79	95.56
496.008	70.56
496.225	91.56
496.442	79.56
496.66	80.56
496.877	96.56
497.094	95.56
497.312	75.56
497.529	105.56
497.746	90.56
497.963	102.56
498.181	98.56
498.398	88.56
498.615	99.56
498.832	84.56
499.049	86.56
499.267	94.56
499.484	81.56
499.701	89.56
499.918	82.56
500.135	91.56
500.352	75.56
500.569	89.56
500.786	89.56
501.003	94.56
501.22	86.56
501.437	96.56
501.654	89.56
501.871	92.56
502.088	97.56
502.305	85.56
502.522	85.56
502.739	84.56
502.956	84.56
503.172	94.56
503.389	105.56
503.606	109.56
503.823	105.56
504.04	88.56
504.256	86.56
504.473	84.56
504.69	87.56
504.907	93.56
505.123	81.56
505.34	92.56
505.557	90.56
505.773	92.56
505.99	104.56
506.207	89.56
506.423	96.56
506.64	94.56
506.856	80.56
507.073	96.56
507.289	85.56
507.506	98.56
507.722	106.56
507.939	103.56
508.155	97.56
508.372	94.56
508.588	83.56
508.805	82.56
509.021	97.56
509.238	109.56
509.454	98.56
509.67	91.56
509.887	97.56
510.103	122.56
510.319	191.56
510.536	669.56
510.752	2143.56
510.968	605.56
511.184	139.56
511.401	95.56
511.617	95.56
511.833	78.56
512.049	99.56
512.265	86.56
512.481	83.56
512.698	96.56
512.914	105.56
513.13	106.56
513.346	90.56
513.562	90.56
513.778	101.56
513.994	94.56
514.21	97.56
514.426	118.56
514.642	121.56
514.858	105.56
515.074	149.56
515.29	403.56
515.506	1230.56
515.721	471.56
515.937	124.56
516.153	101.56
516.369	83.56
516.585	70.56
516.801	81.56
517.016	87.56
