Data from Uncirc_1984_H10_HRD10591_00069.txt Node
Date: Wed Jan 03 12:21:51 EST 2024
User: Yrep
Spectrometer: HR+D1059
Trigger mode: 1
Integration Time (sec): 1.000000E-1
Scans to average: 1
Electric dark correction enabled: true
Nonlinearity correction enabled: false
Boxcar width: 0
XAxis mode: Wavelengths
Number of Pixels in Spectrum: 2048
>>>>>Begin Spectral Data<<<<<
223.165	-10.69
223.4	-10.69
223.635	-10.69
223.869	-16.69
224.104	-18.69
224.338	-12.69
224.573	-10.69
224.808	-25.69
225.042	-10.69
225.277	-3.69
225.511	-4.69
225.746	1.31
225.98	4.31
226.215	10.31
226.449	23.31
226.683	9.31
226.918	17.31
227.152	48.31
227.387	41.31
227.621	61.31
227.856	49.31
228.09	46.31
228.324	59.31
228.559	51.31
228.793	45.31
229.027	74.31
229.262	66.31
229.496	92.31
229.73	80.31
229.964	91.31
230.199	76.31
230.433	76.31
230.667	71.31
230.901	85.31
231.136	83.31
231.37	79.31
231.604	100.31
231.838	91.31
232.072	84.31
232.306	85.31
232.541	90.31
232.775	87.31
233.009	69.31
233.243	83.31
233.477	93.31
233.711	78.31
233.945	87.31
234.179	71.31
234.413	83.31
234.647	71.31
234.881	71.31
235.115	67.31
235.349	84.31
235.583	89.31
235.817	73.31
236.051	86.31
236.285	85.31
236.519	85.31
236.753	85.31
236.987	79.31
237.221	65.31
237.455	87.31
237.689	81.31
237.922	87.31
238.156	93.31
238.39	68.31
238.624	81.31
238.858	69.31
239.091	65.31
239.325	84.31
239.559	88.31
239.793	92.31
240.027	85.31
240.26	82.31
240.494	87.31
240.728	89.31
240.961	63.31
241.195	97.31
241.429	80.31
241.662	81.31
241.896	66.31
242.13	83.31
242.363	77.31
242.597	75.31
242.83	84.31
243.064	74.31
243.298	72.31
243.531	75.31
243.765	78.31
243.998	82.31
244.232	74.31
244.465	78.31
244.699	91.31
244.932	76.31
245.166	87.31
245.399	66.31
245.633	76.31
245.866	67.31
246.099	78.31
246.333	74.31
246.566	83.31
246.8	81.31
247.033	81.31
247.266	95.31
247.5	80.31
247.733	76.31
247.966	82.31
248.2	76.31
248.433	77.31
248.666	78.31
248.899	87.31
249.133	83.31
249.366	97.31
249.599	95.31
249.832	83.31
250.066	88.31
250.299	85.31
250.532	78.31
250.765	93.31
250.998	77.31
251.231	87.31
251.465	94.31
251.698	78.31
251.931	91.31
252.164	85.31
252.397	66.31
252.63	74.31
252.863	88.31
253.096	79.31
253.329	92.31
253.562	85.31
253.795	85.31
254.028	87.31
254.261	72.31
254.494	91.31
254.727	89.31
254.96	82.31
255.193	80.31
255.426	81.31
255.659	82.31
255.892	87.31
256.124	80.31
256.357	75.31
256.59	84.31
256.823	72.31
257.056	86.31
257.289	77.31
257.521	74.31
257.754	65.31
257.987	73.31
258.22	90.31
258.452	99.31
258.685	87.31
258.918	81.31
259.151	87.31
259.383	92.31
259.616	88.31
259.849	81.31
260.081	88.31
260.314	99.31
260.547	89.31
260.779	86.31
261.012	97.31
261.244	81.31
261.477	95.31
261.71	89.31
261.942	90.31
262.175	107.31
262.407	94.31
262.64	89.31
262.872	89.31
263.105	76.31
263.337	88.31
263.57	84.31
263.802	78.31
264.035	83.31
264.267	85.31
264.499	89.31
264.732	83.31
264.964	73.31
265.197	81.31
265.429	85.31
265.661	77.31
265.894	84.31
266.126	96.31
266.358	83.31
266.591	92.31
266.823	84.31
267.055	91.31
267.287	100.31
267.52	82.31
267.752	85.31
267.984	98.31
268.216	78.31
268.448	93.31
268.681	83.31
268.913	90.31
269.145	94.31
269.377	103.31
269.609	78.31
269.841	81.31
270.073	73.31
270.306	83.31
270.538	90.31
270.77	87.31
271.002	85.31
271.234	83.31
271.466	101.31
271.698	90.31
271.93	96.31
272.162	89.31
272.394	85.31
272.626	80.31
272.858	81.31
273.09	102.31
273.322	82.31
273.553	94.31
273.785	91.31
274.017	91.31
274.249	85.31
274.481	74.31
274.713	97.31
274.945	94.31
275.176	90.31
275.408	97.31
275.64	87.31
275.872	97.31
276.104	96.31
276.335	83.31
276.567	109.31
276.799	115.31
277.031	105.31
277.262	101.31
277.494	76.31
277.726	75.31
277.957	91.31
278.189	79.31
278.421	81.31
278.652	85.31
278.884	86.31
279.115	85.31
279.347	91.31
279.579	71.31
279.81	86.31
280.042	90.31
280.273	81.31
280.505	94.31
280.736	98.31
280.968	87.31
281.199	101.31
281.431	94.31
281.662	92.31
281.894	102.31
282.125	97.31
282.356	118.31
282.588	134.31
282.819	109.31
283.051	90.31
283.282	85.31
283.513	94.31
283.745	92.31
283.976	101.31
284.207	92.31
284.439	77.31
284.67	82.31
284.901	84.31
285.132	79.31
285.364	93.31
285.595	76.31
285.826	92.31
286.057	90.31
286.288	97.31
286.52	74.31
286.751	93.31
286.982	89.31
287.213	91.31
287.444	92.31
287.675	98.31
287.906	99.31
288.138	77.31
288.369	91.31
288.6	84.31
288.831	87.31
289.062	97.31
289.293	90.31
289.524	90.31
289.755	95.31
289.986	93.31
290.217	100.31
290.448	89.31
290.679	77.31
290.91	101.31
291.141	99.31
291.371	95.31
291.602	96.31
291.833	110.31
292.064	95.31
292.295	97.31
292.526	89.31
292.757	89.31
292.987	81.31
293.218	85.31
293.449	88.31
293.68	92.31
293.91	82.31
294.141	97.31
294.372	100.31
294.603	82.31
294.833	95.31
295.064	98.31
295.295	86.31
295.525	114.31
295.756	103.31
295.987	118.31
296.217	134.31
296.448	121.31
296.679	104.31
296.909	102.31
297.14	97.31
297.37	97.31
297.601	87.31
297.831	89.31
298.062	90.31
298.292	96.31
298.523	93.31
298.753	81.31
298.984	89.31
299.214	86.31
299.445	94.31
299.675	82.31
299.905	93.31
300.136	97.31
300.366	86.31
300.597	83.31
300.827	108.31
301.057	101.31
301.288	101.31
301.518	101.31
301.748	79.31
301.979	99.31
302.209	94.31
302.439	94.31
302.669	102.31
302.9	97.31
303.13	94.31
303.36	98.31
303.59	104.31
303.82	112.31
304.051	103.31
304.281	77.31
304.511	92.31
304.741	72.31
304.971	78.31
305.201	85.31
305.431	79.31
305.661	94.31
305.891	90.31
306.121	97.31
306.352	105.31
306.582	116.31
306.812	96.31
307.042	94.31
307.272	93.31
307.502	94.31
307.731	97.31
307.961	89.31
308.191	102.31
308.421	91.31
308.651	95.31
308.881	90.31
309.111	107.31
309.341	109.31
309.571	100.31
309.8	103.31
310.03	101.31
310.26	94.31
310.49	90.31
310.72	112.31
310.949	116.31
311.179	101.31
311.409	95.31
311.639	99.31
311.868	93.31
312.098	106.31
312.328	107.31
312.557	83.31
312.787	102.31
313.017	110.31
313.246	93.31
313.476	103.31
313.706	99.31
313.935	93.31
314.165	101.31
314.394	85.31
314.624	90.31
314.853	99.31
315.083	98.31
315.312	78.31
315.542	101.31
315.771	100.31
316.001	93.31
316.23	102.31
316.46	95.31
316.689	99.31
316.919	101.31
317.148	90.31
317.377	101.31
317.607	86.31
317.836	99.31
318.065	101.31
318.295	102.31
318.524	86.31
318.753	81.31
318.983	89.31
319.212	90.31
319.441	117.31
319.67	113.31
319.9	102.31
320.129	114.31
320.358	87.31
320.587	102.31
320.816	93.31
321.046	108.31
321.275	100.31
321.504	87.31
321.733	87.31
321.962	96.31
322.191	110.31
322.42	104.31
322.649	122.31
322.878	117.31
323.108	127.31
323.337	111.31
323.566	123.31
323.795	140.31
324.024	225.31
324.253	374.31
324.482	815.31
324.71	1648.31
324.939	2189.31
325.168	789.31
325.397	227.31
325.626	145.31
325.855	129.31
326.084	131.31
326.313	139.31
326.542	141.31
326.77	238.31
326.999	439.31
327.228	900.31
327.457	1670.31
327.686	1323.31
327.914	365.31
328.143	189.31
328.372	149.31
328.6	117.31
328.829	116.31
329.058	143.31
329.287	116.31
329.515	118.31
329.744	91.31
329.972	106.31
330.201	110.31
330.43	110.31
330.658	112.31
330.887	131.31
331.115	118.31
331.344	115.31
331.572	107.31
331.801	104.31
332.03	111.31
332.258	85.31
332.486	89.31
332.715	97.31
332.943	100.31
333.172	86.31
333.4	100.31
333.629	125.31
333.857	130.31
334.085	97.31
334.314	96.31
334.542	112.31
334.771	97.31
334.999	103.31
335.227	111.31
335.455	91.31
335.684	94.31
335.912	99.31
336.14	103.31
336.369	95.31
336.597	84.31
336.825	103.31
337.053	86.31
337.281	106.31
337.51	89.31
337.738	108.31
337.966	109.31
338.194	102.31
338.422	106.31
338.65	94.31
338.878	97.31
339.106	104.31
339.334	105.31
339.562	89.31
339.79	93.31
340.018	91.31
340.246	73.31
340.474	91.31
340.702	99.31
340.93	85.31
341.158	102.31
341.386	99.31
341.614	118.31
341.842	96.31
342.07	89.31
342.298	85.31
342.526	104.31
342.754	87.31
342.981	93.31
343.209	89.31
343.437	100.31
343.665	95.31
343.893	99.31
344.12	98.31
344.348	95.31
344.576	95.31
344.804	95.31
345.031	77.31
345.259	88.31
345.487	87.31
345.714	95.31
345.942	95.31
346.17	91.31
346.397	83.31
346.625	96.31
346.853	90.31
347.08	78.31
347.308	92.31
347.535	97.31
347.763	97.31
347.99	96.31
348.218	108.31
348.445	114.31
348.673	99.31
348.9	98.31
349.128	101.31
349.355	75.31
349.583	98.31
349.81	100.31
350.037	87.31
350.265	115.31
350.492	95.31
350.72	98.31
350.947	94.31
351.174	107.31
351.402	104.31
351.629	98.31
351.856	102.31
352.083	117.31
352.311	99.31
352.538	102.31
352.765	121.31
352.992	111.31
353.22	118.31
353.447	103.31
353.674	98.31
353.901	97.31
354.128	101.31
354.355	98.31
354.583	99.31
354.81	104.31
355.037	105.31
355.264	109.31
355.491	95.31
355.718	93.31
355.945	96.31
356.172	94.31
356.399	108.31
356.626	103.31
356.853	89.31
357.08	111.31
357.307	87.31
357.534	91.31
357.761	88.31
357.988	103.31
358.215	88.31
358.441	92.31
358.668	91.31
358.895	82.31
359.122	86.31
359.349	91.31
359.576	93.31
359.802	97.31
360.029	94.31
360.256	110.31
360.483	105.31
360.709	107.31
360.936	95.31
361.163	108.31
361.39	106.31
361.616	95.31
361.843	94.31
362.07	88.31
362.296	89.31
362.523	102.31
362.749	87.31
362.976	81.31
363.203	106.31
363.429	82.31
363.656	94.31
363.882	106.31
364.109	98.31
364.335	86.31
364.562	91.31
364.788	84.31
365.015	90.31
365.241	110.31
365.468	110.31
365.694	115.31
365.92	89.31
366.147	99.31
366.373	85.31
366.599	103.31
366.826	89.31
367.052	92.31
367.278	89.31
367.505	87.31
367.731	102.31
367.957	87.31
368.184	95.31
368.41	101.31
368.636	118.31
368.862	125.31
369.089	115.31
369.315	87.31
369.541	81.31
369.767	100.31
369.993	82.31
370.219	98.31
370.445	98.31
370.672	88.31
370.898	92.31
371.124	95.31
371.35	107.31
371.576	90.31
371.802	87.31
372.028	86.31
372.254	99.31
372.48	92.31
372.706	80.31
372.932	86.31
373.158	92.31
373.384	107.31
373.61	100.31
373.835	89.31
374.061	88.31
374.287	94.31
374.513	89.31
374.739	78.31
374.965	86.31
375.191	89.31
375.416	87.31
375.642	108.31
375.868	88.31
376.094	98.31
376.319	99.31
376.545	92.31
376.771	84.31
376.997	101.31
377.222	99.31
377.448	99.31
377.674	89.31
377.899	90.31
378.125	100.31
378.35	81.31
378.576	90.31
378.802	88.31
379.027	95.31
379.253	86.31
379.478	93.31
379.704	99.31
379.929	86.31
380.155	102.31
380.38	88.31
380.606	102.31
380.831	100.31
381.057	109.31
381.282	114.31
381.507	105.31
381.733	100.31
381.958	93.31
382.184	82.31
382.409	99.31
382.634	101.31
382.86	98.31
383.085	95.31
383.31	98.31
383.535	89.31
383.761	107.31
383.986	105.31
384.211	91.31
384.436	99.31
384.662	98.31
384.887	93.31
385.112	120.31
385.337	90.31
385.562	103.31
385.787	105.31
386.013	104.31
386.238	117.31
386.463	105.31
386.688	106.31
386.913	98.31
387.138	93.31
387.363	108.31
387.588	106.31
387.813	122.31
388.038	109.31
388.263	124.31
388.488	99.31
388.713	83.31
388.938	93.31
389.163	91.31
389.387	100.31
389.612	94.31
389.837	116.31
390.062	99.31
390.287	90.31
390.512	99.31
390.736	99.31
390.961	84.31
391.186	90.31
391.411	84.31
391.636	94.31
391.86	93.31
392.085	88.31
392.31	98.31
392.534	90.31
392.759	100.31
392.984	87.31
393.208	99.31
393.433	99.31
393.658	96.31
393.882	97.31
394.107	90.31
394.331	98.31
394.556	99.31
394.78	88.31
395.005	87.31
395.229	95.31
395.454	92.31
395.678	85.31
395.903	73.31
396.127	102.31
396.352	85.31
396.576	93.31
396.801	93.31
397.025	105.31
397.249	88.31
397.474	114.31
397.698	107.31
397.922	81.31
398.147	87.31
398.371	89.31
398.595	96.31
398.82	83.31
399.044	88.31
399.268	79.31
399.492	92.31
399.717	99.31
399.941	86.31
400.165	101.31
400.389	91.31
400.613	98.31
400.837	79.31
401.062	86.31
401.286	83.31
401.51	99.31
401.734	93.31
401.958	101.31
402.182	113.31
402.406	155.31
402.63	105.31
402.854	91.31
403.078	89.31
403.302	91.31
403.526	86.31
403.75	83.31
403.974	87.31
404.198	87.31
404.422	103.31
404.645	87.31
404.869	97.31
405.093	89.31
405.317	104.31
405.541	92.31
405.765	109.31
405.988	127.31
406.212	167.31
406.436	238.31
406.66	140.31
406.883	104.31
407.107	87.31
407.331	97.31
407.555	110.31
407.778	110.31
408.002	94.31
408.226	104.31
408.449	97.31
408.673	109.31
408.896	101.31
409.12	91.31
409.344	89.31
409.567	107.31
409.791	89.31
410.014	91.31
410.238	101.31
410.461	93.31
410.685	95.31
410.908	89.31
411.132	116.31
411.355	103.31
411.578	102.31
411.802	93.31
412.025	96.31
412.249	93.31
412.472	86.31
412.695	90.31
412.919	92.31
413.142	81.31
413.365	98.31
413.589	86.31
413.812	83.31
414.035	105.31
414.258	85.31
414.482	105.31
414.705	93.31
414.928	102.31
415.151	103.31
415.374	101.31
415.597	93.31
415.821	88.31
416.044	92.31
416.267	89.31
416.49	79.31
416.713	97.31
416.936	88.31
417.159	114.31
417.382	113.31
417.605	93.31
417.828	97.31
418.051	85.31
418.274	93.31
418.497	89.31
418.72	86.31
418.943	95.31
419.166	95.31
419.389	100.31
419.611	105.31
419.834	108.31
420.057	77.31
420.28	89.31
420.503	84.31
420.726	90.31
420.948	84.31
421.171	84.31
421.394	100.31
421.617	109.31
421.839	97.31
422.062	106.31
422.285	93.31
422.507	105.31
422.73	99.31
422.953	93.31
423.175	82.31
423.398	79.31
423.621	86.31
423.843	99.31
424.066	91.31
424.288	88.31
424.511	91.31
424.733	97.31
424.956	99.31
425.178	99.31
425.401	97.31
425.623	96.31
425.846	97.31
426.068	91.31
426.291	93.31
426.513	105.31
426.735	85.31
426.958	89.31
427.18	122.31
427.402	135.31
427.625	142.31
427.847	124.31
428.069	88.31
428.292	95.31
428.514	89.31
428.736	86.31
428.958	78.31
429.181	99.31
429.403	86.31
429.625	81.31
429.847	107.31
430.069	89.31
430.292	99.31
430.514	91.31
430.736	87.31
430.958	92.31
431.18	89.31
431.402	91.31
431.624	100.31
431.846	94.31
432.068	76.31
432.29	77.31
432.512	94.31
432.734	96.31
432.956	85.31
433.178	87.31
433.4	104.31
433.622	87.31
433.844	101.31
434.066	100.31
434.287	115.31
434.509	87.31
434.731	91.31
434.953	87.31
435.175	79.31
435.397	81.31
435.618	104.31
435.84	91.31
436.062	123.31
436.284	97.31
436.505	77.31
436.727	98.31
436.949	92.31
437.17	93.31
437.392	92.31
437.614	98.31
437.835	91.31
438.057	118.31
438.278	103.31
438.5	106.31
438.721	122.31
438.943	115.31
439.165	85.31
439.386	79.31
439.608	98.31
439.829	118.31
440.05	123.31
440.272	153.31
440.493	89.31
440.715	104.31
440.936	81.31
441.158	83.31
441.379	81.31
441.6	91.31
441.822	97.31
442.043	87.31
442.264	97.31
442.486	110.31
442.707	96.31
442.928	98.31
443.149	129.31
443.371	122.31
443.592	107.31
443.813	118.31
444.034	111.31
444.255	85.31
444.476	93.31
444.698	85.31
444.919	83.31
445.14	134.31
445.361	125.31
445.582	117.31
445.803	131.31
446.024	129.31
446.245	133.31
446.466	115.31
446.687	107.31
446.908	95.31
447.129	97.31
447.35	93.31
447.571	103.31
447.792	96.31
448.013	111.31
448.234	105.31
448.455	89.31
448.675	116.31
448.896	122.31
449.117	110.31
449.338	107.31
449.559	132.31
449.779	117.31
450	97.31
450.221	103.31
450.442	92.31
450.662	97.31
450.883	100.31
451.104	107.31
451.324	93.31
451.545	82.31
451.766	87.31
451.986	88.31
452.207	87.31
452.428	99.31
452.648	95.31
452.869	108.31
453.089	109.31
453.31	110.31
453.53	81.31
453.751	94.31
453.971	111.31
454.192	101.31
454.412	102.31
454.633	92.31
454.853	81.31
455.073	94.31
455.294	76.31
455.514	101.31
455.734	98.31
455.955	99.31
456.175	82.31
456.395	97.31
456.616	100.31
456.836	73.31
457.056	99.31
457.276	94.31
457.497	75.31
457.717	88.31
457.937	94.31
458.157	78.31
458.377	94.31
458.598	101.31
458.818	172.31
459.038	147.31
459.258	113.31
459.478	87.31
459.698	97.31
459.918	95.31
460.138	97.31
460.358	78.31
460.578	94.31
460.798	96.31
461.018	99.31
461.238	97.31
461.458	104.31
461.678	93.31
461.898	97.31
462.118	89.31
462.338	87.31
462.558	79.31
462.777	92.31
462.997	96.31
463.217	93.31
463.437	87.31
463.657	82.31
463.876	86.31
464.096	95.31
464.316	97.31
464.536	93.31
464.755	88.31
464.975	102.31
465.195	164.31
465.414	154.31
465.634	92.31
465.854	90.31
466.073	101.31
466.293	103.31
466.512	102.31
466.732	99.31
466.951	89.31
467.171	105.31
467.391	110.31
467.61	97.31
467.829	86.31
468.049	78.31
468.268	89.31
468.488	83.31
468.707	106.31
468.927	89.31
469.146	89.31
469.365	101.31
469.585	89.31
469.804	94.31
470.023	102.31
470.243	107.31
470.462	104.31
470.681	113.31
470.901	85.31
471.12	86.31
471.339	92.31
471.558	85.31
471.777	101.31
471.997	92.31
472.216	99.31
472.435	94.31
472.654	84.31
472.873	95.31
473.092	85.31
473.311	102.31
473.53	98.31
473.749	94.31
473.968	101.31
474.187	91.31
474.406	101.31
474.625	89.31
474.844	93.31
475.063	76.31
475.282	94.31
475.501	90.31
475.72	92.31
475.939	88.31
476.158	103.31
476.377	94.31
476.596	99.31
476.814	97.31
477.033	92.31
477.252	87.31
477.471	86.31
477.69	89.31
477.908	78.31
478.127	94.31
478.346	82.31
478.564	89.31
478.783	97.31
479.002	87.31
479.22	97.31
479.439	109.31
479.658	101.31
479.876	109.31
480.095	98.31
480.313	108.31
480.532	96.31
480.751	74.31
480.969	93.31
481.188	106.31
481.406	107.31
481.624	87.31
481.843	86.31
482.061	89.31
482.28	84.31
482.498	92.31
482.717	79.31
482.935	91.31
483.153	90.31
483.372	101.31
483.59	103.31
483.808	93.31
484.027	90.31
484.245	84.31
484.463	79.31
484.681	92.31
484.9	101.31
485.118	99.31
485.336	105.31
485.554	76.31
485.772	99.31
485.99	100.31
486.209	105.31
486.427	121.31
486.645	110.31
486.863	116.31
487.081	87.31
487.299	106.31
487.517	93.31
487.735	99.31
487.953	98.31
488.171	84.31
488.389	87.31
488.607	104.31
488.825	94.31
489.043	95.31
489.261	86.31
489.479	86.31
489.696	82.31
489.914	98.31
490.132	98.31
490.35	86.31
490.568	101.31
490.786	89.31
491.003	102.31
491.221	106.31
491.439	107.31
491.657	110.31
491.874	108.31
492.092	96.31
492.31	102.31
492.527	89.31
492.745	93.31
492.963	90.31
493.18	86.31
493.398	91.31
493.615	93.31
493.833	107.31
494.05	97.31
494.268	95.31
494.485	102.31
494.703	92.31
494.92	73.31
495.138	90.31
495.355	81.31
495.573	89.31
495.79	89.31
496.008	78.31
496.225	79.31
496.442	100.31
496.66	101.31
496.877	84.31
497.094	107.31
497.312	104.31
497.529	84.31
497.746	97.31
497.963	88.31
498.181	96.31
498.398	97.31
498.615	109.31
498.832	105.31
499.049	105.31
499.267	100.31
499.484	78.31
499.701	85.31
499.918	97.31
500.135	86.31
500.352	84.31
500.569	96.31
500.786	89.31
501.003	95.31
501.22	81.31
501.437	102.31
501.654	99.31
501.871	106.31
502.088	83.31
502.305	90.31
502.522	87.31
502.739	87.31
502.956	84.31
503.172	92.31
503.389	99.31
503.606	100.31
503.823	95.31
504.04	94.31
504.256	103.31
504.473	90.31
504.69	98.31
504.907	99.31
505.123	97.31
505.34	97.31
505.557	83.31
505.773	97.31
505.99	103.31
506.207	93.31
506.423	94.31
506.64	88.31
506.856	76.31
507.073	110.31
507.289	110.31
507.506	99.31
507.722	115.31
507.939	103.31
508.155	84.31
508.372	94.31
508.588	99.31
508.805	89.31
509.021	98.31
509.238	94.31
509.454	79.31
509.67	110.31
509.887	103.31
510.103	132.31
510.319	218.31
510.536	774.31
510.752	2446.31
510.968	666.31
511.184	165.31
511.401	112.31
511.617	113.31
511.833	108.31
512.049	88.31
512.265	101.31
512.481	93.31
512.698	90.31
512.914	100.31
513.13	101.31
513.346	87.31
513.562	100.31
513.778	107.31
513.994	97.31
514.21	97.31
514.426	126.31
514.642	136.31
