Data from Uncirc_1984_H10_HRD10591_00020.txt Node
Date: Wed Jan 03 12:21:41 EST 2024
User: Yrep
Spectrometer: HR+D1059
Trigger mode: 1
Integration Time (sec): 1.000000E-1
Scans to average: 1
Electric dark correction enabled: true
Nonlinearity correction enabled: false
Boxcar width: 0
XAxis mode: Wavelengths
Number of Pixels in Spectrum: 2048
>>>>>Begin Spectral Data<<<<<
223.165	-23.19
223.4	-23.19
223.635	-23.19
223.869	-25.19
224.104	-11.19
224.338	-24.19
224.573	-8.19
224.808	-3.19
225.042	-9.19
225.277	-11.19
225.511	-8.19
225.746	-14.19
225.98	24.81
226.215	21.81
226.449	29.81
226.683	24.81
226.918	16.81
227.152	19.81
227.387	33.81
227.621	44.81
227.856	31.81
228.09	55.81
228.324	48.81
228.559	53.81
228.793	54.81
229.027	68.81
229.262	55.81
229.496	71.81
229.73	96.81
229.964	99.81
230.199	79.81
230.433	69.81
230.667	88.81
230.901	80.81
231.136	89.81
231.37	75.81
231.604	81.81
231.838	89.81
232.072	84.81
232.306	86.81
232.541	89.81
232.775	88.81
233.009	71.81
233.243	80.81
233.477	81.81
233.711	71.81
233.945	74.81
234.179	76.81
234.413	79.81
234.647	86.81
234.881	75.81
235.115	79.81
235.349	92.81
235.583	88.81
235.817	70.81
236.051	85.81
236.285	83.81
236.519	87.81
236.753	74.81
236.987	76.81
237.221	96.81
237.455	91.81
237.689	76.81
237.922	74.81
238.156	90.81
238.39	68.81
238.624	73.81
238.858	84.81
239.091	78.81
239.325	81.81
239.559	95.81
239.793	94.81
240.027	76.81
240.26	81.81
240.494	85.81
240.728	80.81
240.961	91.81
241.195	74.81
241.429	71.81
241.662	81.81
241.896	91.81
242.13	88.81
242.363	83.81
242.597	74.81
242.83	66.81
243.064	80.81
243.298	85.81
243.531	75.81
243.765	78.81
243.998	85.81
244.232	88.81
244.465	93.81
244.699	89.81
244.932	80.81
245.166	87.81
245.399	78.81
245.633	75.81
245.866	100.81
246.099	78.81
246.333	80.81
246.566	69.81
246.8	71.81
247.033	73.81
247.266	79.81
247.5	74.81
247.733	61.81
247.966	80.81
248.2	85.81
248.433	76.81
248.666	79.81
248.899	92.81
249.133	76.81
249.366	100.81
249.599	99.81
249.832	86.81
250.066	95.81
250.299	83.81
250.532	89.81
250.765	87.81
250.998	84.81
251.231	83.81
251.465	75.81
251.698	93.81
251.931	85.81
252.164	77.81
252.397	94.81
252.63	89.81
252.863	82.81
253.096	84.81
253.329	87.81
253.562	88.81
253.795	74.81
254.028	85.81
254.261	77.81
254.494	80.81
254.727	85.81
254.96	89.81
255.193	74.81
255.426	95.81
255.659	75.81
255.892	85.81
256.124	86.81
256.357	94.81
256.59	90.81
256.823	100.81
257.056	88.81
257.289	86.81
257.521	78.81
257.754	78.81
257.987	83.81
258.22	83.81
258.452	87.81
258.685	91.81
258.918	91.81
259.151	90.81
259.383	95.81
259.616	94.81
259.849	104.81
260.081	84.81
260.314	85.81
260.547	93.81
260.779	108.81
261.012	77.81
261.244	87.81
261.477	86.81
261.71	105.81
261.942	108.81
262.175	112.81
262.407	102.81
262.64	92.81
262.872	79.81
263.105	102.81
263.337	92.81
263.57	89.81
263.802	99.81
264.035	94.81
264.267	87.81
264.499	93.81
264.732	107.81
264.964	99.81
265.197	95.81
265.429	86.81
265.661	99.81
265.894	92.81
266.126	89.81
266.358	85.81
266.591	78.81
266.823	85.81
267.055	85.81
267.287	89.81
267.52	69.81
267.752	84.81
267.984	87.81
268.216	92.81
268.448	91.81
268.681	95.81
268.913	79.81
269.145	94.81
269.377	88.81
269.609	86.81
269.841	90.81
270.073	89.81
270.306	89.81
270.538	82.81
270.77	100.81
271.002	88.81
271.234	101.81
271.466	86.81
271.698	80.81
271.93	100.81
272.162	100.81
272.394	84.81
272.626	88.81
272.858	90.81
273.09	89.81
273.322	87.81
273.553	94.81
273.785	84.81
274.017	87.81
274.249	78.81
274.481	85.81
274.713	93.81
274.945	90.81
275.176	95.81
275.408	93.81
275.64	78.81
275.872	85.81
276.104	96.81
276.335	91.81
276.567	111.81
276.799	102.81
277.031	109.81
277.262	86.81
277.494	88.81
277.726	86.81
277.957	90.81
278.189	98.81
278.421	98.81
278.652	86.81
278.884	85.81
279.115	93.81
279.347	102.81
279.579	91.81
279.81	86.81
280.042	101.81
280.273	100.81
280.505	104.81
280.736	103.81
280.968	93.81
281.199	105.81
281.431	84.81
281.662	90.81
281.894	81.81
282.125	91.81
282.356	119.81
282.588	148.81
282.819	126.81
283.051	91.81
283.282	95.81
283.513	87.81
283.745	100.81
283.976	99.81
284.207	105.81
284.439	99.81
284.67	97.81
284.901	86.81
285.132	85.81
285.364	96.81
285.595	94.81
285.826	94.81
286.057	87.81
286.288	80.81
286.52	79.81
286.751	91.81
286.982	100.81
287.213	73.81
287.444	94.81
287.675	88.81
287.906	84.81
288.138	93.81
288.369	104.81
288.6	83.81
288.831	89.81
289.062	95.81
289.293	89.81
289.524	83.81
289.755	83.81
289.986	92.81
290.217	94.81
290.448	92.81
290.679	96.81
290.91	91.81
291.141	94.81
291.371	104.81
291.602	88.81
291.833	97.81
292.064	91.81
292.295	100.81
292.526	103.81
292.757	75.81
292.987	97.81
293.218	94.81
293.449	106.81
293.68	88.81
293.91	98.81
294.141	101.81
294.372	79.81
294.603	83.81
294.833	93.81
295.064	95.81
295.295	97.81
295.525	80.81
295.756	97.81
295.987	104.81
296.217	131.81
296.448	123.81
296.679	109.81
296.909	105.81
297.14	114.81
297.37	86.81
297.601	91.81
297.831	97.81
298.062	91.81
298.292	84.81
298.523	89.81
298.753	91.81
298.984	102.81
299.214	97.81
299.445	101.81
299.675	100.81
299.905	97.81
300.136	87.81
300.366	94.81
300.597	84.81
300.827	94.81
301.057	112.81
301.288	117.81
301.518	93.81
301.748	100.81
301.979	109.81
302.209	107.81
302.439	100.81
302.669	101.81
302.9	107.81
303.13	92.81
303.36	100.81
303.59	107.81
303.82	105.81
304.051	95.81
304.281	91.81
304.511	88.81
304.741	101.81
304.971	92.81
305.201	91.81
305.431	86.81
305.661	93.81
305.891	89.81
306.121	90.81
306.352	121.81
306.582	114.81
306.812	99.81
307.042	102.81
307.272	97.81
307.502	94.81
307.731	111.81
307.961	79.81
308.191	90.81
308.421	87.81
308.651	86.81
308.881	102.81
309.111	98.81
309.341	103.81
309.571	107.81
309.8	100.81
310.03	89.81
310.26	95.81
310.49	102.81
310.72	110.81
310.949	104.81
311.179	124.81
311.409	89.81
311.639	106.81
311.868	106.81
312.098	96.81
312.328	85.81
312.557	105.81
312.787	112.81
313.017	97.81
313.246	94.81
313.476	79.81
313.706	95.81
313.935	103.81
314.165	100.81
314.394	88.81
314.624	100.81
314.853	97.81
315.083	100.81
315.312	107.81
315.542	102.81
315.771	103.81
316.001	84.81
316.23	100.81
316.46	92.81
316.689	97.81
316.919	98.81
317.148	100.81
317.377	98.81
317.607	96.81
317.836	102.81
318.065	105.81
318.295	89.81
318.524	96.81
318.753	111.81
318.983	103.81
319.212	89.81
319.441	95.81
319.67	112.81
319.9	116.81
320.129	104.81
320.358	95.81
320.587	89.81
320.816	99.81
321.046	97.81
321.275	104.81
321.504	105.81
321.733	91.81
321.962	121.81
322.191	102.81
322.42	104.81
322.649	108.81
322.878	111.81
323.108	115.81
323.337	119.81
323.566	121.81
323.795	140.81
324.024	195.81
324.253	361.81
324.482	750.81
324.71	1477.81
324.939	2008.81
325.168	709.81
325.397	247.81
325.626	163.81
325.855	148.81
326.084	126.81
326.313	129.81
326.542	141.81
326.77	200.81
326.999	406.81
327.228	853.81
327.457	1565.81
327.686	1230.81
327.914	331.81
328.143	201.81
328.372	139.81
328.6	127.81
328.829	108.81
329.058	128.81
329.287	119.81
329.515	116.81
329.744	104.81
329.972	113.81
330.201	104.81
330.43	106.81
330.658	120.81
330.887	139.81
331.115	128.81
331.344	109.81
331.572	94.81
331.801	105.81
332.03	106.81
332.258	105.81
332.486	108.81
332.715	89.81
332.943	102.81
333.172	112.81
333.4	107.81
333.629	103.81
333.857	109.81
334.085	113.81
334.314	105.81
334.542	92.81
334.771	90.81
334.999	97.81
335.227	101.81
335.455	113.81
335.684	99.81
335.912	103.81
336.14	113.81
336.369	107.81
336.597	106.81
336.825	97.81
337.053	94.81
337.281	107.81
337.51	91.81
337.738	103.81
337.966	94.81
338.194	99.81
338.422	97.81
338.65	85.81
338.878	95.81
339.106	100.81
339.334	97.81
339.562	85.81
339.79	91.81
340.018	101.81
340.246	104.81
340.474	98.81
340.702	104.81
340.93	96.81
341.158	97.81
341.386	101.81
341.614	93.81
341.842	102.81
342.07	101.81
342.298	104.81
342.526	89.81
342.754	89.81
342.981	89.81
343.209	91.81
343.437	121.81
343.665	87.81
343.893	94.81
344.12	91.81
344.348	102.81
344.576	96.81
344.804	99.81
345.031	96.81
345.259	91.81
345.487	91.81
345.714	97.81
345.942	107.81
346.17	95.81
346.397	75.81
346.625	101.81
346.853	95.81
347.08	97.81
347.308	99.81
347.535	80.81
347.763	87.81
347.99	94.81
348.218	97.81
348.445	90.81
348.673	97.81
348.9	99.81
349.128	103.81
349.355	95.81
349.583	94.81
349.81	98.81
350.037	96.81
350.265	103.81
350.492	109.81
350.72	84.81
350.947	110.81
351.174	99.81
351.402	112.81
351.629	105.81
351.856	106.81
352.083	109.81
352.311	91.81
352.538	87.81
352.765	103.81
352.992	116.81
353.22	105.81
353.447	103.81
353.674	96.81
353.901	100.81
354.128	108.81
354.355	102.81
354.583	107.81
354.81	119.81
355.037	110.81
355.264	96.81
355.491	94.81
355.718	98.81
355.945	105.81
356.172	106.81
356.399	89.81
356.626	100.81
356.853	78.81
357.08	86.81
357.307	99.81
357.534	107.81
357.761	95.81
357.988	108.81
358.215	108.81
358.441	86.81
358.668	93.81
358.895	99.81
359.122	83.81
359.349	92.81
359.576	106.81
359.802	109.81
360.029	112.81
360.256	117.81
360.483	105.81
360.709	96.81
360.936	98.81
361.163	74.81
361.39	106.81
361.616	90.81
361.843	96.81
362.07	100.81
362.296	102.81
362.523	94.81
362.749	101.81
362.976	100.81
363.203	91.81
363.429	96.81
363.656	100.81
363.882	98.81
364.109	95.81
364.335	101.81
364.562	99.81
364.788	90.81
365.015	96.81
365.241	92.81
365.468	90.81
365.694	105.81
365.92	88.81
366.147	83.81
366.373	91.81
366.599	92.81
366.826	89.81
367.052	99.81
367.278	95.81
367.505	97.81
367.731	107.81
367.957	102.81
368.184	103.81
368.41	96.81
368.636	109.81
368.862	111.81
369.089	119.81
369.315	103.81
369.541	93.81
369.767	105.81
369.993	112.81
370.219	88.81
370.445	83.81
370.672	85.81
370.898	95.81
371.124	96.81
371.35	89.81
371.576	93.81
371.802	93.81
372.028	90.81
372.254	97.81
372.48	81.81
372.706	78.81
372.932	80.81
373.158	102.81
373.384	109.81
373.61	89.81
373.835	104.81
374.061	91.81
374.287	92.81
374.513	89.81
374.739	93.81
374.965	91.81
375.191	92.81
375.416	87.81
375.642	96.81
375.868	98.81
376.094	99.81
376.319	87.81
376.545	90.81
376.771	89.81
376.997	93.81
377.222	97.81
377.448	107.81
377.674	103.81
377.899	100.81
378.125	104.81
378.35	97.81
378.576	102.81
378.802	85.81
379.027	104.81
379.253	94.81
379.478	88.81
379.704	105.81
379.929	98.81
380.155	108.81
380.38	90.81
380.606	101.81
380.831	85.81
381.057	105.81
381.282	92.81
381.507	107.81
381.733	108.81
381.958	100.81
382.184	103.81
382.409	107.81
382.634	107.81
382.86	96.81
383.085	96.81
383.31	105.81
383.535	103.81
383.761	101.81
383.986	98.81
384.211	94.81
384.436	89.81
384.662	107.81
384.887	110.81
385.112	115.81
385.337	104.81
385.562	92.81
385.787	92.81
386.013	103.81
386.238	110.81
386.463	118.81
386.688	101.81
386.913	101.81
387.138	108.81
387.363	104.81
387.588	107.81
387.813	102.81
388.038	103.81
388.263	101.81
388.488	104.81
388.713	99.81
388.938	93.81
389.163	96.81
389.387	106.81
389.612	96.81
389.837	100.81
390.062	118.81
390.287	99.81
390.512	91.81
390.736	86.81
390.961	95.81
391.186	113.81
391.411	85.81
391.636	94.81
391.86	108.81
392.085	91.81
392.31	93.81
392.534	90.81
392.759	87.81
392.984	84.81
393.208	93.81
393.433	98.81
393.658	95.81
393.882	93.81
394.107	83.81
394.331	97.81
394.556	75.81
394.78	97.81
395.005	105.81
395.229	94.81
395.454	99.81
395.678	86.81
395.903	95.81
396.127	94.81
396.352	97.81
396.576	98.81
396.801	85.81
397.025	101.81
397.249	104.81
397.474	86.81
397.698	96.81
397.922	92.81
398.147	79.81
398.371	88.81
398.595	99.81
398.82	85.81
399.044	92.81
399.268	94.81
399.492	77.81
399.717	85.81
399.941	102.81
400.165	87.81
400.389	75.81
400.613	80.81
400.837	95.81
401.062	90.81
401.286	91.81
401.51	86.81
401.734	89.81
401.958	104.81
402.182	125.81
402.406	151.81
402.63	114.81
402.854	108.81
403.078	94.81
403.302	102.81
403.526	113.81
403.75	100.81
403.974	86.81
404.198	85.81
404.422	84.81
404.645	90.81
404.869	84.81
405.093	96.81
405.317	112.81
405.541	99.81
405.765	111.81
405.988	113.81
406.212	144.81
406.436	219.81
406.66	132.81
406.883	104.81
407.107	97.81
407.331	103.81
407.555	112.81
407.778	101.81
408.002	91.81
408.226	92.81
408.449	93.81
408.673	94.81
408.896	115.81
409.12	109.81
409.344	91.81
409.567	90.81
409.791	80.81
410.014	89.81
410.238	98.81
410.461	95.81
410.685	103.81
410.908	102.81
411.132	94.81
411.355	86.81
411.578	99.81
411.802	97.81
412.025	93.81
412.249	103.81
412.472	80.81
412.695	95.81
412.919	87.81
413.142	84.81
413.365	91.81
413.589	96.81
413.812	80.81
414.035	91.81
414.258	73.81
414.482	93.81
414.705	79.81
414.928	108.81
415.151	101.81
415.374	93.81
415.597	101.81
415.821	91.81
416.044	91.81
416.267	104.81
416.49	88.81
416.713	102.81
416.936	88.81
417.159	110.81
417.382	87.81
417.605	110.81
417.828	92.81
418.051	104.81
418.274	97.81
418.497	88.81
418.72	92.81
418.943	89.81
419.166	86.81
419.389	93.81
419.611	88.81
419.834	89.81
420.057	96.81
420.28	101.81
420.503	90.81
420.726	76.81
420.948	108.81
421.171	93.81
421.394	103.81
421.617	92.81
421.839	94.81
422.062	100.81
422.285	101.81
422.507	98.81
422.73	111.81
422.953	95.81
423.175	93.81
423.398	90.81
423.621	95.81
423.843	92.81
424.066	94.81
424.288	75.81
424.511	99.81
424.733	102.81
424.956	100.81
425.178	109.81
425.401	106.81
425.623	114.81
425.846	102.81
426.068	82.81
426.291	89.81
426.513	92.81
426.735	92.81
426.958	94.81
427.18	94.81
427.402	140.81
427.625	136.81
427.847	126.81
428.069	95.81
428.292	92.81
428.514	81.81
428.736	90.81
428.958	85.81
429.181	92.81
429.403	88.81
429.625	94.81
429.847	104.81
430.069	93.81
430.292	96.81
430.514	93.81
430.736	81.81
430.958	90.81
431.18	95.81
431.402	77.81
431.624	89.81
431.846	82.81
432.068	94.81
432.29	100.81
432.512	81.81
432.734	101.81
432.956	92.81
433.178	104.81
433.4	118.81
433.622	89.81
433.844	102.81
434.066	94.81
434.287	78.81
434.509	99.81
434.731	104.81
434.953	92.81
435.175	102.81
435.397	94.81
435.618	115.81
435.84	107.81
436.062	107.81
436.284	118.81
436.505	105.81
436.727	99.81
436.949	107.81
437.17	92.81
437.392	96.81
437.614	90.81
437.835	102.81
438.057	105.81
438.278	98.81
438.5	97.81
438.721	125.81
438.943	94.81
439.165	93.81
439.386	95.81
439.608	81.81
439.829	101.81
440.05	113.81
440.272	135.81
440.493	101.81
440.715	107.81
440.936	88.81
441.158	100.81
441.379	88.81
441.6	108.81
441.822	96.81
442.043	100.81
442.264	94.81
442.486	100.81
442.707	115.81
442.928	104.81
443.149	116.81
443.371	125.81
443.592	108.81
443.813	101.81
444.034	113.81
444.255	103.81
444.476	101.81
444.698	98.81
444.919	95.81
445.14	139.81
445.361	106.81
445.582	112.81
445.803	137.81
446.024	134.81
446.245	118.81
446.466	115.81
446.687	101.81
446.908	108.81
447.129	114.81
447.35	81.81
447.571	90.81
447.792	101.81
448.013	99.81
448.234	103.81
448.455	95.81
448.675	116.81
448.896	110.81
449.117	109.81
449.338	106.81
449.559	129.81
449.779	116.81
450	103.81
450.221	104.81
450.442	94.81
450.662	105.81
450.883	108.81
451.104	120.81
451.324	98.81
451.545	100.81
451.766	95.81
451.986	91.81
452.207	97.81
452.428	117.81
452.648	119.81
452.869	111.81
453.089	124.81
453.31	108.81
453.53	104.81
453.751	99.81
453.971	106.81
454.192	109.81
454.412	108.81
454.633	87.81
454.853	87.81
455.073	100.81
455.294	103.81
455.514	105.81
455.734	91.81
455.955	104.81
456.175	96.81
456.395	79.81
456.616	92.81
456.836	89.81
457.056	86.81
457.276	102.81
457.497	92.81
457.717	91.81
457.937	92.81
458.157	89.81
458.377	95.81
458.598	110.81
458.818	138.81
459.038	149.81
459.258	109.81
459.478	98.81
459.698	80.81
459.918	88.81
460.138	93.81
460.358	90.81
460.578	92.81
460.798	104.81
461.018	100.81
461.238	90.81
461.458	80.81
461.678	97.81
461.898	106.81
462.118	92.81
462.338	84.81
462.558	89.81
462.777	83.81
462.997	104.81
463.217	95.81
463.437	91.81
463.657	73.81
463.876	99.81
464.096	90.81
464.316	89.81
464.536	101.81
464.755	97.81
464.975	111.81
465.195	160.81
465.414	135.81
465.634	101.81
465.854	104.81
466.073	103.81
466.293	79.81
466.512	103.81
466.732	88.81
466.951	94.81
467.171	89.81
467.391	97.81
467.61	108.81
467.829	92.81
468.049	91.81
468.268	78.81
468.488	98.81
468.707	92.81
468.927	85.81
469.146	76.81
469.365	93.81
469.585	92.81
469.804	110.81
470.023	85.81
470.243	92.81
470.462	99.81
470.681	105.81
470.901	92.81
471.12	94.81
471.339	85.81
471.558	77.81
471.777	80.81
471.997	101.81
472.216	91.81
472.435	93.81
472.654	86.81
472.873	74.81
473.092	103.81
473.311	96.81
473.53	96.81
473.749	100.81
473.968	96.81
474.187	106.81
474.406	91.81
474.625	88.81
474.844	100.81
475.063	84.81
475.282	87.81
475.501	91.81
475.72	88.81
475.939	94.81
476.158	100.81
476.377	107.81
476.596	96.81
476.814	99.81
477.033	100.81
477.252	100.81
477.471	99.81
477.69	105.81
477.908	94.81
478.127	86.81
478.346	88.81
478.564	111.81
478.783	107.81
479.002	109.81
479.22	100.81
479.439	105.81
479.658	100.81
479.876	102.81
480.095	98.81
480.313	105.81
480.532	96.81
480.751	79.81
480.969	90.81
481.188	109.81
481.406	99.81
481.624	92.81
481.843	92.81
482.061	76.81
482.28	104.81
482.498	96.81
482.717	93.81
482.935	99.81
483.153	93.81
483.372	88.81
483.59	95.81
483.808	87.81
484.027	97.81
484.245	99.81
484.463	79.81
484.681	98.81
484.9	97.81
485.118	101.81
485.336	87.81
485.554	104.81
485.772	109.81
485.99	109.81
486.209	110.81
486.427	105.81
486.645	125.81
486.863	99.81
487.081	99.81
487.299	90.81
487.517	93.81
487.735	108.81
487.953	103.81
488.171	87.81
488.389	91.81
488.607	111.81
488.825	102.81
489.043	88.81
489.261	97.81
489.479	89.81
489.696	95.81
489.914	94.81
490.132	97.81
490.35	91.81
490.568	102.81
490.786	95.81
491.003	87.81
491.221	93.81
491.439	92.81
491.657	94.81
491.874	105.81
492.092	91.81
492.31	107.81
492.527	102.81
492.745	102.81
492.963	98.81
493.18	87.81
493.398	95.81
493.615	95.81
493.833	99.81
494.05	90.81
494.268	97.81
494.485	103.81
494.703	98.81
494.92	96.81
495.138	95.81
495.355	95.81
495.573	87.81
495.79	93.81
496.008	80.81
496.225	96.81
496.442	91.81
496.66	108.81
496.877	92.81
497.094	89.81
497.312	93.81
497.529	97.81
497.746	94.81
497.963	94.81
498.181	94.81
498.398	94.81
498.615	106.81
498.832	94.81
499.049	81.81
499.267	99.81
499.484	98.81
499.701	96.81
499.918	97.81
500.135	107.81
500.352	89.81
500.569	91.81
500.786	91.81
501.003	87.81
501.22	93.81
501.437	86.81
501.654	96.81
501.871	107.81
502.088	83.81
502.305	91.81
502.522	97.81
502.739	80.81
502.956	104.81
503.172	94.81
503.389	97.81
503.606	104.81
503.823	87.81
504.04	92.81
504.256	103.81
504.473	87.81
504.69	81.81
504.907	83.81
505.123	91.81
505.34	108.81
505.557	85.81
505.773	95.81
505.99	105.81
506.207	98.81
506.423	110.81
506.64	120.81
506.856	101.81
507.073	109.81
507.289	98.81
507.506	105.81
507.722	106.81
507.939	119.81
508.155	109.81
508.372	98.81
508.588	91.81
508.805	93.81
509.021	89.81
509.238	103.81
509.454	113.81
509.67	116.81
509.887	109.81
510.103	131.81
510.319	211.81
510.536	741.81
510.752	2329.81
510.968	631.81
511.184	134.81
511.401	113.81
511.617	112.81
511.833	108.81
512.049	87.81
512.265	104.81
512.481	83.81
512.698	94.81
512.914	91.81
513.13	100.81
513.346	99.81
