Data from Uncirc_1984_H10_HRD10591_00083.txt Node
Date: Wed Jan 03 12:21:53 EST 2024
User: Yrep
Spectrometer: HR+D1059
Trigger mode: 1
Integration Time (sec): 1.000000E-1
Scans to average: 1
Electric dark correction enabled: true
Nonlinearity correction enabled: false
Boxcar width: 0
XAxis mode: Wavelengths
Number of Pixels in Spectrum: 2048
>>>>>Begin Spectral Data<<<<<
223.165	-12.31
223.4	-12.31
223.635	-12.31
223.869	-8.31
224.104	-31.31
224.338	-15.31
224.573	-12.31
224.808	0.69
225.042	-16.31
225.277	-0.31
225.511	5.69
225.746	1.69
225.98	3.69
226.215	1.69
226.449	7.69
226.683	22.69
226.918	29.69
227.152	22.69
227.387	43.69
227.621	34.69
227.856	40.69
228.09	51.69
228.324	47.69
228.559	61.69
228.793	52.69
229.027	61.69
229.262	62.69
229.496	68.69
229.73	84.69
229.964	84.69
230.199	74.69
230.433	83.69
230.667	72.69
230.901	86.69
231.136	74.69
231.37	83.69
231.604	77.69
231.838	85.69
232.072	75.69
232.306	75.69
232.541	79.69
232.775	81.69
233.009	80.69
233.243	76.69
233.477	84.69
233.711	68.69
233.945	57.69
234.179	83.69
234.413	93.69
234.647	81.69
234.881	63.69
235.115	76.69
235.349	88.69
235.583	75.69
235.817	87.69
236.051	83.69
236.285	84.69
236.519	63.69
236.753	83.69
236.987	72.69
237.221	90.69
237.455	83.69
237.689	77.69
237.922	73.69
238.156	76.69
238.39	82.69
238.624	97.69
238.858	79.69
239.091	76.69
239.325	76.69
239.559	82.69
239.793	80.69
240.027	85.69
240.26	70.69
240.494	68.69
240.728	88.69
240.961	75.69
241.195	87.69
241.429	76.69
241.662	81.69
241.896	75.69
242.13	70.69
242.363	89.69
242.597	84.69
242.83	83.69
243.064	74.69
243.298	75.69
243.531	65.69
243.765	76.69
243.998	69.69
244.232	83.69
244.465	74.69
244.699	83.69
244.932	78.69
245.166	81.69
245.399	79.69
245.633	86.69
245.866	71.69
246.099	81.69
246.333	80.69
246.566	95.69
246.8	84.69
247.033	82.69
247.266	77.69
247.5	77.69
247.733	81.69
247.966	83.69
248.2	82.69
248.433	84.69
248.666	72.69
248.899	73.69
249.133	86.69
249.366	81.69
249.599	98.69
249.832	86.69
250.066	74.69
250.299	81.69
250.532	73.69
250.765	83.69
250.998	89.69
251.231	73.69
251.465	85.69
251.698	75.69
251.931	75.69
252.164	67.69
252.397	72.69
252.63	84.69
252.863	83.69
253.096	99.69
253.329	82.69
253.562	96.69
253.795	96.69
254.028	79.69
254.261	69.69
254.494	81.69
254.727	82.69
254.96	83.69
255.193	71.69
255.426	81.69
255.659	71.69
255.892	83.69
256.124	65.69
256.357	79.69
256.59	79.69
256.823	82.69
257.056	80.69
257.289	75.69
257.521	93.69
257.754	73.69
257.987	76.69
258.22	82.69
258.452	73.69
258.685	77.69
258.918	81.69
259.151	73.69
259.383	85.69
259.616	75.69
259.849	81.69
260.081	99.69
260.314	83.69
260.547	73.69
260.779	85.69
261.012	78.69
261.244	99.69
261.477	84.69
261.71	87.69
261.942	91.69
262.175	106.69
262.407	92.69
262.64	88.69
262.872	87.69
263.105	75.69
263.337	89.69
263.57	89.69
263.802	82.69
264.035	88.69
264.267	87.69
264.499	74.69
264.732	87.69
264.964	87.69
265.197	69.69
265.429	76.69
265.661	87.69
265.894	84.69
266.126	90.69
266.358	100.69
266.591	88.69
266.823	87.69
267.055	70.69
267.287	76.69
267.52	73.69
267.752	93.69
267.984	95.69
268.216	81.69
268.448	65.69
268.681	83.69
268.913	80.69
269.145	92.69
269.377	88.69
269.609	88.69
269.841	69.69
270.073	87.69
270.306	70.69
270.538	101.69
270.77	95.69
271.002	85.69
271.234	74.69
271.466	94.69
271.698	75.69
271.93	98.69
272.162	81.69
272.394	89.69
272.626	76.69
272.858	92.69
273.09	88.69
273.322	87.69
273.553	79.69
273.785	84.69
274.017	85.69
274.249	85.69
274.481	60.69
274.713	88.69
274.945	92.69
275.176	84.69
275.408	92.69
275.64	88.69
275.872	89.69
276.104	70.69
276.335	111.69
276.567	87.69
276.799	107.69
277.031	89.69
277.262	87.69
277.494	88.69
277.726	100.69
277.957	83.69
278.189	84.69
278.421	74.69
278.652	88.69
278.884	82.69
279.115	89.69
279.347	103.69
279.579	90.69
279.81	95.69
280.042	91.69
280.273	89.69
280.505	98.69
280.736	75.69
280.968	82.69
281.199	92.69
281.431	102.69
281.662	85.69
281.894	76.69
282.125	99.69
282.356	116.69
282.588	131.69
282.819	98.69
283.051	86.69
283.282	81.69
283.513	90.69
283.745	91.69
283.976	97.69
284.207	87.69
284.439	81.69
284.67	94.69
284.901	80.69
285.132	87.69
285.364	87.69
285.595	81.69
285.826	78.69
286.057	99.69
286.288	84.69
286.52	87.69
286.751	87.69
286.982	89.69
287.213	90.69
287.444	111.69
287.675	84.69
287.906	87.69
288.138	96.69
288.369	89.69
288.6	90.69
288.831	91.69
289.062	85.69
289.293	79.69
289.524	85.69
289.755	89.69
289.986	88.69
290.217	84.69
290.448	96.69
290.679	87.69
290.91	91.69
291.141	80.69
291.371	89.69
291.602	85.69
291.833	82.69
292.064	86.69
292.295	104.69
292.526	75.69
292.757	70.69
292.987	81.69
293.218	95.69
293.449	73.69
293.68	85.69
293.91	82.69
294.141	89.69
294.372	97.69
294.603	77.69
294.833	81.69
295.064	89.69
295.295	84.69
295.525	95.69
295.756	97.69
295.987	107.69
296.217	123.69
296.448	111.69
296.679	93.69
296.909	84.69
297.14	87.69
297.37	101.69
297.601	96.69
297.831	83.69
298.062	99.69
298.292	77.69
298.523	77.69
298.753	87.69
298.984	82.69
299.214	102.69
299.445	95.69
299.675	94.69
299.905	86.69
300.136	95.69
300.366	94.69
300.597	97.69
300.827	97.69
301.057	100.69
301.288	89.69
301.518	91.69
301.748	92.69
301.979	97.69
302.209	100.69
302.439	90.69
302.669	87.69
302.9	85.69
303.13	94.69
303.36	83.69
303.59	85.69
303.82	99.69
304.051	88.69
304.281	102.69
304.511	89.69
304.741	84.69
304.971	81.69
305.201	89.69
305.431	85.69
305.661	85.69
305.891	84.69
306.121	95.69
306.352	100.69
306.582	106.69
306.812	89.69
307.042	103.69
307.272	97.69
307.502	95.69
307.731	85.69
307.961	97.69
308.191	87.69
308.421	97.69
308.651	97.69
308.881	93.69
309.111	87.69
309.341	85.69
309.571	83.69
309.8	98.69
310.03	95.69
310.26	89.69
310.49	81.69
310.72	104.69
310.949	75.69
311.179	92.69
311.409	83.69
311.639	91.69
311.868	99.69
312.098	101.69
312.328	89.69
312.557	103.69
312.787	106.69
313.017	96.69
313.246	99.69
313.476	79.69
313.706	101.69
313.935	99.69
314.165	101.69
314.394	105.69
314.624	97.69
314.853	92.69
315.083	81.69
315.312	87.69
315.542	90.69
315.771	98.69
316.001	76.69
316.23	107.69
316.46	84.69
316.689	90.69
316.919	77.69
317.148	91.69
317.377	97.69
317.607	92.69
317.836	95.69
318.065	88.69
318.295	86.69
318.524	89.69
318.753	76.69
318.983	86.69
319.212	100.69
319.441	91.69
319.67	101.69
319.9	91.69
320.129	90.69
320.358	98.69
320.587	90.69
320.816	93.69
321.046	87.69
321.275	99.69
321.504	102.69
321.733	92.69
321.962	90.69
322.191	106.69
322.42	99.69
322.649	113.69
322.878	93.69
323.108	111.69
323.337	120.69
323.566	128.69
323.795	137.69
324.024	171.69
324.253	330.69
324.482	691.69
324.71	1368.69
324.939	1819.69
325.168	665.69
325.397	220.69
325.626	136.69
325.855	125.69
326.084	131.69
326.313	130.69
326.542	148.69
326.77	211.69
326.999	373.69
327.228	794.69
327.457	1440.69
327.686	1137.69
327.914	307.69
328.143	173.69
328.372	137.69
328.6	124.69
328.829	108.69
329.058	117.69
329.287	95.69
329.515	93.69
329.744	126.69
329.972	103.69
330.201	106.69
330.43	98.69
330.658	109.69
330.887	123.69
331.115	117.69
331.344	91.69
331.572	89.69
331.801	96.69
332.03	116.69
332.258	103.69
332.486	91.69
332.715	98.69
332.943	93.69
333.172	101.69
333.4	93.69
333.629	107.69
333.857	113.69
334.085	108.69
334.314	97.69
334.542	99.69
334.771	92.69
334.999	106.69
335.227	95.69
335.455	92.69
335.684	84.69
335.912	92.69
336.14	101.69
336.369	97.69
336.597	103.69
336.825	98.69
337.053	95.69
337.281	83.69
337.51	85.69
337.738	98.69
337.966	88.69
338.194	90.69
338.422	97.69
338.65	94.69
338.878	87.69
339.106	91.69
339.334	91.69
339.562	99.69
339.79	80.69
340.018	98.69
340.246	105.69
340.474	95.69
340.702	89.69
340.93	84.69
341.158	101.69
341.386	97.69
341.614	92.69
341.842	98.69
342.07	86.69
342.298	101.69
342.526	87.69
342.754	90.69
342.981	87.69
343.209	83.69
343.437	91.69
343.665	92.69
343.893	108.69
344.12	102.69
344.348	85.69
344.576	103.69
344.804	89.69
345.031	106.69
345.259	92.69
345.487	90.69
345.714	99.69
345.942	91.69
346.17	82.69
346.397	97.69
346.625	101.69
346.853	94.69
347.08	91.69
347.308	99.69
347.535	96.69
347.763	81.69
347.99	109.69
348.218	92.69
348.445	96.69
348.673	95.69
348.9	102.69
349.128	92.69
349.355	91.69
349.583	100.69
349.81	85.69
350.037	93.69
350.265	99.69
350.492	73.69
350.72	99.69
350.947	89.69
351.174	115.69
351.402	101.69
351.629	82.69
351.856	105.69
352.083	83.69
352.311	93.69
352.538	97.69
352.765	98.69
352.992	108.69
353.22	101.69
353.447	96.69
353.674	104.69
353.901	104.69
354.128	92.69
354.355	104.69
354.583	91.69
354.81	97.69
355.037	92.69
355.264	91.69
355.491	103.69
355.718	93.69
355.945	103.69
356.172	98.69
356.399	83.69
356.626	113.69
356.853	84.69
357.08	80.69
357.307	88.69
357.534	96.69
357.761	95.69
357.988	105.69
358.215	100.69
358.441	85.69
358.668	98.69
358.895	87.69
359.122	87.69
359.349	82.69
359.576	91.69
359.802	86.69
360.029	100.69
360.256	98.69
360.483	102.69
360.709	83.69
360.936	95.69
361.163	81.69
361.39	91.69
361.616	95.69
361.843	84.69
362.07	92.69
362.296	89.69
362.523	90.69
362.749	81.69
362.976	88.69
363.203	88.69
363.429	100.69
363.656	89.69
363.882	76.69
364.109	75.69
364.335	90.69
364.562	73.69
364.788	87.69
365.015	81.69
365.241	90.69
365.468	100.69
365.694	100.69
365.92	98.69
366.147	101.69
366.373	85.69
366.599	100.69
366.826	89.69
367.052	99.69
367.278	75.69
367.505	104.69
367.731	94.69
367.957	96.69
368.184	101.69
368.41	84.69
368.636	90.69
368.862	112.69
369.089	101.69
369.315	88.69
369.541	96.69
369.767	86.69
369.993	97.69
370.219	103.69
370.445	89.69
370.672	88.69
370.898	78.69
371.124	76.69
371.35	81.69
371.576	83.69
371.802	82.69
372.028	91.69
372.254	97.69
372.48	89.69
372.706	82.69
372.932	89.69
373.158	90.69
373.384	89.69
373.61	102.69
373.835	93.69
374.061	91.69
374.287	104.69
374.513	91.69
374.739	92.69
374.965	93.69
375.191	86.69
375.416	111.69
375.642	85.69
375.868	82.69
376.094	89.69
376.319	85.69
376.545	93.69
376.771	81.69
376.997	76.69
377.222	84.69
377.448	98.69
377.674	77.69
377.899	72.69
378.125	84.69
378.35	98.69
378.576	87.69
378.802	86.69
379.027	99.69
379.253	86.69
379.478	85.69
379.704	80.69
379.929	87.69
380.155	93.69
380.38	83.69
380.606	105.69
380.831	91.69
381.057	94.69
381.282	87.69
381.507	79.69
381.733	87.69
381.958	107.69
382.184	93.69
382.409	87.69
382.634	103.69
382.86	101.69
383.085	87.69
383.31	95.69
383.535	104.69
383.761	101.69
383.986	97.69
384.211	91.69
384.436	91.69
384.662	102.69
384.887	101.69
385.112	100.69
385.337	91.69
385.562	88.69
385.787	99.69
386.013	112.69
386.238	105.69
386.463	96.69
386.688	96.69
386.913	99.69
387.138	93.69
387.363	98.69
387.588	110.69
387.813	98.69
388.038	92.69
388.263	93.69
388.488	108.69
388.713	94.69
388.938	100.69
389.163	97.69
389.387	86.69
389.612	92.69
389.837	97.69
390.062	91.69
390.287	100.69
390.512	108.69
390.736	88.69
390.961	86.69
391.186	88.69
391.411	92.69
391.636	92.69
391.86	104.69
392.085	103.69
392.31	88.69
392.534	95.69
392.759	88.69
392.984	90.69
393.208	86.69
393.433	103.69
393.658	90.69
393.882	74.69
394.107	89.69
394.331	81.69
394.556	80.69
394.78	95.69
395.005	92.69
395.229	89.69
395.454	95.69
395.678	87.69
395.903	93.69
396.127	101.69
396.352	76.69
396.576	83.69
396.801	100.69
397.025	82.69
397.249	69.69
397.474	88.69
397.698	79.69
397.922	90.69
398.147	90.69
398.371	91.69
398.595	91.69
398.82	87.69
399.044	73.69
399.268	92.69
399.492	82.69
399.717	87.69
399.941	87.69
400.165	102.69
400.389	94.69
400.613	87.69
400.837	87.69
401.062	82.69
401.286	84.69
401.51	91.69
401.734	85.69
401.958	83.69
402.182	104.69
402.406	141.69
402.63	117.69
402.854	96.69
403.078	81.69
403.302	82.69
403.526	95.69
403.75	85.69
403.974	88.69
404.198	89.69
404.422	86.69
404.645	92.69
404.869	91.69
405.093	97.69
405.317	91.69
405.541	92.69
405.765	100.69
405.988	117.69
406.212	161.69
406.436	200.69
406.66	115.69
406.883	97.69
407.107	91.69
407.331	81.69
407.555	85.69
407.778	102.69
408.002	95.69
408.226	87.69
408.449	83.69
408.673	93.69
408.896	91.69
409.12	85.69
409.344	94.69
409.567	88.69
409.791	88.69
410.014	107.69
410.238	91.69
410.461	95.69
410.685	71.69
410.908	93.69
411.132	94.69
411.355	104.69
411.578	106.69
411.802	91.69
412.025	91.69
412.249	91.69
412.472	98.69
412.695	76.69
412.919	89.69
413.142	82.69
413.365	81.69
413.589	82.69
413.812	87.69
414.035	95.69
414.258	81.69
414.482	96.69
414.705	100.69
414.928	96.69
415.151	74.69
415.374	91.69
415.597	85.69
415.821	91.69
416.044	76.69
416.267	87.69
416.49	82.69
416.713	79.69
416.936	90.69
417.159	91.69
417.382	90.69
417.605	91.69
417.828	87.69
418.051	91.69
418.274	111.69
418.497	93.69
418.72	77.69
418.943	87.69
419.166	81.69
419.389	84.69
419.611	98.69
419.834	91.69
420.057	95.69
420.28	86.69
420.503	94.69
420.726	95.69
420.948	99.69
421.171	92.69
421.394	80.69
421.617	95.69
421.839	84.69
422.062	85.69
422.285	91.69
422.507	93.69
422.73	103.69
422.953	96.69
423.175	84.69
423.398	91.69
423.621	96.69
423.843	81.69
424.066	86.69
424.288	92.69
424.511	88.69
424.733	70.69
424.956	99.69
425.178	97.69
425.401	107.69
425.623	98.69
425.846	85.69
426.068	99.69
426.291	97.69
426.513	94.69
426.735	89.69
426.958	90.69
427.18	102.69
427.402	125.69
427.625	157.69
427.847	122.69
428.069	111.69
428.292	87.69
428.514	96.69
428.736	76.69
428.958	77.69
429.181	94.69
429.403	77.69
429.625	69.69
429.847	100.69
430.069	97.69
430.292	95.69
430.514	69.69
430.736	85.69
430.958	90.69
431.18	83.69
431.402	74.69
431.624	76.69
431.846	90.69
432.068	75.69
432.29	106.69
432.512	98.69
432.734	83.69
432.956	80.69
433.178	87.69
433.4	112.69
433.622	94.69
433.844	95.69
434.066	86.69
434.287	92.69
434.509	96.69
434.731	81.69
434.953	91.69
435.175	85.69
435.397	82.69
435.618	97.69
435.84	96.69
436.062	104.69
436.284	99.69
436.505	105.69
436.727	108.69
436.949	84.69
437.17	86.69
437.392	87.69
437.614	93.69
437.835	87.69
438.057	111.69
438.278	113.69
438.5	101.69
438.721	109.69
438.943	98.69
439.165	84.69
439.386	72.69
439.608	69.69
439.829	100.69
440.05	105.69
440.272	124.69
440.493	81.69
440.715	83.69
440.936	105.69
441.158	94.69
441.379	90.69
441.6	103.69
441.822	87.69
442.043	96.69
442.264	97.69
442.486	92.69
442.707	69.69
442.928	109.69
443.149	113.69
443.371	119.69
443.592	106.69
443.813	100.69
444.034	98.69
444.255	94.69
444.476	74.69
444.698	83.69
444.919	87.69
445.14	141.69
445.361	113.69
445.582	114.69
445.803	118.69
446.024	130.69
446.245	129.69
446.466	113.69
446.687	85.69
446.908	85.69
447.129	108.69
447.35	89.69
447.571	89.69
447.792	81.69
448.013	93.69
448.234	93.69
448.455	99.69
448.675	110.69
448.896	115.69
449.117	96.69
449.338	108.69
449.559	115.69
449.779	119.69
450	100.69
450.221	79.69
450.442	82.69
450.662	87.69
450.883	107.69
451.104	105.69
451.324	94.69
451.545	84.69
451.766	89.69
451.986	93.69
452.207	86.69
452.428	103.69
452.648	84.69
452.869	96.69
453.089	100.69
453.31	101.69
453.53	90.69
453.751	101.69
453.971	108.69
454.192	98.69
454.412	88.69
454.633	90.69
454.853	88.69
455.073	86.69
455.294	94.69
455.514	84.69
455.734	89.69
455.955	92.69
456.175	76.69
456.395	73.69
456.616	80.69
456.836	82.69
457.056	82.69
457.276	94.69
457.497	89.69
457.717	76.69
457.937	84.69
458.157	74.69
458.377	77.69
458.598	99.69
458.818	127.69
459.038	136.69
459.258	113.69
459.478	97.69
459.698	85.69
459.918	81.69
460.138	75.69
460.358	99.69
460.578	84.69
460.798	89.69
461.018	96.69
461.238	92.69
461.458	72.69
461.678	79.69
461.898	89.69
462.118	95.69
462.338	87.69
462.558	92.69
462.777	99.69
462.997	91.69
463.217	95.69
463.437	98.69
463.657	73.69
463.876	88.69
464.096	84.69
464.316	78.69
464.536	94.69
464.755	89.69
464.975	103.69
465.195	154.69
465.414	135.69
465.634	89.69
465.854	68.69
466.073	94.69
466.293	91.69
466.512	77.69
466.732	93.69
466.951	97.69
467.171	95.69
467.391	89.69
467.61	109.69
467.829	97.69
468.049	95.69
468.268	101.69
468.488	83.69
468.707	87.69
468.927	99.69
469.146	88.69
469.365	81.69
469.585	74.69
469.804	89.69
470.023	89.69
470.243	104.69
470.462	91.69
470.681	99.69
470.901	86.69
471.12	80.69
471.339	100.69
471.558	86.69
471.777	78.69
471.997	87.69
472.216	100.69
472.435	95.69
472.654	99.69
472.873	85.69
473.092	91.69
473.311	81.69
473.53	84.69
473.749	85.69
473.968	91.69
474.187	113.69
474.406	99.69
474.625	90.69
474.844	82.69
475.063	87.69
475.282	90.69
475.501	86.69
475.72	86.69
475.939	85.69
476.158	78.69
476.377	74.69
476.596	89.69
476.814	101.69
477.033	98.69
477.252	88.69
477.471	79.69
477.69	99.69
477.908	79.69
478.127	86.69
478.346	84.69
478.564	94.69
478.783	87.69
479.002	76.69
479.22	94.69
479.439	95.69
479.658	97.69
479.876	92.69
480.095	100.69
480.313	83.69
480.532	83.69
480.751	82.69
480.969	97.69
481.188	90.69
481.406	89.69
481.624	82.69
481.843	98.69
482.061	82.69
482.28	87.69
482.498	88.69
482.717	83.69
482.935	92.69
483.153	96.69
483.372	100.69
483.59	79.69
483.808	73.69
484.027	81.69
484.245	88.69
484.463	77.69
484.681	100.69
484.9	84.69
485.118	95.69
485.336	97.69
485.554	100.69
485.772	93.69
485.99	111.69
486.209	94.69
486.427	105.69
486.645	106.69
486.863	109.69
487.081	98.69
487.299	106.69
487.517	74.69
487.735	79.69
487.953	96.69
488.171	89.69
488.389	102.69
488.607	109.69
488.825	95.69
489.043	101.69
489.261	85.69
489.479	94.69
489.696	93.69
489.914	94.69
490.132	101.69
490.35	87.69
490.568	96.69
490.786	99.69
491.003	93.69
491.221	99.69
491.439	97.69
491.657	79.69
491.874	100.69
492.092	93.69
492.31	96.69
492.527	94.69
492.745	91.69
492.963	90.69
493.18	100.69
493.398	87.69
493.615	101.69
493.833	89.69
494.05	94.69
494.268	92.69
494.485	99.69
494.703	92.69
494.92	89.69
495.138	97.69
495.355	104.69
495.573	93.69
495.79	90.69
496.008	99.69
496.225	105.69
496.442	98.69
496.66	98.69
496.877	86.69
497.094	93.69
497.312	99.69
497.529	101.69
497.746	101.69
497.963	91.69
498.181	97.69
498.398	89.69
498.615	106.69
498.832	104.69
499.049	93.69
499.267	100.69
499.484	95.69
499.701	96.69
499.918	96.69
500.135	86.69
500.352	91.69
500.569	73.69
500.786	84.69
501.003	87.69
501.22	82.69
501.437	81.69
501.654	85.69
501.871	107.69
502.088	90.69
502.305	97.69
502.522	91.69
502.739	97.69
502.956	83.69
503.172	95.69
503.389	88.69
503.606	108.69
503.823	97.69
504.04	81.69
504.256	92.69
504.473	85.69
504.69	85.69
504.907	96.69
505.123	89.69
505.34	76.69
505.557	93.69
505.773	91.69
505.99	76.69
506.207	96.69
506.423	86.69
506.64	101.69
506.856	93.69
507.073	100.69
507.289	97.69
507.506	95.69
507.722	105.69
507.939	102.69
508.155	88.69
508.372	88.69
508.588	94.69
508.805	90.69
509.021	102.69
509.238	91.69
509.454	92.69
509.67	105.69
509.887	105.69
510.103	106.69
510.319	188.69
510.536	635.69
510.752	2009.69
510.968	551.69
511.184	142.69
511.401	103.69
511.617	88.69
511.833	73.69
512.049	95.69
512.265	84.69
512.481	95.69
512.698	89.69
512.914	85.69
513.13	86.69
513.346	92.69
513.562	103.69
513.778	84.69
513.994	93.69
514.21	96.69
514.426	109.69
514.642	128.69
514.858	123.69
515.074	151.69
515.29	352.69
515.506	1153.69
515.721	452.69
515.937	137.69
516.153	114.69
516.369	92.69
