Data from Uncirc_1984_H10_HRD10591_00053.txt Node
Date: Wed Jan 03 12:21:47 EST 2024
User: Yrep
Spectrometer: HR+D1059
Trigger mode: 1
Integration Time (sec): 1.000000E-1
Scans to average: 1
Electric dark correction enabled: true
Nonlinearity correction enabled: false
Boxcar width: 0
XAxis mode: Wavelengths
Number of Pixels in Spectrum: 2048
>>>>>Begin Spectral Data<<<<<
223.165	-16.31
223.4	-16.31
223.635	-16.31
223.869	-13.31
224.104	-16.31
224.338	-20.31
224.573	-23.31
224.808	-27.31
225.042	3.69
225.277	-19.31
225.511	-5.31
225.746	12.69
225.98	15.69
226.215	9.69
226.449	10.69
226.683	21.69
226.918	24.69
227.152	42.69
227.387	30.69
227.621	40.69
227.856	40.69
228.09	38.69
228.324	40.69
228.559	56.69
228.793	51.69
229.027	71.69
229.262	62.69
229.496	72.69
229.73	72.69
229.964	89.69
230.199	68.69
230.433	74.69
230.667	73.69
230.901	87.69
231.136	85.69
231.37	83.69
231.604	86.69
231.838	82.69
232.072	83.69
232.306	97.69
232.541	86.69
232.775	77.69
233.009	61.69
233.243	66.69
233.477	86.69
233.711	80.69
233.945	72.69
234.179	83.69
234.413	69.69
234.647	81.69
234.881	77.69
235.115	78.69
235.349	73.69
235.583	81.69
235.817	68.69
236.051	83.69
236.285	68.69
236.519	65.69
236.753	81.69
236.987	76.69
237.221	74.69
237.455	88.69
237.689	61.69
237.922	62.69
238.156	74.69
238.39	58.69
238.624	69.69
238.858	76.69
239.091	76.69
239.325	73.69
239.559	69.69
239.793	73.69
240.027	82.69
240.26	87.69
240.494	81.69
240.728	69.69
240.961	71.69
241.195	61.69
241.429	63.69
241.662	59.69
241.896	73.69
242.13	57.69
242.363	73.69
242.597	75.69
242.83	68.69
243.064	76.69
243.298	72.69
243.531	73.69
243.765	64.69
243.998	76.69
244.232	76.69
244.465	71.69
244.699	79.69
244.932	79.69
245.166	69.69
245.399	75.69
245.633	80.69
245.866	70.69
246.099	76.69
246.333	70.69
246.566	70.69
246.8	73.69
247.033	86.69
247.266	75.69
247.5	76.69
247.733	83.69
247.966	74.69
248.2	84.69
248.433	94.69
248.666	73.69
248.899	65.69
249.133	80.69
249.366	67.69
249.599	84.69
249.832	86.69
250.066	76.69
250.299	73.69
250.532	90.69
250.765	63.69
250.998	94.69
251.231	86.69
251.465	70.69
251.698	69.69
251.931	72.69
252.164	82.69
252.397	86.69
252.63	80.69
252.863	83.69
253.096	84.69
253.329	83.69
253.562	68.69
253.795	71.69
254.028	78.69
254.261	78.69
254.494	89.69
254.727	87.69
254.96	73.69
255.193	91.69
255.426	90.69
255.659	91.69
255.892	88.69
256.124	87.69
256.357	69.69
256.59	86.69
256.823	74.69
257.056	87.69
257.289	70.69
257.521	72.69
257.754	66.69
257.987	66.69
258.22	69.69
258.452	74.69
258.685	81.69
258.918	86.69
259.151	88.69
259.383	72.69
259.616	76.69
259.849	77.69
260.081	94.69
260.314	104.69
260.547	84.69
260.779	91.69
261.012	89.69
261.244	88.69
261.477	77.69
261.71	78.69
261.942	81.69
262.175	113.69
262.407	87.69
262.64	87.69
262.872	77.69
263.105	76.69
263.337	69.69
263.57	75.69
263.802	71.69
264.035	78.69
264.267	80.69
264.499	84.69
264.732	80.69
264.964	81.69
265.197	80.69
265.429	80.69
265.661	72.69
265.894	94.69
266.126	92.69
266.358	84.69
266.591	71.69
266.823	70.69
267.055	85.69
267.287	86.69
267.52	84.69
267.752	70.69
267.984	76.69
268.216	80.69
268.448	82.69
268.681	75.69
268.913	88.69
269.145	81.69
269.377	92.69
269.609	82.69
269.841	84.69
270.073	88.69
270.306	90.69
270.538	85.69
270.77	71.69
271.002	76.69
271.234	76.69
271.466	82.69
271.698	85.69
271.93	81.69
272.162	90.69
272.394	85.69
272.626	80.69
272.858	81.69
273.09	81.69
273.322	82.69
273.553	82.69
273.785	86.69
274.017	85.69
274.249	80.69
274.481	84.69
274.713	79.69
274.945	88.69
275.176	95.69
275.408	80.69
275.64	88.69
275.872	97.69
276.104	74.69
276.335	84.69
276.567	92.69
276.799	106.69
277.031	105.69
277.262	77.69
277.494	91.69
277.726	85.69
277.957	76.69
278.189	87.69
278.421	82.69
278.652	78.69
278.884	84.69
279.115	79.69
279.347	67.69
279.579	81.69
279.81	69.69
280.042	89.69
280.273	90.69
280.505	82.69
280.736	80.69
280.968	78.69
281.199	80.69
281.431	79.69
281.662	88.69
281.894	102.69
282.125	89.69
282.356	111.69
282.588	133.69
282.819	99.69
283.051	86.69
283.282	92.69
283.513	100.69
283.745	89.69
283.976	74.69
284.207	73.69
284.439	79.69
284.67	86.69
284.901	88.69
285.132	91.69
285.364	90.69
285.595	78.69
285.826	87.69
286.057	96.69
286.288	64.69
286.52	87.69
286.751	85.69
286.982	76.69
287.213	69.69
287.444	101.69
287.675	96.69
287.906	89.69
288.138	94.69
288.369	86.69
288.6	87.69
288.831	82.69
289.062	79.69
289.293	96.69
289.524	79.69
289.755	80.69
289.986	80.69
290.217	93.69
290.448	82.69
290.679	84.69
290.91	87.69
291.141	78.69
291.371	80.69
291.602	88.69
291.833	81.69
292.064	79.69
292.295	80.69
292.526	91.69
292.757	91.69
292.987	97.69
293.218	83.69
293.449	79.69
293.68	80.69
293.91	93.69
294.141	93.69
294.372	83.69
294.603	88.69
294.833	82.69
295.064	89.69
295.295	105.69
295.525	106.69
295.756	98.69
295.987	110.69
296.217	128.69
296.448	108.69
296.679	85.69
296.909	84.69
297.14	108.69
297.37	88.69
297.601	98.69
297.831	90.69
298.062	99.69
298.292	81.69
298.523	84.69
298.753	82.69
298.984	78.69
299.214	90.69
299.445	93.69
299.675	102.69
299.905	98.69
300.136	85.69
300.366	86.69
300.597	87.69
300.827	101.69
301.057	99.69
301.288	80.69
301.518	68.69
301.748	90.69
301.979	97.69
302.209	98.69
302.439	89.69
302.669	78.69
302.9	78.69
303.13	90.69
303.36	74.69
303.59	92.69
303.82	106.69
304.051	93.69
304.281	93.69
304.511	92.69
304.741	88.69
304.971	88.69
305.201	88.69
305.431	95.69
305.661	86.69
305.891	93.69
306.121	93.69
306.352	97.69
306.582	118.69
306.812	92.69
307.042	90.69
307.272	97.69
307.502	85.69
307.731	84.69
307.961	84.69
308.191	86.69
308.421	86.69
308.651	84.69
308.881	83.69
309.111	98.69
309.341	91.69
309.571	86.69
309.8	90.69
310.03	94.69
310.26	104.69
310.49	102.69
310.72	77.69
310.949	88.69
311.179	106.69
311.409	87.69
311.639	100.69
311.868	100.69
312.098	98.69
312.328	89.69
312.557	99.69
312.787	102.69
313.017	102.69
313.246	81.69
313.476	80.69
313.706	89.69
313.935	92.69
314.165	94.69
314.394	102.69
314.624	82.69
314.853	89.69
315.083	82.69
315.312	89.69
315.542	80.69
315.771	76.69
316.001	85.69
316.23	79.69
316.46	101.69
316.689	93.69
316.919	80.69
317.148	95.69
317.377	88.69
317.607	84.69
317.836	84.69
318.065	79.69
318.295	100.69
318.524	78.69
318.753	80.69
318.983	92.69
319.212	87.69
319.441	90.69
319.67	88.69
319.9	78.69
320.129	85.69
320.358	101.69
320.587	93.69
320.816	87.69
321.046	99.69
321.275	99.69
321.504	100.69
321.733	110.69
321.962	97.69
322.191	101.69
322.42	103.69
322.649	94.69
322.878	96.69
323.108	125.69
323.337	117.69
323.566	109.69
323.795	142.69
324.024	199.69
324.253	356.69
324.482	732.69
324.71	1572.69
324.939	2055.69
325.168	751.69
325.397	233.69
325.626	144.69
325.855	138.69
326.084	122.69
326.313	122.69
326.542	142.69
326.77	208.69
326.999	426.69
327.228	859.69
327.457	1603.69
327.686	1247.69
327.914	332.69
328.143	174.69
328.372	124.69
328.6	104.69
328.829	99.69
329.058	110.69
329.287	127.69
329.515	112.69
329.744	101.69
329.972	106.69
330.201	108.69
330.43	90.69
330.658	115.69
330.887	131.69
331.115	107.69
331.344	97.69
331.572	100.69
331.801	93.69
332.03	87.69
332.258	100.69
332.486	88.69
332.715	84.69
332.943	76.69
333.172	80.69
333.4	88.69
333.629	114.69
333.857	104.69
334.085	104.69
334.314	94.69
334.542	92.69
334.771	105.69
334.999	97.69
335.227	88.69
335.455	80.69
335.684	95.69
335.912	85.69
336.14	81.69
336.369	96.69
336.597	85.69
336.825	87.69
337.053	92.69
337.281	73.69
337.51	95.69
337.738	97.69
337.966	89.69
338.194	96.69
338.422	97.69
338.65	90.69
338.878	78.69
339.106	89.69
339.334	93.69
339.562	71.69
339.79	87.69
340.018	92.69
340.246	98.69
340.474	99.69
340.702	82.69
340.93	82.69
341.158	90.69
341.386	75.69
341.614	92.69
341.842	89.69
342.07	96.69
342.298	86.69
342.526	82.69
342.754	88.69
342.981	89.69
343.209	91.69
343.437	95.69
343.665	80.69
343.893	71.69
344.12	90.69
344.348	95.69
344.576	90.69
344.804	104.69
345.031	88.69
345.259	98.69
345.487	96.69
345.714	89.69
345.942	95.69
346.17	113.69
346.397	95.69
346.625	78.69
346.853	82.69
347.08	81.69
347.308	100.69
347.535	93.69
347.763	99.69
347.99	96.69
348.218	109.69
348.445	95.69
348.673	93.69
348.9	94.69
349.128	95.69
349.355	80.69
349.583	98.69
349.81	87.69
350.037	96.69
350.265	92.69
350.492	94.69
350.72	104.69
350.947	85.69
351.174	92.69
351.402	109.69
351.629	94.69
351.856	95.69
352.083	94.69
352.311	98.69
352.538	82.69
352.765	92.69
352.992	111.69
353.22	88.69
353.447	97.69
353.674	89.69
353.901	100.69
354.128	90.69
354.355	84.69
354.583	94.69
354.81	90.69
355.037	88.69
355.264	83.69
355.491	82.69
355.718	96.69
355.945	99.69
356.172	99.69
356.399	98.69
356.626	89.69
356.853	94.69
357.08	95.69
357.307	87.69
357.534	100.69
357.761	82.69
357.988	82.69
358.215	79.69
358.441	92.69
358.668	92.69
358.895	73.69
359.122	90.69
359.349	81.69
359.576	92.69
359.802	97.69
360.029	90.69
360.256	106.69
360.483	102.69
360.709	91.69
360.936	86.69
361.163	87.69
361.39	85.69
361.616	90.69
361.843	94.69
362.07	92.69
362.296	87.69
362.523	104.69
362.749	85.69
362.976	91.69
363.203	92.69
363.429	80.69
363.656	89.69
363.882	90.69
364.109	83.69
364.335	76.69
364.562	103.69
364.788	78.69
365.015	74.69
365.241	106.69
365.468	92.69
365.694	94.69
365.92	97.69
366.147	95.69
366.373	82.69
366.599	96.69
366.826	89.69
367.052	79.69
367.278	82.69
367.505	93.69
367.731	96.69
367.957	90.69
368.184	79.69
368.41	95.69
368.636	98.69
368.862	125.69
369.089	116.69
369.315	95.69
369.541	96.69
369.767	94.69
369.993	92.69
370.219	88.69
370.445	90.69
370.672	90.69
370.898	89.69
371.124	84.69
371.35	80.69
371.576	85.69
371.802	86.69
372.028	87.69
372.254	79.69
372.48	85.69
372.706	82.69
372.932	80.69
373.158	82.69
373.384	81.69
373.61	74.69
373.835	90.69
374.061	98.69
374.287	80.69
374.513	79.69
374.739	86.69
374.965	79.69
375.191	92.69
375.416	94.69
375.642	96.69
375.868	103.69
376.094	76.69
376.319	84.69
376.545	89.69
376.771	81.69
376.997	82.69
377.222	76.69
377.448	88.69
377.674	88.69
377.899	98.69
378.125	96.69
378.35	94.69
378.576	93.69
378.802	85.69
379.027	90.69
379.253	93.69
379.478	80.69
379.704	89.69
379.929	94.69
380.155	88.69
380.38	102.69
380.606	82.69
380.831	85.69
381.057	105.69
381.282	78.69
381.507	87.69
381.733	89.69
381.958	87.69
382.184	82.69
382.409	104.69
382.634	98.69
382.86	101.69
383.085	97.69
383.31	97.69
383.535	89.69
383.761	106.69
383.986	96.69
384.211	81.69
384.436	72.69
384.662	105.69
384.887	101.69
385.112	97.69
385.337	99.69
385.562	81.69
385.787	99.69
386.013	88.69
386.238	96.69
386.463	104.69
386.688	92.69
386.913	102.69
387.138	89.69
387.363	93.69
387.588	109.69
387.813	93.69
388.038	98.69
388.263	81.69
388.488	102.69
388.713	96.69
388.938	93.69
389.163	87.69
389.387	88.69
389.612	74.69
389.837	103.69
390.062	84.69
390.287	95.69
390.512	106.69
390.736	84.69
390.961	86.69
391.186	78.69
391.411	77.69
391.636	93.69
391.86	80.69
392.085	78.69
392.31	88.69
392.534	71.69
392.759	76.69
392.984	80.69
393.208	86.69
393.433	87.69
393.658	79.69
393.882	100.69
394.107	82.69
394.331	93.69
394.556	85.69
394.78	87.69
395.005	95.69
395.229	66.69
395.454	90.69
395.678	67.69
395.903	80.69
396.127	89.69
396.352	62.69
396.576	90.69
396.801	87.69
397.025	96.69
397.249	90.69
397.474	87.69
397.698	79.69
397.922	101.69
398.147	95.69
398.371	83.69
398.595	82.69
398.82	78.69
399.044	79.69
399.268	82.69
399.492	77.69
399.717	84.69
399.941	107.69
400.165	86.69
400.389	93.69
400.613	72.69
400.837	80.69
401.062	85.69
401.286	84.69
401.51	73.69
401.734	85.69
401.958	99.69
402.182	119.69
402.406	144.69
402.63	112.69
402.854	88.69
403.078	85.69
403.302	81.69
403.526	88.69
403.75	83.69
403.974	82.69
404.198	96.69
404.422	83.69
404.645	97.69
404.869	86.69
405.093	84.69
405.317	102.69
405.541	79.69
405.765	104.69
405.988	117.69
406.212	154.69
406.436	192.69
406.66	131.69
406.883	111.69
407.107	89.69
407.331	88.69
407.555	94.69
407.778	97.69
408.002	84.69
408.226	87.69
408.449	83.69
408.673	99.69
408.896	88.69
409.12	86.69
409.344	95.69
409.567	96.69
409.791	95.69
410.014	101.69
410.238	94.69
410.461	93.69
410.685	102.69
410.908	103.69
411.132	94.69
411.355	88.69
411.578	88.69
411.802	93.69
412.025	95.69
412.249	87.69
412.472	73.69
412.695	103.69
412.919	80.69
413.142	89.69
413.365	84.69
413.589	88.69
413.812	97.69
414.035	77.69
414.258	72.69
414.482	92.69
414.705	87.69
414.928	89.69
415.151	81.69
415.374	92.69
415.597	107.69
415.821	84.69
416.044	93.69
416.267	98.69
416.49	80.69
416.713	96.69
416.936	94.69
417.159	80.69
417.382	89.69
417.605	88.69
417.828	96.69
418.051	85.69
418.274	87.69
418.497	90.69
418.72	81.69
418.943	90.69
419.166	90.69
419.389	95.69
419.611	78.69
419.834	84.69
420.057	97.69
420.28	77.69
420.503	90.69
420.726	67.69
420.948	65.69
421.171	98.69
421.394	102.69
421.617	88.69
421.839	86.69
422.062	90.69
422.285	78.69
422.507	93.69
422.73	109.69
422.953	100.69
423.175	102.69
423.398	88.69
423.621	96.69
423.843	90.69
424.066	87.69
424.288	81.69
424.511	88.69
424.733	85.69
424.956	97.69
425.178	95.69
425.401	98.69
425.623	81.69
425.846	80.69
426.068	104.69
426.291	80.69
426.513	85.69
426.735	83.69
426.958	90.69
427.18	106.69
427.402	130.69
427.625	152.69
427.847	129.69
428.069	98.69
428.292	86.69
428.514	81.69
428.736	82.69
428.958	61.69
429.181	72.69
429.403	86.69
429.625	77.69
429.847	91.69
430.069	97.69
430.292	88.69
430.514	85.69
430.736	79.69
430.958	73.69
431.18	92.69
431.402	96.69
431.624	88.69
431.846	92.69
432.068	80.69
432.29	81.69
432.512	80.69
432.734	85.69
432.956	82.69
433.178	94.69
433.4	85.69
433.622	88.69
433.844	95.69
434.066	89.69
434.287	94.69
434.509	84.69
434.731	72.69
434.953	82.69
435.175	88.69
435.397	105.69
435.618	99.69
435.84	92.69
436.062	120.69
436.284	113.69
436.505	116.69
436.727	98.69
436.949	85.69
437.17	97.69
437.392	81.69
437.614	88.69
437.835	95.69
438.057	105.69
438.278	104.69
438.5	108.69
438.721	112.69
438.943	93.69
439.165	73.69
439.386	87.69
439.608	86.69
439.829	90.69
440.05	109.69
440.272	123.69
440.493	89.69
440.715	92.69
440.936	80.69
441.158	85.69
441.379	89.69
441.6	89.69
441.822	90.69
442.043	109.69
442.264	92.69
442.486	106.69
442.707	96.69
442.928	106.69
443.149	123.69
443.371	111.69
443.592	91.69
443.813	103.69
444.034	103.69
444.255	82.69
444.476	81.69
444.698	88.69
444.919	77.69
445.14	133.69
445.361	127.69
445.582	115.69
445.803	121.69
446.024	131.69
446.245	102.69
446.466	116.69
446.687	85.69
446.908	82.69
447.129	87.69
447.35	94.69
447.571	88.69
447.792	104.69
448.013	93.69
448.234	93.69
448.455	102.69
448.675	108.69
448.896	111.69
449.117	112.69
449.338	92.69
449.559	123.69
449.779	121.69
450	95.69
450.221	85.69
450.442	90.69
450.662	100.69
450.883	111.69
451.104	88.69
451.324	98.69
451.545	78.69
451.766	93.69
451.986	80.69
452.207	84.69
452.428	95.69
452.648	96.69
452.869	118.69
453.089	98.69
453.31	113.69
453.53	97.69
453.751	79.69
453.971	81.69
454.192	87.69
454.412	92.69
454.633	96.69
454.853	78.69
455.073	82.69
455.294	79.69
455.514	103.69
455.734	103.69
455.955	82.69
456.175	74.69
456.395	70.69
456.616	87.69
456.836	83.69
457.056	68.69
457.276	95.69
457.497	86.69
457.717	87.69
457.937	78.69
458.157	99.69
458.377	89.69
458.598	107.69
458.818	153.69
459.038	140.69
459.258	117.69
459.478	98.69
459.698	79.69
459.918	71.69
460.138	68.69
460.358	70.69
460.578	102.69
460.798	88.69
461.018	88.69
461.238	88.69
461.458	81.69
461.678	74.69
461.898	88.69
462.118	88.69
462.338	87.69
462.558	80.69
462.777	78.69
462.997	89.69
463.217	82.69
463.437	90.69
463.657	71.69
463.876	85.69
464.096	86.69
464.316	88.69
464.536	86.69
464.755	106.69
464.975	88.69
465.195	144.69
465.414	141.69
465.634	85.69
465.854	86.69
466.073	86.69
466.293	95.69
466.512	85.69
466.732	84.69
466.951	78.69
467.171	94.69
467.391	90.69
467.61	91.69
467.829	87.69
468.049	92.69
468.268	83.69
468.488	83.69
468.707	88.69
468.927	95.69
469.146	72.69
469.365	76.69
469.585	72.69
469.804	100.69
470.023	95.69
470.243	78.69
470.462	87.69
470.681	96.69
470.901	95.69
471.12	80.69
471.339	94.69
471.558	82.69
471.777	89.69
471.997	89.69
472.216	76.69
472.435	84.69
472.654	97.69
472.873	88.69
473.092	82.69
473.311	85.69
473.53	78.69
473.749	83.69
473.968	101.69
474.187	103.69
474.406	89.69
474.625	94.69
474.844	90.69
475.063	65.69
475.282	85.69
475.501	84.69
475.72	105.69
475.939	90.69
476.158	88.69
476.377	88.69
476.596	72.69
476.814	83.69
477.033	69.69
477.252	84.69
477.471	87.69
477.69	81.69
477.908	79.69
478.127	89.69
478.346	67.69
478.564	86.69
478.783	99.69
479.002	92.69
479.22	95.69
479.439	94.69
479.658	110.69
479.876	85.69
480.095	76.69
480.313	106.69
480.532	84.69
480.751	62.69
480.969	82.69
481.188	100.69
481.406	80.69
481.624	107.69
481.843	101.69
482.061	86.69
482.28	82.69
482.498	93.69
482.717	92.69
482.935	74.69
483.153	94.69
483.372	100.69
483.59	85.69
483.808	86.69
484.027	82.69
484.245	84.69
484.463	83.69
484.681	86.69
484.9	72.69
485.118	85.69
485.336	88.69
485.554	98.69
485.772	88.69
485.99	101.69
486.209	100.69
486.427	111.69
486.645	113.69
486.863	102.69
487.081	85.69
487.299	92.69
487.517	84.69
487.735	100.69
487.953	90.69
488.171	97.69
488.389	76.69
488.607	107.69
488.825	92.69
489.043	83.69
489.261	94.69
489.479	102.69
489.696	69.69
489.914	93.69
490.132	85.69
490.35	78.69
490.568	82.69
490.786	72.69
491.003	94.69
491.221	90.69
491.439	79.69
491.657	98.69
491.874	87.69
492.092	80.69
492.31	91.69
492.527	92.69
492.745	81.69
492.963	67.69
493.18	92.69
493.398	87.69
493.615	81.69
493.833	97.69
494.05	85.69
494.268	82.69
494.485	91.69
494.703	85.69
494.92	94.69
495.138	80.69
495.355	88.69
495.573	98.69
495.79	87.69
496.008	93.69
496.225	85.69
496.442	88.69
496.66	100.69
496.877	81.69
497.094	84.69
497.312	84.69
497.529	101.69
497.746	88.69
497.963	87.69
498.181	81.69
498.398	102.69
498.615	100.69
498.832	96.69
499.049	83.69
499.267	81.69
499.484	83.69
499.701	87.69
499.918	76.69
500.135	71.69
500.352	74.69
500.569	85.69
500.786	89.69
501.003	75.69
501.22	91.69
501.437	96.69
501.654	88.69
501.871	106.69
502.088	93.69
502.305	86.69
502.522	85.69
502.739	105.69
502.956	83.69
503.172	89.69
503.389	86.69
503.606	103.69
503.823	92.69
504.04	89.69
504.256	93.69
504.473	90.69
504.69	86.69
504.907	90.69
505.123	103.69
505.34	85.69
505.557	95.69
505.773	89.69
505.99	66.69
506.207	84.69
506.423	72.69
506.64	86.69
506.856	103.69
507.073	82.69
507.289	82.69
507.506	98.69
507.722	112.69
507.939	108.69
508.155	108.69
508.372	83.69
508.588	97.69
508.805	102.69
509.021	95.69
509.238	95.69
509.454	109.69
509.67	96.69
509.887	99.69
510.103	118.69
510.319	214.69
510.536	727.69
510.752	2327.69
510.968	622.69
511.184	161.69
511.401	111.69
511.617	95.69
511.833	103.69
512.049	82.69
512.265	96.69
512.481	89.69
512.698	79.69
512.914	96.69
513.13	85.69
513.346	84.69
513.562	97.69
513.778	97.69
513.994	110.69
514.21	113.69
514.426	118.69
514.642	135.69
514.858	116.69
515.074	139.69
515.29	412.69
515.506	1347.69
515.721	473.69
515.937	144.69
516.153	116.69
516.369	100.69
516.585	83.69
516.801	94.69
