Data from Uncirc_1984_H10_HRD10591_00035.txt Node
Date: Wed Jan 03 12:21:44 EST 2024
User: Yrep
Spectrometer: HR+D1059
Trigger mode: 1
Integration Time (sec): 1.000000E-1
Scans to average: 1
Electric dark correction enabled: true
Nonlinearity correction enabled: false
Boxcar width: 0
XAxis mode: Wavelengths
Number of Pixels in Spectrum: 2048
>>>>>Begin Spectral Data<<<<<
223.165	-16.94
223.4	-16.94
223.635	-16.94
223.869	-26.94
224.104	-19.94
224.338	-15.94
224.573	-9.94
224.808	-19.94
225.042	-11.94
225.277	-4.94
225.511	5.06
225.746	13.06
225.98	-2.94
226.215	11.06
226.449	26.06
226.683	19.06
226.918	26.06
227.152	29.06
227.387	21.06
227.621	25.06
227.856	41.06
228.09	50.06
228.324	54.06
228.559	67.06
228.793	52.06
229.027	60.06
229.262	58.06
229.496	71.06
229.73	74.06
229.964	67.06
230.199	80.06
230.433	71.06
230.667	70.06
230.901	75.06
231.136	68.06
231.37	68.06
231.604	72.06
231.838	73.06
232.072	77.06
232.306	65.06
232.541	87.06
232.775	81.06
233.009	77.06
233.243	78.06
233.477	69.06
233.711	77.06
233.945	89.06
234.179	83.06
234.413	80.06
234.647	74.06
234.881	86.06
235.115	81.06
235.349	71.06
235.583	72.06
235.817	87.06
236.051	86.06
236.285	80.06
236.519	57.06
236.753	82.06
236.987	83.06
237.221	70.06
237.455	84.06
237.689	79.06
237.922	82.06
238.156	80.06
238.39	62.06
238.624	73.06
238.858	64.06
239.091	68.06
239.325	80.06
239.559	73.06
239.793	77.06
240.027	71.06
240.26	88.06
240.494	71.06
240.728	87.06
240.961	74.06
241.195	69.06
241.429	73.06
241.662	65.06
241.896	72.06
242.13	76.06
242.363	75.06
242.597	63.06
242.83	74.06
243.064	65.06
243.298	73.06
243.531	74.06
243.765	80.06
243.998	82.06
244.232	67.06
244.465	73.06
244.699	81.06
244.932	66.06
245.166	72.06
245.399	76.06
245.633	85.06
245.866	73.06
246.099	74.06
246.333	71.06
246.566	66.06
246.8	69.06
247.033	71.06
247.266	74.06
247.5	90.06
247.733	80.06
247.966	78.06
248.2	78.06
248.433	69.06
248.666	74.06
248.899	88.06
249.133	90.06
249.366	101.06
249.599	87.06
249.832	85.06
250.066	84.06
250.299	82.06
250.532	86.06
250.765	81.06
250.998	80.06
251.231	71.06
251.465	84.06
251.698	84.06
251.931	66.06
252.164	82.06
252.397	61.06
252.63	69.06
252.863	74.06
253.096	83.06
253.329	93.06
253.562	74.06
253.795	74.06
254.028	90.06
254.261	90.06
254.494	80.06
254.727	81.06
254.96	82.06
255.193	78.06
255.426	71.06
255.659	73.06
255.892	82.06
256.124	80.06
256.357	90.06
256.59	90.06
256.823	97.06
257.056	83.06
257.289	82.06
257.521	67.06
257.754	84.06
257.987	85.06
258.22	86.06
258.452	89.06
258.685	75.06
258.918	82.06
259.151	77.06
259.383	82.06
259.616	93.06
259.849	66.06
260.081	77.06
260.314	67.06
260.547	92.06
260.779	89.06
261.012	82.06
261.244	81.06
261.477	81.06
261.71	74.06
261.942	113.06
262.175	103.06
262.407	74.06
262.64	79.06
262.872	75.06
263.105	87.06
263.337	87.06
263.57	72.06
263.802	65.06
264.035	83.06
264.267	82.06
264.499	84.06
264.732	81.06
264.964	74.06
265.197	83.06
265.429	85.06
265.661	90.06
265.894	85.06
266.126	71.06
266.358	83.06
266.591	77.06
266.823	81.06
267.055	76.06
267.287	83.06
267.52	91.06
267.752	83.06
267.984	72.06
268.216	74.06
268.448	89.06
268.681	64.06
268.913	64.06
269.145	90.06
269.377	85.06
269.609	72.06
269.841	73.06
270.073	71.06
270.306	87.06
270.538	94.06
270.77	77.06
271.002	97.06
271.234	80.06
271.466	95.06
271.698	81.06
271.93	90.06
272.162	90.06
272.394	65.06
272.626	84.06
272.858	89.06
273.09	75.06
273.322	94.06
273.553	82.06
273.785	86.06
274.017	83.06
274.249	81.06
274.481	85.06
274.713	84.06
274.945	87.06
275.176	77.06
275.408	89.06
275.64	88.06
275.872	93.06
276.104	87.06
276.335	81.06
276.567	87.06
276.799	98.06
277.031	102.06
277.262	97.06
277.494	85.06
277.726	97.06
277.957	80.06
278.189	77.06
278.421	88.06
278.652	69.06
278.884	73.06
279.115	78.06
279.347	77.06
279.579	95.06
279.81	83.06
280.042	70.06
280.273	88.06
280.505	77.06
280.736	86.06
280.968	86.06
281.199	72.06
281.431	68.06
281.662	90.06
281.894	92.06
282.125	99.06
282.356	103.06
282.588	132.06
282.819	106.06
283.051	86.06
283.282	81.06
283.513	77.06
283.745	94.06
283.976	71.06
284.207	79.06
284.439	87.06
284.67	91.06
284.901	80.06
285.132	79.06
285.364	92.06
285.595	73.06
285.826	86.06
286.057	87.06
286.288	78.06
286.52	99.06
286.751	90.06
286.982	88.06
287.213	89.06
287.444	89.06
287.675	90.06
287.906	110.06
288.138	82.06
288.369	78.06
288.6	97.06
288.831	86.06
289.062	79.06
289.293	90.06
289.524	70.06
289.755	86.06
289.986	78.06
290.217	95.06
290.448	86.06
290.679	82.06
290.91	83.06
291.141	99.06
291.371	79.06
291.602	86.06
291.833	90.06
292.064	81.06
292.295	91.06
292.526	98.06
292.757	82.06
292.987	98.06
293.218	90.06
293.449	84.06
293.68	82.06
293.91	77.06
294.141	80.06
294.372	85.06
294.603	86.06
294.833	86.06
295.064	90.06
295.295	86.06
295.525	87.06
295.756	101.06
295.987	107.06
296.217	113.06
296.448	105.06
296.679	95.06
296.909	94.06
297.14	88.06
297.37	73.06
297.601	78.06
297.831	89.06
298.062	95.06
298.292	84.06
298.523	79.06
298.753	92.06
298.984	85.06
299.214	71.06
299.445	88.06
299.675	98.06
299.905	97.06
300.136	80.06
300.366	80.06
300.597	89.06
300.827	82.06
301.057	93.06
301.288	101.06
301.518	90.06
301.748	91.06
301.979	110.06
302.209	98.06
302.439	87.06
302.669	84.06
302.9	96.06
303.13	93.06
303.36	95.06
303.59	95.06
303.82	93.06
304.051	84.06
304.281	95.06
304.511	84.06
304.741	82.06
304.971	95.06
305.201	74.06
305.431	96.06
305.661	89.06
305.891	85.06
306.121	91.06
306.352	111.06
306.582	95.06
306.812	100.06
307.042	96.06
307.272	83.06
307.502	97.06
307.731	89.06
307.961	87.06
308.191	90.06
308.421	88.06
308.651	92.06
308.881	85.06
309.111	82.06
309.341	95.06
309.571	86.06
309.8	72.06
310.03	97.06
310.26	102.06
310.49	87.06
310.72	98.06
310.949	97.06
311.179	95.06
311.409	91.06
311.639	89.06
311.868	81.06
312.098	92.06
312.328	94.06
312.557	102.06
312.787	106.06
313.017	95.06
313.246	84.06
313.476	86.06
313.706	87.06
313.935	84.06
314.165	87.06
314.394	81.06
314.624	92.06
314.853	92.06
315.083	86.06
315.312	89.06
315.542	96.06
315.771	99.06
316.001	95.06
316.23	89.06
316.46	87.06
316.689	90.06
316.919	94.06
317.148	93.06
317.377	99.06
317.607	88.06
317.836	65.06
318.065	101.06
318.295	93.06
318.524	90.06
318.753	95.06
318.983	92.06
319.212	95.06
319.441	102.06
319.67	84.06
319.9	85.06
320.129	97.06
320.358	93.06
320.587	96.06
320.816	90.06
321.046	96.06
321.275	94.06
321.504	95.06
321.733	100.06
321.962	90.06
322.191	94.06
322.42	100.06
322.649	96.06
322.878	102.06
323.108	121.06
323.337	119.06
323.566	123.06
323.795	130.06
324.024	183.06
324.253	333.06
324.482	717.06
324.71	1433.06
324.939	1878.06
325.168	694.06
325.397	226.06
325.626	141.06
325.855	113.06
326.084	121.06
326.313	111.06
326.542	137.06
326.77	198.06
326.999	413.06
327.228	834.06
327.457	1489.06
327.686	1205.06
327.914	324.06
328.143	173.06
328.372	128.06
328.6	119.06
328.829	119.06
329.058	113.06
329.287	119.06
329.515	92.06
329.744	93.06
329.972	103.06
330.201	82.06
330.43	105.06
330.658	114.06
330.887	128.06
331.115	110.06
331.344	99.06
331.572	100.06
331.801	111.06
332.03	98.06
332.258	81.06
332.486	90.06
332.715	102.06
332.943	93.06
333.172	85.06
333.4	95.06
333.629	116.06
333.857	112.06
334.085	106.06
334.314	90.06
334.542	93.06
334.771	94.06
334.999	90.06
335.227	93.06
335.455	101.06
335.684	105.06
335.912	102.06
336.14	96.06
336.369	103.06
336.597	102.06
336.825	94.06
337.053	75.06
337.281	87.06
337.51	106.06
337.738	81.06
337.966	95.06
338.194	77.06
338.422	84.06
338.65	97.06
338.878	86.06
339.106	106.06
339.334	87.06
339.562	89.06
339.79	101.06
340.018	89.06
340.246	98.06
340.474	87.06
340.702	101.06
340.93	86.06
341.158	78.06
341.386	65.06
341.614	95.06
341.842	88.06
342.07	97.06
342.298	88.06
342.526	79.06
342.754	91.06
342.981	85.06
343.209	82.06
343.437	96.06
343.665	89.06
343.893	90.06
344.12	87.06
344.348	93.06
344.576	93.06
344.804	90.06
345.031	83.06
345.259	95.06
345.487	88.06
345.714	100.06
345.942	98.06
346.17	98.06
346.397	87.06
346.625	96.06
346.853	91.06
347.08	82.06
347.308	87.06
347.535	94.06
347.763	93.06
347.99	88.06
348.218	114.06
348.445	97.06
348.673	100.06
348.9	91.06
349.128	106.06
349.355	90.06
349.583	113.06
349.81	98.06
350.037	74.06
350.265	85.06
350.492	100.06
350.72	99.06
350.947	95.06
351.174	111.06
351.402	105.06
351.629	107.06
351.856	106.06
352.083	100.06
352.311	99.06
352.538	90.06
352.765	114.06
352.992	99.06
353.22	104.06
353.447	91.06
353.674	94.06
353.901	96.06
354.128	97.06
354.355	91.06
354.583	88.06
354.81	82.06
355.037	89.06
355.264	95.06
355.491	87.06
355.718	106.06
355.945	95.06
356.172	92.06
356.399	106.06
356.626	87.06
356.853	96.06
357.08	101.06
357.307	92.06
357.534	87.06
357.761	93.06
357.988	98.06
358.215	94.06
358.441	84.06
358.668	88.06
358.895	92.06
359.122	78.06
359.349	93.06
359.576	104.06
359.802	87.06
360.029	98.06
360.256	102.06
360.483	95.06
360.709	76.06
360.936	95.06
361.163	96.06
361.39	88.06
361.616	85.06
361.843	79.06
362.07	81.06
362.296	100.06
362.523	94.06
362.749	89.06
362.976	95.06
363.203	89.06
363.429	72.06
363.656	63.06
363.882	75.06
364.109	74.06
364.335	95.06
364.562	87.06
364.788	90.06
365.015	102.06
365.241	114.06
365.468	88.06
365.694	82.06
365.92	94.06
366.147	79.06
366.373	81.06
366.599	79.06
366.826	77.06
367.052	86.06
367.278	87.06
367.505	85.06
367.731	84.06
367.957	109.06
368.184	93.06
368.41	105.06
368.636	97.06
368.862	115.06
369.089	89.06
369.315	94.06
369.541	83.06
369.767	91.06
369.993	82.06
370.219	81.06
370.445	85.06
370.672	85.06
370.898	83.06
371.124	79.06
371.35	80.06
371.576	89.06
371.802	75.06
372.028	96.06
372.254	82.06
372.48	88.06
372.706	93.06
372.932	79.06
373.158	78.06
373.384	85.06
373.61	91.06
373.835	82.06
374.061	76.06
374.287	98.06
374.513	78.06
374.739	77.06
374.965	75.06
375.191	71.06
375.416	89.06
375.642	72.06
375.868	77.06
376.094	95.06
376.319	81.06
376.545	99.06
376.771	69.06
376.997	80.06
377.222	100.06
377.448	85.06
377.674	85.06
377.899	100.06
378.125	83.06
378.35	78.06
378.576	75.06
378.802	93.06
379.027	89.06
379.253	90.06
379.478	96.06
379.704	99.06
379.929	86.06
380.155	109.06
380.38	104.06
380.606	92.06
380.831	87.06
381.057	94.06
381.282	100.06
381.507	94.06
381.733	89.06
381.958	78.06
382.184	89.06
382.409	105.06
382.634	91.06
382.86	109.06
383.085	93.06
383.31	99.06
383.535	98.06
383.761	95.06
383.986	90.06
384.211	85.06
384.436	92.06
384.662	94.06
384.887	88.06
385.112	90.06
385.337	91.06
385.562	103.06
385.787	90.06
386.013	100.06
386.238	101.06
386.463	92.06
386.688	97.06
386.913	93.06
387.138	102.06
387.363	90.06
387.588	97.06
387.813	91.06
388.038	103.06
388.263	97.06
388.488	97.06
388.713	91.06
388.938	95.06
389.163	90.06
389.387	88.06
389.612	94.06
389.837	87.06
390.062	91.06
390.287	110.06
390.512	88.06
390.736	98.06
390.961	89.06
391.186	87.06
391.411	95.06
391.636	89.06
391.86	81.06
392.085	77.06
392.31	73.06
392.534	71.06
392.759	82.06
392.984	83.06
393.208	83.06
393.433	91.06
393.658	91.06
393.882	82.06
394.107	86.06
394.331	87.06
394.556	75.06
394.78	80.06
395.005	85.06
395.229	85.06
395.454	97.06
395.678	89.06
395.903	82.06
396.127	104.06
396.352	100.06
396.576	76.06
396.801	88.06
397.025	79.06
397.249	89.06
397.474	90.06
397.698	82.06
397.922	95.06
398.147	87.06
398.371	89.06
398.595	93.06
398.82	88.06
399.044	77.06
399.268	70.06
399.492	84.06
399.717	88.06
399.941	97.06
400.165	89.06
400.389	89.06
400.613	82.06
400.837	97.06
401.062	92.06
401.286	87.06
401.51	88.06
401.734	73.06
401.958	105.06
402.182	114.06
402.406	145.06
402.63	107.06
402.854	80.06
403.078	83.06
403.302	86.06
403.526	85.06
403.75	72.06
403.974	80.06
404.198	89.06
404.422	82.06
404.645	91.06
404.869	79.06
405.093	82.06
405.317	99.06
405.541	94.06
405.765	88.06
405.988	110.06
406.212	146.06
406.436	188.06
406.66	125.06
406.883	78.06
407.107	81.06
407.331	98.06
407.555	108.06
407.778	104.06
408.002	90.06
408.226	91.06
408.449	88.06
408.673	98.06
408.896	89.06
409.12	84.06
409.344	93.06
409.567	105.06
409.791	97.06
410.014	92.06
410.238	95.06
410.461	96.06
410.685	83.06
410.908	92.06
411.132	86.06
411.355	82.06
411.578	93.06
411.802	90.06
412.025	79.06
412.249	80.06
412.472	93.06
412.695	77.06
412.919	81.06
413.142	83.06
413.365	77.06
413.589	86.06
413.812	97.06
414.035	105.06
414.258	77.06
414.482	81.06
414.705	88.06
414.928	83.06
415.151	102.06
415.374	82.06
415.597	89.06
415.821	89.06
416.044	92.06
416.267	105.06
416.49	91.06
416.713	77.06
416.936	89.06
417.159	84.06
417.382	82.06
417.605	89.06
417.828	79.06
418.051	89.06
418.274	74.06
418.497	89.06
418.72	89.06
418.943	73.06
419.166	84.06
419.389	82.06
419.611	86.06
419.834	90.06
420.057	78.06
420.28	84.06
420.503	82.06
420.726	79.06
420.948	77.06
421.171	87.06
421.394	83.06
421.617	79.06
421.839	81.06
422.062	89.06
422.285	90.06
422.507	97.06
422.73	87.06
422.953	93.06
423.175	75.06
423.398	88.06
423.621	103.06
423.843	87.06
424.066	90.06
424.288	83.06
424.511	90.06
424.733	81.06
424.956	95.06
425.178	95.06
425.401	87.06
425.623	95.06
425.846	72.06
426.068	97.06
426.291	89.06
426.513	87.06
426.735	82.06
426.958	90.06
427.18	105.06
427.402	130.06
427.625	117.06
427.847	94.06
428.069	92.06
428.292	69.06
428.514	86.06
428.736	82.06
428.958	66.06
429.181	78.06
429.403	85.06
429.625	76.06
429.847	71.06
430.069	91.06
430.292	97.06
430.514	81.06
430.736	76.06
430.958	92.06
431.18	84.06
431.402	82.06
431.624	81.06
431.846	74.06
432.068	68.06
432.29	73.06
432.512	85.06
432.734	89.06
432.956	68.06
433.178	90.06
433.4	93.06
433.622	83.06
433.844	94.06
434.066	95.06
434.287	80.06
434.509	85.06
434.731	73.06
434.953	99.06
435.175	93.06
435.397	104.06
435.618	100.06
435.84	89.06
436.062	107.06
436.284	107.06
436.505	96.06
436.727	102.06
436.949	111.06
437.17	95.06
437.392	89.06
437.614	75.06
437.835	93.06
438.057	101.06
438.278	101.06
438.5	104.06
438.721	108.06
438.943	104.06
439.165	83.06
439.386	93.06
439.608	97.06
439.829	98.06
440.05	112.06
440.272	120.06
440.493	81.06
440.715	89.06
440.936	88.06
441.158	94.06
441.379	83.06
441.6	88.06
441.822	89.06
442.043	97.06
442.264	88.06
442.486	90.06
442.707	89.06
442.928	102.06
443.149	123.06
443.371	115.06
443.592	93.06
443.813	109.06
444.034	101.06
444.255	83.06
444.476	88.06
444.698	82.06
444.919	99.06
445.14	136.06
445.361	119.06
445.582	113.06
445.803	119.06
446.024	113.06
446.245	115.06
446.466	107.06
446.687	95.06
446.908	94.06
447.129	81.06
447.35	95.06
447.571	77.06
447.792	91.06
448.013	93.06
448.234	93.06
448.455	87.06
448.675	119.06
448.896	123.06
449.117	94.06
449.338	101.06
449.559	113.06
449.779	122.06
450	89.06
450.221	70.06
450.442	77.06
450.662	88.06
450.883	96.06
451.104	100.06
451.324	96.06
451.545	89.06
451.766	100.06
451.986	80.06
452.207	78.06
452.428	95.06
452.648	90.06
452.869	86.06
453.089	103.06
453.31	94.06
453.53	96.06
453.751	94.06
453.971	110.06
454.192	77.06
454.412	78.06
454.633	90.06
454.853	94.06
455.073	87.06
455.294	84.06
455.514	97.06
455.734	79.06
455.955	101.06
456.175	81.06
456.395	69.06
456.616	74.06
456.836	75.06
457.056	72.06
457.276	81.06
457.497	84.06
457.717	85.06
457.937	79.06
458.157	83.06
458.377	78.06
458.598	99.06
458.818	126.06
459.038	125.06
459.258	92.06
459.478	88.06
459.698	78.06
459.918	79.06
460.138	66.06
460.358	69.06
460.578	93.06
460.798	82.06
461.018	83.06
461.238	94.06
461.458	85.06
461.678	76.06
461.898	79.06
462.118	83.06
462.338	78.06
462.558	99.06
462.777	83.06
462.997	84.06
463.217	89.06
463.437	83.06
463.657	78.06
463.876	88.06
464.096	89.06
464.316	89.06
464.536	99.06
464.755	82.06
464.975	90.06
465.195	133.06
465.414	119.06
465.634	75.06
465.854	81.06
466.073	69.06
466.293	85.06
466.512	96.06
466.732	79.06
466.951	90.06
467.171	80.06
467.391	91.06
467.61	87.06
467.829	97.06
468.049	92.06
468.268	82.06
468.488	75.06
468.707	72.06
468.927	74.06
469.146	85.06
469.365	87.06
469.585	89.06
469.804	96.06
470.023	80.06
470.243	90.06
470.462	96.06
470.681	102.06
470.901	83.06
471.12	69.06
471.339	86.06
471.558	67.06
471.777	85.06
471.997	89.06
472.216	95.06
472.435	91.06
472.654	98.06
472.873	86.06
473.092	88.06
473.311	83.06
473.53	89.06
473.749	76.06
473.968	92.06
474.187	91.06
474.406	96.06
474.625	75.06
474.844	87.06
475.063	70.06
475.282	79.06
475.501	83.06
475.72	85.06
475.939	82.06
476.158	82.06
476.377	83.06
476.596	101.06
476.814	91.06
477.033	91.06
477.252	96.06
477.471	77.06
477.69	70.06
477.908	86.06
478.127	79.06
478.346	83.06
478.564	91.06
478.783	88.06
479.002	84.06
479.22	98.06
479.439	97.06
479.658	101.06
479.876	95.06
480.095	84.06
480.313	87.06
480.532	82.06
480.751	89.06
480.969	81.06
481.188	102.06
481.406	90.06
481.624	97.06
481.843	75.06
482.061	74.06
482.28	90.06
482.498	88.06
482.717	90.06
482.935	74.06
483.153	78.06
483.372	81.06
483.59	80.06
483.808	84.06
484.027	78.06
484.245	81.06
484.463	90.06
484.681	87.06
484.9	99.06
485.118	96.06
485.336	78.06
485.554	96.06
485.772	91.06
485.99	110.06
486.209	91.06
486.427	81.06
486.645	104.06
486.863	99.06
487.081	88.06
487.299	86.06
487.517	83.06
487.735	107.06
487.953	85.06
488.171	96.06
488.389	100.06
488.607	95.06
488.825	96.06
489.043	81.06
489.261	87.06
489.479	92.06
489.696	78.06
489.914	91.06
490.132	84.06
490.35	99.06
490.568	90.06
490.786	70.06
491.003	74.06
491.221	88.06
491.439	86.06
491.657	107.06
491.874	106.06
492.092	84.06
492.31	86.06
492.527	82.06
492.745	97.06
492.963	90.06
493.18	88.06
493.398	89.06
493.615	91.06
493.833	94.06
494.05	87.06
494.268	82.06
494.485	80.06
494.703	69.06
494.92	92.06
495.138	81.06
495.355	89.06
495.573	103.06
495.79	99.06
496.008	108.06
496.225	84.06
496.442	92.06
496.66	100.06
496.877	101.06
497.094	91.06
497.312	89.06
497.529	72.06
497.746	94.06
497.963	84.06
498.181	83.06
498.398	99.06
498.615	113.06
498.832	107.06
499.049	100.06
499.267	82.06
499.484	97.06
499.701	89.06
499.918	78.06
500.135	86.06
500.352	93.06
500.569	93.06
500.786	83.06
501.003	94.06
501.22	82.06
501.437	98.06
501.654	86.06
501.871	88.06
502.088	87.06
502.305	84.06
502.522	87.06
502.739	87.06
502.956	81.06
503.172	99.06
503.389	93.06
503.606	105.06
503.823	92.06
504.04	92.06
504.256	96.06
504.473	83.06
504.69	89.06
504.907	95.06
505.123	85.06
505.34	96.06
505.557	82.06
505.773	102.06
505.99	85.06
506.207	84.06
506.423	80.06
506.64	75.06
506.856	94.06
507.073	83.06
507.289	88.06
507.506	96.06
507.722	111.06
507.939	83.06
508.155	76.06
508.372	87.06
508.588	86.06
508.805	93.06
509.021	82.06
509.238	91.06
509.454	86.06
509.67	94.06
509.887	90.06
510.103	126.06
510.319	175.06
510.536	657.06
510.752	1959.06
510.968	560.06
511.184	141.06
511.401	120.06
511.617	89.06
511.833	91.06
512.049	88.06
512.265	84.06
512.481	81.06
512.698	83.06
512.914	98.06
513.13	88.06
513.346	84.06
513.562	100.06
513.778	89.06
513.994	98.06
514.21	90.06
514.426	112.06
514.642	120.06
514.858	111.06
515.074	144.06
515.29	360.06
515.506	1121.06
515.721	438.06
515.937	133.06
516.153	109.06
516.369	92.06
516.585	96.06
516.801	110.06
517.016	72.06
