Data from Uncirc_1984_H10_HRD10591_00099.txt Node
Date: Wed Jan 03 12:21:57 EST 2024
User: Yrep
Spectrometer: HR+D1059
Trigger mode: 1
Integration Time (sec): 1.000000E-1
Scans to average: 1
Electric dark correction enabled: true
Nonlinearity correction enabled: false
Boxcar width: 0
XAxis mode: Wavelengths
Number of Pixels in Spectrum: 2048
>>>>>Begin Spectral Data<<<<<
223.165	-18.06
223.4	-18.06
223.635	-18.06
223.869	-25.06
224.104	-12.06
224.338	-9.06
224.573	-22.06
224.808	-15.06
225.042	-14.06
225.277	-3.06
225.511	-9.06
225.746	15.94
225.98	10.94
226.215	-7.06
226.449	22.94
226.683	21.94
226.918	40.94
227.152	21.94
227.387	37.94
227.621	40.94
227.856	36.94
228.09	44.94
228.324	58.94
228.559	58.94
228.793	34.94
229.027	67.94
229.262	65.94
229.496	74.94
229.73	99.94
229.964	97.94
230.199	69.94
230.433	70.94
230.667	67.94
230.901	81.94
231.136	61.94
231.37	68.94
231.604	85.94
231.838	79.94
232.072	85.94
232.306	79.94
232.541	80.94
232.775	92.94
233.009	64.94
233.243	76.94
233.477	78.94
233.711	69.94
233.945	83.94
234.179	88.94
234.413	80.94
234.647	74.94
234.881	72.94
235.115	63.94
235.349	81.94
235.583	79.94
235.817	74.94
236.051	81.94
236.285	77.94
236.519	88.94
236.753	70.94
236.987	73.94
237.221	74.94
237.455	76.94
237.689	73.94
237.922	83.94
238.156	83.94
238.39	61.94
238.624	70.94
238.858	66.94
239.091	81.94
239.325	77.94
239.559	93.94
239.793	75.94
240.027	100.94
240.26	74.94
240.494	87.94
240.728	79.94
240.961	72.94
241.195	72.94
241.429	84.94
241.662	83.94
241.896	73.94
242.13	62.94
242.363	60.94
242.597	86.94
242.83	79.94
243.064	83.94
243.298	79.94
243.531	89.94
243.765	84.94
243.998	82.94
244.232	91.94
244.465	88.94
244.699	82.94
244.932	79.94
245.166	77.94
245.399	77.94
245.633	84.94
245.866	68.94
246.099	88.94
246.333	74.94
246.566	79.94
246.8	86.94
247.033	79.94
247.266	66.94
247.5	72.94
247.733	85.94
247.966	76.94
248.2	92.94
248.433	75.94
248.666	78.94
248.899	83.94
249.133	76.94
249.366	92.94
249.599	100.94
249.832	83.94
250.066	80.94
250.299	85.94
250.532	74.94
250.765	79.94
250.998	72.94
251.231	76.94
251.465	62.94
251.698	72.94
251.931	83.94
252.164	86.94
252.397	76.94
252.63	92.94
252.863	84.94
253.096	93.94
253.329	97.94
253.562	76.94
253.795	97.94
254.028	86.94
254.261	72.94
254.494	97.94
254.727	77.94
254.96	65.94
255.193	75.94
255.426	75.94
255.659	89.94
255.892	79.94
256.124	80.94
256.357	85.94
256.59	71.94
256.823	75.94
257.056	83.94
257.289	95.94
257.521	88.94
257.754	75.94
257.987	75.94
258.22	87.94
258.452	62.94
258.685	69.94
258.918	79.94
259.151	73.94
259.383	85.94
259.616	81.94
259.849	82.94
260.081	82.94
260.314	86.94
260.547	93.94
260.779	77.94
261.012	71.94
261.244	84.94
261.477	80.94
261.71	93.94
261.942	106.94
262.175	101.94
262.407	75.94
262.64	75.94
262.872	88.94
263.105	76.94
263.337	90.94
263.57	80.94
263.802	86.94
264.035	69.94
264.267	87.94
264.499	76.94
264.732	82.94
264.964	86.94
265.197	88.94
265.429	84.94
265.661	91.94
265.894	70.94
266.126	67.94
266.358	63.94
266.591	74.94
266.823	89.94
267.055	81.94
267.287	79.94
267.52	89.94
267.752	82.94
267.984	93.94
268.216	89.94
268.448	90.94
268.681	83.94
268.913	74.94
269.145	80.94
269.377	91.94
269.609	85.94
269.841	84.94
270.073	70.94
270.306	102.94
270.538	77.94
270.77	72.94
271.002	84.94
271.234	79.94
271.466	84.94
271.698	97.94
271.93	81.94
272.162	83.94
272.394	80.94
272.626	83.94
272.858	71.94
273.09	92.94
273.322	95.94
273.553	99.94
273.785	95.94
274.017	84.94
274.249	81.94
274.481	75.94
274.713	92.94
274.945	93.94
275.176	85.94
275.408	86.94
275.64	84.94
275.872	70.94
276.104	86.94
276.335	98.94
276.567	108.94
276.799	107.94
277.031	111.94
277.262	97.94
277.494	97.94
277.726	68.94
277.957	68.94
278.189	89.94
278.421	100.94
278.652	90.94
278.884	86.94
279.115	79.94
279.347	91.94
279.579	81.94
279.81	80.94
280.042	74.94
280.273	96.94
280.505	71.94
280.736	84.94
280.968	93.94
281.199	90.94
281.431	96.94
281.662	96.94
281.894	107.94
282.125	103.94
282.356	114.94
282.588	125.94
282.819	117.94
283.051	92.94
283.282	64.94
283.513	103.94
283.745	88.94
283.976	72.94
284.207	93.94
284.439	83.94
284.67	97.94
284.901	77.94
285.132	69.94
285.364	75.94
285.595	82.94
285.826	91.94
286.057	92.94
286.288	87.94
286.52	88.94
286.751	81.94
286.982	75.94
287.213	99.94
287.444	98.94
287.675	89.94
287.906	92.94
288.138	82.94
288.369	84.94
288.6	112.94
288.831	90.94
289.062	102.94
289.293	91.94
289.524	89.94
289.755	88.94
289.986	72.94
290.217	91.94
290.448	87.94
290.679	87.94
290.91	73.94
291.141	84.94
291.371	91.94
291.602	72.94
291.833	81.94
292.064	78.94
292.295	85.94
292.526	85.94
292.757	87.94
292.987	88.94
293.218	92.94
293.449	70.94
293.68	81.94
293.91	91.94
294.141	88.94
294.372	91.94
294.603	88.94
294.833	107.94
295.064	89.94
295.295	92.94
295.525	78.94
295.756	101.94
295.987	120.94
296.217	129.94
296.448	131.94
296.679	90.94
296.909	90.94
297.14	100.94
297.37	96.94
297.601	90.94
297.831	85.94
298.062	79.94
298.292	81.94
298.523	92.94
298.753	100.94
298.984	71.94
299.214	90.94
299.445	83.94
299.675	99.94
299.905	97.94
300.136	82.94
300.366	83.94
300.597	76.94
300.827	95.94
301.057	103.94
301.288	102.94
301.518	106.94
301.748	92.94
301.979	108.94
302.209	82.94
302.439	81.94
302.669	97.94
302.9	84.94
303.13	92.94
303.36	91.94
303.59	83.94
303.82	101.94
304.051	87.94
304.281	81.94
304.511	91.94
304.741	80.94
304.971	103.94
305.201	91.94
305.431	76.94
305.661	86.94
305.891	71.94
306.121	81.94
306.352	99.94
306.582	110.94
306.812	96.94
307.042	96.94
307.272	77.94
307.502	86.94
307.731	85.94
307.961	98.94
308.191	100.94
308.421	82.94
308.651	90.94
308.881	84.94
309.111	101.94
309.341	96.94
309.571	106.94
309.8	89.94
310.03	93.94
310.26	95.94
310.49	89.94
310.72	91.94
310.949	89.94
311.179	96.94
311.409	91.94
311.639	83.94
311.868	85.94
312.098	97.94
312.328	93.94
312.557	97.94
312.787	97.94
313.017	101.94
313.246	102.94
313.476	85.94
313.706	73.94
313.935	85.94
314.165	99.94
314.394	95.94
314.624	86.94
314.853	91.94
315.083	80.94
315.312	80.94
315.542	84.94
315.771	92.94
316.001	89.94
316.23	100.94
316.46	89.94
316.689	79.94
316.919	86.94
317.148	95.94
317.377	89.94
317.607	99.94
317.836	96.94
318.065	83.94
318.295	79.94
318.524	85.94
318.753	86.94
318.983	87.94
319.212	95.94
319.441	108.94
319.67	109.94
319.9	97.94
320.129	72.94
320.358	96.94
320.587	107.94
320.816	88.94
321.046	96.94
321.275	103.94
321.504	104.94
321.733	92.94
321.962	99.94
322.191	100.94
322.42	109.94
322.649	117.94
322.878	101.94
323.108	117.94
323.337	107.94
323.566	114.94
323.795	139.94
324.024	195.94
324.253	413.94
324.482	881.94
324.71	1739.94
324.939	2305.94
325.168	828.94
325.397	239.94
325.626	141.94
325.855	138.94
326.084	123.94
326.313	116.94
326.542	157.94
326.77	251.94
326.999	450.94
327.228	980.94
327.457	1775.94
327.686	1420.94
327.914	377.94
328.143	189.94
328.372	145.94
328.6	111.94
328.829	123.94
329.058	125.94
329.287	131.94
329.515	111.94
329.744	102.94
329.972	91.94
330.201	104.94
330.43	116.94
330.658	132.94
330.887	133.94
331.115	115.94
331.344	107.94
331.572	99.94
331.801	96.94
332.03	100.94
332.258	99.94
332.486	99.94
332.715	76.94
332.943	89.94
333.172	99.94
333.4	101.94
333.629	124.94
333.857	122.94
334.085	97.94
334.314	99.94
334.542	109.94
334.771	107.94
334.999	101.94
335.227	83.94
335.455	82.94
335.684	104.94
335.912	89.94
336.14	101.94
336.369	106.94
336.597	90.94
336.825	96.94
337.053	102.94
337.281	88.94
337.51	100.94
337.738	101.94
337.966	82.94
338.194	109.94
338.422	105.94
338.65	100.94
338.878	104.94
339.106	85.94
339.334	93.94
339.562	90.94
339.79	105.94
340.018	91.94
340.246	81.94
340.474	102.94
340.702	88.94
340.93	86.94
341.158	93.94
341.386	96.94
341.614	92.94
341.842	84.94
342.07	90.94
342.298	91.94
342.526	86.94
342.754	81.94
342.981	82.94
343.209	96.94
343.437	89.94
343.665	88.94
343.893	90.94
344.12	90.94
344.348	88.94
344.576	89.94
344.804	85.94
345.031	92.94
345.259	90.94
345.487	92.94
345.714	100.94
345.942	96.94
346.17	92.94
346.397	95.94
346.625	95.94
346.853	98.94
347.08	101.94
347.308	99.94
347.535	92.94
347.763	99.94
347.99	98.94
348.218	116.94
348.445	101.94
348.673	92.94
348.9	93.94
349.128	100.94
349.355	92.94
349.583	97.94
349.81	101.94
350.037	104.94
350.265	103.94
350.492	99.94
350.72	105.94
350.947	96.94
351.174	104.94
351.402	102.94
351.629	102.94
351.856	102.94
352.083	108.94
352.311	105.94
352.538	109.94
352.765	126.94
352.992	119.94
353.22	99.94
353.447	111.94
353.674	105.94
353.901	74.94
354.128	101.94
354.355	104.94
354.583	97.94
354.81	102.94
355.037	105.94
355.264	88.94
355.491	91.94
355.718	96.94
355.945	85.94
356.172	92.94
356.399	98.94
356.626	87.94
356.853	85.94
357.08	101.94
357.307	91.94
357.534	96.94
357.761	84.94
357.988	90.94
358.215	92.94
358.441	100.94
358.668	69.94
358.895	107.94
359.122	84.94
359.349	76.94
359.576	103.94
359.802	103.94
360.029	114.94
360.256	104.94
360.483	98.94
360.709	80.94
360.936	95.94
361.163	106.94
361.39	89.94
361.616	97.94
361.843	97.94
362.07	97.94
362.296	101.94
362.523	84.94
362.749	95.94
362.976	74.94
363.203	87.94
363.429	83.94
363.656	90.94
363.882	89.94
364.109	103.94
364.335	92.94
364.562	86.94
364.788	95.94
365.015	89.94
365.241	99.94
365.468	100.94
365.694	99.94
365.92	94.94
366.147	99.94
366.373	97.94
366.599	100.94
366.826	95.94
367.052	81.94
367.278	95.94
367.505	89.94
367.731	86.94
367.957	102.94
368.184	98.94
368.41	100.94
368.636	97.94
368.862	123.94
369.089	113.94
369.315	89.94
369.541	83.94
369.767	85.94
369.993	88.94
370.219	84.94
370.445	93.94
370.672	74.94
370.898	95.94
371.124	97.94
371.35	86.94
371.576	99.94
371.802	95.94
372.028	85.94
372.254	73.94
372.48	90.94
372.706	95.94
372.932	94.94
373.158	101.94
373.384	101.94
373.61	79.94
373.835	95.94
374.061	92.94
374.287	86.94
374.513	89.94
374.739	96.94
374.965	100.94
375.191	89.94
375.416	77.94
375.642	91.94
375.868	88.94
376.094	90.94
376.319	82.94
376.545	91.94
376.771	88.94
376.997	94.94
377.222	88.94
377.448	105.94
377.674	100.94
377.899	95.94
378.125	85.94
378.35	83.94
378.576	85.94
378.802	90.94
379.027	92.94
379.253	84.94
379.478	89.94
379.704	100.94
379.929	89.94
380.155	83.94
380.38	91.94
380.606	100.94
380.831	87.94
381.057	110.94
381.282	77.94
381.507	89.94
381.733	92.94
381.958	92.94
382.184	85.94
382.409	97.94
382.634	100.94
382.86	82.94
383.085	102.94
383.31	93.94
383.535	90.94
383.761	90.94
383.986	103.94
384.211	92.94
384.436	91.94
384.662	88.94
384.887	87.94
385.112	100.94
385.337	106.94
385.562	83.94
385.787	106.94
386.013	119.94
386.238	99.94
386.463	98.94
386.688	108.94
386.913	93.94
387.138	101.94
387.363	91.94
387.588	104.94
387.813	100.94
388.038	108.94
388.263	113.94
388.488	99.94
388.713	103.94
388.938	95.94
389.163	92.94
389.387	95.94
389.612	107.94
389.837	97.94
390.062	101.94
390.287	100.94
390.512	104.94
390.736	102.94
390.961	98.94
391.186	102.94
391.411	97.94
391.636	108.94
391.86	81.94
392.085	95.94
392.31	95.94
392.534	80.94
392.759	83.94
392.984	99.94
393.208	89.94
393.433	87.94
393.658	83.94
393.882	74.94
394.107	95.94
394.331	73.94
394.556	96.94
394.78	81.94
395.005	87.94
395.229	100.94
395.454	79.94
395.678	75.94
395.903	87.94
396.127	90.94
396.352	82.94
396.576	101.94
396.801	79.94
397.025	98.94
397.249	88.94
397.474	73.94
397.698	96.94
397.922	79.94
398.147	80.94
398.371	74.94
398.595	90.94
398.82	98.94
399.044	84.94
399.268	89.94
399.492	96.94
399.717	96.94
399.941	92.94
400.165	105.94
400.389	84.94
400.613	88.94
400.837	101.94
401.062	84.94
401.286	99.94
401.51	104.94
401.734	99.94
401.958	97.94
402.182	127.94
402.406	157.94
402.63	111.94
402.854	84.94
403.078	73.94
403.302	85.94
403.526	89.94
403.75	103.94
403.974	92.94
404.198	86.94
404.422	88.94
404.645	84.94
404.869	83.94
405.093	107.94
405.317	109.94
405.541	97.94
405.765	87.94
405.988	116.94
406.212	173.94
406.436	223.94
406.66	145.94
406.883	100.94
407.107	100.94
407.331	95.94
407.555	91.94
407.778	98.94
408.002	77.94
408.226	99.94
408.449	98.94
408.673	92.94
408.896	95.94
409.12	100.94
409.344	89.94
409.567	73.94
409.791	91.94
410.014	97.94
410.238	81.94
410.461	101.94
410.685	82.94
410.908	94.94
411.132	97.94
411.355	99.94
411.578	92.94
411.802	86.94
412.025	84.94
412.249	89.94
412.472	90.94
412.695	93.94
412.919	87.94
413.142	98.94
413.365	83.94
413.589	75.94
413.812	97.94
414.035	110.94
414.258	87.94
414.482	87.94
414.705	87.94
414.928	92.94
415.151	82.94
415.374	91.94
415.597	87.94
415.821	94.94
416.044	88.94
416.267	97.94
416.49	80.94
416.713	87.94
416.936	94.94
417.159	88.94
417.382	85.94
417.605	87.94
417.828	110.94
418.051	101.94
418.274	85.94
418.497	89.94
418.72	87.94
418.943	90.94
419.166	88.94
419.389	88.94
419.611	85.94
419.834	97.94
420.057	87.94
420.28	86.94
420.503	90.94
420.726	96.94
420.948	85.94
421.171	104.94
421.394	119.94
421.617	96.94
421.839	81.94
422.062	91.94
422.285	85.94
422.507	91.94
422.73	92.94
422.953	99.94
423.175	92.94
423.398	82.94
423.621	83.94
423.843	76.94
424.066	84.94
424.288	85.94
424.511	93.94
424.733	115.94
424.956	112.94
425.178	102.94
425.401	108.94
425.623	92.94
425.846	88.94
426.068	102.94
426.291	98.94
426.513	101.94
426.735	96.94
426.958	98.94
427.18	103.94
427.402	145.94
427.625	177.94
427.847	137.94
428.069	103.94
428.292	66.94
428.514	87.94
428.736	75.94
428.958	87.94
429.181	71.94
429.403	88.94
429.625	85.94
429.847	95.94
430.069	95.94
430.292	102.94
430.514	81.94
430.736	83.94
430.958	89.94
431.18	93.94
431.402	81.94
431.624	85.94
431.846	97.94
432.068	98.94
432.29	87.94
432.512	87.94
432.734	85.94
432.956	82.94
433.178	93.94
433.4	108.94
433.622	90.94
433.844	84.94
434.066	95.94
434.287	83.94
434.509	76.94
434.731	100.94
434.953	105.94
435.175	84.94
435.397	81.94
435.618	83.94
435.84	106.94
436.062	133.94
436.284	118.94
436.505	105.94
436.727	107.94
436.949	85.94
437.17	88.94
437.392	93.94
437.614	80.94
437.835	106.94
438.057	118.94
438.278	98.94
438.5	97.94
438.721	105.94
438.943	109.94
439.165	80.94
439.386	93.94
439.608	107.94
439.829	98.94
440.05	123.94
440.272	133.94
440.493	88.94
440.715	108.94
440.936	89.94
441.158	95.94
441.379	93.94
441.6	98.94
441.822	95.94
442.043	97.94
442.264	92.94
442.486	96.94
442.707	82.94
442.928	110.94
443.149	128.94
443.371	127.94
443.592	107.94
443.813	99.94
444.034	107.94
444.255	98.94
444.476	84.94
444.698	92.94
444.919	76.94
445.14	138.94
445.361	124.94
445.582	118.94
445.803	131.94
446.024	148.94
446.245	134.94
446.466	95.94
446.687	75.94
446.908	79.94
447.129	92.94
447.35	88.94
447.571	84.94
447.792	84.94
448.013	88.94
448.234	92.94
448.455	106.94
448.675	120.94
448.896	106.94
449.117	104.94
449.338	106.94
449.559	138.94
449.779	124.94
450	105.94
450.221	88.94
450.442	88.94
450.662	95.94
450.883	108.94
451.104	113.94
451.324	99.94
451.545	87.94
451.766	83.94
451.986	72.94
452.207	85.94
452.428	93.94
452.648	97.94
452.869	105.94
453.089	119.94
453.31	112.94
453.53	90.94
453.751	84.94
453.971	104.94
454.192	117.94
454.412	91.94
454.633	80.94
454.853	98.94
455.073	82.94
455.294	83.94
455.514	96.94
455.734	95.94
455.955	83.94
456.175	92.94
456.395	73.94
456.616	70.94
456.836	87.94
457.056	93.94
457.276	80.94
457.497	93.94
457.717	76.94
457.937	82.94
458.157	87.94
458.377	85.94
458.598	119.94
458.818	151.94
459.038	146.94
459.258	105.94
459.478	81.94
459.698	92.94
459.918	77.94
460.138	83.94
460.358	62.94
460.578	89.94
460.798	93.94
461.018	92.94
461.238	86.94
461.458	90.94
461.678	85.94
461.898	92.94
462.118	88.94
462.338	79.94
462.558	80.94
462.777	91.94
462.997	88.94
463.217	81.94
463.437	80.94
463.657	97.94
463.876	89.94
464.096	79.94
464.316	95.94
464.536	89.94
464.755	90.94
464.975	93.94
465.195	167.94
465.414	159.94
465.634	93.94
465.854	93.94
466.073	91.94
466.293	88.94
466.512	93.94
466.732	74.94
466.951	86.94
467.171	77.94
467.391	97.94
467.61	100.94
467.829	92.94
468.049	92.94
468.268	84.94
468.488	102.94
468.707	88.94
468.927	95.94
469.146	87.94
469.365	100.94
469.585	86.94
469.804	97.94
470.023	91.94
470.243	84.94
470.462	98.94
470.681	105.94
470.901	102.94
471.12	60.94
471.339	98.94
471.558	84.94
471.777	82.94
471.997	98.94
472.216	103.94
472.435	100.94
472.654	99.94
472.873	85.94
473.092	84.94
473.311	95.94
473.53	87.94
473.749	81.94
473.968	97.94
474.187	104.94
474.406	81.94
474.625	93.94
474.844	83.94
475.063	89.94
475.282	95.94
475.501	87.94
475.72	88.94
475.939	84.94
476.158	85.94
476.377	76.94
476.596	75.94
476.814	85.94
477.033	88.94
477.252	92.94
477.471	82.94
477.69	103.94
477.908	96.94
478.127	75.94
478.346	85.94
478.564	86.94
478.783	97.94
479.002	81.94
479.22	91.94
479.439	93.94
479.658	92.94
479.876	92.94
480.095	93.94
480.313	83.94
480.532	91.94
480.751	92.94
480.969	95.94
481.188	119.94
481.406	101.94
481.624	86.94
481.843	96.94
482.061	105.94
482.28	91.94
482.498	84.94
482.717	96.94
482.935	98.94
483.153	85.94
483.372	93.94
483.59	99.94
483.808	89.94
484.027	86.94
484.245	92.94
484.463	95.94
484.681	106.94
484.9	83.94
485.118	91.94
485.336	92.94
485.554	103.94
485.772	100.94
485.99	100.94
486.209	88.94
486.427	115.94
486.645	96.94
486.863	131.94
487.081	94.94
487.299	89.94
487.517	89.94
487.735	88.94
487.953	100.94
488.171	79.94
488.389	104.94
488.607	101.94
488.825	94.94
489.043	84.94
489.261	84.94
489.479	90.94
489.696	82.94
489.914	97.94
490.132	84.94
490.35	88.94
490.568	89.94
490.786	77.94
491.003	95.94
491.221	74.94
491.439	94.94
491.657	87.94
491.874	92.94
492.092	79.94
492.31	69.94
492.527	87.94
492.745	84.94
492.963	99.94
493.18	88.94
493.398	93.94
493.615	95.94
493.833	103.94
494.05	103.94
494.268	88.94
494.485	92.94
494.703	105.94
494.92	97.94
495.138	87.94
495.355	86.94
495.573	102.94
495.79	88.94
496.008	89.94
496.225	97.94
496.442	91.94
496.66	96.94
496.877	91.94
497.094	98.94
497.312	90.94
497.529	87.94
497.746	84.94
497.963	98.94
498.181	89.94
498.398	95.94
498.615	114.94
498.832	118.94
499.049	82.94
499.267	95.94
499.484	99.94
499.701	93.94
499.918	80.94
500.135	82.94
500.352	87.94
500.569	91.94
500.786	95.94
501.003	105.94
501.22	84.94
501.437	84.94
501.654	107.94
501.871	101.94
502.088	93.94
502.305	92.94
502.522	83.94
502.739	91.94
502.956	95.94
503.172	88.94
503.389	109.94
503.606	102.94
503.823	91.94
504.04	93.94
504.256	90.94
504.473	103.94
504.69	97.94
504.907	92.94
505.123	98.94
505.34	79.94
505.557	94.94
505.773	96.94
505.99	84.94
506.207	93.94
506.423	98.94
506.64	97.94
506.856	80.94
507.073	90.94
507.289	96.94
507.506	95.94
507.722	112.94
507.939	124.94
508.155	89.94
508.372	84.94
508.588	96.94
508.805	88.94
509.021	108.94
509.238	96.94
509.454	90.94
509.67	95.94
509.887	92.94
510.103	124.94
510.319	207.94
510.536	829.94
510.752	2593.94
510.968	701.94
511.184	156.94
511.401	90.94
511.617	96.94
511.833	97.94
512.049	93.94
512.265	94.94
512.481	99.94
512.698	102.94
512.914	72.94
513.13	88.94
513.346	87.94
513.562	87.94
513.778	99.94
513.994	85.94
514.21	113.94
514.426	118.94
514.642	124.94
514.858	123.94
515.074	163.94
515.29	457.94
515.506	1594.94
515.721	599.94
