Data from Uncirc_1984_H10_HRD10591_00062.txt Node
Date: Wed Jan 03 12:21:49 EST 2024
User: Yrep
Spectrometer: HR+D1059
Trigger mode: 1
Integration Time (sec): 1.000000E-1
Scans to average: 1
Electric dark correction enabled: true
Nonlinearity correction enabled: false
Boxcar width: 0
XAxis mode: Wavelengths
Number of Pixels in Spectrum: 2048
>>>>>Begin Spectral Data<<<<<
223.165	-23.88
223.4	-23.88
223.635	-23.88
223.869	-20.88
224.104	-22.88
224.338	3.12
224.573	-20.88
224.808	-18.88
225.042	-14.88
225.277	1.12
225.511	6.12
225.746	5.12
225.98	3.12
226.215	21.12
226.449	12.12
226.683	18.12
226.918	19.12
227.152	33.12
227.387	23.12
227.621	38.12
227.856	39.12
228.09	41.12
228.324	50.12
228.559	62.12
228.793	53.12
229.027	66.12
229.262	58.12
229.496	83.12
229.73	78.12
229.964	85.12
230.199	76.12
230.433	68.12
230.667	86.12
230.901	70.12
231.136	95.12
231.37	84.12
231.604	71.12
231.838	87.12
232.072	62.12
232.306	88.12
232.541	88.12
232.775	81.12
233.009	63.12
233.243	78.12
233.477	75.12
233.711	88.12
233.945	92.12
234.179	69.12
234.413	86.12
234.647	100.12
234.881	69.12
235.115	77.12
235.349	78.12
235.583	90.12
235.817	83.12
236.051	84.12
236.285	76.12
236.519	84.12
236.753	88.12
236.987	77.12
237.221	80.12
237.455	90.12
237.689	81.12
237.922	84.12
238.156	71.12
238.39	75.12
238.624	81.12
238.858	86.12
239.091	70.12
239.325	76.12
239.559	76.12
239.793	93.12
240.027	62.12
240.26	84.12
240.494	79.12
240.728	75.12
240.961	69.12
241.195	81.12
241.429	78.12
241.662	71.12
241.896	84.12
242.13	69.12
242.363	75.12
242.597	70.12
242.83	74.12
243.064	65.12
243.298	74.12
243.531	73.12
243.765	87.12
243.998	86.12
244.232	83.12
244.465	82.12
244.699	85.12
244.932	83.12
245.166	82.12
245.399	72.12
245.633	83.12
245.866	77.12
246.099	87.12
246.333	78.12
246.566	76.12
246.8	62.12
247.033	79.12
247.266	88.12
247.5	72.12
247.733	80.12
247.966	71.12
248.2	83.12
248.433	75.12
248.666	88.12
248.899	89.12
249.133	81.12
249.366	90.12
249.599	86.12
249.832	84.12
250.066	88.12
250.299	81.12
250.532	64.12
250.765	64.12
250.998	91.12
251.231	72.12
251.465	81.12
251.698	80.12
251.931	69.12
252.164	96.12
252.397	81.12
252.63	69.12
252.863	69.12
253.096	75.12
253.329	70.12
253.562	65.12
253.795	75.12
254.028	85.12
254.261	81.12
254.494	76.12
254.727	78.12
254.96	80.12
255.193	71.12
255.426	84.12
255.659	78.12
255.892	62.12
256.124	74.12
256.357	74.12
256.59	74.12
256.823	73.12
257.056	91.12
257.289	82.12
257.521	82.12
257.754	98.12
257.987	90.12
258.22	84.12
258.452	71.12
258.685	85.12
258.918	89.12
259.151	68.12
259.383	80.12
259.616	80.12
259.849	86.12
260.081	81.12
260.314	79.12
260.547	76.12
260.779	84.12
261.012	90.12
261.244	95.12
261.477	85.12
261.71	100.12
261.942	107.12
262.175	126.12
262.407	93.12
262.64	66.12
262.872	89.12
263.105	71.12
263.337	88.12
263.57	80.12
263.802	91.12
264.035	80.12
264.267	78.12
264.499	80.12
264.732	98.12
264.964	76.12
265.197	77.12
265.429	85.12
265.661	86.12
265.894	79.12
266.126	80.12
266.358	71.12
266.591	78.12
266.823	76.12
267.055	72.12
267.287	88.12
267.52	86.12
267.752	76.12
267.984	90.12
268.216	82.12
268.448	85.12
268.681	78.12
268.913	89.12
269.145	90.12
269.377	95.12
269.609	92.12
269.841	96.12
270.073	79.12
270.306	74.12
270.538	92.12
270.77	81.12
271.002	79.12
271.234	98.12
271.466	86.12
271.698	80.12
271.93	97.12
272.162	87.12
272.394	97.12
272.626	91.12
272.858	79.12
273.09	82.12
273.322	78.12
273.553	97.12
273.785	85.12
274.017	85.12
274.249	91.12
274.481	91.12
274.713	79.12
274.945	85.12
275.176	84.12
275.408	81.12
275.64	85.12
275.872	96.12
276.104	92.12
276.335	92.12
276.567	108.12
276.799	106.12
277.031	109.12
277.262	87.12
277.494	94.12
277.726	97.12
277.957	73.12
278.189	81.12
278.421	75.12
278.652	86.12
278.884	88.12
279.115	83.12
279.347	92.12
279.579	87.12
279.81	92.12
280.042	93.12
280.273	82.12
280.505	86.12
280.736	80.12
280.968	83.12
281.199	97.12
281.431	90.12
281.662	71.12
281.894	90.12
282.125	96.12
282.356	110.12
282.588	136.12
282.819	96.12
283.051	84.12
283.282	75.12
283.513	91.12
283.745	95.12
283.976	92.12
284.207	86.12
284.439	83.12
284.67	86.12
284.901	92.12
285.132	83.12
285.364	94.12
285.595	90.12
285.826	84.12
286.057	84.12
286.288	75.12
286.52	89.12
286.751	92.12
286.982	95.12
287.213	80.12
287.444	95.12
287.675	93.12
287.906	97.12
288.138	87.12
288.369	98.12
288.6	99.12
288.831	94.12
289.062	107.12
289.293	102.12
289.524	90.12
289.755	81.12
289.986	87.12
290.217	80.12
290.448	91.12
290.679	100.12
290.91	90.12
291.141	89.12
291.371	97.12
291.602	87.12
291.833	84.12
292.064	87.12
292.295	86.12
292.526	99.12
292.757	96.12
292.987	101.12
293.218	86.12
293.449	93.12
293.68	87.12
293.91	82.12
294.141	88.12
294.372	100.12
294.603	94.12
294.833	81.12
295.064	84.12
295.295	83.12
295.525	83.12
295.756	102.12
295.987	114.12
296.217	122.12
296.448	118.12
296.679	98.12
296.909	75.12
297.14	91.12
297.37	82.12
297.601	82.12
297.831	96.12
298.062	82.12
298.292	87.12
298.523	88.12
298.753	98.12
298.984	88.12
299.214	100.12
299.445	82.12
299.675	83.12
299.905	81.12
300.136	90.12
300.366	95.12
300.597	105.12
300.827	94.12
301.057	102.12
301.288	89.12
301.518	97.12
301.748	98.12
301.979	99.12
302.209	94.12
302.439	96.12
302.669	84.12
302.9	100.12
303.13	100.12
303.36	106.12
303.59	91.12
303.82	94.12
304.051	96.12
304.281	87.12
304.511	98.12
304.741	86.12
304.971	88.12
305.201	81.12
305.431	91.12
305.661	86.12
305.891	90.12
306.121	94.12
306.352	103.12
306.582	94.12
306.812	86.12
307.042	94.12
307.272	90.12
307.502	101.12
307.731	81.12
307.961	88.12
308.191	99.12
308.421	94.12
308.651	100.12
308.881	96.12
309.111	93.12
309.341	102.12
309.571	92.12
309.8	87.12
310.03	101.12
310.26	100.12
310.49	99.12
310.72	97.12
310.949	91.12
311.179	109.12
311.409	89.12
311.639	107.12
311.868	107.12
312.098	90.12
312.328	95.12
312.557	94.12
312.787	98.12
313.017	96.12
313.246	98.12
313.476	85.12
313.706	74.12
313.935	92.12
314.165	102.12
314.394	87.12
314.624	97.12
314.853	96.12
315.083	94.12
315.312	90.12
315.542	86.12
315.771	83.12
316.001	99.12
316.23	88.12
316.46	82.12
316.689	108.12
316.919	102.12
317.148	93.12
317.377	98.12
317.607	97.12
317.836	86.12
318.065	96.12
318.295	84.12
318.524	93.12
318.753	91.12
318.983	104.12
319.212	85.12
319.441	92.12
319.67	106.12
319.9	102.12
320.129	103.12
320.358	87.12
320.587	82.12
320.816	91.12
321.046	103.12
321.275	92.12
321.504	87.12
321.733	97.12
321.962	94.12
322.191	100.12
322.42	95.12
322.649	92.12
322.878	101.12
323.108	114.12
323.337	120.12
323.566	126.12
323.795	143.12
324.024	193.12
324.253	374.12
324.482	817.12
324.71	1696.12
324.939	2294.12
325.168	844.12
325.397	245.12
325.626	152.12
325.855	124.12
326.084	123.12
326.313	117.12
326.542	152.12
326.77	250.12
326.999	456.12
327.228	917.12
327.457	1770.12
327.686	1428.12
327.914	377.12
328.143	184.12
328.372	130.12
328.6	128.12
328.829	111.12
329.058	114.12
329.287	111.12
329.515	119.12
329.744	97.12
329.972	95.12
330.201	98.12
330.43	100.12
330.658	113.12
330.887	138.12
331.115	121.12
331.344	105.12
331.572	96.12
331.801	106.12
332.03	106.12
332.258	94.12
332.486	97.12
332.715	90.12
332.943	82.12
333.172	72.12
333.4	96.12
333.629	102.12
333.857	123.12
334.085	96.12
334.314	97.12
334.542	87.12
334.771	99.12
334.999	97.12
335.227	96.12
335.455	94.12
335.684	99.12
335.912	83.12
336.14	93.12
336.369	102.12
336.597	87.12
336.825	89.12
337.053	76.12
337.281	85.12
337.51	86.12
337.738	92.12
337.966	100.12
338.194	95.12
338.422	94.12
338.65	97.12
338.878	97.12
339.106	97.12
339.334	87.12
339.562	90.12
339.79	86.12
340.018	88.12
340.246	103.12
340.474	98.12
340.702	116.12
340.93	104.12
341.158	93.12
341.386	86.12
341.614	112.12
341.842	103.12
342.07	93.12
342.298	90.12
342.526	98.12
342.754	88.12
342.981	86.12
343.209	94.12
343.437	96.12
343.665	98.12
343.893	92.12
344.12	95.12
344.348	88.12
344.576	99.12
344.804	94.12
345.031	87.12
345.259	105.12
345.487	80.12
345.714	91.12
345.942	85.12
346.17	86.12
346.397	96.12
346.625	96.12
346.853	85.12
347.08	86.12
347.308	93.12
347.535	97.12
347.763	110.12
347.99	94.12
348.218	94.12
348.445	103.12
348.673	99.12
348.9	100.12
349.128	103.12
349.355	97.12
349.583	95.12
349.81	93.12
350.037	96.12
350.265	98.12
350.492	103.12
350.72	96.12
350.947	91.12
351.174	105.12
351.402	107.12
351.629	104.12
351.856	104.12
352.083	101.12
352.311	88.12
352.538	103.12
352.765	110.12
352.992	105.12
353.22	113.12
353.447	99.12
353.674	116.12
353.901	95.12
354.128	102.12
354.355	86.12
354.583	104.12
354.81	102.12
355.037	108.12
355.264	103.12
355.491	100.12
355.718	86.12
355.945	79.12
356.172	90.12
356.399	87.12
356.626	85.12
356.853	98.12
357.08	92.12
357.307	91.12
357.534	103.12
357.761	88.12
357.988	85.12
358.215	91.12
358.441	82.12
358.668	89.12
358.895	103.12
359.122	87.12
359.349	86.12
359.576	97.12
359.802	97.12
360.029	103.12
360.256	96.12
360.483	107.12
360.709	86.12
360.936	98.12
361.163	83.12
361.39	83.12
361.616	89.12
361.843	83.12
362.07	90.12
362.296	109.12
362.523	99.12
362.749	81.12
362.976	88.12
363.203	92.12
363.429	95.12
363.656	88.12
363.882	89.12
364.109	88.12
364.335	91.12
364.562	91.12
364.788	82.12
365.015	102.12
365.241	83.12
365.468	107.12
365.694	114.12
365.92	87.12
366.147	85.12
366.373	102.12
366.599	91.12
366.826	99.12
367.052	82.12
367.278	84.12
367.505	98.12
367.731	93.12
367.957	109.12
368.184	107.12
368.41	104.12
368.636	113.12
368.862	107.12
369.089	116.12
369.315	97.12
369.541	93.12
369.767	86.12
369.993	92.12
370.219	84.12
370.445	94.12
370.672	82.12
370.898	100.12
371.124	110.12
371.35	78.12
371.576	84.12
371.802	108.12
372.028	83.12
372.254	86.12
372.48	87.12
372.706	82.12
372.932	84.12
373.158	85.12
373.384	90.12
373.61	97.12
373.835	88.12
374.061	85.12
374.287	84.12
374.513	84.12
374.739	87.12
374.965	80.12
375.191	91.12
375.416	88.12
375.642	87.12
375.868	81.12
376.094	90.12
376.319	94.12
376.545	79.12
376.771	96.12
376.997	91.12
377.222	84.12
377.448	89.12
377.674	96.12
377.899	97.12
378.125	100.12
378.35	93.12
378.576	103.12
378.802	83.12
379.027	79.12
379.253	94.12
379.478	107.12
379.704	96.12
379.929	86.12
380.155	88.12
380.38	100.12
380.606	94.12
380.831	89.12
381.057	94.12
381.282	66.12
381.507	115.12
381.733	106.12
381.958	85.12
382.184	95.12
382.409	98.12
382.634	87.12
382.86	95.12
383.085	86.12
383.31	93.12
383.535	108.12
383.761	85.12
383.986	101.12
384.211	94.12
384.436	99.12
384.662	88.12
384.887	105.12
385.112	95.12
385.337	82.12
385.562	107.12
385.787	100.12
386.013	98.12
386.238	102.12
386.463	92.12
386.688	110.12
386.913	102.12
387.138	103.12
387.363	92.12
387.588	107.12
387.813	87.12
388.038	96.12
388.263	99.12
388.488	89.12
388.713	90.12
388.938	86.12
389.163	100.12
389.387	96.12
389.612	101.12
389.837	110.12
390.062	90.12
390.287	101.12
390.512	97.12
390.736	82.12
390.961	83.12
391.186	90.12
391.411	83.12
391.636	88.12
391.86	85.12
392.085	70.12
392.31	88.12
392.534	91.12
392.759	85.12
392.984	86.12
393.208	92.12
393.433	91.12
393.658	89.12
393.882	88.12
394.107	80.12
394.331	89.12
394.556	88.12
394.78	89.12
395.005	83.12
395.229	87.12
395.454	73.12
395.678	89.12
395.903	102.12
396.127	82.12
396.352	98.12
396.576	71.12
396.801	94.12
397.025	97.12
397.249	84.12
397.474	99.12
397.698	86.12
397.922	68.12
398.147	74.12
398.371	89.12
398.595	94.12
398.82	82.12
399.044	70.12
399.268	83.12
399.492	91.12
399.717	87.12
399.941	91.12
400.165	83.12
400.389	83.12
400.613	83.12
400.837	82.12
401.062	99.12
401.286	88.12
401.51	91.12
401.734	71.12
401.958	101.12
402.182	114.12
402.406	150.12
402.63	104.12
402.854	97.12
403.078	75.12
403.302	85.12
403.526	78.12
403.75	96.12
403.974	84.12
404.198	89.12
404.422	94.12
404.645	85.12
404.869	84.12
405.093	86.12
405.317	101.12
405.541	98.12
405.765	98.12
405.988	106.12
406.212	159.12
406.436	208.12
406.66	131.12
406.883	100.12
407.107	77.12
407.331	84.12
407.555	102.12
407.778	98.12
408.002	105.12
408.226	78.12
408.449	83.12
408.673	101.12
408.896	100.12
409.12	105.12
409.344	89.12
409.567	72.12
409.791	79.12
410.014	79.12
410.238	105.12
410.461	86.12
410.685	79.12
410.908	89.12
411.132	102.12
411.355	111.12
411.578	90.12
411.802	87.12
412.025	84.12
412.249	82.12
412.472	91.12
412.695	102.12
412.919	88.12
413.142	83.12
413.365	76.12
413.589	96.12
413.812	79.12
414.035	95.12
414.258	97.12
414.482	86.12
414.705	91.12
414.928	87.12
415.151	103.12
415.374	88.12
415.597	99.12
415.821	86.12
416.044	90.12
416.267	89.12
416.49	82.12
416.713	91.12
416.936	79.12
417.159	81.12
417.382	85.12
417.605	86.12
417.828	91.12
418.051	98.12
418.274	87.12
418.497	94.12
418.72	96.12
418.943	94.12
419.166	89.12
419.389	73.12
419.611	91.12
419.834	78.12
420.057	76.12
420.28	82.12
420.503	88.12
420.726	86.12
420.948	91.12
421.171	100.12
421.394	91.12
421.617	86.12
421.839	84.12
422.062	101.12
422.285	83.12
422.507	98.12
422.73	97.12
422.953	91.12
423.175	104.12
423.398	105.12
423.621	114.12
423.843	89.12
424.066	87.12
424.288	90.12
424.511	85.12
424.733	108.12
424.956	110.12
425.178	104.12
425.401	102.12
425.623	100.12
425.846	100.12
426.068	88.12
426.291	86.12
426.513	82.12
426.735	97.12
426.958	80.12
427.18	108.12
427.402	130.12
427.625	162.12
427.847	108.12
428.069	106.12
428.292	84.12
428.514	88.12
428.736	80.12
428.958	88.12
429.181	79.12
429.403	69.12
429.625	82.12
429.847	82.12
430.069	103.12
430.292	91.12
430.514	78.12
430.736	90.12
430.958	92.12
431.18	74.12
431.402	90.12
431.624	88.12
431.846	80.12
432.068	88.12
432.29	96.12
432.512	94.12
432.734	79.12
432.956	88.12
433.178	81.12
433.4	81.12
433.622	81.12
433.844	94.12
434.066	99.12
434.287	87.12
434.509	89.12
434.731	95.12
434.953	80.12
435.175	91.12
435.397	83.12
435.618	96.12
435.84	97.12
436.062	117.12
436.284	126.12
436.505	108.12
436.727	119.12
436.949	82.12
437.17	104.12
437.392	79.12
437.614	91.12
437.835	97.12
438.057	123.12
438.278	105.12
438.5	105.12
438.721	121.12
438.943	84.12
439.165	87.12
439.386	81.12
439.608	97.12
439.829	84.12
440.05	130.12
440.272	147.12
440.493	98.12
440.715	83.12
440.936	86.12
441.158	93.12
441.379	93.12
441.6	96.12
441.822	104.12
442.043	100.12
442.264	107.12
442.486	101.12
442.707	102.12
442.928	106.12
443.149	137.12
443.371	128.12
443.592	105.12
443.813	112.12
444.034	100.12
444.255	93.12
444.476	77.12
444.698	63.12
444.919	70.12
445.14	124.12
445.361	116.12
445.582	120.12
445.803	151.12
446.024	131.12
446.245	136.12
446.466	96.12
446.687	97.12
446.908	87.12
447.129	100.12
447.35	86.12
447.571	99.12
447.792	92.12
448.013	93.12
448.234	101.12
448.455	119.12
448.675	107.12
448.896	136.12
449.117	114.12
449.338	90.12
449.559	118.12
449.779	138.12
450	84.12
450.221	86.12
450.442	102.12
450.662	95.12
450.883	103.12
451.104	109.12
451.324	100.12
451.545	84.12
451.766	94.12
451.986	82.12
452.207	81.12
452.428	81.12
452.648	96.12
452.869	103.12
453.089	112.12
453.31	115.12
453.53	88.12
453.751	92.12
453.971	101.12
454.192	105.12
454.412	104.12
454.633	89.12
454.853	89.12
455.073	101.12
455.294	86.12
455.514	112.12
455.734	90.12
455.955	94.12
456.175	94.12
456.395	81.12
456.616	68.12
456.836	83.12
457.056	103.12
457.276	88.12
457.497	91.12
457.717	95.12
457.937	97.12
458.157	75.12
458.377	88.12
458.598	109.12
458.818	130.12
459.038	145.12
459.258	105.12
459.478	89.12
459.698	81.12
459.918	67.12
460.138	86.12
460.358	90.12
460.578	90.12
460.798	89.12
461.018	90.12
461.238	73.12
461.458	80.12
461.678	88.12
461.898	87.12
462.118	75.12
462.338	80.12
462.558	87.12
462.777	78.12
462.997	71.12
463.217	76.12
463.437	75.12
463.657	61.12
463.876	82.12
464.096	91.12
464.316	92.12
464.536	85.12
464.755	103.12
464.975	92.12
465.195	146.12
465.414	146.12
465.634	88.12
465.854	96.12
466.073	91.12
466.293	80.12
466.512	86.12
466.732	87.12
466.951	91.12
467.171	84.12
467.391	94.12
467.61	97.12
467.829	87.12
468.049	80.12
468.268	87.12
468.488	96.12
468.707	80.12
468.927	76.12
469.146	87.12
469.365	72.12
469.585	87.12
469.804	101.12
470.023	92.12
470.243	83.12
470.462	95.12
470.681	108.12
470.901	106.12
471.12	91.12
471.339	96.12
471.558	81.12
471.777	86.12
471.997	94.12
472.216	90.12
472.435	89.12
472.654	97.12
472.873	93.12
473.092	91.12
473.311	89.12
473.53	89.12
473.749	80.12
473.968	76.12
474.187	103.12
474.406	85.12
474.625	81.12
474.844	97.12
475.063	91.12
475.282	94.12
475.501	76.12
475.72	96.12
475.939	68.12
476.158	83.12
476.377	80.12
476.596	82.12
476.814	82.12
477.033	92.12
477.252	91.12
477.471	73.12
477.69	81.12
477.908	87.12
478.127	88.12
478.346	88.12
478.564	89.12
478.783	94.12
479.002	102.12
479.22	108.12
479.439	85.12
479.658	100.12
479.876	99.12
480.095	81.12
480.313	100.12
480.532	91.12
480.751	67.12
480.969	72.12
481.188	103.12
481.406	104.12
481.624	76.12
481.843	97.12
482.061	98.12
482.28	98.12
482.498	90.12
482.717	105.12
482.935	91.12
483.153	97.12
483.372	89.12
483.59	85.12
483.808	85.12
484.027	90.12
484.245	93.12
484.463	90.12
484.681	89.12
484.9	87.12
485.118	87.12
485.336	95.12
485.554	98.12
485.772	99.12
485.99	94.12
486.209	88.12
486.427	114.12
486.645	98.12
486.863	118.12
487.081	105.12
487.299	85.12
487.517	85.12
487.735	96.12
487.953	94.12
488.171	92.12
488.389	94.12
488.607	87.12
488.825	85.12
489.043	88.12
489.261	99.12
489.479	98.12
489.696	86.12
489.914	90.12
490.132	79.12
490.35	92.12
490.568	96.12
490.786	99.12
491.003	101.12
491.221	97.12
491.439	87.12
491.657	89.12
491.874	101.12
492.092	91.12
492.31	84.12
492.527	81.12
492.745	91.12
492.963	94.12
493.18	94.12
493.398	89.12
493.615	96.12
493.833	100.12
494.05	93.12
494.268	82.12
494.485	86.12
494.703	94.12
494.92	94.12
495.138	102.12
495.355	90.12
495.573	91.12
495.79	89.12
496.008	95.12
496.225	94.12
496.442	94.12
496.66	96.12
496.877	96.12
497.094	89.12
497.312	97.12
497.529	78.12
497.746	85.12
497.963	95.12
498.181	89.12
498.398	95.12
498.615	106.12
498.832	97.12
499.049	86.12
499.267	91.12
499.484	89.12
499.701	74.12
499.918	81.12
500.135	91.12
500.352	92.12
500.569	85.12
500.786	96.12
501.003	86.12
501.22	83.12
501.437	97.12
501.654	90.12
501.871	102.12
502.088	91.12
502.305	91.12
502.522	91.12
502.739	95.12
502.956	82.12
503.172	81.12
503.389	87.12
503.606	101.12
503.823	89.12
504.04	82.12
504.256	94.12
504.473	80.12
504.69	92.12
504.907	94.12
505.123	78.12
505.34	89.12
505.557	92.12
505.773	95.12
505.99	100.12
506.207	90.12
506.423	94.12
506.64	80.12
506.856	90.12
507.073	92.12
507.289	83.12
507.506	101.12
507.722	116.12
507.939	105.12
508.155	102.12
508.372	95.12
508.588	94.12
508.805	94.12
509.021	98.12
509.238	99.12
509.454	105.12
509.67	95.12
509.887	105.12
510.103	138.12
510.319	208.12
510.536	716.12
510.752	2239.12
510.968	619.12
511.184	145.12
511.401	121.12
511.617	104.12
511.833	91.12
512.049	92.12
512.265	98.12
512.481	90.12
512.698	86.12
512.914	92.12
513.13	86.12
513.346	106.12
513.562	88.12
513.778	80.12
513.994	92.12
514.21	98.12
514.426	115.12
514.642	124.12
514.858	128.12
515.074	162.12
515.29	430.12
515.506	1377.12
515.721	514.12
515.937	150.12
