Data from Uncirc_1984_H10_HRD10591_00036.txt Node
Date: Wed Jan 03 12:21:44 EST 2024
User: Yrep
Spectrometer: HR+D1059
Trigger mode: 1
Integration Time (sec): 1.000000E-1
Scans to average: 1
Electric dark correction enabled: true
Nonlinearity correction enabled: false
Boxcar width: 0
XAxis mode: Wavelengths
Number of Pixels in Spectrum: 2048
>>>>>Begin Spectral Data<<<<<
223.165	-13.69
223.4	-13.69
223.635	-13.69
223.869	-11.69
224.104	-8.69
224.338	-13.69
224.573	-15.69
224.808	-9.69
225.042	-13.69
225.277	-9.69
225.511	-12.69
225.746	-8.69
225.98	9.31
226.215	9.31
226.449	20.31
226.683	26.31
226.918	28.31
227.152	24.31
227.387	30.31
227.621	42.31
227.856	40.31
228.09	49.31
228.324	56.31
228.559	63.31
228.793	59.31
229.027	54.31
229.262	64.31
229.496	83.31
229.73	79.31
229.964	70.31
230.199	76.31
230.433	65.31
230.667	79.31
230.901	78.31
231.136	77.31
231.37	76.31
231.604	82.31
231.838	74.31
232.072	78.31
232.306	76.31
232.541	83.31
232.775	86.31
233.009	66.31
233.243	71.31
233.477	92.31
233.711	71.31
233.945	77.31
234.179	60.31
234.413	74.31
234.647	66.31
234.881	66.31
235.115	73.31
235.349	94.31
235.583	64.31
235.817	73.31
236.051	71.31
236.285	73.31
236.519	80.31
236.753	78.31
236.987	82.31
237.221	71.31
237.455	96.31
237.689	76.31
237.922	72.31
238.156	78.31
238.39	64.31
238.624	74.31
238.858	73.31
239.091	74.31
239.325	78.31
239.559	97.31
239.793	71.31
240.027	66.31
240.26	81.31
240.494	74.31
240.728	79.31
240.961	60.31
241.195	65.31
241.429	66.31
241.662	73.31
241.896	70.31
242.13	84.31
242.363	72.31
242.597	79.31
242.83	90.31
243.064	65.31
243.298	72.31
243.531	60.31
243.765	80.31
243.998	77.31
244.232	77.31
244.465	74.31
244.699	81.31
244.932	81.31
245.166	76.31
245.399	82.31
245.633	83.31
245.866	69.31
246.099	71.31
246.333	70.31
246.566	66.31
246.8	65.31
247.033	80.31
247.266	78.31
247.5	73.31
247.733	83.31
247.966	78.31
248.2	69.31
248.433	82.31
248.666	72.31
248.899	67.31
249.133	83.31
249.366	95.31
249.599	95.31
249.832	80.31
250.066	81.31
250.299	92.31
250.532	78.31
250.765	69.31
250.998	69.31
251.231	66.31
251.465	81.31
251.698	77.31
251.931	75.31
252.164	80.31
252.397	68.31
252.63	51.31
252.863	71.31
253.096	82.31
253.329	61.31
253.562	79.31
253.795	70.31
254.028	84.31
254.261	63.31
254.494	80.31
254.727	75.31
254.96	75.31
255.193	70.31
255.426	84.31
255.659	73.31
255.892	80.31
256.124	82.31
256.357	70.31
256.59	76.31
256.823	72.31
257.056	76.31
257.289	73.31
257.521	88.31
257.754	86.31
257.987	74.31
258.22	82.31
258.452	81.31
258.685	74.31
258.918	77.31
259.151	67.31
259.383	99.31
259.616	86.31
259.849	77.31
260.081	85.31
260.314	66.31
260.547	87.31
260.779	76.31
261.012	89.31
261.244	85.31
261.477	88.31
261.71	81.31
261.942	91.31
262.175	97.31
262.407	87.31
262.64	70.31
262.872	74.31
263.105	90.31
263.337	96.31
263.57	89.31
263.802	73.31
264.035	73.31
264.267	82.31
264.499	80.31
264.732	80.31
264.964	85.31
265.197	50.31
265.429	80.31
265.661	94.31
265.894	91.31
266.126	90.31
266.358	72.31
266.591	78.31
266.823	58.31
267.055	70.31
267.287	88.31
267.52	86.31
267.752	82.31
267.984	86.31
268.216	73.31
268.448	79.31
268.681	81.31
268.913	81.31
269.145	73.31
269.377	85.31
269.609	89.31
269.841	95.31
270.073	79.31
270.306	86.31
270.538	78.31
270.77	89.31
271.002	78.31
271.234	70.31
271.466	68.31
271.698	72.31
271.93	88.31
272.162	77.31
272.394	85.31
272.626	100.31
272.858	76.31
273.09	81.31
273.322	87.31
273.553	91.31
273.785	76.31
274.017	86.31
274.249	86.31
274.481	88.31
274.713	68.31
274.945	91.31
275.176	76.31
275.408	80.31
275.64	69.31
275.872	91.31
276.104	86.31
276.335	93.31
276.567	92.31
276.799	89.31
277.031	88.31
277.262	83.31
277.494	89.31
277.726	73.31
277.957	78.31
278.189	81.31
278.421	82.31
278.652	82.31
278.884	89.31
279.115	66.31
279.347	72.31
279.579	90.31
279.81	86.31
280.042	97.31
280.273	92.31
280.505	91.31
280.736	71.31
280.968	92.31
281.199	69.31
281.431	78.31
281.662	85.31
281.894	83.31
282.125	88.31
282.356	96.31
282.588	119.31
282.819	98.31
283.051	73.31
283.282	90.31
283.513	91.31
283.745	88.31
283.976	81.31
284.207	71.31
284.439	85.31
284.67	80.31
284.901	87.31
285.132	84.31
285.364	80.31
285.595	93.31
285.826	101.31
286.057	86.31
286.288	76.31
286.52	80.31
286.751	87.31
286.982	81.31
287.213	91.31
287.444	97.31
287.675	88.31
287.906	92.31
288.138	91.31
288.369	86.31
288.6	96.31
288.831	106.31
289.062	100.31
289.293	86.31
289.524	73.31
289.755	80.31
289.986	79.31
290.217	83.31
290.448	67.31
290.679	89.31
290.91	86.31
291.141	79.31
291.371	87.31
291.602	79.31
291.833	93.31
292.064	82.31
292.295	86.31
292.526	93.31
292.757	87.31
292.987	93.31
293.218	87.31
293.449	82.31
293.68	83.31
293.91	76.31
294.141	72.31
294.372	83.31
294.603	80.31
294.833	98.31
295.064	87.31
295.295	82.31
295.525	84.31
295.756	85.31
295.987	99.31
296.217	115.31
296.448	100.31
296.679	89.31
296.909	90.31
297.14	102.31
297.37	83.31
297.601	85.31
297.831	79.31
298.062	80.31
298.292	102.31
298.523	87.31
298.753	89.31
298.984	74.31
299.214	79.31
299.445	91.31
299.675	97.31
299.905	91.31
300.136	102.31
300.366	87.31
300.597	82.31
300.827	94.31
301.057	86.31
301.288	90.31
301.518	71.31
301.748	85.31
301.979	94.31
302.209	81.31
302.439	80.31
302.669	93.31
302.9	97.31
303.13	94.31
303.36	82.31
303.59	97.31
303.82	97.31
304.051	96.31
304.281	73.31
304.511	87.31
304.741	85.31
304.971	88.31
305.201	81.31
305.431	88.31
305.661	77.31
305.891	100.31
306.121	104.31
306.352	98.31
306.582	93.31
306.812	80.31
307.042	82.31
307.272	96.31
307.502	88.31
307.731	93.31
307.961	78.31
308.191	78.31
308.421	86.31
308.651	84.31
308.881	90.31
309.111	86.31
309.341	89.31
309.571	86.31
309.8	93.31
310.03	90.31
310.26	94.31
310.49	92.31
310.72	97.31
310.949	93.31
311.179	90.31
311.409	96.31
311.639	88.31
311.868	96.31
312.098	85.31
312.328	84.31
312.557	88.31
312.787	93.31
313.017	96.31
313.246	87.31
313.476	81.31
313.706	78.31
313.935	96.31
314.165	93.31
314.394	100.31
314.624	85.31
314.853	100.31
315.083	92.31
315.312	80.31
315.542	97.31
315.771	84.31
316.001	86.31
316.23	78.31
316.46	94.31
316.689	94.31
316.919	80.31
317.148	85.31
317.377	93.31
317.607	110.31
317.836	87.31
318.065	89.31
318.295	85.31
318.524	86.31
318.753	84.31
318.983	110.31
319.212	91.31
319.441	102.31
319.67	96.31
319.9	62.31
320.129	100.31
320.358	89.31
320.587	83.31
320.816	97.31
321.046	100.31
321.275	100.31
321.504	88.31
321.733	94.31
321.962	104.31
322.191	107.31
322.42	92.31
322.649	98.31
322.878	103.31
323.108	108.31
323.337	108.31
323.566	117.31
323.795	133.31
324.024	184.31
324.253	326.31
324.482	668.31
324.71	1370.31
324.939	1786.31
325.168	673.31
325.397	210.31
325.626	134.31
325.855	127.31
326.084	113.31
326.313	105.31
326.542	124.31
326.77	202.31
326.999	384.31
327.228	802.31
327.457	1415.31
327.686	1124.31
327.914	325.31
328.143	144.31
328.372	136.31
328.6	105.31
328.829	96.31
329.058	109.31
329.287	125.31
329.515	102.31
329.744	93.31
329.972	94.31
330.201	86.31
330.43	110.31
330.658	113.31
330.887	125.31
331.115	106.31
331.344	87.31
331.572	95.31
331.801	90.31
332.03	94.31
332.258	82.31
332.486	93.31
332.715	97.31
332.943	96.31
333.172	108.31
333.4	93.31
333.629	92.31
333.857	93.31
334.085	102.31
334.314	86.31
334.542	90.31
334.771	94.31
334.999	97.31
335.227	89.31
335.455	88.31
335.684	96.31
335.912	89.31
336.14	105.31
336.369	92.31
336.597	85.31
336.825	91.31
337.053	93.31
337.281	94.31
337.51	106.31
337.738	100.31
337.966	89.31
338.194	83.31
338.422	85.31
338.65	84.31
338.878	95.31
339.106	97.31
339.334	79.31
339.562	102.31
339.79	100.31
340.018	88.31
340.246	92.31
340.474	101.31
340.702	98.31
340.93	104.31
341.158	76.31
341.386	102.31
341.614	97.31
341.842	78.31
342.07	72.31
342.298	99.31
342.526	94.31
342.754	82.31
342.981	87.31
343.209	89.31
343.437	95.31
343.665	87.31
343.893	92.31
344.12	81.31
344.348	103.31
344.576	94.31
344.804	94.31
345.031	76.31
345.259	95.31
345.487	81.31
345.714	85.31
345.942	96.31
346.17	92.31
346.397	71.31
346.625	92.31
346.853	89.31
347.08	99.31
347.308	88.31
347.535	94.31
347.763	84.31
347.99	96.31
348.218	105.31
348.445	88.31
348.673	93.31
348.9	99.31
349.128	98.31
349.355	98.31
349.583	84.31
349.81	88.31
350.037	90.31
350.265	89.31
350.492	85.31
350.72	99.31
350.947	93.31
351.174	109.31
351.402	110.31
351.629	101.31
351.856	80.31
352.083	90.31
352.311	98.31
352.538	99.31
352.765	106.31
352.992	119.31
353.22	110.31
353.447	110.31
353.674	96.31
353.901	97.31
354.128	105.31
354.355	80.31
354.583	88.31
354.81	96.31
355.037	88.31
355.264	103.31
355.491	102.31
355.718	70.31
355.945	86.31
356.172	78.31
356.399	90.31
356.626	88.31
356.853	89.31
357.08	100.31
357.307	92.31
357.534	90.31
357.761	86.31
357.988	90.31
358.215	85.31
358.441	82.31
358.668	70.31
358.895	92.31
359.122	94.31
359.349	84.31
359.576	95.31
359.802	82.31
360.029	109.31
360.256	86.31
360.483	88.31
360.709	77.31
360.936	91.31
361.163	102.31
361.39	100.31
361.616	84.31
361.843	95.31
362.07	92.31
362.296	82.31
362.523	108.31
362.749	96.31
362.976	103.31
363.203	84.31
363.429	83.31
363.656	80.31
363.882	77.31
364.109	67.31
364.335	84.31
364.562	81.31
364.788	73.31
365.015	97.31
365.241	98.31
365.468	96.31
365.694	89.31
365.92	98.31
366.147	84.31
366.373	77.31
366.599	87.31
366.826	84.31
367.052	82.31
367.278	96.31
367.505	84.31
367.731	89.31
367.957	92.31
368.184	81.31
368.41	114.31
368.636	97.31
368.862	114.31
369.089	104.31
369.315	92.31
369.541	95.31
369.767	92.31
369.993	97.31
370.219	92.31
370.445	88.31
370.672	84.31
370.898	78.31
371.124	94.31
371.35	82.31
371.576	96.31
371.802	80.31
372.028	74.31
372.254	79.31
372.48	81.31
372.706	80.31
372.932	93.31
373.158	77.31
373.384	93.31
373.61	103.31
373.835	90.31
374.061	85.31
374.287	83.31
374.513	81.31
374.739	91.31
374.965	78.31
375.191	86.31
375.416	92.31
375.642	91.31
375.868	89.31
376.094	84.31
376.319	77.31
376.545	93.31
376.771	93.31
376.997	84.31
377.222	76.31
377.448	93.31
377.674	92.31
377.899	84.31
378.125	98.31
378.35	88.31
378.576	86.31
378.802	93.31
379.027	72.31
379.253	90.31
379.478	99.31
379.704	106.31
379.929	89.31
380.155	88.31
380.38	95.31
380.606	90.31
380.831	100.31
381.057	80.31
381.282	95.31
381.507	89.31
381.733	92.31
381.958	80.31
382.184	91.31
382.409	88.31
382.634	83.31
382.86	105.31
383.085	87.31
383.31	86.31
383.535	109.31
383.761	92.31
383.986	101.31
384.211	96.31
384.436	98.31
384.662	89.31
384.887	109.31
385.112	103.31
385.337	97.31
385.562	96.31
385.787	94.31
386.013	85.31
386.238	105.31
386.463	86.31
386.688	94.31
386.913	97.31
387.138	93.31
387.363	90.31
387.588	98.31
387.813	105.31
388.038	90.31
388.263	92.31
388.488	104.31
388.713	93.31
388.938	98.31
389.163	102.31
389.387	86.31
389.612	85.31
389.837	91.31
390.062	94.31
390.287	90.31
390.512	98.31
390.736	87.31
390.961	88.31
391.186	94.31
391.411	96.31
391.636	108.31
391.86	79.31
392.085	93.31
392.31	78.31
392.534	87.31
392.759	83.31
392.984	68.31
393.208	90.31
393.433	78.31
393.658	97.31
393.882	87.31
394.107	82.31
394.331	93.31
394.556	76.31
394.78	82.31
395.005	96.31
395.229	83.31
395.454	85.31
395.678	87.31
395.903	89.31
396.127	98.31
396.352	92.31
396.576	83.31
396.801	84.31
397.025	91.31
397.249	83.31
397.474	103.31
397.698	78.31
397.922	86.31
398.147	80.31
398.371	81.31
398.595	83.31
398.82	89.31
399.044	95.31
399.268	67.31
399.492	78.31
399.717	84.31
399.941	97.31
400.165	101.31
400.389	94.31
400.613	96.31
400.837	96.31
401.062	80.31
401.286	88.31
401.51	85.31
401.734	84.31
401.958	96.31
402.182	120.31
402.406	126.31
402.63	106.31
402.854	96.31
403.078	85.31
403.302	96.31
403.526	82.31
403.75	69.31
403.974	92.31
404.198	74.31
404.422	95.31
404.645	87.31
404.869	102.31
405.093	92.31
405.317	91.31
405.541	102.31
405.765	98.31
405.988	100.31
406.212	142.31
406.436	182.31
406.66	132.31
406.883	85.31
407.107	103.31
407.331	90.31
407.555	84.31
407.778	92.31
408.002	85.31
408.226	83.31
408.449	94.31
408.673	79.31
408.896	90.31
409.12	84.31
409.344	92.31
409.567	82.31
409.791	89.31
410.014	86.31
410.238	92.31
410.461	91.31
410.685	103.31
410.908	88.31
411.132	90.31
411.355	95.31
411.578	96.31
411.802	72.31
412.025	92.31
412.249	86.31
412.472	88.31
412.695	88.31
412.919	87.31
413.142	69.31
413.365	71.31
413.589	79.31
413.812	69.31
414.035	92.31
414.258	90.31
414.482	88.31
414.705	93.31
414.928	84.31
415.151	79.31
415.374	97.31
415.597	58.31
415.821	87.31
416.044	102.31
416.267	96.31
416.49	91.31
416.713	88.31
416.936	84.31
417.159	86.31
417.382	77.31
417.605	88.31
417.828	84.31
418.051	82.31
418.274	80.31
418.497	89.31
418.72	89.31
418.943	78.31
419.166	99.31
419.389	98.31
419.611	74.31
419.834	83.31
420.057	80.31
420.28	89.31
420.503	76.31
420.726	76.31
420.948	76.31
421.171	84.31
421.394	79.31
421.617	91.31
421.839	88.31
422.062	79.31
422.285	78.31
422.507	102.31
422.73	105.31
422.953	84.31
423.175	89.31
423.398	92.31
423.621	95.31
423.843	94.31
424.066	73.31
424.288	84.31
424.511	78.31
424.733	93.31
424.956	89.31
425.178	82.31
425.401	89.31
425.623	94.31
425.846	86.31
426.068	93.31
426.291	96.31
426.513	84.31
426.735	65.31
426.958	102.31
427.18	101.31
427.402	121.31
427.625	133.31
427.847	116.31
428.069	81.31
428.292	89.31
428.514	92.31
428.736	90.31
428.958	78.31
429.181	89.31
429.403	82.31
429.625	82.31
429.847	83.31
430.069	96.31
430.292	85.31
430.514	89.31
430.736	71.31
430.958	81.31
431.18	85.31
431.402	93.31
431.624	95.31
431.846	93.31
432.068	84.31
432.29	83.31
432.512	89.31
432.734	80.31
432.956	94.31
433.178	95.31
433.4	96.31
433.622	93.31
433.844	80.31
434.066	84.31
434.287	82.31
434.509	98.31
434.731	86.31
434.953	86.31
435.175	85.31
435.397	91.31
435.618	81.31
435.84	86.31
436.062	103.31
436.284	104.31
436.505	87.31
436.727	93.31
436.949	90.31
437.17	86.31
437.392	77.31
437.614	83.31
437.835	91.31
438.057	106.31
438.278	100.31
438.5	105.31
438.721	101.31
438.943	90.31
439.165	85.31
439.386	89.31
439.608	88.31
439.829	75.31
440.05	98.31
440.272	125.31
440.493	102.31
440.715	81.31
440.936	89.31
441.158	84.31
441.379	94.31
441.6	72.31
441.822	81.31
442.043	85.31
442.264	87.31
442.486	83.31
442.707	87.31
442.928	100.31
443.149	104.31
443.371	99.31
443.592	96.31
443.813	101.31
444.034	91.31
444.255	81.31
444.476	93.31
444.698	81.31
444.919	88.31
445.14	135.31
445.361	118.31
445.582	111.31
445.803	130.31
446.024	129.31
446.245	124.31
446.466	85.31
446.687	95.31
446.908	82.31
447.129	94.31
447.35	97.31
447.571	89.31
447.792	86.31
448.013	87.31
448.234	100.31
448.455	100.31
448.675	107.31
448.896	94.31
449.117	98.31
449.338	94.31
449.559	113.31
449.779	117.31
450	95.31
450.221	88.31
450.442	90.31
450.662	95.31
450.883	94.31
451.104	85.31
451.324	84.31
451.545	76.31
451.766	94.31
451.986	80.31
452.207	79.31
452.428	96.31
452.648	74.31
452.869	94.31
453.089	120.31
453.31	110.31
453.53	81.31
453.751	100.31
453.971	95.31
454.192	97.31
454.412	78.31
454.633	84.31
454.853	89.31
455.073	77.31
455.294	95.31
455.514	88.31
455.734	84.31
455.955	89.31
456.175	73.31
456.395	65.31
456.616	84.31
456.836	100.31
457.056	78.31
457.276	86.31
457.497	74.31
457.717	84.31
457.937	85.31
458.157	80.31
458.377	94.31
458.598	94.31
458.818	114.31
459.038	122.31
459.258	105.31
459.478	89.31
459.698	107.31
459.918	89.31
460.138	79.31
460.358	95.31
460.578	69.31
460.798	80.31
461.018	84.31
461.238	78.31
461.458	81.31
461.678	93.31
461.898	82.31
462.118	88.31
462.338	72.31
462.558	80.31
462.777	83.31
462.997	82.31
463.217	92.31
463.437	92.31
463.657	89.31
463.876	67.31
464.096	70.31
464.316	94.31
464.536	95.31
464.755	85.31
464.975	92.31
465.195	141.31
465.414	136.31
465.634	91.31
465.854	81.31
466.073	81.31
466.293	78.31
466.512	74.31
466.732	85.31
466.951	86.31
467.171	88.31
467.391	94.31
467.61	108.31
467.829	83.31
468.049	77.31
468.268	83.31
468.488	92.31
468.707	80.31
468.927	89.31
469.146	81.31
469.365	86.31
469.585	88.31
469.804	72.31
470.023	80.31
470.243	95.31
470.462	92.31
470.681	96.31
470.901	101.31
471.12	73.31
471.339	88.31
471.558	72.31
471.777	87.31
471.997	87.31
472.216	83.31
472.435	93.31
472.654	68.31
472.873	91.31
473.092	88.31
473.311	84.31
473.53	88.31
473.749	93.31
473.968	58.31
474.187	103.31
474.406	93.31
474.625	90.31
474.844	88.31
475.063	93.31
475.282	101.31
475.501	80.31
475.72	96.31
475.939	76.31
476.158	95.31
476.377	85.31
476.596	91.31
476.814	88.31
477.033	96.31
477.252	84.31
477.471	89.31
477.69	88.31
477.908	87.31
478.127	82.31
478.346	92.31
478.564	77.31
478.783	90.31
479.002	98.31
479.22	98.31
479.439	101.31
479.658	88.31
479.876	93.31
480.095	80.31
480.313	94.31
480.532	99.31
480.751	92.31
480.969	87.31
481.188	98.31
481.406	104.31
481.624	80.31
481.843	99.31
482.061	80.31
482.28	95.31
482.498	76.31
482.717	89.31
482.935	66.31
483.153	80.31
483.372	99.31
483.59	98.31
483.808	91.31
484.027	84.31
484.245	76.31
484.463	108.31
484.681	109.31
484.9	93.31
485.118	94.31
485.336	116.31
485.554	91.31
485.772	100.31
485.99	93.31
486.209	101.31
486.427	86.31
486.645	102.31
486.863	98.31
487.081	106.31
487.299	100.31
487.517	93.31
487.735	86.31
487.953	88.31
488.171	91.31
488.389	95.31
488.607	93.31
488.825	97.31
489.043	87.31
489.261	85.31
489.479	80.31
489.696	83.31
489.914	90.31
490.132	79.31
490.35	96.31
490.568	78.31
490.786	94.31
491.003	80.31
491.221	97.31
491.439	86.31
491.657	92.31
491.874	88.31
492.092	86.31
492.31	90.31
492.527	88.31
492.745	91.31
492.963	86.31
493.18	93.31
493.398	80.31
493.615	84.31
493.833	92.31
494.05	92.31
494.268	96.31
494.485	103.31
494.703	75.31
494.92	80.31
495.138	94.31
495.355	81.31
495.573	70.31
495.79	69.31
496.008	100.31
496.225	84.31
496.442	99.31
496.66	93.31
496.877	87.31
497.094	92.31
497.312	90.31
497.529	85.31
497.746	80.31
497.963	96.31
498.181	94.31
498.398	95.31
498.615	101.31
498.832	100.31
499.049	86.31
499.267	88.31
499.484	72.31
499.701	88.31
499.918	104.31
500.135	93.31
500.352	86.31
500.569	84.31
500.786	88.31
501.003	78.31
501.22	80.31
501.437	84.31
501.654	95.31
501.871	89.31
502.088	100.31
502.305	80.31
502.522	89.31
502.739	82.31
502.956	84.31
503.172	68.31
503.389	84.31
503.606	91.31
503.823	91.31
504.04	102.31
504.256	84.31
504.473	87.31
504.69	95.31
504.907	92.31
505.123	94.31
505.34	94.31
505.557	87.31
505.773	97.31
505.99	85.31
506.207	97.31
506.423	82.31
506.64	78.31
506.856	105.31
507.073	94.31
507.289	85.31
507.506	100.31
507.722	112.31
507.939	107.31
508.155	110.31
508.372	80.31
508.588	89.31
508.805	95.31
509.021	88.31
509.238	95.31
509.454	73.31
509.67	106.31
509.887	95.31
510.103	122.31
510.319	177.31
510.536	637.31
510.752	1918.31
510.968	532.31
511.184	136.31
511.401	94.31
511.617	95.31
511.833	87.31
512.049	86.31
512.265	95.31
512.481	99.31
512.698	88.31
512.914	100.31
513.13	80.31
513.346	84.31
513.562	97.31
513.778	94.31
513.994	94.31
514.21	85.31
514.426	97.31
514.642	103.31
514.858	110.31
515.074	132.31
515.29	356.31
515.506	1100.31
515.721	418.31
515.937	124.31
516.153	110.31
516.369	93.31
516.585	96.31
516.801	101.31
517.016	96.31
517.232	88.31
