Data from Uncirc_1984_H10_HRD10591_00028.txt Node
Date: Wed Jan 03 12:21:42 EST 2024
User: Yrep
Spectrometer: HR+D1059
Trigger mode: 1
Integration Time (sec): 1.000000E-1
Scans to average: 1
Electric dark correction enabled: true
Nonlinearity correction enabled: false
Boxcar width: 0
XAxis mode: Wavelengths
Number of Pixels in Spectrum: 2048
>>>>>Begin Spectral Data<<<<<
223.165	-17.56
223.4	-17.56
223.635	-17.56
223.869	-15.56
224.104	-12.56
224.338	-15.56
224.573	-16.56
224.808	-19.56
225.042	-9.56
225.277	-0.56
225.511	0.44
225.746	-12.56
225.98	24.44
226.215	23.44
226.449	11.44
226.683	20.44
226.918	4.44
227.152	35.44
227.387	38.44
227.621	29.44
227.856	43.44
228.09	55.44
228.324	45.44
228.559	48.44
228.793	57.44
229.027	69.44
229.262	58.44
229.496	71.44
229.73	81.44
229.964	77.44
230.199	73.44
230.433	81.44
230.667	74.44
230.901	94.44
231.136	78.44
231.37	84.44
231.604	79.44
231.838	77.44
232.072	83.44
232.306	82.44
232.541	93.44
232.775	71.44
233.009	80.44
233.243	67.44
233.477	86.44
233.711	73.44
233.945	83.44
234.179	81.44
234.413	85.44
234.647	73.44
234.881	58.44
235.115	71.44
235.349	73.44
235.583	87.44
235.817	69.44
236.051	61.44
236.285	78.44
236.519	87.44
236.753	67.44
236.987	63.44
237.221	58.44
237.455	99.44
237.689	74.44
237.922	81.44
238.156	71.44
238.39	69.44
238.624	87.44
238.858	73.44
239.091	63.44
239.325	73.44
239.559	57.44
239.793	81.44
240.027	66.44
240.26	72.44
240.494	68.44
240.728	78.44
240.961	68.44
241.195	77.44
241.429	77.44
241.662	66.44
241.896	89.44
242.13	72.44
242.363	67.44
242.597	87.44
242.83	81.44
243.064	63.44
243.298	75.44
243.531	68.44
243.765	84.44
243.998	85.44
244.232	87.44
244.465	97.44
244.699	77.44
244.932	81.44
245.166	78.44
245.399	75.44
245.633	73.44
245.866	80.44
246.099	78.44
246.333	87.44
246.566	79.44
246.8	69.44
247.033	74.44
247.266	72.44
247.5	63.44
247.733	63.44
247.966	80.44
248.2	88.44
248.433	67.44
248.666	73.44
248.899	67.44
249.133	75.44
249.366	101.44
249.599	87.44
249.832	73.44
250.066	81.44
250.299	73.44
250.532	77.44
250.765	65.44
250.998	86.44
251.231	74.44
251.465	83.44
251.698	60.44
251.931	70.44
252.164	82.44
252.397	81.44
252.63	82.44
252.863	74.44
253.096	78.44
253.329	89.44
253.562	75.44
253.795	85.44
254.028	80.44
254.261	70.44
254.494	77.44
254.727	98.44
254.96	82.44
255.193	82.44
255.426	72.44
255.659	70.44
255.892	69.44
256.124	78.44
256.357	80.44
256.59	87.44
256.823	77.44
257.056	78.44
257.289	79.44
257.521	70.44
257.754	79.44
257.987	73.44
258.22	72.44
258.452	73.44
258.685	88.44
258.918	92.44
259.151	93.44
259.383	75.44
259.616	67.44
259.849	72.44
260.081	69.44
260.314	82.44
260.547	68.44
260.779	72.44
261.012	69.44
261.244	77.44
261.477	87.44
261.71	81.44
261.942	105.44
262.175	118.44
262.407	77.44
262.64	74.44
262.872	96.44
263.105	82.44
263.337	74.44
263.57	81.44
263.802	80.44
264.035	71.44
264.267	77.44
264.499	71.44
264.732	77.44
264.964	95.44
265.197	76.44
265.429	81.44
265.661	73.44
265.894	78.44
266.126	75.44
266.358	87.44
266.591	94.44
266.823	82.44
267.055	84.44
267.287	74.44
267.52	82.44
267.752	82.44
267.984	89.44
268.216	83.44
268.448	73.44
268.681	85.44
268.913	77.44
269.145	93.44
269.377	81.44
269.609	80.44
269.841	85.44
270.073	73.44
270.306	85.44
270.538	72.44
270.77	79.44
271.002	95.44
271.234	82.44
271.466	64.44
271.698	79.44
271.93	80.44
272.162	89.44
272.394	78.44
272.626	90.44
272.858	70.44
273.09	83.44
273.322	97.44
273.553	73.44
273.785	81.44
274.017	89.44
274.249	81.44
274.481	87.44
274.713	96.44
274.945	95.44
275.176	84.44
275.408	89.44
275.64	83.44
275.872	89.44
276.104	96.44
276.335	96.44
276.567	101.44
276.799	102.44
277.031	104.44
277.262	73.44
277.494	83.44
277.726	83.44
277.957	81.44
278.189	84.44
278.421	83.44
278.652	81.44
278.884	90.44
279.115	81.44
279.347	84.44
279.579	78.44
279.81	83.44
280.042	81.44
280.273	97.44
280.505	81.44
280.736	84.44
280.968	90.44
281.199	96.44
281.431	90.44
281.662	94.44
281.894	88.44
282.125	85.44
282.356	106.44
282.588	127.44
282.819	109.44
283.051	83.44
283.282	87.44
283.513	87.44
283.745	85.44
283.976	80.44
284.207	94.44
284.439	90.44
284.67	81.44
284.901	93.44
285.132	73.44
285.364	107.44
285.595	99.44
285.826	89.44
286.057	92.44
286.288	86.44
286.52	92.44
286.751	79.44
286.982	92.44
287.213	82.44
287.444	98.44
287.675	86.44
287.906	85.44
288.138	90.44
288.369	82.44
288.6	89.44
288.831	93.44
289.062	78.44
289.293	79.44
289.524	78.44
289.755	98.44
289.986	84.44
290.217	77.44
290.448	87.44
290.679	85.44
290.91	82.44
291.141	80.44
291.371	73.44
291.602	85.44
291.833	84.44
292.064	84.44
292.295	93.44
292.526	80.44
292.757	84.44
292.987	93.44
293.218	85.44
293.449	77.44
293.68	104.44
293.91	83.44
294.141	97.44
294.372	83.44
294.603	86.44
294.833	95.44
295.064	93.44
295.295	87.44
295.525	87.44
295.756	101.44
295.987	102.44
296.217	122.44
296.448	112.44
296.679	76.44
296.909	97.44
297.14	77.44
297.37	89.44
297.601	102.44
297.831	96.44
298.062	86.44
298.292	77.44
298.523	92.44
298.753	77.44
298.984	86.44
299.214	89.44
299.445	97.44
299.675	98.44
299.905	95.44
300.136	76.44
300.366	87.44
300.597	91.44
300.827	95.44
301.057	94.44
301.288	106.44
301.518	90.44
301.748	90.44
301.979	97.44
302.209	83.44
302.439	94.44
302.669	93.44
302.9	91.44
303.13	88.44
303.36	80.44
303.59	102.44
303.82	101.44
304.051	107.44
304.281	71.44
304.511	79.44
304.741	95.44
304.971	91.44
305.201	84.44
305.431	83.44
305.661	78.44
305.891	93.44
306.121	94.44
306.352	98.44
306.582	103.44
306.812	109.44
307.042	77.44
307.272	97.44
307.502	77.44
307.731	99.44
307.961	94.44
308.191	87.44
308.421	91.44
308.651	85.44
308.881	86.44
309.111	105.44
309.341	95.44
309.571	99.44
309.8	111.44
310.03	99.44
310.26	85.44
310.49	107.44
310.72	99.44
310.949	93.44
311.179	102.44
311.409	99.44
311.639	105.44
311.868	93.44
312.098	84.44
312.328	97.44
312.557	97.44
312.787	110.44
313.017	103.44
313.246	81.44
313.476	100.44
313.706	101.44
313.935	90.44
314.165	98.44
314.394	107.44
314.624	80.44
314.853	93.44
315.083	83.44
315.312	74.44
315.542	102.44
315.771	86.44
316.001	88.44
316.23	83.44
316.46	100.44
316.689	89.44
316.919	81.44
317.148	94.44
317.377	97.44
317.607	96.44
317.836	90.44
318.065	92.44
318.295	73.44
318.524	83.44
318.753	74.44
318.983	84.44
319.212	109.44
319.441	106.44
319.67	108.44
319.9	91.44
320.129	92.44
320.358	98.44
320.587	82.44
320.816	89.44
321.046	93.44
321.275	94.44
321.504	91.44
321.733	90.44
321.962	92.44
322.191	97.44
322.42	102.44
322.649	98.44
322.878	107.44
323.108	111.44
323.337	110.44
323.566	133.44
323.795	161.44
324.024	201.44
324.253	385.44
324.482	804.44
324.71	1683.44
324.939	2301.44
325.168	841.44
325.397	248.44
325.626	143.44
325.855	131.44
326.084	119.44
326.313	115.44
326.542	146.44
326.77	242.44
326.999	464.44
327.228	1000.44
327.457	1827.44
327.686	1454.44
327.914	377.44
328.143	182.44
328.372	136.44
328.6	115.44
328.829	123.44
329.058	125.44
329.287	112.44
329.515	105.44
329.744	100.44
329.972	103.44
330.201	99.44
330.43	115.44
330.658	122.44
330.887	146.44
331.115	105.44
331.344	93.44
331.572	97.44
331.801	97.44
332.03	107.44
332.258	97.44
332.486	100.44
332.715	83.44
332.943	87.44
333.172	99.44
333.4	88.44
333.629	110.44
333.857	117.44
334.085	104.44
334.314	93.44
334.542	103.44
334.771	89.44
334.999	100.44
335.227	96.44
335.455	97.44
335.684	100.44
335.912	105.44
336.14	93.44
336.369	90.44
336.597	80.44
336.825	93.44
337.053	88.44
337.281	87.44
337.51	81.44
337.738	77.44
337.966	91.44
338.194	91.44
338.422	103.44
338.65	89.44
338.878	106.44
339.106	101.44
339.334	87.44
339.562	86.44
339.79	89.44
340.018	90.44
340.246	99.44
340.474	92.44
340.702	88.44
340.93	101.44
341.158	89.44
341.386	90.44
341.614	83.44
341.842	81.44
342.07	74.44
342.298	95.44
342.526	87.44
342.754	82.44
342.981	102.44
343.209	93.44
343.437	107.44
343.665	97.44
343.893	93.44
344.12	89.44
344.348	91.44
344.576	83.44
344.804	80.44
345.031	99.44
345.259	91.44
345.487	92.44
345.714	99.44
345.942	104.44
346.17	94.44
346.397	93.44
346.625	95.44
346.853	85.44
347.08	97.44
347.308	70.44
347.535	101.44
347.763	97.44
347.99	101.44
348.218	103.44
348.445	114.44
348.673	101.44
348.9	90.44
349.128	97.44
349.355	81.44
349.583	101.44
349.81	98.44
350.037	86.44
350.265	97.44
350.492	88.44
350.72	78.44
350.947	90.44
351.174	107.44
351.402	102.44
351.629	109.44
351.856	99.44
352.083	106.44
352.311	104.44
352.538	96.44
352.765	93.44
352.992	107.44
353.22	97.44
353.447	93.44
353.674	89.44
353.901	86.44
354.128	104.44
354.355	97.44
354.583	106.44
354.81	106.44
355.037	102.44
355.264	100.44
355.491	82.44
355.718	100.44
355.945	88.44
356.172	96.44
356.399	88.44
356.626	93.44
356.853	88.44
357.08	102.44
357.307	87.44
357.534	77.44
357.761	83.44
357.988	107.44
358.215	71.44
358.441	91.44
358.668	93.44
358.895	91.44
359.122	85.44
359.349	95.44
359.576	89.44
359.802	96.44
360.029	117.44
360.256	106.44
360.483	94.44
360.709	77.44
360.936	101.44
361.163	90.44
361.39	88.44
361.616	93.44
361.843	72.44
362.07	90.44
362.296	99.44
362.523	81.44
362.749	84.44
362.976	94.44
363.203	99.44
363.429	93.44
363.656	89.44
363.882	87.44
364.109	93.44
364.335	98.44
364.562	80.44
364.788	85.44
365.015	102.44
365.241	99.44
365.468	106.44
365.694	104.44
365.92	95.44
366.147	94.44
366.373	91.44
366.599	82.44
366.826	89.44
367.052	86.44
367.278	90.44
367.505	92.44
367.731	95.44
367.957	94.44
368.184	80.44
368.41	93.44
368.636	93.44
368.862	107.44
369.089	107.44
369.315	101.44
369.541	95.44
369.767	86.44
369.993	89.44
370.219	96.44
370.445	97.44
370.672	82.44
370.898	68.44
371.124	85.44
371.35	87.44
371.576	89.44
371.802	94.44
372.028	79.44
372.254	82.44
372.48	93.44
372.706	91.44
372.932	97.44
373.158	92.44
373.384	98.44
373.61	92.44
373.835	91.44
374.061	81.44
374.287	97.44
374.513	95.44
374.739	80.44
374.965	98.44
375.191	78.44
375.416	94.44
375.642	93.44
375.868	87.44
376.094	96.44
376.319	101.44
376.545	79.44
376.771	97.44
376.997	95.44
377.222	85.44
377.448	88.44
377.674	101.44
377.899	77.44
378.125	99.44
378.35	99.44
378.576	94.44
378.802	83.44
379.027	91.44
379.253	81.44
379.478	94.44
379.704	94.44
379.929	86.44
380.155	75.44
380.38	85.44
380.606	87.44
380.831	90.44
381.057	90.44
381.282	82.44
381.507	84.44
381.733	80.44
381.958	79.44
382.184	93.44
382.409	102.44
382.634	93.44
382.86	99.44
383.085	96.44
383.31	95.44
383.535	99.44
383.761	95.44
383.986	91.44
384.211	99.44
384.436	89.44
384.662	92.44
384.887	97.44
385.112	111.44
385.337	102.44
385.562	108.44
385.787	106.44
386.013	101.44
386.238	107.44
386.463	98.44
386.688	93.44
386.913	88.44
387.138	104.44
387.363	102.44
387.588	102.44
387.813	97.44
388.038	98.44
388.263	111.44
388.488	98.44
388.713	83.44
388.938	94.44
389.163	96.44
389.387	98.44
389.612	86.44
389.837	87.44
390.062	89.44
390.287	103.44
390.512	103.44
390.736	87.44
390.961	94.44
391.186	100.44
391.411	91.44
391.636	83.44
391.86	90.44
392.085	95.44
392.31	79.44
392.534	82.44
392.759	79.44
392.984	82.44
393.208	98.44
393.433	102.44
393.658	95.44
393.882	90.44
394.107	76.44
394.331	69.44
394.556	84.44
394.78	100.44
395.005	82.44
395.229	90.44
395.454	96.44
395.678	81.44
395.903	83.44
396.127	81.44
396.352	87.44
396.576	72.44
396.801	81.44
397.025	97.44
397.249	91.44
397.474	82.44
397.698	79.44
397.922	94.44
398.147	78.44
398.371	81.44
398.595	79.44
398.82	80.44
399.044	87.44
399.268	81.44
399.492	92.44
399.717	94.44
399.941	91.44
400.165	78.44
400.389	89.44
400.613	96.44
400.837	87.44
401.062	87.44
401.286	90.44
401.51	69.44
401.734	99.44
401.958	107.44
402.182	123.44
402.406	145.44
402.63	116.44
402.854	87.44
403.078	93.44
403.302	95.44
403.526	90.44
403.75	87.44
403.974	74.44
404.198	94.44
404.422	92.44
404.645	98.44
404.869	105.44
405.093	86.44
405.317	100.44
405.541	97.44
405.765	107.44
405.988	118.44
406.212	155.44
406.436	188.44
406.66	127.44
406.883	89.44
407.107	93.44
407.331	88.44
407.555	105.44
407.778	93.44
408.002	84.44
408.226	94.44
408.449	96.44
408.673	95.44
408.896	89.44
409.12	91.44
409.344	102.44
409.567	86.44
409.791	81.44
410.014	89.44
410.238	94.44
410.461	90.44
410.685	97.44
410.908	94.44
411.132	98.44
411.355	105.44
411.578	93.44
411.802	88.44
412.025	88.44
412.249	73.44
412.472	80.44
412.695	94.44
412.919	67.44
413.142	100.44
413.365	85.44
413.589	81.44
413.812	93.44
414.035	96.44
414.258	96.44
414.482	81.44
414.705	91.44
414.928	86.44
415.151	91.44
415.374	99.44
415.597	80.44
415.821	102.44
416.044	82.44
416.267	70.44
416.49	94.44
416.713	89.44
416.936	77.44
417.159	82.44
417.382	82.44
417.605	90.44
417.828	89.44
418.051	86.44
418.274	90.44
418.497	81.44
418.72	83.44
418.943	89.44
419.166	87.44
419.389	90.44
419.611	89.44
419.834	99.44
420.057	97.44
420.28	84.44
420.503	85.44
420.726	95.44
420.948	102.44
421.171	90.44
421.394	82.44
421.617	92.44
421.839	94.44
422.062	88.44
422.285	107.44
422.507	103.44
422.73	111.44
422.953	84.44
423.175	80.44
423.398	72.44
423.621	91.44
423.843	82.44
424.066	98.44
424.288	73.44
424.511	90.44
424.733	97.44
424.956	98.44
425.178	96.44
425.401	103.44
425.623	113.44
425.846	86.44
426.068	84.44
426.291	99.44
426.513	86.44
426.735	93.44
426.958	93.44
427.18	112.44
427.402	115.44
427.625	159.44
427.847	110.44
428.069	95.44
428.292	84.44
428.514	79.44
428.736	86.44
428.958	86.44
429.181	83.44
429.403	88.44
429.625	83.44
429.847	83.44
430.069	104.44
430.292	79.44
430.514	85.44
430.736	84.44
430.958	73.44
431.18	90.44
431.402	86.44
431.624	83.44
431.846	80.44
432.068	73.44
432.29	74.44
432.512	79.44
432.734	86.44
432.956	78.44
433.178	98.44
433.4	96.44
433.622	93.44
433.844	102.44
434.066	79.44
434.287	96.44
434.509	74.44
434.731	89.44
434.953	96.44
435.175	87.44
435.397	105.44
435.618	85.44
435.84	110.44
436.062	134.44
436.284	102.44
436.505	91.44
436.727	102.44
436.949	94.44
437.17	92.44
437.392	91.44
437.614	80.44
437.835	94.44
438.057	118.44
438.278	115.44
438.5	115.44
438.721	127.44
438.943	104.44
439.165	88.44
439.386	96.44
439.608	93.44
439.829	109.44
440.05	112.44
440.272	140.44
440.493	96.44
440.715	77.44
440.936	85.44
441.158	82.44
441.379	77.44
441.6	91.44
441.822	87.44
442.043	92.44
442.264	111.44
442.486	108.44
442.707	93.44
442.928	98.44
443.149	129.44
443.371	141.44
443.592	106.44
443.813	115.44
444.034	113.44
444.255	84.44
444.476	78.44
444.698	94.44
444.919	77.44
445.14	129.44
445.361	120.44
445.582	115.44
445.803	148.44
446.024	128.44
446.245	136.44
446.466	119.44
446.687	86.44
446.908	89.44
447.129	88.44
447.35	71.44
447.571	90.44
447.792	90.44
448.013	98.44
448.234	97.44
448.455	101.44
448.675	122.44
448.896	120.44
449.117	105.44
449.338	107.44
449.559	136.44
449.779	134.44
450	86.44
450.221	90.44
450.442	83.44
450.662	97.44
450.883	95.44
451.104	91.44
451.324	96.44
451.545	86.44
451.766	84.44
451.986	77.44
452.207	83.44
452.428	87.44
452.648	95.44
452.869	97.44
453.089	98.44
453.31	103.44
453.53	84.44
453.751	86.44
453.971	89.44
454.192	103.44
454.412	73.44
454.633	89.44
454.853	75.44
455.073	78.44
455.294	101.44
455.514	98.44
455.734	90.44
455.955	72.44
456.175	69.44
456.395	86.44
456.616	80.44
456.836	73.44
457.056	85.44
457.276	90.44
457.497	75.44
457.717	84.44
457.937	87.44
458.157	93.44
458.377	73.44
458.598	95.44
458.818	150.44
459.038	139.44
459.258	126.44
459.478	96.44
459.698	84.44
459.918	83.44
460.138	82.44
460.358	71.44
460.578	77.44
460.798	80.44
461.018	101.44
461.238	90.44
461.458	82.44
461.678	69.44
461.898	95.44
462.118	81.44
462.338	87.44
462.558	77.44
462.777	77.44
462.997	81.44
463.217	79.44
463.437	87.44
463.657	83.44
463.876	91.44
464.096	84.44
464.316	84.44
464.536	96.44
464.755	98.44
464.975	98.44
465.195	166.44
465.414	148.44
465.634	101.44
465.854	86.44
466.073	91.44
466.293	98.44
466.512	84.44
466.732	74.44
466.951	79.44
467.171	91.44
467.391	87.44
467.61	85.44
467.829	105.44
468.049	75.44
468.268	81.44
468.488	85.44
468.707	84.44
468.927	89.44
469.146	75.44
469.365	87.44
469.585	78.44
469.804	99.44
470.023	91.44
470.243	74.44
470.462	98.44
470.681	105.44
470.901	80.44
471.12	75.44
471.339	85.44
471.558	78.44
471.777	90.44
471.997	74.44
472.216	78.44
472.435	92.44
472.654	75.44
472.873	89.44
473.092	79.44
473.311	91.44
473.53	107.44
473.749	95.44
473.968	113.44
474.187	120.44
474.406	91.44
474.625	89.44
474.844	89.44
475.063	74.44
475.282	86.44
475.501	77.44
475.72	98.44
475.939	90.44
476.158	85.44
476.377	82.44
476.596	74.44
476.814	106.44
477.033	88.44
477.252	85.44
477.471	86.44
477.69	99.44
477.908	92.44
478.127	93.44
478.346	89.44
478.564	72.44
478.783	76.44
479.002	95.44
479.22	84.44
479.439	105.44
479.658	92.44
479.876	89.44
480.095	93.44
480.313	100.44
480.532	101.44
480.751	92.44
480.969	80.44
481.188	109.44
481.406	102.44
481.624	83.44
481.843	87.44
482.061	90.44
482.28	89.44
482.498	84.44
482.717	72.44
482.935	79.44
483.153	87.44
483.372	86.44
483.59	101.44
483.808	85.44
484.027	86.44
484.245	88.44
484.463	91.44
484.681	91.44
484.9	95.44
485.118	90.44
485.336	87.44
485.554	90.44
485.772	101.44
485.99	101.44
486.209	92.44
486.427	82.44
486.645	98.44
486.863	117.44
487.081	101.44
487.299	100.44
487.517	94.44
487.735	98.44
487.953	93.44
488.171	101.44
488.389	74.44
488.607	86.44
488.825	83.44
489.043	87.44
489.261	79.44
489.479	62.44
489.696	85.44
489.914	90.44
490.132	85.44
490.35	70.44
490.568	85.44
490.786	85.44
491.003	74.44
491.221	90.44
491.439	95.44
491.657	102.44
491.874	97.44
492.092	89.44
492.31	89.44
492.527	74.44
492.745	78.44
492.963	91.44
493.18	88.44
493.398	89.44
493.615	90.44
493.833	103.44
494.05	95.44
494.268	86.44
494.485	74.44
494.703	82.44
494.92	86.44
495.138	85.44
495.355	82.44
495.573	87.44
495.79	73.44
496.008	97.44
496.225	81.44
496.442	90.44
496.66	72.44
496.877	103.44
497.094	92.44
497.312	92.44
497.529	100.44
497.746	99.44
497.963	86.44
498.181	77.44
498.398	98.44
498.615	126.44
498.832	117.44
499.049	98.44
499.267	102.44
499.484	95.44
499.701	72.44
499.918	92.44
500.135	91.44
500.352	79.44
500.569	89.44
500.786	90.44
501.003	81.44
501.22	69.44
501.437	81.44
501.654	97.44
501.871	112.44
502.088	78.44
502.305	103.44
502.522	100.44
502.739	101.44
502.956	102.44
503.172	103.44
503.389	90.44
503.606	98.44
503.823	82.44
504.04	84.44
504.256	88.44
504.473	90.44
504.69	85.44
504.907	89.44
505.123	78.44
505.34	99.44
505.557	81.44
505.773	79.44
505.99	90.44
506.207	82.44
506.423	95.44
506.64	91.44
506.856	96.44
507.073	85.44
507.289	79.44
507.506	106.44
507.722	99.44
507.939	105.44
508.155	88.44
508.372	89.44
508.588	88.44
508.805	95.44
509.021	117.44
509.238	106.44
509.454	89.44
509.67	103.44
509.887	104.44
510.103	129.44
510.319	190.44
510.536	676.44
510.752	2141.44
510.968	608.44
511.184	145.44
511.401	97.44
511.617	99.44
511.833	81.44
512.049	87.44
512.265	95.44
512.481	95.44
512.698	95.44
512.914	82.44
513.13	105.44
513.346	106.44
513.562	89.44
513.778	87.44
513.994	78.44
514.21	97.44
514.426	126.44
514.642	147.44
514.858	117.44
515.074	150.44
515.29	391.44
515.506	1296.44
515.721	482.44
515.937	153.44
516.153	105.44
516.369	104.44
