Data from Uncirc_1984_H10_HRD10591_00066.txt Node
Date: Wed Jan 03 12:21:50 EST 2024
User: Yrep
Spectrometer: HR+D1059
Trigger mode: 1
Integration Time (sec): 1.000000E-1
Scans to average: 1
Electric dark correction enabled: true
Nonlinearity correction enabled: false
Boxcar width: 0
XAxis mode: Wavelengths
Number of Pixels in Spectrum: 2048
>>>>>Begin Spectral Data<<<<<
223.165	-22.75
223.4	-22.75
223.635	-22.75
223.869	-7.75
224.104	-12.75
224.338	-13.75
224.573	-17.75
224.808	-22.75
225.042	-7.75
225.277	-1.75
225.511	-1.75
225.746	12.25
225.98	21.25
226.215	22.25
226.449	4.25
226.683	6.25
226.918	19.25
227.152	23.25
227.387	22.25
227.621	35.25
227.856	47.25
228.09	35.25
228.324	62.25
228.559	55.25
228.793	60.25
229.027	53.25
229.262	64.25
229.496	76.25
229.73	75.25
229.964	79.25
230.199	63.25
230.433	68.25
230.667	73.25
230.901	75.25
231.136	68.25
231.37	77.25
231.604	81.25
231.838	75.25
232.072	81.25
232.306	87.25
232.541	66.25
232.775	81.25
233.009	82.25
233.243	68.25
233.477	72.25
233.711	87.25
233.945	83.25
234.179	86.25
234.413	75.25
234.647	71.25
234.881	80.25
235.115	77.25
235.349	72.25
235.583	63.25
235.817	75.25
236.051	84.25
236.285	81.25
236.519	85.25
236.753	76.25
236.987	71.25
237.221	75.25
237.455	73.25
237.689	71.25
237.922	83.25
238.156	68.25
238.39	71.25
238.624	72.25
238.858	91.25
239.091	76.25
239.325	67.25
239.559	81.25
239.793	93.25
240.027	86.25
240.26	95.25
240.494	81.25
240.728	72.25
240.961	79.25
241.195	73.25
241.429	75.25
241.662	77.25
241.896	75.25
242.13	80.25
242.363	61.25
242.597	79.25
242.83	72.25
243.064	71.25
243.298	93.25
243.531	63.25
243.765	81.25
243.998	77.25
244.232	75.25
244.465	60.25
244.699	79.25
244.932	82.25
245.166	71.25
245.399	76.25
245.633	71.25
245.866	58.25
246.099	73.25
246.333	92.25
246.566	81.25
246.8	69.25
247.033	65.25
247.266	71.25
247.5	75.25
247.733	82.25
247.966	76.25
248.2	70.25
248.433	79.25
248.666	80.25
248.899	87.25
249.133	86.25
249.366	83.25
249.599	87.25
249.832	86.25
250.066	85.25
250.299	85.25
250.532	72.25
250.765	79.25
250.998	70.25
251.231	72.25
251.465	75.25
251.698	66.25
251.931	63.25
252.164	87.25
252.397	79.25
252.63	81.25
252.863	85.25
253.096	77.25
253.329	82.25
253.562	80.25
253.795	75.25
254.028	72.25
254.261	77.25
254.494	69.25
254.727	76.25
254.96	73.25
255.193	71.25
255.426	69.25
255.659	70.25
255.892	86.25
256.124	79.25
256.357	83.25
256.59	77.25
256.823	79.25
257.056	73.25
257.289	67.25
257.521	68.25
257.754	70.25
257.987	69.25
258.22	88.25
258.452	83.25
258.685	91.25
258.918	94.25
259.151	76.25
259.383	82.25
259.616	83.25
259.849	82.25
260.081	66.25
260.314	81.25
260.547	84.25
260.779	75.25
261.012	74.25
261.244	80.25
261.477	66.25
261.71	81.25
261.942	110.25
262.175	90.25
262.407	80.25
262.64	76.25
262.872	81.25
263.105	84.25
263.337	90.25
263.57	73.25
263.802	83.25
264.035	82.25
264.267	82.25
264.499	84.25
264.732	88.25
264.964	79.25
265.197	84.25
265.429	78.25
265.661	73.25
265.894	71.25
266.126	76.25
266.358	60.25
266.591	71.25
266.823	75.25
267.055	96.25
267.287	87.25
267.52	87.25
267.752	84.25
267.984	81.25
268.216	80.25
268.448	84.25
268.681	81.25
268.913	94.25
269.145	87.25
269.377	88.25
269.609	76.25
269.841	95.25
270.073	79.25
270.306	70.25
270.538	79.25
270.77	81.25
271.002	76.25
271.234	64.25
271.466	89.25
271.698	83.25
271.93	81.25
272.162	91.25
272.394	75.25
272.626	71.25
272.858	88.25
273.09	85.25
273.322	96.25
273.553	91.25
273.785	92.25
274.017	92.25
274.249	83.25
274.481	87.25
274.713	75.25
274.945	77.25
275.176	81.25
275.408	83.25
275.64	72.25
275.872	75.25
276.104	81.25
276.335	88.25
276.567	100.25
276.799	94.25
277.031	97.25
277.262	73.25
277.494	77.25
277.726	88.25
277.957	85.25
278.189	87.25
278.421	71.25
278.652	75.25
278.884	85.25
279.115	89.25
279.347	71.25
279.579	82.25
279.81	92.25
280.042	92.25
280.273	69.25
280.505	75.25
280.736	84.25
280.968	91.25
281.199	76.25
281.431	83.25
281.662	84.25
281.894	86.25
282.125	95.25
282.356	105.25
282.588	122.25
282.819	114.25
283.051	99.25
283.282	76.25
283.513	90.25
283.745	87.25
283.976	68.25
284.207	83.25
284.439	75.25
284.67	97.25
284.901	95.25
285.132	88.25
285.364	80.25
285.595	78.25
285.826	100.25
286.057	87.25
286.288	89.25
286.52	81.25
286.751	85.25
286.982	91.25
287.213	80.25
287.444	84.25
287.675	77.25
287.906	91.25
288.138	62.25
288.369	84.25
288.6	78.25
288.831	91.25
289.062	75.25
289.293	77.25
289.524	88.25
289.755	90.25
289.986	83.25
290.217	83.25
290.448	86.25
290.679	76.25
290.91	92.25
291.141	69.25
291.371	80.25
291.602	93.25
291.833	73.25
292.064	84.25
292.295	80.25
292.526	85.25
292.757	98.25
292.987	84.25
293.218	79.25
293.449	92.25
293.68	91.25
293.91	85.25
294.141	97.25
294.372	81.25
294.603	83.25
294.833	87.25
295.064	81.25
295.295	83.25
295.525	97.25
295.756	88.25
295.987	119.25
296.217	134.25
296.448	105.25
296.679	91.25
296.909	88.25
297.14	84.25
297.37	73.25
297.601	86.25
297.831	82.25
298.062	80.25
298.292	90.25
298.523	90.25
298.753	87.25
298.984	81.25
299.214	88.25
299.445	92.25
299.675	90.25
299.905	80.25
300.136	76.25
300.366	84.25
300.597	84.25
300.827	93.25
301.057	99.25
301.288	106.25
301.518	98.25
301.748	83.25
301.979	101.25
302.209	90.25
302.439	91.25
302.669	94.25
302.9	89.25
303.13	87.25
303.36	108.25
303.59	93.25
303.82	98.25
304.051	84.25
304.281	85.25
304.511	89.25
304.741	97.25
304.971	79.25
305.201	93.25
305.431	83.25
305.661	96.25
305.891	96.25
306.121	91.25
306.352	94.25
306.582	110.25
306.812	87.25
307.042	85.25
307.272	84.25
307.502	81.25
307.731	92.25
307.961	95.25
308.191	91.25
308.421	87.25
308.651	88.25
308.881	100.25
309.111	84.25
309.341	84.25
309.571	88.25
309.8	89.25
310.03	90.25
310.26	91.25
310.49	71.25
310.72	85.25
310.949	93.25
311.179	93.25
311.409	84.25
311.639	91.25
311.868	85.25
312.098	98.25
312.328	93.25
312.557	97.25
312.787	105.25
313.017	96.25
313.246	77.25
313.476	93.25
313.706	95.25
313.935	96.25
314.165	97.25
314.394	104.25
314.624	102.25
314.853	83.25
315.083	88.25
315.312	95.25
315.542	86.25
315.771	94.25
316.001	96.25
316.23	67.25
316.46	81.25
316.689	80.25
316.919	87.25
317.148	93.25
317.377	92.25
317.607	104.25
317.836	86.25
318.065	74.25
318.295	92.25
318.524	84.25
318.753	90.25
318.983	89.25
319.212	96.25
319.441	98.25
319.67	105.25
319.9	98.25
320.129	77.25
320.358	92.25
320.587	96.25
320.816	97.25
321.046	93.25
321.275	100.25
321.504	93.25
321.733	97.25
321.962	103.25
322.191	87.25
322.42	118.25
322.649	109.25
322.878	94.25
323.108	96.25
323.337	130.25
323.566	131.25
323.795	131.25
324.024	192.25
324.253	338.25
324.482	687.25
324.71	1453.25
324.939	1980.25
325.168	720.25
325.397	208.25
325.626	150.25
325.855	122.25
326.084	126.25
326.313	120.25
326.542	137.25
326.77	205.25
326.999	423.25
327.228	839.25
327.457	1474.25
327.686	1190.25
327.914	343.25
328.143	173.25
328.372	132.25
328.6	106.25
328.829	109.25
329.058	112.25
329.287	128.25
329.515	97.25
329.744	101.25
329.972	87.25
330.201	99.25
330.43	98.25
330.658	109.25
330.887	130.25
331.115	112.25
331.344	89.25
331.572	88.25
331.801	95.25
332.03	88.25
332.258	91.25
332.486	97.25
332.715	77.25
332.943	93.25
333.172	75.25
333.4	111.25
333.629	95.25
333.857	95.25
334.085	98.25
334.314	84.25
334.542	86.25
334.771	95.25
334.999	88.25
335.227	100.25
335.455	72.25
335.684	83.25
335.912	94.25
336.14	91.25
336.369	99.25
336.597	96.25
336.825	96.25
337.053	101.25
337.281	83.25
337.51	85.25
337.738	81.25
337.966	83.25
338.194	88.25
338.422	99.25
338.65	88.25
338.878	93.25
339.106	70.25
339.334	91.25
339.562	87.25
339.79	94.25
340.018	100.25
340.246	87.25
340.474	104.25
340.702	86.25
340.93	81.25
341.158	81.25
341.386	92.25
341.614	91.25
341.842	96.25
342.07	85.25
342.298	86.25
342.526	77.25
342.754	72.25
342.981	87.25
343.209	98.25
343.437	92.25
343.665	101.25
343.893	84.25
344.12	95.25
344.348	95.25
344.576	83.25
344.804	82.25
345.031	100.25
345.259	101.25
345.487	102.25
345.714	94.25
345.942	80.25
346.17	98.25
346.397	83.25
346.625	93.25
346.853	82.25
347.08	92.25
347.308	107.25
347.535	95.25
347.763	94.25
347.99	89.25
348.218	90.25
348.445	93.25
348.673	92.25
348.9	85.25
349.128	95.25
349.355	67.25
349.583	92.25
349.81	97.25
350.037	103.25
350.265	95.25
350.492	97.25
350.72	95.25
350.947	93.25
351.174	103.25
351.402	116.25
351.629	88.25
351.856	97.25
352.083	88.25
352.311	101.25
352.538	94.25
352.765	108.25
352.992	104.25
353.22	112.25
353.447	87.25
353.674	84.25
353.901	103.25
354.128	110.25
354.355	89.25
354.583	91.25
354.81	101.25
355.037	91.25
355.264	95.25
355.491	89.25
355.718	88.25
355.945	86.25
356.172	83.25
356.399	87.25
356.626	101.25
356.853	103.25
357.08	87.25
357.307	85.25
357.534	85.25
357.761	86.25
357.988	85.25
358.215	87.25
358.441	93.25
358.668	89.25
358.895	95.25
359.122	80.25
359.349	86.25
359.576	88.25
359.802	97.25
360.029	108.25
360.256	99.25
360.483	82.25
360.709	87.25
360.936	87.25
361.163	94.25
361.39	84.25
361.616	89.25
361.843	89.25
362.07	100.25
362.296	77.25
362.523	81.25
362.749	89.25
362.976	92.25
363.203	85.25
363.429	98.25
363.656	91.25
363.882	86.25
364.109	85.25
364.335	81.25
364.562	87.25
364.788	78.25
365.015	83.25
365.241	92.25
365.468	94.25
365.694	92.25
365.92	89.25
366.147	100.25
366.373	81.25
366.599	89.25
366.826	79.25
367.052	95.25
367.278	81.25
367.505	98.25
367.731	91.25
367.957	87.25
368.184	77.25
368.41	101.25
368.636	101.25
368.862	103.25
369.089	105.25
369.315	81.25
369.541	88.25
369.767	75.25
369.993	92.25
370.219	94.25
370.445	75.25
370.672	99.25
370.898	76.25
371.124	88.25
371.35	84.25
371.576	80.25
371.802	87.25
372.028	78.25
372.254	79.25
372.48	88.25
372.706	75.25
372.932	71.25
373.158	88.25
373.384	90.25
373.61	78.25
373.835	105.25
374.061	86.25
374.287	100.25
374.513	81.25
374.739	101.25
374.965	90.25
375.191	80.25
375.416	83.25
375.642	76.25
375.868	89.25
376.094	83.25
376.319	82.25
376.545	79.25
376.771	80.25
376.997	77.25
377.222	94.25
377.448	79.25
377.674	77.25
377.899	92.25
378.125	75.25
378.35	100.25
378.576	85.25
378.802	70.25
379.027	72.25
379.253	86.25
379.478	94.25
379.704	100.25
379.929	78.25
380.155	96.25
380.38	93.25
380.606	92.25
380.831	102.25
381.057	97.25
381.282	93.25
381.507	95.25
381.733	95.25
381.958	90.25
382.184	86.25
382.409	106.25
382.634	100.25
382.86	83.25
383.085	88.25
383.31	102.25
383.535	100.25
383.761	103.25
383.986	95.25
384.211	95.25
384.436	107.25
384.662	86.25
384.887	97.25
385.112	104.25
385.337	99.25
385.562	94.25
385.787	85.25
386.013	85.25
386.238	110.25
386.463	87.25
386.688	104.25
386.913	104.25
387.138	96.25
387.363	92.25
387.588	80.25
387.813	85.25
388.038	96.25
388.263	88.25
388.488	95.25
388.713	89.25
388.938	99.25
389.163	99.25
389.387	87.25
389.612	104.25
389.837	105.25
390.062	90.25
390.287	93.25
390.512	81.25
390.736	86.25
390.961	91.25
391.186	87.25
391.411	88.25
391.636	92.25
391.86	69.25
392.085	79.25
392.31	81.25
392.534	90.25
392.759	80.25
392.984	93.25
393.208	83.25
393.433	80.25
393.658	93.25
393.882	76.25
394.107	76.25
394.331	85.25
394.556	70.25
394.78	81.25
395.005	83.25
395.229	79.25
395.454	84.25
395.678	84.25
395.903	81.25
396.127	88.25
396.352	76.25
396.576	66.25
396.801	86.25
397.025	71.25
397.249	92.25
397.474	83.25
397.698	75.25
397.922	73.25
398.147	85.25
398.371	83.25
398.595	89.25
398.82	86.25
399.044	89.25
399.268	105.25
399.492	73.25
399.717	84.25
399.941	93.25
400.165	80.25
400.389	73.25
400.613	83.25
400.837	75.25
401.062	86.25
401.286	88.25
401.51	87.25
401.734	86.25
401.958	98.25
402.182	92.25
402.406	129.25
402.63	89.25
402.854	80.25
403.078	87.25
403.302	97.25
403.526	91.25
403.75	81.25
403.974	81.25
404.198	94.25
404.422	80.25
404.645	85.25
404.869	94.25
405.093	83.25
405.317	94.25
405.541	96.25
405.765	108.25
405.988	102.25
406.212	146.25
406.436	193.25
406.66	134.25
406.883	99.25
407.107	78.25
407.331	88.25
407.555	94.25
407.778	95.25
408.002	78.25
408.226	83.25
408.449	89.25
408.673	99.25
408.896	77.25
409.12	76.25
409.344	96.25
409.567	88.25
409.791	99.25
410.014	90.25
410.238	88.25
410.461	81.25
410.685	94.25
410.908	97.25
411.132	105.25
411.355	108.25
411.578	83.25
411.802	88.25
412.025	85.25
412.249	64.25
412.472	85.25
412.695	95.25
412.919	79.25
413.142	80.25
413.365	95.25
413.589	84.25
413.812	83.25
414.035	81.25
414.258	91.25
414.482	79.25
414.705	85.25
414.928	89.25
415.151	98.25
415.374	87.25
415.597	74.25
415.821	90.25
416.044	70.25
416.267	73.25
416.49	80.25
416.713	74.25
416.936	87.25
417.159	79.25
417.382	81.25
417.605	88.25
417.828	91.25
418.051	87.25
418.274	93.25
418.497	84.25
418.72	89.25
418.943	70.25
419.166	79.25
419.389	85.25
419.611	76.25
419.834	85.25
420.057	92.25
420.28	88.25
420.503	83.25
420.726	91.25
420.948	91.25
421.171	93.25
421.394	96.25
421.617	92.25
421.839	91.25
422.062	93.25
422.285	88.25
422.507	92.25
422.73	96.25
422.953	88.25
423.175	77.25
423.398	81.25
423.621	83.25
423.843	79.25
424.066	81.25
424.288	62.25
424.511	83.25
424.733	96.25
424.956	83.25
425.178	91.25
425.401	86.25
425.623	100.25
425.846	80.25
426.068	83.25
426.291	75.25
426.513	74.25
426.735	87.25
426.958	83.25
427.18	108.25
427.402	113.25
427.625	143.25
427.847	125.25
428.069	92.25
428.292	76.25
428.514	81.25
428.736	88.25
428.958	78.25
429.181	86.25
429.403	90.25
429.625	86.25
429.847	85.25
430.069	106.25
430.292	79.25
430.514	94.25
430.736	85.25
430.958	79.25
431.18	84.25
431.402	83.25
431.624	76.25
431.846	86.25
432.068	82.25
432.29	78.25
432.512	80.25
432.734	85.25
432.956	95.25
433.178	87.25
433.4	92.25
433.622	92.25
433.844	66.25
434.066	89.25
434.287	80.25
434.509	87.25
434.731	91.25
434.953	102.25
435.175	68.25
435.397	79.25
435.618	91.25
435.84	101.25
436.062	117.25
436.284	109.25
436.505	92.25
436.727	98.25
436.949	97.25
437.17	69.25
437.392	77.25
437.614	86.25
437.835	83.25
438.057	110.25
438.278	112.25
438.5	98.25
438.721	105.25
438.943	99.25
439.165	73.25
439.386	89.25
439.608	95.25
439.829	97.25
440.05	102.25
440.272	128.25
440.493	91.25
440.715	81.25
440.936	81.25
441.158	75.25
441.379	69.25
441.6	83.25
441.822	79.25
442.043	95.25
442.264	93.25
442.486	81.25
442.707	91.25
442.928	91.25
443.149	115.25
443.371	108.25
443.592	103.25
443.813	117.25
444.034	126.25
444.255	87.25
444.476	99.25
444.698	77.25
444.919	81.25
445.14	131.25
445.361	123.25
445.582	109.25
445.803	128.25
446.024	118.25
446.245	122.25
446.466	101.25
446.687	89.25
446.908	80.25
447.129	72.25
447.35	89.25
447.571	79.25
447.792	88.25
448.013	87.25
448.234	109.25
448.455	85.25
448.675	95.25
448.896	111.25
449.117	92.25
449.338	85.25
449.559	112.25
449.779	124.25
450	85.25
450.221	95.25
450.442	77.25
450.662	97.25
450.883	96.25
451.104	98.25
451.324	101.25
451.545	94.25
451.766	89.25
451.986	77.25
452.207	78.25
452.428	91.25
452.648	98.25
452.869	110.25
453.089	116.25
453.31	95.25
453.53	103.25
453.751	100.25
453.971	93.25
454.192	100.25
454.412	81.25
454.633	83.25
454.853	88.25
455.073	80.25
455.294	73.25
455.514	88.25
455.734	81.25
455.955	82.25
456.175	85.25
456.395	71.25
456.616	71.25
456.836	85.25
457.056	92.25
457.276	78.25
457.497	85.25
457.717	91.25
457.937	76.25
458.157	85.25
458.377	90.25
458.598	95.25
458.818	124.25
459.038	131.25
459.258	107.25
459.478	93.25
459.698	73.25
459.918	85.25
460.138	93.25
460.358	77.25
460.578	83.25
460.798	83.25
461.018	84.25
461.238	73.25
461.458	75.25
461.678	79.25
461.898	77.25
462.118	92.25
462.338	80.25
462.558	75.25
462.777	83.25
462.997	82.25
463.217	88.25
463.437	70.25
463.657	71.25
463.876	84.25
464.096	85.25
464.316	84.25
464.536	81.25
464.755	104.25
464.975	107.25
465.195	135.25
465.414	145.25
465.634	91.25
465.854	85.25
466.073	97.25
466.293	101.25
466.512	84.25
466.732	69.25
466.951	77.25
467.171	81.25
467.391	81.25
467.61	84.25
467.829	85.25
468.049	97.25
468.268	75.25
468.488	85.25
468.707	83.25
468.927	66.25
469.146	72.25
469.365	85.25
469.585	80.25
469.804	86.25
470.023	83.25
470.243	91.25
470.462	92.25
470.681	98.25
470.901	94.25
471.12	64.25
471.339	77.25
471.558	82.25
471.777	76.25
471.997	82.25
472.216	97.25
472.435	99.25
472.654	60.25
472.873	99.25
473.092	84.25
473.311	74.25
473.53	80.25
473.749	93.25
473.968	77.25
474.187	96.25
474.406	98.25
474.625	93.25
474.844	84.25
475.063	92.25
475.282	84.25
475.501	92.25
475.72	87.25
475.939	83.25
476.158	82.25
476.377	71.25
476.596	75.25
476.814	93.25
477.033	82.25
477.252	71.25
477.471	88.25
477.69	85.25
477.908	82.25
478.127	90.25
478.346	97.25
478.564	77.25
478.783	97.25
479.002	86.25
479.22	86.25
479.439	96.25
479.658	94.25
479.876	86.25
480.095	74.25
480.313	77.25
480.532	84.25
480.751	83.25
480.969	90.25
481.188	83.25
481.406	87.25
481.624	77.25
481.843	91.25
482.061	87.25
482.28	81.25
482.498	67.25
482.717	77.25
482.935	75.25
483.153	87.25
483.372	79.25
483.59	67.25
483.808	82.25
484.027	80.25
484.245	99.25
484.463	66.25
484.681	103.25
484.9	93.25
485.118	85.25
485.336	99.25
485.554	99.25
485.772	87.25
485.99	85.25
486.209	96.25
486.427	102.25
486.645	105.25
486.863	96.25
487.081	96.25
487.299	93.25
487.517	95.25
487.735	85.25
487.953	85.25
488.171	88.25
488.389	85.25
488.607	99.25
488.825	77.25
489.043	79.25
489.261	96.25
489.479	95.25
489.696	72.25
489.914	59.25
490.132	84.25
490.35	91.25
490.568	93.25
490.786	83.25
491.003	81.25
491.221	81.25
491.439	82.25
491.657	75.25
491.874	85.25
492.092	86.25
492.31	70.25
492.527	94.25
492.745	78.25
492.963	89.25
493.18	99.25
493.398	90.25
493.615	100.25
493.833	96.25
494.05	94.25
494.268	79.25
494.485	70.25
494.703	87.25
494.92	80.25
495.138	88.25
495.355	102.25
495.573	95.25
495.79	98.25
496.008	95.25
496.225	87.25
496.442	99.25
496.66	84.25
496.877	87.25
497.094	96.25
497.312	86.25
497.529	88.25
497.746	67.25
497.963	69.25
498.181	92.25
498.398	90.25
498.615	108.25
498.832	93.25
499.049	95.25
499.267	83.25
499.484	81.25
499.701	87.25
499.918	101.25
500.135	100.25
500.352	87.25
500.569	88.25
500.786	88.25
501.003	80.25
501.22	83.25
501.437	81.25
501.654	89.25
501.871	111.25
502.088	91.25
502.305	91.25
502.522	83.25
502.739	91.25
502.956	88.25
503.172	75.25
503.389	88.25
503.606	96.25
503.823	89.25
504.04	83.25
504.256	95.25
504.473	100.25
504.69	98.25
504.907	81.25
505.123	87.25
505.34	92.25
505.557	88.25
505.773	92.25
505.99	89.25
506.207	82.25
506.423	92.25
506.64	83.25
506.856	90.25
507.073	94.25
507.289	78.25
507.506	87.25
507.722	108.25
507.939	93.25
508.155	106.25
508.372	89.25
508.588	84.25
508.805	75.25
509.021	85.25
509.238	101.25
509.454	81.25
509.67	97.25
509.887	96.25
510.103	138.25
510.319	187.25
510.536	653.25
510.752	2050.25
510.968	566.25
511.184	144.25
511.401	115.25
511.617	117.25
511.833	86.25
512.049	85.25
512.265	88.25
512.481	83.25
512.698	100.25
512.914	87.25
513.13	91.25
513.346	103.25
513.562	87.25
513.778	93.25
513.994	108.25
514.21	85.25
514.426	106.25
514.642	120.25
514.858	120.25
515.074	145.25
515.29	360.25
515.506	1190.25
515.721	440.25
515.937	133.25
516.153	97.25
516.369	95.25
516.585	84.25
516.801	82.25
517.016	76.25
517.232	97.25
517.448	79.25
