Data from Uncirc_1984_H10_HRD10591_00032.txt Node
Date: Wed Jan 03 12:21:43 EST 2024
User: Yrep
Spectrometer: HR+D1059
Trigger mode: 1
Integration Time (sec): 1.000000E-1
Scans to average: 1
Electric dark correction enabled: true
Nonlinearity correction enabled: false
Boxcar width: 0
XAxis mode: Wavelengths
Number of Pixels in Spectrum: 2048
>>>>>Begin Spectral Data<<<<<
223.165	-17.44
223.4	-17.44
223.635	-17.44
223.869	-29.44
224.104	-13.44
224.338	-16.44
224.573	-15.44
224.808	-9.44
225.042	-14.44
225.277	-5.44
225.511	-4.44
225.746	-18.44
225.98	-5.44
226.215	23.56
226.449	27.56
226.683	32.56
226.918	23.56
227.152	42.56
227.387	39.56
227.621	45.56
227.856	50.56
228.09	28.56
228.324	66.56
228.559	64.56
228.793	61.56
229.027	71.56
229.262	68.56
229.496	67.56
229.73	90.56
229.964	80.56
230.199	76.56
230.433	67.56
230.667	95.56
230.901	90.56
231.136	78.56
231.37	86.56
231.604	83.56
231.838	97.56
232.072	89.56
232.306	96.56
232.541	88.56
232.775	88.56
233.009	82.56
233.243	86.56
233.477	98.56
233.711	92.56
233.945	95.56
234.179	80.56
234.413	90.56
234.647	84.56
234.881	66.56
235.115	70.56
235.349	89.56
235.583	74.56
235.817	57.56
236.051	74.56
236.285	79.56
236.519	86.56
236.753	90.56
236.987	85.56
237.221	71.56
237.455	77.56
237.689	74.56
237.922	89.56
238.156	67.56
238.39	77.56
238.624	80.56
238.858	82.56
239.091	87.56
239.325	86.56
239.559	80.56
239.793	70.56
240.027	76.56
240.26	81.56
240.494	75.56
240.728	82.56
240.961	80.56
241.195	72.56
241.429	81.56
241.662	60.56
241.896	77.56
242.13	72.56
242.363	71.56
242.597	85.56
242.83	76.56
243.064	93.56
243.298	97.56
243.531	73.56
243.765	72.56
243.998	81.56
244.232	76.56
244.465	80.56
244.699	83.56
244.932	91.56
245.166	82.56
245.399	80.56
245.633	80.56
245.866	72.56
246.099	71.56
246.333	71.56
246.566	86.56
246.8	81.56
247.033	92.56
247.266	70.56
247.5	68.56
247.733	88.56
247.966	89.56
248.2	75.56
248.433	88.56
248.666	79.56
248.899	71.56
249.133	100.56
249.366	89.56
249.599	94.56
249.832	80.56
250.066	79.56
250.299	83.56
250.532	91.56
250.765	68.56
250.998	84.56
251.231	76.56
251.465	94.56
251.698	87.56
251.931	86.56
252.164	76.56
252.397	87.56
252.63	71.56
252.863	88.56
253.096	71.56
253.329	73.56
253.562	65.56
253.795	74.56
254.028	80.56
254.261	77.56
254.494	75.56
254.727	76.56
254.96	84.56
255.193	73.56
255.426	87.56
255.659	89.56
255.892	81.56
256.124	95.56
256.357	97.56
256.59	88.56
256.823	87.56
257.056	75.56
257.289	74.56
257.521	85.56
257.754	85.56
257.987	85.56
258.22	85.56
258.452	92.56
258.685	84.56
258.918	83.56
259.151	84.56
259.383	85.56
259.616	88.56
259.849	85.56
260.081	86.56
260.314	68.56
260.547	82.56
260.779	76.56
261.012	74.56
261.244	88.56
261.477	96.56
261.71	103.56
261.942	97.56
262.175	109.56
262.407	85.56
262.64	83.56
262.872	94.56
263.105	83.56
263.337	81.56
263.57	90.56
263.802	111.56
264.035	73.56
264.267	72.56
264.499	77.56
264.732	94.56
264.964	90.56
265.197	93.56
265.429	75.56
265.661	100.56
265.894	84.56
266.126	80.56
266.358	88.56
266.591	86.56
266.823	81.56
267.055	85.56
267.287	99.56
267.52	86.56
267.752	83.56
267.984	85.56
268.216	82.56
268.448	89.56
268.681	76.56
268.913	84.56
269.145	81.56
269.377	75.56
269.609	96.56
269.841	87.56
270.073	81.56
270.306	81.56
270.538	81.56
270.77	96.56
271.002	73.56
271.234	86.56
271.466	75.56
271.698	90.56
271.93	88.56
272.162	86.56
272.394	103.56
272.626	75.56
272.858	87.56
273.09	102.56
273.322	85.56
273.553	78.56
273.785	78.56
274.017	92.56
274.249	103.56
274.481	96.56
274.713	76.56
274.945	93.56
275.176	92.56
275.408	86.56
275.64	88.56
275.872	83.56
276.104	85.56
276.335	88.56
276.567	116.56
276.799	93.56
277.031	100.56
277.262	78.56
277.494	98.56
277.726	83.56
277.957	88.56
278.189	88.56
278.421	85.56
278.652	77.56
278.884	89.56
279.115	76.56
279.347	92.56
279.579	99.56
279.81	85.56
280.042	98.56
280.273	88.56
280.505	87.56
280.736	96.56
280.968	82.56
281.199	100.56
281.431	92.56
281.662	85.56
281.894	79.56
282.125	96.56
282.356	100.56
282.588	106.56
282.819	116.56
283.051	84.56
283.282	84.56
283.513	97.56
283.745	86.56
283.976	89.56
284.207	90.56
284.439	88.56
284.67	64.56
284.901	84.56
285.132	80.56
285.364	89.56
285.595	70.56
285.826	82.56
286.057	88.56
286.288	84.56
286.52	102.56
286.751	85.56
286.982	83.56
287.213	91.56
287.444	100.56
287.675	85.56
287.906	88.56
288.138	96.56
288.369	91.56
288.6	88.56
288.831	83.56
289.062	84.56
289.293	90.56
289.524	97.56
289.755	104.56
289.986	82.56
290.217	93.56
290.448	98.56
290.679	104.56
290.91	76.56
291.141	96.56
291.371	90.56
291.602	90.56
291.833	95.56
292.064	94.56
292.295	88.56
292.526	90.56
292.757	87.56
292.987	91.56
293.218	83.56
293.449	88.56
293.68	74.56
293.91	86.56
294.141	105.56
294.372	80.56
294.603	96.56
294.833	100.56
295.064	97.56
295.295	81.56
295.525	84.56
295.756	105.56
295.987	105.56
296.217	131.56
296.448	109.56
296.679	88.56
296.909	88.56
297.14	90.56
297.37	86.56
297.601	89.56
297.831	96.56
298.062	89.56
298.292	100.56
298.523	78.56
298.753	92.56
298.984	94.56
299.214	98.56
299.445	86.56
299.675	80.56
299.905	93.56
300.136	97.56
300.366	85.56
300.597	88.56
300.827	95.56
301.057	101.56
301.288	103.56
301.518	103.56
301.748	86.56
301.979	112.56
302.209	98.56
302.439	96.56
302.669	96.56
302.9	92.56
303.13	88.56
303.36	100.56
303.59	97.56
303.82	94.56
304.051	91.56
304.281	100.56
304.511	102.56
304.741	95.56
304.971	100.56
305.201	83.56
305.431	89.56
305.661	90.56
305.891	91.56
306.121	96.56
306.352	108.56
306.582	100.56
306.812	87.56
307.042	92.56
307.272	98.56
307.502	92.56
307.731	99.56
307.961	101.56
308.191	99.56
308.421	96.56
308.651	89.56
308.881	92.56
309.111	93.56
309.341	104.56
309.571	104.56
309.8	86.56
310.03	78.56
310.26	93.56
310.49	92.56
310.72	102.56
310.949	97.56
311.179	93.56
311.409	94.56
311.639	111.56
311.868	99.56
312.098	103.56
312.328	106.56
312.557	96.56
312.787	99.56
313.017	102.56
313.246	93.56
313.476	80.56
313.706	93.56
313.935	91.56
314.165	94.56
314.394	96.56
314.624	96.56
314.853	91.56
315.083	99.56
315.312	98.56
315.542	110.56
315.771	104.56
316.001	90.56
316.23	92.56
316.46	91.56
316.689	85.56
316.919	96.56
317.148	99.56
317.377	102.56
317.607	96.56
317.836	104.56
318.065	94.56
318.295	98.56
318.524	93.56
318.753	86.56
318.983	98.56
319.212	93.56
319.441	96.56
319.67	108.56
319.9	101.56
320.129	92.56
320.358	102.56
320.587	97.56
320.816	109.56
321.046	93.56
321.275	93.56
321.504	100.56
321.733	109.56
321.962	86.56
322.191	108.56
322.42	96.56
322.649	109.56
322.878	106.56
323.108	105.56
323.337	129.56
323.566	124.56
323.795	153.56
324.024	204.56
324.253	333.56
324.482	748.56
324.71	1501.56
324.939	1980.56
325.168	720.56
325.397	243.56
325.626	144.56
325.855	114.56
326.084	132.56
326.313	131.56
326.542	142.56
326.77	210.56
326.999	429.56
327.228	866.56
327.457	1552.56
327.686	1241.56
327.914	344.56
328.143	181.56
328.372	133.56
328.6	123.56
328.829	109.56
329.058	122.56
329.287	113.56
329.515	117.56
329.744	98.56
329.972	106.56
330.201	99.56
330.43	114.56
330.658	113.56
330.887	129.56
331.115	117.56
331.344	93.56
331.572	113.56
331.801	94.56
332.03	91.56
332.258	98.56
332.486	111.56
332.715	97.56
332.943	99.56
333.172	86.56
333.4	91.56
333.629	113.56
333.857	96.56
334.085	100.56
334.314	107.56
334.542	99.56
334.771	102.56
334.999	96.56
335.227	90.56
335.455	96.56
335.684	86.56
335.912	96.56
336.14	102.56
336.369	92.56
336.597	108.56
336.825	93.56
337.053	90.56
337.281	88.56
337.51	85.56
337.738	91.56
337.966	86.56
338.194	91.56
338.422	91.56
338.65	105.56
338.878	94.56
339.106	87.56
339.334	93.56
339.562	97.56
339.79	94.56
340.018	91.56
340.246	93.56
340.474	85.56
340.702	89.56
340.93	99.56
341.158	106.56
341.386	95.56
341.614	94.56
341.842	91.56
342.07	90.56
342.298	84.56
342.526	94.56
342.754	106.56
342.981	85.56
343.209	75.56
343.437	104.56
343.665	84.56
343.893	90.56
344.12	90.56
344.348	93.56
344.576	91.56
344.804	102.56
345.031	95.56
345.259	98.56
345.487	92.56
345.714	92.56
345.942	86.56
346.17	98.56
346.397	90.56
346.625	95.56
346.853	96.56
347.08	108.56
347.308	88.56
347.535	94.56
347.763	93.56
347.99	97.56
348.218	100.56
348.445	88.56
348.673	102.56
348.9	96.56
349.128	94.56
349.355	93.56
349.583	81.56
349.81	92.56
350.037	107.56
350.265	96.56
350.492	97.56
350.72	88.56
350.947	86.56
351.174	110.56
351.402	92.56
351.629	96.56
351.856	105.56
352.083	101.56
352.311	108.56
352.538	87.56
352.765	99.56
352.992	108.56
353.22	110.56
353.447	95.56
353.674	115.56
353.901	99.56
354.128	108.56
354.355	106.56
354.583	106.56
354.81	86.56
355.037	109.56
355.264	98.56
355.491	90.56
355.718	93.56
355.945	96.56
356.172	88.56
356.399	96.56
356.626	101.56
356.853	96.56
357.08	74.56
357.307	80.56
357.534	85.56
357.761	104.56
357.988	92.56
358.215	90.56
358.441	96.56
358.668	88.56
358.895	99.56
359.122	100.56
359.349	88.56
359.576	93.56
359.802	96.56
360.029	97.56
360.256	97.56
360.483	96.56
360.709	88.56
360.936	82.56
361.163	96.56
361.39	86.56
361.616	89.56
361.843	101.56
362.07	80.56
362.296	84.56
362.523	74.56
362.749	104.56
362.976	75.56
363.203	93.56
363.429	82.56
363.656	98.56
363.882	96.56
364.109	93.56
364.335	105.56
364.562	106.56
364.788	98.56
365.015	83.56
365.241	88.56
365.468	117.56
365.694	107.56
365.92	92.56
366.147	94.56
366.373	95.56
366.599	84.56
366.826	84.56
367.052	89.56
367.278	91.56
367.505	88.56
367.731	102.56
367.957	89.56
368.184	96.56
368.41	97.56
368.636	103.56
368.862	121.56
369.089	110.56
369.315	73.56
369.541	102.56
369.767	83.56
369.993	90.56
370.219	90.56
370.445	84.56
370.672	86.56
370.898	72.56
371.124	82.56
371.35	89.56
371.576	69.56
371.802	89.56
372.028	99.56
372.254	88.56
372.48	79.56
372.706	89.56
372.932	88.56
373.158	98.56
373.384	87.56
373.61	85.56
373.835	94.56
374.061	93.56
374.287	94.56
374.513	90.56
374.739	82.56
374.965	76.56
375.191	89.56
375.416	76.56
375.642	99.56
375.868	98.56
376.094	87.56
376.319	88.56
376.545	87.56
376.771	97.56
376.997	89.56
377.222	93.56
377.448	90.56
377.674	78.56
377.899	75.56
378.125	99.56
378.35	94.56
378.576	106.56
378.802	91.56
379.027	86.56
379.253	88.56
379.478	94.56
379.704	100.56
379.929	103.56
380.155	66.56
380.38	82.56
380.606	109.56
380.831	86.56
381.057	96.56
381.282	99.56
381.507	91.56
381.733	102.56
381.958	98.56
382.184	122.56
382.409	103.56
382.634	112.56
382.86	104.56
383.085	96.56
383.31	110.56
383.535	91.56
383.761	102.56
383.986	93.56
384.211	96.56
384.436	92.56
384.662	98.56
384.887	111.56
385.112	102.56
385.337	106.56
385.562	107.56
385.787	99.56
386.013	113.56
386.238	111.56
386.463	95.56
386.688	113.56
386.913	90.56
387.138	87.56
387.363	105.56
387.588	97.56
387.813	110.56
388.038	107.56
388.263	107.56
388.488	92.56
388.713	100.56
388.938	99.56
389.163	93.56
389.387	95.56
389.612	100.56
389.837	90.56
390.062	93.56
390.287	101.56
390.512	88.56
390.736	97.56
390.961	91.56
391.186	77.56
391.411	94.56
391.636	98.56
391.86	98.56
392.085	93.56
392.31	90.56
392.534	89.56
392.759	89.56
392.984	85.56
393.208	95.56
393.433	93.56
393.658	101.56
393.882	97.56
394.107	85.56
394.331	70.56
394.556	99.56
394.78	92.56
395.005	90.56
395.229	81.56
395.454	81.56
395.678	83.56
395.903	79.56
396.127	92.56
396.352	107.56
396.576	75.56
396.801	82.56
397.025	87.56
397.249	72.56
397.474	87.56
397.698	99.56
397.922	76.56
398.147	85.56
398.371	82.56
398.595	81.56
398.82	82.56
399.044	87.56
399.268	81.56
399.492	89.56
399.717	72.56
399.941	92.56
400.165	90.56
400.389	93.56
400.613	96.56
400.837	73.56
401.062	87.56
401.286	88.56
401.51	94.56
401.734	102.56
401.958	113.56
402.182	115.56
402.406	154.56
402.63	135.56
402.854	91.56
403.078	83.56
403.302	84.56
403.526	81.56
403.75	82.56
403.974	88.56
404.198	91.56
404.422	105.56
404.645	94.56
404.869	84.56
405.093	96.56
405.317	88.56
405.541	98.56
405.765	78.56
405.988	101.56
406.212	157.56
406.436	220.56
406.66	125.56
406.883	104.56
407.107	87.56
407.331	90.56
407.555	88.56
407.778	90.56
408.002	96.56
408.226	87.56
408.449	92.56
408.673	90.56
408.896	97.56
409.12	103.56
409.344	92.56
409.567	90.56
409.791	107.56
410.014	97.56
410.238	97.56
410.461	90.56
410.685	89.56
410.908	91.56
411.132	104.56
411.355	89.56
411.578	82.56
411.802	97.56
412.025	93.56
412.249	99.56
412.472	88.56
412.695	84.56
412.919	81.56
413.142	102.56
413.365	89.56
413.589	91.56
413.812	69.56
414.035	97.56
414.258	101.56
414.482	87.56
414.705	93.56
414.928	93.56
415.151	94.56
415.374	98.56
415.597	91.56
415.821	86.56
416.044	85.56
416.267	88.56
416.49	95.56
416.713	98.56
416.936	89.56
417.159	82.56
417.382	87.56
417.605	92.56
417.828	105.56
418.051	80.56
418.274	90.56
418.497	100.56
418.72	88.56
418.943	94.56
419.166	97.56
419.389	96.56
419.611	88.56
419.834	86.56
420.057	83.56
420.28	101.56
420.503	92.56
420.726	91.56
420.948	83.56
421.171	89.56
421.394	98.56
421.617	107.56
421.839	93.56
422.062	101.56
422.285	91.56
422.507	88.56
422.73	110.56
422.953	108.56
423.175	96.56
423.398	92.56
423.621	84.56
423.843	97.56
424.066	92.56
424.288	88.56
424.511	99.56
424.733	102.56
424.956	101.56
425.178	89.56
425.401	92.56
425.623	102.56
425.846	98.56
426.068	83.56
426.291	96.56
426.513	80.56
426.735	89.56
426.958	96.56
427.18	110.56
427.402	136.56
427.625	162.56
427.847	106.56
428.069	92.56
428.292	73.56
428.514	84.56
428.736	81.56
428.958	89.56
429.181	96.56
429.403	93.56
429.625	82.56
429.847	101.56
430.069	91.56
430.292	80.56
430.514	92.56
430.736	91.56
430.958	84.56
431.18	94.56
431.402	91.56
431.624	96.56
431.846	77.56
432.068	75.56
432.29	96.56
432.512	87.56
432.734	94.56
432.956	88.56
433.178	90.56
433.4	94.56
433.622	89.56
433.844	91.56
434.066	107.56
434.287	82.56
434.509	80.56
434.731	89.56
434.953	85.56
435.175	90.56
435.397	90.56
435.618	100.56
435.84	105.56
436.062	121.56
436.284	107.56
436.505	104.56
436.727	109.56
436.949	96.56
437.17	90.56
437.392	84.56
437.614	85.56
437.835	87.56
438.057	123.56
438.278	111.56
438.5	102.56
438.721	108.56
438.943	102.56
439.165	85.56
439.386	83.56
439.608	98.56
439.829	88.56
440.05	121.56
440.272	128.56
440.493	94.56
440.715	84.56
440.936	87.56
441.158	79.56
441.379	82.56
441.6	70.56
441.822	94.56
442.043	101.56
442.264	110.56
442.486	92.56
442.707	88.56
442.928	93.56
443.149	128.56
443.371	130.56
443.592	98.56
443.813	104.56
444.034	98.56
444.255	104.56
444.476	92.56
444.698	89.56
444.919	84.56
445.14	146.56
445.361	114.56
445.582	112.56
445.803	136.56
446.024	110.56
446.245	106.56
446.466	98.56
446.687	91.56
446.908	92.56
447.129	94.56
447.35	88.56
447.571	108.56
447.792	86.56
448.013	89.56
448.234	106.56
448.455	112.56
448.675	104.56
448.896	122.56
449.117	101.56
449.338	92.56
449.559	121.56
449.779	113.56
450	92.56
450.221	106.56
450.442	98.56
450.662	91.56
450.883	105.56
451.104	102.56
451.324	109.56
451.545	93.56
451.766	97.56
451.986	82.56
452.207	102.56
452.428	95.56
452.648	85.56
452.869	110.56
453.089	100.56
453.31	115.56
453.53	82.56
453.751	96.56
453.971	93.56
454.192	92.56
454.412	78.56
454.633	93.56
454.853	93.56
455.073	75.56
455.294	92.56
455.514	103.56
455.734	94.56
455.955	101.56
456.175	74.56
456.395	95.56
456.616	87.56
456.836	97.56
457.056	85.56
457.276	88.56
457.497	91.56
457.717	82.56
457.937	86.56
458.157	93.56
458.377	82.56
458.598	101.56
458.818	130.56
459.038	141.56
459.258	118.56
459.478	91.56
459.698	83.56
459.918	91.56
460.138	91.56
460.358	77.56
460.578	84.56
460.798	82.56
461.018	88.56
461.238	76.56
461.458	86.56
461.678	84.56
461.898	100.56
462.118	85.56
462.338	90.56
462.558	90.56
462.777	82.56
462.997	81.56
463.217	93.56
463.437	89.56
463.657	103.56
463.876	83.56
464.096	98.56
464.316	86.56
464.536	93.56
464.755	82.56
464.975	105.56
465.195	162.56
465.414	133.56
465.634	98.56
465.854	81.56
466.073	90.56
466.293	71.56
466.512	90.56
466.732	69.56
466.951	83.56
467.171	100.56
467.391	75.56
467.61	94.56
467.829	87.56
468.049	83.56
468.268	90.56
468.488	96.56
468.707	87.56
468.927	87.56
469.146	96.56
469.365	72.56
469.585	81.56
469.804	88.56
470.023	90.56
470.243	97.56
470.462	87.56
470.681	99.56
470.901	101.56
471.12	87.56
471.339	96.56
471.558	88.56
471.777	88.56
471.997	86.56
472.216	103.56
472.435	101.56
472.654	100.56
472.873	97.56
473.092	96.56
473.311	84.56
473.53	66.56
473.749	84.56
473.968	86.56
474.187	103.56
474.406	95.56
474.625	80.56
474.844	95.56
475.063	84.56
475.282	92.56
475.501	99.56
475.72	102.56
475.939	91.56
476.158	86.56
476.377	84.56
476.596	85.56
476.814	93.56
477.033	94.56
477.252	82.56
477.471	91.56
477.69	93.56
477.908	76.56
478.127	89.56
478.346	75.56
478.564	95.56
478.783	93.56
479.002	89.56
479.22	80.56
479.439	87.56
479.658	100.56
479.876	80.56
480.095	88.56
480.313	86.56
480.532	101.56
480.751	92.56
480.969	86.56
481.188	81.56
481.406	89.56
481.624	87.56
481.843	96.56
482.061	90.56
482.28	104.56
482.498	92.56
482.717	89.56
482.935	80.56
483.153	85.56
483.372	87.56
483.59	80.56
483.808	86.56
484.027	82.56
484.245	92.56
484.463	80.56
484.681	105.56
484.9	92.56
485.118	83.56
485.336	86.56
485.554	105.56
485.772	88.56
485.99	104.56
486.209	91.56
486.427	114.56
486.645	100.56
486.863	109.56
487.081	88.56
487.299	101.56
487.517	82.56
487.735	99.56
487.953	82.56
488.171	86.56
488.389	100.56
488.607	101.56
488.825	100.56
489.043	83.56
489.261	100.56
489.479	93.56
489.696	96.56
489.914	91.56
490.132	93.56
490.35	107.56
490.568	80.56
490.786	90.56
491.003	89.56
491.221	88.56
491.439	84.56
491.657	85.56
491.874	88.56
492.092	96.56
492.31	99.56
492.527	88.56
492.745	92.56
492.963	82.56
493.18	97.56
493.398	88.56
493.615	97.56
493.833	98.56
494.05	92.56
494.268	66.56
494.485	104.56
494.703	95.56
494.92	85.56
495.138	87.56
495.355	75.56
495.573	84.56
495.79	84.56
496.008	101.56
496.225	92.56
496.442	84.56
496.66	92.56
496.877	95.56
497.094	88.56
497.312	91.56
497.529	100.56
497.746	85.56
497.963	93.56
498.181	97.56
498.398	88.56
498.615	99.56
498.832	108.56
499.049	81.56
499.267	106.56
499.484	84.56
499.701	96.56
499.918	98.56
500.135	90.56
500.352	89.56
500.569	86.56
500.786	102.56
501.003	91.56
501.22	86.56
501.437	98.56
501.654	93.56
501.871	103.56
502.088	95.56
502.305	94.56
502.522	86.56
502.739	94.56
502.956	85.56
503.172	101.56
503.389	94.56
503.606	100.56
503.823	104.56
504.04	87.56
504.256	80.56
504.473	79.56
504.69	92.56
504.907	92.56
505.123	108.56
505.34	89.56
505.557	91.56
505.773	89.56
505.99	101.56
506.207	88.56
506.423	72.56
506.64	73.56
506.856	96.56
507.073	92.56
507.289	100.56
507.506	102.56
507.722	114.56
507.939	115.56
508.155	96.56
508.372	92.56
508.588	87.56
508.805	94.56
509.021	100.56
509.238	107.56
509.454	95.56
509.67	103.56
509.887	93.56
510.103	126.56
510.319	200.56
510.536	670.56
510.752	2152.56
510.968	585.56
511.184	151.56
511.401	106.56
511.617	85.56
511.833	93.56
512.049	100.56
512.265	92.56
512.481	89.56
512.698	84.56
512.914	91.56
513.13	81.56
513.346	89.56
513.562	101.56
513.778	94.56
513.994	89.56
514.21	96.56
514.426	108.56
514.642	139.56
514.858	114.56
515.074	135.56
515.29	371.56
515.506	1241.56
515.721	441.56
