Data from Uncirc_1984_H10_HRD10591_00038.txt Node
Date: Wed Jan 03 12:21:44 EST 2024
User: Yrep
Spectrometer: HR+D1059
Trigger mode: 1
Integration Time (sec): 1.000000E-1
Scans to average: 1
Electric dark correction enabled: true
Nonlinearity correction enabled: false
Boxcar width: 0
XAxis mode: Wavelengths
Number of Pixels in Spectrum: 2048
>>>>>Begin Spectral Data<<<<<
223.165	-20.88
223.4	-20.88
223.635	-20.88
223.869	-19.88
224.104	-16.88
224.338	-13.88
224.573	-12.88
224.808	-19.88
225.042	-11.88
225.277	11.12
225.511	-9.88
225.746	-2.88
225.98	-0.88
226.215	21.12
226.449	26.12
226.683	14.12
226.918	21.12
227.152	36.12
227.387	35.12
227.621	30.12
227.856	39.12
228.09	39.12
228.324	45.12
228.559	52.12
228.793	51.12
229.027	61.12
229.262	76.12
229.496	79.12
229.73	81.12
229.964	83.12
230.199	74.12
230.433	74.12
230.667	81.12
230.901	83.12
231.136	90.12
231.37	74.12
231.604	89.12
231.838	73.12
232.072	79.12
232.306	84.12
232.541	85.12
232.775	88.12
233.009	85.12
233.243	81.12
233.477	75.12
233.711	71.12
233.945	76.12
234.179	86.12
234.413	85.12
234.647	93.12
234.881	87.12
235.115	93.12
235.349	88.12
235.583	77.12
235.817	81.12
236.051	86.12
236.285	68.12
236.519	75.12
236.753	73.12
236.987	83.12
237.221	80.12
237.455	79.12
237.689	80.12
237.922	69.12
238.156	75.12
238.39	77.12
238.624	72.12
238.858	69.12
239.091	86.12
239.325	67.12
239.559	78.12
239.793	80.12
240.027	71.12
240.26	75.12
240.494	78.12
240.728	71.12
240.961	90.12
241.195	64.12
241.429	54.12
241.662	85.12
241.896	82.12
242.13	84.12
242.363	83.12
242.597	80.12
242.83	72.12
243.064	73.12
243.298	88.12
243.531	78.12
243.765	69.12
243.998	79.12
244.232	67.12
244.465	82.12
244.699	72.12
244.932	91.12
245.166	77.12
245.399	68.12
245.633	69.12
245.866	81.12
246.099	81.12
246.333	71.12
246.566	66.12
246.8	85.12
247.033	77.12
247.266	87.12
247.5	70.12
247.733	83.12
247.966	101.12
248.2	86.12
248.433	88.12
248.666	84.12
248.899	82.12
249.133	95.12
249.366	98.12
249.599	86.12
249.832	91.12
250.066	85.12
250.299	83.12
250.532	80.12
250.765	91.12
250.998	75.12
251.231	76.12
251.465	88.12
251.698	79.12
251.931	69.12
252.164	80.12
252.397	85.12
252.63	80.12
252.863	77.12
253.096	84.12
253.329	82.12
253.562	84.12
253.795	77.12
254.028	75.12
254.261	74.12
254.494	76.12
254.727	82.12
254.96	72.12
255.193	77.12
255.426	76.12
255.659	87.12
255.892	96.12
256.124	84.12
256.357	96.12
256.59	88.12
256.823	73.12
257.056	68.12
257.289	83.12
257.521	76.12
257.754	79.12
257.987	77.12
258.22	79.12
258.452	72.12
258.685	83.12
258.918	85.12
259.151	83.12
259.383	83.12
259.616	75.12
259.849	68.12
260.081	82.12
260.314	81.12
260.547	75.12
260.779	93.12
261.012	93.12
261.244	77.12
261.477	90.12
261.71	87.12
261.942	111.12
262.175	101.12
262.407	80.12
262.64	80.12
262.872	85.12
263.105	86.12
263.337	84.12
263.57	81.12
263.802	97.12
264.035	88.12
264.267	84.12
264.499	74.12
264.732	72.12
264.964	93.12
265.197	81.12
265.429	95.12
265.661	87.12
265.894	88.12
266.126	70.12
266.358	97.12
266.591	76.12
266.823	90.12
267.055	87.12
267.287	91.12
267.52	69.12
267.752	93.12
267.984	95.12
268.216	70.12
268.448	92.12
268.681	83.12
268.913	76.12
269.145	89.12
269.377	86.12
269.609	87.12
269.841	80.12
270.073	87.12
270.306	93.12
270.538	95.12
270.77	77.12
271.002	86.12
271.234	79.12
271.466	89.12
271.698	95.12
271.93	92.12
272.162	97.12
272.394	81.12
272.626	89.12
272.858	80.12
273.09	88.12
273.322	83.12
273.553	80.12
273.785	83.12
274.017	67.12
274.249	79.12
274.481	82.12
274.713	91.12
274.945	92.12
275.176	97.12
275.408	84.12
275.64	81.12
275.872	96.12
276.104	91.12
276.335	96.12
276.567	99.12
276.799	108.12
277.031	90.12
277.262	85.12
277.494	101.12
277.726	91.12
277.957	91.12
278.189	77.12
278.421	87.12
278.652	84.12
278.884	89.12
279.115	88.12
279.347	92.12
279.579	88.12
279.81	92.12
280.042	69.12
280.273	92.12
280.505	71.12
280.736	86.12
280.968	81.12
281.199	95.12
281.431	82.12
281.662	98.12
281.894	89.12
282.125	88.12
282.356	109.12
282.588	127.12
282.819	113.12
283.051	93.12
283.282	75.12
283.513	83.12
283.745	79.12
283.976	91.12
284.207	95.12
284.439	88.12
284.67	84.12
284.901	88.12
285.132	97.12
285.364	98.12
285.595	91.12
285.826	90.12
286.057	93.12
286.288	78.12
286.52	76.12
286.751	65.12
286.982	71.12
287.213	99.12
287.444	95.12
287.675	92.12
287.906	85.12
288.138	84.12
288.369	96.12
288.6	89.12
288.831	89.12
289.062	102.12
289.293	87.12
289.524	89.12
289.755	96.12
289.986	71.12
290.217	96.12
290.448	85.12
290.679	90.12
290.91	95.12
291.141	89.12
291.371	81.12
291.602	81.12
291.833	95.12
292.064	84.12
292.295	79.12
292.526	94.12
292.757	67.12
292.987	90.12
293.218	87.12
293.449	83.12
293.68	92.12
293.91	89.12
294.141	89.12
294.372	91.12
294.603	99.12
294.833	95.12
295.064	93.12
295.295	89.12
295.525	86.12
295.756	96.12
295.987	105.12
296.217	117.12
296.448	131.12
296.679	107.12
296.909	75.12
297.14	87.12
297.37	90.12
297.601	100.12
297.831	96.12
298.062	87.12
298.292	83.12
298.523	86.12
298.753	88.12
298.984	86.12
299.214	86.12
299.445	89.12
299.675	85.12
299.905	116.12
300.136	109.12
300.366	87.12
300.597	91.12
300.827	99.12
301.057	83.12
301.288	97.12
301.518	98.12
301.748	94.12
301.979	104.12
302.209	96.12
302.439	75.12
302.669	87.12
302.9	89.12
303.13	85.12
303.36	90.12
303.59	113.12
303.82	99.12
304.051	82.12
304.281	76.12
304.511	87.12
304.741	87.12
304.971	97.12
305.201	79.12
305.431	90.12
305.661	96.12
305.891	100.12
306.121	96.12
306.352	88.12
306.582	103.12
306.812	92.12
307.042	94.12
307.272	87.12
307.502	89.12
307.731	100.12
307.961	97.12
308.191	94.12
308.421	95.12
308.651	76.12
308.881	91.12
309.111	106.12
309.341	95.12
309.571	88.12
309.8	121.12
310.03	85.12
310.26	84.12
310.49	92.12
310.72	98.12
310.949	100.12
311.179	100.12
311.409	99.12
311.639	85.12
311.868	108.12
312.098	90.12
312.328	95.12
312.557	103.12
312.787	84.12
313.017	76.12
313.246	96.12
313.476	80.12
313.706	94.12
313.935	97.12
314.165	91.12
314.394	94.12
314.624	92.12
314.853	98.12
315.083	95.12
315.312	93.12
315.542	89.12
315.771	88.12
316.001	98.12
316.23	95.12
316.46	96.12
316.689	95.12
316.919	96.12
317.148	82.12
317.377	93.12
317.607	92.12
317.836	83.12
318.065	90.12
318.295	95.12
318.524	106.12
318.753	91.12
318.983	83.12
319.212	89.12
319.441	96.12
319.67	94.12
319.9	71.12
320.129	84.12
320.358	97.12
320.587	109.12
320.816	97.12
321.046	98.12
321.275	100.12
321.504	94.12
321.733	81.12
321.962	110.12
322.191	100.12
322.42	110.12
322.649	110.12
322.878	105.12
323.108	113.12
323.337	118.12
323.566	115.12
323.795	135.12
324.024	190.12
324.253	344.12
324.482	773.12
324.71	1615.12
324.939	2173.12
325.168	795.12
325.397	248.12
325.626	140.12
325.855	129.12
326.084	127.12
326.313	131.12
326.542	147.12
326.77	209.12
326.999	442.12
327.228	920.12
327.457	1647.12
327.686	1361.12
327.914	342.12
328.143	177.12
328.372	146.12
328.6	121.12
328.829	115.12
329.058	118.12
329.287	126.12
329.515	97.12
329.744	98.12
329.972	100.12
330.201	100.12
330.43	101.12
330.658	108.12
330.887	131.12
331.115	109.12
331.344	95.12
331.572	113.12
331.801	96.12
332.03	113.12
332.258	104.12
332.486	89.12
332.715	97.12
332.943	92.12
333.172	104.12
333.4	93.12
333.629	99.12
333.857	105.12
334.085	99.12
334.314	116.12
334.542	98.12
334.771	95.12
334.999	104.12
335.227	91.12
335.455	102.12
335.684	97.12
335.912	112.12
336.14	108.12
336.369	104.12
336.597	85.12
336.825	85.12
337.053	89.12
337.281	89.12
337.51	95.12
337.738	101.12
337.966	87.12
338.194	90.12
338.422	86.12
338.65	90.12
338.878	100.12
339.106	96.12
339.334	99.12
339.562	81.12
339.79	82.12
340.018	92.12
340.246	84.12
340.474	83.12
340.702	100.12
340.93	79.12
341.158	99.12
341.386	92.12
341.614	92.12
341.842	92.12
342.07	94.12
342.298	83.12
342.526	103.12
342.754	88.12
342.981	91.12
343.209	85.12
343.437	101.12
343.665	93.12
343.893	88.12
344.12	98.12
344.348	90.12
344.576	95.12
344.804	93.12
345.031	104.12
345.259	94.12
345.487	89.12
345.714	88.12
345.942	83.12
346.17	98.12
346.397	86.12
346.625	102.12
346.853	87.12
347.08	72.12
347.308	99.12
347.535	116.12
347.763	85.12
347.99	104.12
348.218	94.12
348.445	123.12
348.673	93.12
348.9	115.12
349.128	85.12
349.355	106.12
349.583	99.12
349.81	84.12
350.037	111.12
350.265	90.12
350.492	91.12
350.72	99.12
350.947	106.12
351.174	96.12
351.402	107.12
351.629	115.12
351.856	104.12
352.083	96.12
352.311	120.12
352.538	108.12
352.765	116.12
352.992	97.12
353.22	105.12
353.447	99.12
353.674	102.12
353.901	89.12
354.128	96.12
354.355	98.12
354.583	96.12
354.81	98.12
355.037	84.12
355.264	84.12
355.491	96.12
355.718	86.12
355.945	83.12
356.172	94.12
356.399	109.12
356.626	102.12
356.853	98.12
357.08	103.12
357.307	93.12
357.534	84.12
357.761	99.12
357.988	95.12
358.215	99.12
358.441	100.12
358.668	92.12
358.895	97.12
359.122	82.12
359.349	82.12
359.576	100.12
359.802	100.12
360.029	110.12
360.256	108.12
360.483	104.12
360.709	95.12
360.936	89.12
361.163	103.12
361.39	89.12
361.616	94.12
361.843	91.12
362.07	91.12
362.296	91.12
362.523	85.12
362.749	81.12
362.976	89.12
363.203	98.12
363.429	88.12
363.656	98.12
363.882	93.12
364.109	100.12
364.335	93.12
364.562	81.12
364.788	91.12
365.015	97.12
365.241	107.12
365.468	90.12
365.694	112.12
365.92	95.12
366.147	99.12
366.373	83.12
366.599	99.12
366.826	85.12
367.052	92.12
367.278	83.12
367.505	83.12
367.731	95.12
367.957	86.12
368.184	98.12
368.41	96.12
368.636	101.12
368.862	111.12
369.089	115.12
369.315	88.12
369.541	104.12
369.767	102.12
369.993	94.12
370.219	81.12
370.445	86.12
370.672	91.12
370.898	95.12
371.124	87.12
371.35	91.12
371.576	91.12
371.802	88.12
372.028	95.12
372.254	100.12
372.48	91.12
372.706	69.12
372.932	76.12
373.158	87.12
373.384	104.12
373.61	113.12
373.835	95.12
374.061	86.12
374.287	98.12
374.513	93.12
374.739	98.12
374.965	92.12
375.191	85.12
375.416	75.12
375.642	98.12
375.868	95.12
376.094	88.12
376.319	104.12
376.545	86.12
376.771	96.12
376.997	96.12
377.222	87.12
377.448	95.12
377.674	84.12
377.899	91.12
378.125	85.12
378.35	98.12
378.576	112.12
378.802	83.12
379.027	91.12
379.253	79.12
379.478	93.12
379.704	102.12
379.929	91.12
380.155	92.12
380.38	88.12
380.606	87.12
380.831	89.12
381.057	91.12
381.282	95.12
381.507	111.12
381.733	102.12
381.958	85.12
382.184	100.12
382.409	104.12
382.634	112.12
382.86	107.12
383.085	90.12
383.31	88.12
383.535	100.12
383.761	99.12
383.986	101.12
384.211	108.12
384.436	98.12
384.662	90.12
384.887	93.12
385.112	102.12
385.337	96.12
385.562	106.12
385.787	99.12
386.013	104.12
386.238	106.12
386.463	105.12
386.688	115.12
386.913	111.12
387.138	89.12
387.363	102.12
387.588	104.12
387.813	95.12
388.038	108.12
388.263	100.12
388.488	102.12
388.713	100.12
388.938	91.12
389.163	93.12
389.387	107.12
389.612	94.12
389.837	88.12
390.062	94.12
390.287	95.12
390.512	95.12
390.736	105.12
390.961	88.12
391.186	105.12
391.411	90.12
391.636	91.12
391.86	80.12
392.085	98.12
392.31	93.12
392.534	77.12
392.759	71.12
392.984	76.12
393.208	83.12
393.433	95.12
393.658	93.12
393.882	97.12
394.107	77.12
394.331	82.12
394.556	73.12
394.78	88.12
395.005	91.12
395.229	95.12
395.454	90.12
395.678	81.12
395.903	87.12
396.127	101.12
396.352	92.12
396.576	81.12
396.801	87.12
397.025	90.12
397.249	89.12
397.474	93.12
397.698	94.12
397.922	93.12
398.147	99.12
398.371	88.12
398.595	86.12
398.82	85.12
399.044	89.12
399.268	81.12
399.492	80.12
399.717	87.12
399.941	88.12
400.165	95.12
400.389	92.12
400.613	89.12
400.837	82.12
401.062	81.12
401.286	79.12
401.51	93.12
401.734	89.12
401.958	102.12
402.182	123.12
402.406	141.12
402.63	128.12
402.854	100.12
403.078	85.12
403.302	88.12
403.526	98.12
403.75	94.12
403.974	97.12
404.198	79.12
404.422	96.12
404.645	89.12
404.869	87.12
405.093	90.12
405.317	100.12
405.541	100.12
405.765	100.12
405.988	118.12
406.212	164.12
406.436	203.12
406.66	133.12
406.883	95.12
407.107	100.12
407.331	95.12
407.555	88.12
407.778	91.12
408.002	91.12
408.226	72.12
408.449	106.12
408.673	75.12
408.896	96.12
409.12	96.12
409.344	91.12
409.567	79.12
409.791	90.12
410.014	85.12
410.238	90.12
410.461	77.12
410.685	102.12
410.908	107.12
411.132	114.12
411.355	99.12
411.578	101.12
411.802	98.12
412.025	82.12
412.249	84.12
412.472	81.12
412.695	96.12
412.919	96.12
413.142	82.12
413.365	93.12
413.589	88.12
413.812	89.12
414.035	107.12
414.258	98.12
414.482	80.12
414.705	73.12
414.928	85.12
415.151	81.12
415.374	93.12
415.597	88.12
415.821	90.12
416.044	84.12
416.267	98.12
416.49	105.12
416.713	101.12
416.936	87.12
417.159	90.12
417.382	84.12
417.605	82.12
417.828	98.12
418.051	82.12
418.274	92.12
418.497	96.12
418.72	81.12
418.943	89.12
419.166	100.12
419.389	81.12
419.611	77.12
419.834	94.12
420.057	93.12
420.28	85.12
420.503	95.12
420.726	88.12
420.948	111.12
421.171	105.12
421.394	91.12
421.617	93.12
421.839	86.12
422.062	79.12
422.285	77.12
422.507	85.12
422.73	96.12
422.953	94.12
423.175	88.12
423.398	76.12
423.621	105.12
423.843	92.12
424.066	80.12
424.288	91.12
424.511	75.12
424.733	99.12
424.956	116.12
425.178	96.12
425.401	98.12
425.623	95.12
425.846	104.12
426.068	87.12
426.291	89.12
426.513	101.12
426.735	100.12
426.958	89.12
427.18	102.12
427.402	143.12
427.625	151.12
427.847	121.12
428.069	99.12
428.292	74.12
428.514	85.12
428.736	93.12
428.958	90.12
429.181	79.12
429.403	91.12
429.625	81.12
429.847	105.12
430.069	107.12
430.292	101.12
430.514	89.12
430.736	85.12
430.958	96.12
431.18	80.12
431.402	92.12
431.624	94.12
431.846	91.12
432.068	92.12
432.29	79.12
432.512	83.12
432.734	86.12
432.956	71.12
433.178	93.12
433.4	87.12
433.622	102.12
433.844	92.12
434.066	102.12
434.287	91.12
434.509	90.12
434.731	99.12
434.953	84.12
435.175	86.12
435.397	106.12
435.618	101.12
435.84	107.12
436.062	135.12
436.284	114.12
436.505	103.12
436.727	106.12
436.949	97.12
437.17	85.12
437.392	95.12
437.614	95.12
437.835	106.12
438.057	106.12
438.278	105.12
438.5	89.12
438.721	115.12
438.943	103.12
439.165	108.12
439.386	93.12
439.608	94.12
439.829	115.12
440.05	123.12
440.272	121.12
440.493	101.12
440.715	90.12
440.936	101.12
441.158	90.12
441.379	87.12
441.6	104.12
441.822	100.12
442.043	95.12
442.264	95.12
442.486	104.12
442.707	92.12
442.928	99.12
443.149	136.12
443.371	116.12
443.592	113.12
443.813	122.12
444.034	107.12
444.255	93.12
444.476	89.12
444.698	82.12
444.919	84.12
445.14	139.12
445.361	118.12
445.582	119.12
445.803	136.12
446.024	130.12
446.245	120.12
446.466	109.12
446.687	91.12
446.908	79.12
447.129	98.12
447.35	111.12
447.571	96.12
447.792	99.12
448.013	99.12
448.234	88.12
448.455	96.12
448.675	111.12
448.896	114.12
449.117	87.12
449.338	111.12
449.559	137.12
449.779	140.12
450	86.12
450.221	98.12
450.442	96.12
450.662	88.12
450.883	106.12
451.104	96.12
451.324	100.12
451.545	83.12
451.766	84.12
451.986	79.12
452.207	92.12
452.428	82.12
452.648	98.12
452.869	103.12
453.089	105.12
453.31	108.12
453.53	86.12
453.751	99.12
453.971	109.12
454.192	100.12
454.412	90.12
454.633	77.12
454.853	69.12
455.073	102.12
455.294	91.12
455.514	96.12
455.734	88.12
455.955	81.12
456.175	85.12
456.395	81.12
456.616	84.12
456.836	92.12
457.056	77.12
457.276	86.12
457.497	88.12
457.717	87.12
457.937	92.12
458.157	83.12
458.377	95.12
458.598	96.12
458.818	135.12
459.038	147.12
459.258	108.12
459.478	115.12
459.698	91.12
459.918	83.12
460.138	83.12
460.358	68.12
460.578	92.12
460.798	97.12
461.018	97.12
461.238	85.12
461.458	84.12
461.678	71.12
461.898	95.12
462.118	91.12
462.338	82.12
462.558	95.12
462.777	81.12
462.997	83.12
463.217	86.12
463.437	91.12
463.657	77.12
463.876	99.12
464.096	103.12
464.316	88.12
464.536	105.12
464.755	104.12
464.975	91.12
465.195	158.12
465.414	159.12
465.634	97.12
465.854	88.12
466.073	81.12
466.293	85.12
466.512	90.12
466.732	76.12
466.951	88.12
467.171	99.12
467.391	91.12
467.61	92.12
467.829	95.12
468.049	79.12
468.268	105.12
468.488	85.12
468.707	90.12
468.927	80.12
469.146	93.12
469.365	85.12
469.585	99.12
469.804	93.12
470.023	93.12
470.243	85.12
470.462	97.12
470.681	109.12
470.901	85.12
471.12	81.12
471.339	77.12
471.558	93.12
471.777	90.12
471.997	84.12
472.216	81.12
472.435	79.12
472.654	93.12
472.873	88.12
473.092	76.12
473.311	92.12
473.53	90.12
473.749	100.12
473.968	92.12
474.187	92.12
474.406	88.12
474.625	77.12
474.844	87.12
475.063	72.12
475.282	74.12
475.501	83.12
475.72	79.12
475.939	99.12
476.158	89.12
476.377	82.12
476.596	100.12
476.814	91.12
477.033	87.12
477.252	99.12
477.471	86.12
477.69	93.12
477.908	98.12
478.127	89.12
478.346	72.12
478.564	95.12
478.783	103.12
479.002	84.12
479.22	89.12
479.439	103.12
479.658	99.12
479.876	91.12
480.095	75.12
480.313	97.12
480.532	103.12
480.751	92.12
480.969	101.12
481.188	106.12
481.406	105.12
481.624	87.12
481.843	102.12
482.061	91.12
482.28	79.12
482.498	99.12
482.717	83.12
482.935	89.12
483.153	87.12
483.372	87.12
483.59	84.12
483.808	88.12
484.027	101.12
484.245	96.12
484.463	105.12
484.681	96.12
484.9	84.12
485.118	96.12
485.336	89.12
485.554	97.12
485.772	105.12
485.99	112.12
486.209	97.12
486.427	103.12
486.645	107.12
486.863	115.12
487.081	99.12
487.299	95.12
487.517	95.12
487.735	101.12
487.953	98.12
488.171	87.12
488.389	95.12
488.607	103.12
488.825	101.12
489.043	90.12
489.261	90.12
489.479	101.12
489.696	99.12
489.914	101.12
490.132	90.12
490.35	92.12
490.568	76.12
490.786	91.12
491.003	92.12
491.221	87.12
491.439	89.12
491.657	87.12
491.874	104.12
492.092	97.12
492.31	102.12
492.527	100.12
492.745	81.12
492.963	94.12
493.18	100.12
493.398	109.12
493.615	104.12
493.833	88.12
494.05	85.12
494.268	71.12
494.485	93.12
494.703	92.12
494.92	88.12
495.138	93.12
495.355	100.12
495.573	106.12
495.79	89.12
496.008	105.12
496.225	89.12
496.442	93.12
496.66	79.12
496.877	96.12
497.094	81.12
497.312	93.12
497.529	75.12
497.746	103.12
497.963	99.12
498.181	79.12
498.398	93.12
498.615	115.12
498.832	97.12
499.049	85.12
499.267	87.12
499.484	99.12
499.701	99.12
499.918	84.12
500.135	87.12
500.352	92.12
500.569	93.12
500.786	102.12
501.003	85.12
501.22	91.12
501.437	85.12
501.654	99.12
501.871	98.12
502.088	85.12
502.305	92.12
502.522	96.12
502.739	108.12
502.956	82.12
503.172	92.12
503.389	105.12
503.606	89.12
503.823	91.12
504.04	85.12
504.256	84.12
504.473	73.12
504.69	91.12
504.907	97.12
505.123	103.12
505.34	95.12
505.557	86.12
505.773	103.12
505.99	103.12
506.207	92.12
506.423	100.12
506.64	74.12
506.856	84.12
507.073	86.12
507.289	105.12
507.506	84.12
507.722	102.12
507.939	96.12
508.155	98.12
508.372	103.12
508.588	91.12
508.805	84.12
509.021	111.12
509.238	115.12
509.454	108.12
509.67	97.12
509.887	107.12
510.103	126.12
510.319	199.12
510.536	694.12
510.752	2153.12
510.968	591.12
511.184	134.12
511.401	104.12
511.617	89.12
511.833	100.12
512.049	103.12
512.265	101.12
512.481	89.12
512.698	103.12
512.914	90.12
513.13	84.12
513.346	91.12
513.562	85.12
513.778	79.12
513.994	90.12
514.21	87.12
514.426	124.12
514.642	124.12
514.858	123.12
515.074	157.12
515.29	400.12
515.506	1264.12
