Data from Uncirc_1984_H10_HRD10591_00073.txt Node
Date: Wed Jan 03 12:21:51 EST 2024
User: Yrep
Spectrometer: HR+D1059
Trigger mode: 1
Integration Time (sec): 1.000000E-1
Scans to average: 1
Electric dark correction enabled: true
Nonlinearity correction enabled: false
Boxcar width: 0
XAxis mode: Wavelengths
Number of Pixels in Spectrum: 2048
>>>>>Begin Spectral Data<<<<<
223.165	-11.62
223.4	-11.62
223.635	-11.62
223.869	-20.62
224.104	-20.62
224.338	-19.62
224.573	-20.62
224.808	-19.62
225.042	-13.62
225.277	-7.62
225.511	10.38
225.746	8.38
225.98	4.38
226.215	18.38
226.449	23.38
226.683	16.38
226.918	23.38
227.152	29.38
227.387	48.38
227.621	38.38
227.856	50.38
228.09	47.38
228.324	50.38
228.559	52.38
228.793	53.38
229.027	69.38
229.262	72.38
229.496	69.38
229.73	84.38
229.964	89.38
230.199	73.38
230.433	89.38
230.667	80.38
230.901	68.38
231.136	77.38
231.37	88.38
231.604	79.38
231.838	74.38
232.072	89.38
232.306	80.38
232.541	84.38
232.775	85.38
233.009	71.38
233.243	65.38
233.477	70.38
233.711	69.38
233.945	79.38
234.179	72.38
234.413	68.38
234.647	74.38
234.881	72.38
235.115	78.38
235.349	95.38
235.583	80.38
235.817	74.38
236.051	74.38
236.285	76.38
236.519	79.38
236.753	86.38
236.987	69.38
237.221	85.38
237.455	79.38
237.689	69.38
237.922	72.38
238.156	86.38
238.39	72.38
238.624	82.38
238.858	74.38
239.091	76.38
239.325	73.38
239.559	82.38
239.793	82.38
240.027	71.38
240.26	76.38
240.494	70.38
240.728	72.38
240.961	78.38
241.195	74.38
241.429	79.38
241.662	73.38
241.896	84.38
242.13	68.38
242.363	70.38
242.597	83.38
242.83	83.38
243.064	75.38
243.298	81.38
243.531	80.38
243.765	82.38
243.998	75.38
244.232	83.38
244.465	84.38
244.699	97.38
244.932	88.38
245.166	80.38
245.399	86.38
245.633	78.38
245.866	98.38
246.099	73.38
246.333	72.38
246.566	68.38
246.8	75.38
247.033	93.38
247.266	70.38
247.5	66.38
247.733	70.38
247.966	91.38
248.2	86.38
248.433	87.38
248.666	64.38
248.899	83.38
249.133	78.38
249.366	90.38
249.599	104.38
249.832	89.38
250.066	86.38
250.299	72.38
250.532	80.38
250.765	76.38
250.998	71.38
251.231	82.38
251.465	88.38
251.698	80.38
251.931	91.38
252.164	87.38
252.397	81.38
252.63	84.38
252.863	63.38
253.096	74.38
253.329	80.38
253.562	76.38
253.795	78.38
254.028	68.38
254.261	73.38
254.494	86.38
254.727	82.38
254.96	60.38
255.193	79.38
255.426	82.38
255.659	80.38
255.892	73.38
256.124	64.38
256.357	83.38
256.59	79.38
256.823	70.38
257.056	86.38
257.289	77.38
257.521	73.38
257.754	92.38
257.987	81.38
258.22	85.38
258.452	89.38
258.685	68.38
258.918	70.38
259.151	81.38
259.383	75.38
259.616	80.38
259.849	84.38
260.081	72.38
260.314	82.38
260.547	80.38
260.779	75.38
261.012	84.38
261.244	90.38
261.477	96.38
261.71	95.38
261.942	98.38
262.175	106.38
262.407	87.38
262.64	78.38
262.872	82.38
263.105	87.38
263.337	70.38
263.57	67.38
263.802	84.38
264.035	78.38
264.267	74.38
264.499	73.38
264.732	95.38
264.964	78.38
265.197	74.38
265.429	72.38
265.661	82.38
265.894	76.38
266.126	76.38
266.358	82.38
266.591	79.38
266.823	81.38
267.055	78.38
267.287	75.38
267.52	90.38
267.752	85.38
267.984	79.38
268.216	78.38
268.448	76.38
268.681	74.38
268.913	86.38
269.145	97.38
269.377	83.38
269.609	86.38
269.841	83.38
270.073	89.38
270.306	86.38
270.538	78.38
270.77	98.38
271.002	79.38
271.234	74.38
271.466	68.38
271.698	67.38
271.93	92.38
272.162	78.38
272.394	87.38
272.626	86.38
272.858	95.38
273.09	81.38
273.322	88.38
273.553	82.38
273.785	89.38
274.017	74.38
274.249	89.38
274.481	88.38
274.713	74.38
274.945	86.38
275.176	92.38
275.408	84.38
275.64	90.38
275.872	98.38
276.104	94.38
276.335	72.38
276.567	92.38
276.799	96.38
277.031	98.38
277.262	92.38
277.494	84.38
277.726	79.38
277.957	79.38
278.189	86.38
278.421	69.38
278.652	86.38
278.884	77.38
279.115	87.38
279.347	87.38
279.579	96.38
279.81	89.38
280.042	80.38
280.273	88.38
280.505	84.38
280.736	75.38
280.968	95.38
281.199	90.38
281.431	84.38
281.662	95.38
281.894	92.38
282.125	98.38
282.356	113.38
282.588	127.38
282.819	105.38
283.051	91.38
283.282	96.38
283.513	78.38
283.745	94.38
283.976	78.38
284.207	84.38
284.439	108.38
284.67	84.38
284.901	86.38
285.132	91.38
285.364	84.38
285.595	87.38
285.826	94.38
286.057	87.38
286.288	82.38
286.52	79.38
286.751	85.38
286.982	81.38
287.213	80.38
287.444	92.38
287.675	83.38
287.906	85.38
288.138	95.38
288.369	86.38
288.6	94.38
288.831	92.38
289.062	82.38
289.293	88.38
289.524	78.38
289.755	81.38
289.986	91.38
290.217	95.38
290.448	66.38
290.679	93.38
290.91	90.38
291.141	70.38
291.371	89.38
291.602	76.38
291.833	83.38
292.064	107.38
292.295	88.38
292.526	81.38
292.757	86.38
292.987	88.38
293.218	86.38
293.449	85.38
293.68	89.38
293.91	86.38
294.141	83.38
294.372	82.38
294.603	86.38
294.833	90.38
295.064	98.38
295.295	76.38
295.525	88.38
295.756	92.38
295.987	104.38
296.217	124.38
296.448	121.38
296.679	83.38
296.909	92.38
297.14	86.38
297.37	97.38
297.601	74.38
297.831	88.38
298.062	89.38
298.292	82.38
298.523	83.38
298.753	79.38
298.984	96.38
299.214	96.38
299.445	78.38
299.675	87.38
299.905	98.38
300.136	80.38
300.366	100.38
300.597	101.38
300.827	74.38
301.057	95.38
301.288	85.38
301.518	106.38
301.748	97.38
301.979	107.38
302.209	84.38
302.439	84.38
302.669	86.38
302.9	94.38
303.13	88.38
303.36	87.38
303.59	91.38
303.82	95.38
304.051	82.38
304.281	82.38
304.511	81.38
304.741	89.38
304.971	80.38
305.201	91.38
305.431	87.38
305.661	81.38
305.891	96.38
306.121	93.38
306.352	96.38
306.582	102.38
306.812	100.38
307.042	94.38
307.272	97.38
307.502	96.38
307.731	95.38
307.961	101.38
308.191	98.38
308.421	82.38
308.651	89.38
308.881	90.38
309.111	86.38
309.341	97.38
309.571	81.38
309.8	97.38
310.03	79.38
310.26	99.38
310.49	94.38
310.72	108.38
310.949	84.38
311.179	103.38
311.409	96.38
311.639	82.38
311.868	94.38
312.098	97.38
312.328	98.38
312.557	96.38
312.787	90.38
313.017	87.38
313.246	92.38
313.476	82.38
313.706	91.38
313.935	88.38
314.165	88.38
314.394	92.38
314.624	98.38
314.853	87.38
315.083	82.38
315.312	92.38
315.542	93.38
315.771	91.38
316.001	104.38
316.23	98.38
316.46	89.38
316.689	98.38
316.919	98.38
317.148	94.38
317.377	96.38
317.607	103.38
317.836	99.38
318.065	95.38
318.295	93.38
318.524	80.38
318.753	87.38
318.983	67.38
319.212	99.38
319.441	100.38
319.67	111.38
319.9	84.38
320.129	90.38
320.358	77.38
320.587	94.38
320.816	105.38
321.046	91.38
321.275	86.38
321.504	82.38
321.733	87.38
321.962	103.38
322.191	100.38
322.42	101.38
322.649	96.38
322.878	109.38
323.108	95.38
323.337	111.38
323.566	117.38
323.795	138.38
324.024	183.38
324.253	362.38
324.482	750.38
324.71	1515.38
324.939	2071.38
325.168	768.38
325.397	208.38
325.626	128.38
325.855	127.38
326.084	99.38
326.313	128.38
326.542	135.38
326.77	213.38
326.999	423.38
327.228	859.38
327.457	1586.38
327.686	1256.38
327.914	338.38
328.143	188.38
328.372	152.38
328.6	118.38
328.829	96.38
329.058	111.38
329.287	112.38
329.515	122.38
329.744	102.38
329.972	105.38
330.201	105.38
330.43	112.38
330.658	106.38
330.887	128.38
331.115	108.38
331.344	95.38
331.572	92.38
331.801	92.38
332.03	100.38
332.258	106.38
332.486	97.38
332.715	96.38
332.943	84.38
333.172	94.38
333.4	91.38
333.629	99.38
333.857	105.38
334.085	108.38
334.314	96.38
334.542	91.38
334.771	109.38
334.999	88.38
335.227	81.38
335.455	102.38
335.684	86.38
335.912	99.38
336.14	86.38
336.369	95.38
336.597	89.38
336.825	101.38
337.053	92.38
337.281	78.38
337.51	96.38
337.738	90.38
337.966	86.38
338.194	83.38
338.422	96.38
338.65	96.38
338.878	93.38
339.106	94.38
339.334	93.38
339.562	95.38
339.79	79.38
340.018	93.38
340.246	91.38
340.474	89.38
340.702	98.38
340.93	101.38
341.158	85.38
341.386	94.38
341.614	85.38
341.842	95.38
342.07	94.38
342.298	90.38
342.526	108.38
342.754	93.38
342.981	88.38
343.209	86.38
343.437	100.38
343.665	90.38
343.893	88.38
344.12	86.38
344.348	94.38
344.576	87.38
344.804	83.38
345.031	99.38
345.259	81.38
345.487	83.38
345.714	97.38
345.942	89.38
346.17	90.38
346.397	95.38
346.625	93.38
346.853	87.38
347.08	86.38
347.308	88.38
347.535	92.38
347.763	84.38
347.99	90.38
348.218	98.38
348.445	99.38
348.673	93.38
348.9	85.38
349.128	114.38
349.355	85.38
349.583	92.38
349.81	89.38
350.037	85.38
350.265	100.38
350.492	98.38
350.72	99.38
350.947	109.38
351.174	108.38
351.402	94.38
351.629	94.38
351.856	81.38
352.083	100.38
352.311	111.38
352.538	113.38
352.765	110.38
352.992	98.38
353.22	112.38
353.447	92.38
353.674	104.38
353.901	102.38
354.128	111.38
354.355	96.38
354.583	92.38
354.81	94.38
355.037	100.38
355.264	100.38
355.491	92.38
355.718	85.38
355.945	91.38
356.172	94.38
356.399	91.38
356.626	100.38
356.853	78.38
357.08	96.38
357.307	71.38
357.534	94.38
357.761	96.38
357.988	83.38
358.215	97.38
358.441	86.38
358.668	98.38
358.895	85.38
359.122	87.38
359.349	97.38
359.576	88.38
359.802	95.38
360.029	102.38
360.256	100.38
360.483	79.38
360.709	104.38
360.936	97.38
361.163	80.38
361.39	96.38
361.616	88.38
361.843	76.38
362.07	95.38
362.296	97.38
362.523	97.38
362.749	90.38
362.976	102.38
363.203	88.38
363.429	99.38
363.656	73.38
363.882	91.38
364.109	105.38
364.335	78.38
364.562	93.38
364.788	95.38
365.015	86.38
365.241	99.38
365.468	100.38
365.694	94.38
365.92	98.38
366.147	89.38
366.373	87.38
366.599	95.38
366.826	103.38
367.052	84.38
367.278	83.38
367.505	82.38
367.731	86.38
367.957	92.38
368.184	97.38
368.41	96.38
368.636	91.38
368.862	113.38
369.089	98.38
369.315	71.38
369.541	98.38
369.767	85.38
369.993	72.38
370.219	98.38
370.445	95.38
370.672	99.38
370.898	94.38
371.124	90.38
371.35	79.38
371.576	90.38
371.802	83.38
372.028	103.38
372.254	92.38
372.48	91.38
372.706	86.38
372.932	85.38
373.158	70.38
373.384	93.38
373.61	88.38
373.835	81.38
374.061	97.38
374.287	101.38
374.513	88.38
374.739	83.38
374.965	86.38
375.191	82.38
375.416	86.38
375.642	86.38
375.868	89.38
376.094	71.38
376.319	83.38
376.545	92.38
376.771	89.38
376.997	94.38
377.222	88.38
377.448	97.38
377.674	86.38
377.899	95.38
378.125	104.38
378.35	103.38
378.576	88.38
378.802	99.38
379.027	80.38
379.253	86.38
379.478	74.38
379.704	94.38
379.929	86.38
380.155	98.38
380.38	98.38
380.606	98.38
380.831	92.38
381.057	99.38
381.282	85.38
381.507	93.38
381.733	79.38
381.958	88.38
382.184	88.38
382.409	94.38
382.634	95.38
382.86	115.38
383.085	118.38
383.31	106.38
383.535	90.38
383.761	95.38
383.986	103.38
384.211	82.38
384.436	80.38
384.662	95.38
384.887	96.38
385.112	92.38
385.337	101.38
385.562	86.38
385.787	112.38
386.013	103.38
386.238	104.38
386.463	90.38
386.688	105.38
386.913	112.38
387.138	95.38
387.363	105.38
387.588	99.38
387.813	88.38
388.038	96.38
388.263	103.38
388.488	99.38
388.713	103.38
388.938	101.38
389.163	87.38
389.387	95.38
389.612	100.38
389.837	73.38
390.062	89.38
390.287	87.38
390.512	79.38
390.736	87.38
390.961	73.38
391.186	76.38
391.411	95.38
391.636	98.38
391.86	82.38
392.085	76.38
392.31	89.38
392.534	85.38
392.759	99.38
392.984	90.38
393.208	96.38
393.433	92.38
393.658	96.38
393.882	68.38
394.107	73.38
394.331	94.38
394.556	70.38
394.78	91.38
395.005	90.38
395.229	73.38
395.454	85.38
395.678	95.38
395.903	87.38
396.127	86.38
396.352	98.38
396.576	79.38
396.801	84.38
397.025	97.38
397.249	92.38
397.474	90.38
397.698	75.38
397.922	70.38
398.147	90.38
398.371	82.38
398.595	86.38
398.82	90.38
399.044	75.38
399.268	83.38
399.492	103.38
399.717	107.38
399.941	76.38
400.165	91.38
400.389	96.38
400.613	82.38
400.837	79.38
401.062	75.38
401.286	90.38
401.51	85.38
401.734	80.38
401.958	100.38
402.182	111.38
402.406	151.38
402.63	123.38
402.854	88.38
403.078	79.38
403.302	92.38
403.526	89.38
403.75	92.38
403.974	79.38
404.198	92.38
404.422	95.38
404.645	90.38
404.869	97.38
405.093	105.38
405.317	106.38
405.541	91.38
405.765	83.38
405.988	104.38
406.212	158.38
406.436	212.38
406.66	125.38
406.883	97.38
407.107	98.38
407.331	85.38
407.555	96.38
407.778	82.38
408.002	89.38
408.226	81.38
408.449	89.38
408.673	87.38
408.896	94.38
409.12	82.38
409.344	81.38
409.567	86.38
409.791	80.38
410.014	84.38
410.238	97.38
410.461	99.38
410.685	89.38
410.908	82.38
411.132	115.38
411.355	82.38
411.578	97.38
411.802	87.38
412.025	94.38
412.249	89.38
412.472	87.38
412.695	90.38
412.919	82.38
413.142	89.38
413.365	106.38
413.589	91.38
413.812	96.38
414.035	104.38
414.258	88.38
414.482	94.38
414.705	74.38
414.928	93.38
415.151	99.38
415.374	98.38
415.597	82.38
415.821	85.38
416.044	106.38
416.267	100.38
416.49	86.38
416.713	67.38
416.936	86.38
417.159	88.38
417.382	74.38
417.605	91.38
417.828	91.38
418.051	80.38
418.274	92.38
418.497	73.38
418.72	95.38
418.943	92.38
419.166	96.38
419.389	102.38
419.611	83.38
419.834	85.38
420.057	97.38
420.28	87.38
420.503	85.38
420.726	98.38
420.948	87.38
421.171	95.38
421.394	107.38
421.617	92.38
421.839	82.38
422.062	78.38
422.285	77.38
422.507	90.38
422.73	96.38
422.953	71.38
423.175	95.38
423.398	80.38
423.621	88.38
423.843	87.38
424.066	87.38
424.288	92.38
424.511	87.38
424.733	106.38
424.956	97.38
425.178	96.38
425.401	102.38
425.623	101.38
425.846	77.38
426.068	104.38
426.291	97.38
426.513	91.38
426.735	88.38
426.958	93.38
427.18	85.38
427.402	125.38
427.625	136.38
427.847	110.38
428.069	101.38
428.292	97.38
428.514	87.38
428.736	92.38
428.958	86.38
429.181	82.38
429.403	88.38
429.625	88.38
429.847	87.38
430.069	99.38
430.292	98.38
430.514	78.38
430.736	90.38
430.958	94.38
431.18	74.38
431.402	65.38
431.624	78.38
431.846	92.38
432.068	91.38
432.29	91.38
432.512	72.38
432.734	88.38
432.956	93.38
433.178	89.38
433.4	108.38
433.622	84.38
433.844	87.38
434.066	94.38
434.287	91.38
434.509	102.38
434.731	88.38
434.953	87.38
435.175	81.38
435.397	85.38
435.618	92.38
435.84	102.38
436.062	116.38
436.284	116.38
436.505	91.38
436.727	90.38
436.949	90.38
437.17	81.38
437.392	92.38
437.614	87.38
437.835	91.38
438.057	99.38
438.278	99.38
438.5	96.38
438.721	105.38
438.943	92.38
439.165	84.38
439.386	83.38
439.608	105.38
439.829	96.38
440.05	102.38
440.272	125.38
440.493	98.38
440.715	97.38
440.936	87.38
441.158	88.38
441.379	85.38
441.6	75.38
441.822	89.38
442.043	90.38
442.264	89.38
442.486	91.38
442.707	64.38
442.928	110.38
443.149	110.38
443.371	107.38
443.592	111.38
443.813	112.38
444.034	84.38
444.255	88.38
444.476	83.38
444.698	75.38
444.919	89.38
445.14	121.38
445.361	130.38
445.582	116.38
445.803	128.38
446.024	112.38
446.245	127.38
446.466	82.38
446.687	95.38
446.908	89.38
447.129	85.38
447.35	78.38
447.571	98.38
447.792	81.38
448.013	88.38
448.234	112.38
448.455	108.38
448.675	106.38
448.896	116.38
449.117	97.38
449.338	108.38
449.559	105.38
449.779	134.38
450	96.38
450.221	87.38
450.442	99.38
450.662	95.38
450.883	99.38
451.104	97.38
451.324	99.38
451.545	79.38
451.766	80.38
451.986	86.38
452.207	100.38
452.428	90.38
452.648	102.38
452.869	100.38
453.089	104.38
453.31	113.38
453.53	91.38
453.751	80.38
453.971	86.38
454.192	88.38
454.412	76.38
454.633	82.38
454.853	67.38
455.073	93.38
455.294	88.38
455.514	92.38
455.734	106.38
455.955	84.38
456.175	82.38
456.395	88.38
456.616	74.38
456.836	81.38
457.056	97.38
457.276	89.38
457.497	83.38
457.717	84.38
457.937	82.38
458.157	82.38
458.377	95.38
458.598	103.38
458.818	131.38
459.038	152.38
459.258	105.38
459.478	77.38
459.698	82.38
459.918	78.38
460.138	79.38
460.358	94.38
460.578	91.38
460.798	85.38
461.018	93.38
461.238	89.38
461.458	88.38
461.678	75.38
461.898	84.38
462.118	100.38
462.338	91.38
462.558	74.38
462.777	76.38
462.997	85.38
463.217	80.38
463.437	69.38
463.657	96.38
463.876	78.38
464.096	91.38
464.316	92.38
464.536	89.38
464.755	88.38
464.975	98.38
465.195	144.38
465.414	147.38
465.634	88.38
465.854	90.38
466.073	78.38
466.293	81.38
466.512	80.38
466.732	93.38
466.951	106.38
467.171	91.38
467.391	98.38
467.61	122.38
467.829	96.38
468.049	98.38
468.268	89.38
468.488	97.38
468.707	82.38
468.927	76.38
469.146	96.38
469.365	83.38
469.585	83.38
469.804	104.38
470.023	88.38
470.243	110.38
470.462	98.38
470.681	95.38
470.901	92.38
471.12	96.38
471.339	94.38
471.558	98.38
471.777	82.38
471.997	81.38
472.216	84.38
472.435	100.38
472.654	96.38
472.873	101.38
473.092	87.38
473.311	90.38
473.53	98.38
473.749	98.38
473.968	75.38
474.187	84.38
474.406	95.38
474.625	75.38
474.844	97.38
475.063	84.38
475.282	83.38
475.501	92.38
475.72	86.38
475.939	75.38
476.158	90.38
476.377	91.38
476.596	86.38
476.814	94.38
477.033	92.38
477.252	90.38
477.471	95.38
477.69	80.38
477.908	66.38
478.127	82.38
478.346	85.38
478.564	84.38
478.783	96.38
479.002	83.38
479.22	76.38
479.439	86.38
479.658	106.38
479.876	96.38
480.095	75.38
480.313	79.38
480.532	98.38
480.751	87.38
480.969	78.38
481.188	104.38
481.406	106.38
481.624	96.38
481.843	92.38
482.061	87.38
482.28	83.38
482.498	84.38
482.717	97.38
482.935	97.38
483.153	91.38
483.372	90.38
483.59	80.38
483.808	73.38
484.027	88.38
484.245	100.38
484.463	99.38
484.681	98.38
484.9	91.38
485.118	87.38
485.336	83.38
485.554	108.38
485.772	113.38
485.99	98.38
486.209	106.38
486.427	104.38
486.645	96.38
486.863	116.38
487.081	96.38
487.299	98.38
487.517	105.38
487.735	108.38
487.953	102.38
488.171	88.38
488.389	92.38
488.607	95.38
488.825	90.38
489.043	88.38
489.261	89.38
489.479	90.38
489.696	102.38
489.914	82.38
490.132	97.38
490.35	93.38
490.568	90.38
490.786	99.38
491.003	89.38
491.221	81.38
491.439	87.38
491.657	97.38
491.874	103.38
492.092	85.38
492.31	91.38
492.527	90.38
492.745	94.38
492.963	98.38
493.18	100.38
493.398	79.38
493.615	92.38
493.833	99.38
494.05	101.38
494.268	86.38
494.485	84.38
494.703	98.38
494.92	99.38
495.138	90.38
495.355	104.38
495.573	87.38
495.79	82.38
496.008	85.38
496.225	100.38
496.442	84.38
496.66	109.38
496.877	84.38
497.094	98.38
497.312	99.38
497.529	99.38
497.746	115.38
497.963	98.38
498.181	91.38
498.398	94.38
498.615	102.38
498.832	91.38
499.049	78.38
499.267	93.38
499.484	97.38
499.701	88.38
499.918	107.38
500.135	107.38
500.352	97.38
500.569	86.38
500.786	83.38
501.003	82.38
501.22	80.38
501.437	85.38
501.654	105.38
501.871	108.38
502.088	88.38
502.305	82.38
502.522	94.38
502.739	81.38
502.956	88.38
503.172	102.38
503.389	89.38
503.606	97.38
503.823	86.38
504.04	84.38
504.256	91.38
504.473	84.38
504.69	86.38
504.907	83.38
505.123	92.38
505.34	104.38
505.557	81.38
505.773	88.38
505.99	98.38
506.207	78.38
506.423	90.38
506.64	94.38
506.856	83.38
507.073	95.38
507.289	92.38
507.506	72.38
507.722	111.38
507.939	109.38
508.155	116.38
508.372	96.38
508.588	94.38
508.805	90.38
509.021	90.38
509.238	83.38
509.454	99.38
509.67	94.38
509.887	112.38
510.103	123.38
510.319	198.38
510.536	699.38
510.752	2260.38
510.968	594.38
511.184	139.38
511.401	102.38
511.617	95.38
511.833	89.38
512.049	88.38
512.265	83.38
512.481	94.38
512.698	86.38
512.914	100.38
513.13	98.38
513.346	87.38
513.562	75.38
513.778	103.38
513.994	102.38
514.21	113.38
514.426	124.38
514.642	124.38
514.858	119.38
515.074	148.38
515.29	396.38
515.506	1328.38
515.721	491.38
515.937	154.38
516.153	109.38
516.369	100.38
516.585	92.38
