Data from Uncirc_1984_H10_HRD10591_00039.txt Node
Date: Wed Jan 03 12:21:45 EST 2024
User: Yrep
Spectrometer: HR+D1059
Trigger mode: 1
Integration Time (sec): 1.000000E-1
Scans to average: 1
Electric dark correction enabled: true
Nonlinearity correction enabled: false
Boxcar width: 0
XAxis mode: Wavelengths
Number of Pixels in Spectrum: 2048
>>>>>Begin Spectral Data<<<<<
223.165	-15.56
223.4	-15.56
223.635	-15.56
223.869	-25.56
224.104	-15.56
224.338	-17.56
224.573	-17.56
224.808	-29.56
225.042	-19.56
225.277	-13.56
225.511	1.44
225.746	2.44
225.98	17.44
226.215	22.44
226.449	28.44
226.683	22.44
226.918	24.44
227.152	35.44
227.387	28.44
227.621	38.44
227.856	40.44
228.09	41.44
228.324	56.44
228.559	54.44
228.793	65.44
229.027	47.44
229.262	69.44
229.496	65.44
229.73	89.44
229.964	72.44
230.199	64.44
230.433	81.44
230.667	64.44
230.901	64.44
231.136	77.44
231.37	80.44
231.604	75.44
231.838	69.44
232.072	88.44
232.306	70.44
232.541	69.44
232.775	90.44
233.009	90.44
233.243	78.44
233.477	84.44
233.711	65.44
233.945	71.44
234.179	68.44
234.413	82.44
234.647	72.44
234.881	85.44
235.115	70.44
235.349	93.44
235.583	87.44
235.817	80.44
236.051	85.44
236.285	84.44
236.519	77.44
236.753	75.44
236.987	85.44
237.221	89.44
237.455	95.44
237.689	72.44
237.922	60.44
238.156	86.44
238.39	70.44
238.624	65.44
238.858	69.44
239.091	68.44
239.325	78.44
239.559	72.44
239.793	84.44
240.027	69.44
240.26	80.44
240.494	78.44
240.728	90.44
240.961	78.44
241.195	82.44
241.429	71.44
241.662	64.44
241.896	62.44
242.13	78.44
242.363	66.44
242.597	78.44
242.83	73.44
243.064	76.44
243.298	62.44
243.531	96.44
243.765	69.44
243.998	84.44
244.232	72.44
244.465	84.44
244.699	81.44
244.932	86.44
245.166	80.44
245.399	70.44
245.633	78.44
245.866	82.44
246.099	72.44
246.333	83.44
246.566	69.44
246.8	72.44
247.033	71.44
247.266	63.44
247.5	85.44
247.733	71.44
247.966	77.44
248.2	80.44
248.433	84.44
248.666	77.44
248.899	73.44
249.133	85.44
249.366	82.44
249.599	82.44
249.832	73.44
250.066	81.44
250.299	78.44
250.532	79.44
250.765	70.44
250.998	64.44
251.231	80.44
251.465	66.44
251.698	74.44
251.931	77.44
252.164	85.44
252.397	71.44
252.63	80.44
252.863	76.44
253.096	66.44
253.329	80.44
253.562	76.44
253.795	96.44
254.028	92.44
254.261	63.44
254.494	74.44
254.727	82.44
254.96	82.44
255.193	76.44
255.426	80.44
255.659	70.44
255.892	70.44
256.124	89.44
256.357	68.44
256.59	70.44
256.823	84.44
257.056	80.44
257.289	79.44
257.521	67.44
257.754	74.44
257.987	69.44
258.22	74.44
258.452	72.44
258.685	78.44
258.918	84.44
259.151	83.44
259.383	74.44
259.616	72.44
259.849	82.44
260.081	87.44
260.314	68.44
260.547	76.44
260.779	80.44
261.012	61.44
261.244	97.44
261.477	68.44
261.71	78.44
261.942	105.44
262.175	102.44
262.407	76.44
262.64	69.44
262.872	84.44
263.105	74.44
263.337	84.44
263.57	101.44
263.802	73.44
264.035	80.44
264.267	85.44
264.499	81.44
264.732	88.44
264.964	80.44
265.197	92.44
265.429	84.44
265.661	81.44
265.894	68.44
266.126	82.44
266.358	76.44
266.591	86.44
266.823	74.44
267.055	77.44
267.287	78.44
267.52	92.44
267.752	89.44
267.984	73.44
268.216	68.44
268.448	84.44
268.681	71.44
268.913	91.44
269.145	92.44
269.377	80.44
269.609	76.44
269.841	83.44
270.073	76.44
270.306	74.44
270.538	86.44
270.77	83.44
271.002	88.44
271.234	67.44
271.466	84.44
271.698	88.44
271.93	97.44
272.162	82.44
272.394	86.44
272.626	76.44
272.858	68.44
273.09	74.44
273.322	93.44
273.553	73.44
273.785	69.44
274.017	78.44
274.249	79.44
274.481	72.44
274.713	76.44
274.945	76.44
275.176	66.44
275.408	82.44
275.64	80.44
275.872	84.44
276.104	88.44
276.335	90.44
276.567	77.44
276.799	92.44
277.031	87.44
277.262	76.44
277.494	89.44
277.726	86.44
277.957	84.44
278.189	75.44
278.421	81.44
278.652	80.44
278.884	66.44
279.115	86.44
279.347	83.44
279.579	77.44
279.81	77.44
280.042	93.44
280.273	74.44
280.505	80.44
280.736	78.44
280.968	89.44
281.199	84.44
281.431	81.44
281.662	86.44
281.894	86.44
282.125	94.44
282.356	105.44
282.588	140.44
282.819	116.44
283.051	76.44
283.282	74.44
283.513	87.44
283.745	96.44
283.976	73.44
284.207	78.44
284.439	86.44
284.67	83.44
284.901	80.44
285.132	78.44
285.364	96.44
285.595	84.44
285.826	90.44
286.057	98.44
286.288	86.44
286.52	88.44
286.751	81.44
286.982	84.44
287.213	86.44
287.444	93.44
287.675	94.44
287.906	78.44
288.138	86.44
288.369	88.44
288.6	95.44
288.831	73.44
289.062	86.44
289.293	84.44
289.524	84.44
289.755	70.44
289.986	88.44
290.217	80.44
290.448	87.44
290.679	94.44
290.91	84.44
291.141	92.44
291.371	80.44
291.602	95.44
291.833	84.44
292.064	84.44
292.295	87.44
292.526	87.44
292.757	87.44
292.987	82.44
293.218	70.44
293.449	102.44
293.68	91.44
293.91	101.44
294.141	93.44
294.372	93.44
294.603	75.44
294.833	81.44
295.064	79.44
295.295	92.44
295.525	79.44
295.756	103.44
295.987	112.44
296.217	121.44
296.448	121.44
296.679	84.44
296.909	89.44
297.14	88.44
297.37	90.44
297.601	102.44
297.831	82.44
298.062	74.44
298.292	86.44
298.523	86.44
298.753	98.44
298.984	88.44
299.214	79.44
299.445	90.44
299.675	84.44
299.905	91.44
300.136	85.44
300.366	84.44
300.597	86.44
300.827	88.44
301.057	89.44
301.288	101.44
301.518	88.44
301.748	85.44
301.979	98.44
302.209	103.44
302.439	84.44
302.669	92.44
302.9	82.44
303.13	76.44
303.36	89.44
303.59	102.44
303.82	93.44
304.051	83.44
304.281	91.44
304.511	94.44
304.741	85.44
304.971	77.44
305.201	92.44
305.431	84.44
305.661	94.44
305.891	80.44
306.121	82.44
306.352	73.44
306.582	104.44
306.812	93.44
307.042	63.44
307.272	94.44
307.502	80.44
307.731	95.44
307.961	78.44
308.191	78.44
308.421	72.44
308.651	96.44
308.881	87.44
309.111	101.44
309.341	88.44
309.571	96.44
309.8	83.44
310.03	93.44
310.26	92.44
310.49	90.44
310.72	100.44
310.949	108.44
311.179	76.44
311.409	85.44
311.639	84.44
311.868	93.44
312.098	89.44
312.328	95.44
312.557	102.44
312.787	107.44
313.017	84.44
313.246	80.44
313.476	78.44
313.706	92.44
313.935	94.44
314.165	93.44
314.394	95.44
314.624	101.44
314.853	95.44
315.083	89.44
315.312	80.44
315.542	89.44
315.771	92.44
316.001	97.44
316.23	84.44
316.46	80.44
316.689	95.44
316.919	93.44
317.148	99.44
317.377	87.44
317.607	98.44
317.836	78.44
318.065	93.44
318.295	89.44
318.524	76.44
318.753	76.44
318.983	97.44
319.212	98.44
319.441	110.44
319.67	105.44
319.9	102.44
320.129	93.44
320.358	85.44
320.587	97.44
320.816	96.44
321.046	89.44
321.275	88.44
321.504	85.44
321.733	86.44
321.962	79.44
322.191	89.44
322.42	96.44
322.649	111.44
322.878	83.44
323.108	112.44
323.337	128.44
323.566	119.44
323.795	141.44
324.024	181.44
324.253	335.44
324.482	751.44
324.71	1547.44
324.939	2064.44
325.168	737.44
325.397	216.44
325.626	140.44
325.855	126.44
326.084	124.44
326.313	138.44
326.542	146.44
326.77	217.44
326.999	417.44
327.228	863.44
327.457	1593.44
327.686	1237.44
327.914	335.44
328.143	184.44
328.372	138.44
328.6	125.44
328.829	125.44
329.058	125.44
329.287	112.44
329.515	109.44
329.744	106.44
329.972	95.44
330.201	87.44
330.43	98.44
330.658	100.44
330.887	127.44
331.115	99.44
331.344	91.44
331.572	94.44
331.801	100.44
332.03	101.44
332.258	99.44
332.486	83.44
332.715	85.44
332.943	88.44
333.172	83.44
333.4	100.44
333.629	100.44
333.857	106.44
334.085	114.44
334.314	99.44
334.542	92.44
334.771	91.44
334.999	85.44
335.227	88.44
335.455	85.44
335.684	90.44
335.912	89.44
336.14	83.44
336.369	89.44
336.597	108.44
336.825	97.44
337.053	92.44
337.281	96.44
337.51	91.44
337.738	95.44
337.966	80.44
338.194	94.44
338.422	98.44
338.65	83.44
338.878	101.44
339.106	101.44
339.334	92.44
339.562	81.44
339.79	85.44
340.018	86.44
340.246	97.44
340.474	90.44
340.702	81.44
340.93	84.44
341.158	83.44
341.386	88.44
341.614	96.44
341.842	92.44
342.07	86.44
342.298	84.44
342.526	97.44
342.754	95.44
342.981	96.44
343.209	92.44
343.437	87.44
343.665	93.44
343.893	102.44
344.12	81.44
344.348	88.44
344.576	92.44
344.804	90.44
345.031	96.44
345.259	85.44
345.487	94.44
345.714	96.44
345.942	105.44
346.17	85.44
346.397	88.44
346.625	71.44
346.853	83.44
347.08	104.44
347.308	75.44
347.535	82.44
347.763	85.44
347.99	96.44
348.218	95.44
348.445	93.44
348.673	100.44
348.9	86.44
349.128	96.44
349.355	97.44
349.583	95.44
349.81	94.44
350.037	91.44
350.265	95.44
350.492	81.44
350.72	100.44
350.947	109.44
351.174	114.44
351.402	107.44
351.629	96.44
351.856	92.44
352.083	86.44
352.311	99.44
352.538	95.44
352.765	105.44
352.992	112.44
353.22	109.44
353.447	91.44
353.674	105.44
353.901	90.44
354.128	74.44
354.355	90.44
354.583	92.44
354.81	96.44
355.037	94.44
355.264	85.44
355.491	99.44
355.718	86.44
355.945	94.44
356.172	97.44
356.399	100.44
356.626	107.44
356.853	102.44
357.08	88.44
357.307	94.44
357.534	87.44
357.761	94.44
357.988	85.44
358.215	102.44
358.441	77.44
358.668	95.44
358.895	86.44
359.122	90.44
359.349	90.44
359.576	85.44
359.802	100.44
360.029	98.44
360.256	97.44
360.483	95.44
360.709	103.44
360.936	93.44
361.163	97.44
361.39	103.44
361.616	87.44
361.843	95.44
362.07	90.44
362.296	82.44
362.523	85.44
362.749	89.44
362.976	90.44
363.203	94.44
363.429	97.44
363.656	80.44
363.882	93.44
364.109	102.44
364.335	94.44
364.562	92.44
364.788	91.44
365.015	87.44
365.241	88.44
365.468	104.44
365.694	90.44
365.92	94.44
366.147	97.44
366.373	93.44
366.599	95.44
366.826	85.44
367.052	71.44
367.278	86.44
367.505	86.44
367.731	87.44
367.957	93.44
368.184	90.44
368.41	98.44
368.636	124.44
368.862	114.44
369.089	122.44
369.315	86.44
369.541	84.44
369.767	87.44
369.993	102.44
370.219	88.44
370.445	78.44
370.672	98.44
370.898	105.44
371.124	72.44
371.35	76.44
371.576	88.44
371.802	91.44
372.028	80.44
372.254	90.44
372.48	88.44
372.706	85.44
372.932	85.44
373.158	94.44
373.384	89.44
373.61	98.44
373.835	95.44
374.061	81.44
374.287	96.44
374.513	97.44
374.739	97.44
374.965	94.44
375.191	98.44
375.416	68.44
375.642	90.44
375.868	102.44
376.094	77.44
376.319	72.44
376.545	84.44
376.771	86.44
376.997	76.44
377.222	93.44
377.448	93.44
377.674	85.44
377.899	92.44
378.125	76.44
378.35	101.44
378.576	102.44
378.802	84.44
379.027	96.44
379.253	107.44
379.478	84.44
379.704	96.44
379.929	97.44
380.155	90.44
380.38	80.44
380.606	82.44
380.831	90.44
381.057	91.44
381.282	91.44
381.507	100.44
381.733	95.44
381.958	93.44
382.184	85.44
382.409	100.44
382.634	105.44
382.86	104.44
383.085	95.44
383.31	105.44
383.535	100.44
383.761	98.44
383.986	94.44
384.211	93.44
384.436	84.44
384.662	103.44
384.887	89.44
385.112	97.44
385.337	95.44
385.562	96.44
385.787	99.44
386.013	97.44
386.238	100.44
386.463	105.44
386.688	103.44
386.913	97.44
387.138	94.44
387.363	99.44
387.588	98.44
387.813	95.44
388.038	97.44
388.263	104.44
388.488	103.44
388.713	93.44
388.938	93.44
389.163	82.44
389.387	83.44
389.612	93.44
389.837	100.44
390.062	87.44
390.287	78.44
390.512	87.44
390.736	87.44
390.961	84.44
391.186	93.44
391.411	96.44
391.636	100.44
391.86	99.44
392.085	82.44
392.31	80.44
392.534	86.44
392.759	97.44
392.984	90.44
393.208	105.44
393.433	94.44
393.658	88.44
393.882	87.44
394.107	97.44
394.331	85.44
394.556	78.44
394.78	85.44
395.005	84.44
395.229	77.44
395.454	82.44
395.678	84.44
395.903	97.44
396.127	93.44
396.352	89.44
396.576	89.44
396.801	89.44
397.025	95.44
397.249	84.44
397.474	97.44
397.698	89.44
397.922	100.44
398.147	81.44
398.371	80.44
398.595	93.44
398.82	94.44
399.044	84.44
399.268	92.44
399.492	92.44
399.717	82.44
399.941	73.44
400.165	86.44
400.389	78.44
400.613	92.44
400.837	79.44
401.062	81.44
401.286	85.44
401.51	86.44
401.734	86.44
401.958	92.44
402.182	111.44
402.406	153.44
402.63	102.44
402.854	87.44
403.078	84.44
403.302	78.44
403.526	96.44
403.75	73.44
403.974	95.44
404.198	89.44
404.422	69.44
404.645	81.44
404.869	85.44
405.093	88.44
405.317	82.44
405.541	87.44
405.765	88.44
405.988	99.44
406.212	150.44
406.436	206.44
406.66	130.44
406.883	99.44
407.107	99.44
407.331	92.44
407.555	97.44
407.778	90.44
408.002	100.44
408.226	82.44
408.449	85.44
408.673	93.44
408.896	90.44
409.12	88.44
409.344	81.44
409.567	86.44
409.791	79.44
410.014	81.44
410.238	100.44
410.461	94.44
410.685	89.44
410.908	87.44
411.132	95.44
411.355	100.44
411.578	85.44
411.802	89.44
412.025	74.44
412.249	84.44
412.472	89.44
412.695	96.44
412.919	86.44
413.142	87.44
413.365	69.44
413.589	76.44
413.812	88.44
414.035	98.44
414.258	85.44
414.482	75.44
414.705	90.44
414.928	89.44
415.151	85.44
415.374	86.44
415.597	77.44
415.821	88.44
416.044	85.44
416.267	75.44
416.49	88.44
416.713	84.44
416.936	65.44
417.159	84.44
417.382	80.44
417.605	82.44
417.828	90.44
418.051	87.44
418.274	80.44
418.497	83.44
418.72	74.44
418.943	84.44
419.166	93.44
419.389	89.44
419.611	79.44
419.834	92.44
420.057	88.44
420.28	84.44
420.503	84.44
420.726	89.44
420.948	76.44
421.171	87.44
421.394	98.44
421.617	87.44
421.839	86.44
422.062	99.44
422.285	88.44
422.507	112.44
422.73	109.44
422.953	88.44
423.175	78.44
423.398	76.44
423.621	102.44
423.843	77.44
424.066	88.44
424.288	82.44
424.511	91.44
424.733	102.44
424.956	92.44
425.178	88.44
425.401	99.44
425.623	79.44
425.846	108.44
426.068	94.44
426.291	85.44
426.513	91.44
426.735	89.44
426.958	98.44
427.18	99.44
427.402	130.44
427.625	151.44
427.847	120.44
428.069	89.44
428.292	87.44
428.514	102.44
428.736	90.44
428.958	77.44
429.181	83.44
429.403	79.44
429.625	84.44
429.847	81.44
430.069	89.44
430.292	88.44
430.514	76.44
430.736	82.44
430.958	82.44
431.18	83.44
431.402	85.44
431.624	87.44
431.846	94.44
432.068	73.44
432.29	88.44
432.512	82.44
432.734	86.44
432.956	78.44
433.178	96.44
433.4	97.44
433.622	104.44
433.844	79.44
434.066	84.44
434.287	102.44
434.509	85.44
434.731	78.44
434.953	88.44
435.175	76.44
435.397	81.44
435.618	79.44
435.84	100.44
436.062	106.44
436.284	107.44
436.505	92.44
436.727	88.44
436.949	101.44
437.17	80.44
437.392	86.44
437.614	76.44
437.835	94.44
438.057	110.44
438.278	101.44
438.5	97.44
438.721	116.44
438.943	104.44
439.165	88.44
439.386	94.44
439.608	100.44
439.829	109.44
440.05	114.44
440.272	121.44
440.493	102.44
440.715	96.44
440.936	93.44
441.158	79.44
441.379	86.44
441.6	87.44
441.822	76.44
442.043	86.44
442.264	103.44
442.486	101.44
442.707	100.44
442.928	95.44
443.149	125.44
443.371	112.44
443.592	102.44
443.813	113.44
444.034	103.44
444.255	90.44
444.476	90.44
444.698	85.44
444.919	82.44
445.14	153.44
445.361	121.44
445.582	104.44
445.803	131.44
446.024	125.44
446.245	120.44
446.466	102.44
446.687	94.44
446.908	86.44
447.129	66.44
447.35	98.44
447.571	90.44
447.792	89.44
448.013	93.44
448.234	106.44
448.455	95.44
448.675	106.44
448.896	107.44
449.117	98.44
449.338	106.44
449.559	120.44
449.779	115.44
450	91.44
450.221	98.44
450.442	85.44
450.662	92.44
450.883	100.44
451.104	106.44
451.324	91.44
451.545	95.44
451.766	84.44
451.986	88.44
452.207	96.44
452.428	81.44
452.648	98.44
452.869	100.44
453.089	114.44
453.31	98.44
453.53	86.44
453.751	88.44
453.971	96.44
454.192	110.44
454.412	92.44
454.633	89.44
454.853	74.44
455.073	77.44
455.294	76.44
455.514	81.44
455.734	71.44
455.955	78.44
456.175	78.44
456.395	79.44
456.616	79.44
456.836	81.44
457.056	79.44
457.276	79.44
457.497	89.44
457.717	78.44
457.937	103.44
458.157	84.44
458.377	78.44
458.598	106.44
458.818	140.44
459.038	146.44
459.258	97.44
459.478	86.44
459.698	83.44
459.918	81.44
460.138	90.44
460.358	92.44
460.578	91.44
460.798	98.44
461.018	93.44
461.238	74.44
461.458	88.44
461.678	88.44
461.898	71.44
462.118	85.44
462.338	87.44
462.558	77.44
462.777	93.44
462.997	94.44
463.217	82.44
463.437	93.44
463.657	83.44
463.876	76.44
464.096	76.44
464.316	86.44
464.536	80.44
464.755	84.44
464.975	109.44
465.195	135.44
465.414	146.44
465.634	104.44
465.854	93.44
466.073	86.44
466.293	86.44
466.512	86.44
466.732	77.44
466.951	91.44
467.171	86.44
467.391	88.44
467.61	90.44
467.829	94.44
468.049	92.44
468.268	80.44
468.488	71.44
468.707	90.44
468.927	80.44
469.146	87.44
469.365	91.44
469.585	74.44
469.804	78.44
470.023	87.44
470.243	84.44
470.462	88.44
470.681	104.44
470.901	81.44
471.12	88.44
471.339	86.44
471.558	86.44
471.777	76.44
471.997	79.44
472.216	89.44
472.435	86.44
472.654	67.44
472.873	77.44
473.092	84.44
473.311	88.44
473.53	94.44
473.749	84.44
473.968	98.44
474.187	99.44
474.406	90.44
474.625	84.44
474.844	85.44
475.063	92.44
475.282	92.44
475.501	90.44
475.72	91.44
475.939	83.44
476.158	71.44
476.377	89.44
476.596	81.44
476.814	95.44
477.033	88.44
477.252	86.44
477.471	77.44
477.69	66.44
477.908	88.44
478.127	83.44
478.346	82.44
478.564	94.44
478.783	88.44
479.002	86.44
479.22	93.44
479.439	95.44
479.658	105.44
479.876	90.44
480.095	93.44
480.313	86.44
480.532	77.44
480.751	95.44
480.969	76.44
481.188	100.44
481.406	90.44
481.624	84.44
481.843	90.44
482.061	85.44
482.28	86.44
482.498	78.44
482.717	85.44
482.935	89.44
483.153	80.44
483.372	88.44
483.59	90.44
483.808	101.44
484.027	87.44
484.245	90.44
484.463	95.44
484.681	97.44
484.9	92.44
485.118	87.44
485.336	94.44
485.554	92.44
485.772	81.44
485.99	90.44
486.209	97.44
486.427	89.44
486.645	100.44
486.863	101.44
487.081	106.44
487.299	91.44
487.517	83.44
487.735	90.44
487.953	102.44
488.171	92.44
488.389	94.44
488.607	98.44
488.825	103.44
489.043	92.44
489.261	82.44
489.479	88.44
489.696	83.44
489.914	109.44
490.132	100.44
490.35	89.44
490.568	79.44
490.786	82.44
491.003	90.44
491.221	89.44
491.439	89.44
491.657	89.44
491.874	89.44
492.092	75.44
492.31	94.44
492.527	97.44
492.745	83.44
492.963	89.44
493.18	89.44
493.398	96.44
493.615	82.44
493.833	89.44
494.05	94.44
494.268	96.44
494.485	94.44
494.703	77.44
494.92	90.44
495.138	85.44
495.355	92.44
495.573	84.44
495.79	89.44
496.008	85.44
496.225	78.44
496.442	82.44
496.66	80.44
496.877	80.44
497.094	100.44
497.312	98.44
497.529	79.44
497.746	85.44
497.963	96.44
498.181	87.44
498.398	87.44
498.615	108.44
498.832	90.44
499.049	90.44
499.267	93.44
499.484	84.44
499.701	94.44
499.918	94.44
500.135	61.44
500.352	77.44
500.569	90.44
500.786	92.44
501.003	91.44
501.22	85.44
501.437	74.44
501.654	81.44
501.871	95.44
502.088	90.44
502.305	82.44
502.522	98.44
502.739	77.44
502.956	88.44
503.172	89.44
503.389	89.44
503.606	80.44
503.823	111.44
504.04	85.44
504.256	92.44
504.473	85.44
504.69	97.44
504.907	85.44
505.123	86.44
505.34	101.44
505.557	83.44
505.773	90.44
505.99	73.44
506.207	79.44
506.423	97.44
506.64	85.44
506.856	92.44
507.073	95.44
507.289	97.44
507.506	96.44
507.722	109.44
507.939	98.44
508.155	84.44
508.372	80.44
508.588	100.44
508.805	97.44
509.021	73.44
509.238	92.44
509.454	94.44
509.67	104.44
509.887	101.44
510.103	127.44
510.319	195.44
510.536	741.44
510.752	2244.44
510.968	620.44
511.184	152.44
511.401	111.44
511.617	90.44
511.833	94.44
512.049	81.44
512.265	91.44
512.481	90.44
512.698	83.44
512.914	88.44
513.13	79.44
513.346	99.44
513.562	88.44
513.778	83.44
513.994	96.44
514.21	87.44
514.426	90.44
514.642	125.44
514.858	137.44
515.074	164.44
515.29	408.44
515.506	1342.44
515.721	468.44
515.937	135.44
516.153	109.44
516.369	96.44
516.585	84.44
516.801	76.44
517.016	85.44
