Data from Uncirc_1984_H10_HRD10591_00013.txt Node
Date: Wed Jan 03 12:21:39 EST 2024
User: Yrep
Spectrometer: HR+D1059
Trigger mode: 1
Integration Time (sec): 1.000000E-1
Scans to average: 1
Electric dark correction enabled: true
Nonlinearity correction enabled: false
Boxcar width: 0
XAxis mode: Wavelengths
Number of Pixels in Spectrum: 2048
>>>>>Begin Spectral Data<<<<<
223.165	-10.12
223.4	-10.12
223.635	-10.12
223.869	-24.12
224.104	-18.12
224.338	-16.12
224.573	-14.12
224.808	-9.12
225.042	-14.12
225.277	-10.12
225.511	10.88
225.746	12.88
225.98	5.88
226.215	2.88
226.449	11.88
226.683	23.88
226.918	10.88
227.152	36.88
227.387	44.88
227.621	28.88
227.856	45.88
228.09	66.88
228.324	61.88
228.559	52.88
228.793	67.88
229.027	70.88
229.262	73.88
229.496	70.88
229.73	82.88
229.964	75.88
230.199	77.88
230.433	72.88
230.667	77.88
230.901	76.88
231.136	74.88
231.37	80.88
231.604	73.88
231.838	71.88
232.072	91.88
232.306	82.88
232.541	86.88
232.775	84.88
233.009	87.88
233.243	76.88
233.477	90.88
233.711	64.88
233.945	74.88
234.179	87.88
234.413	73.88
234.647	82.88
234.881	80.88
235.115	87.88
235.349	91.88
235.583	96.88
235.817	86.88
236.051	77.88
236.285	71.88
236.519	96.88
236.753	70.88
236.987	90.88
237.221	92.88
237.455	89.88
237.689	82.88
237.922	70.88
238.156	75.88
238.39	83.88
238.624	75.88
238.858	84.88
239.091	88.88
239.325	82.88
239.559	74.88
239.793	88.88
240.027	77.88
240.26	85.88
240.494	80.88
240.728	87.88
240.961	72.88
241.195	80.88
241.429	84.88
241.662	86.88
241.896	81.88
242.13	82.88
242.363	80.88
242.597	81.88
242.83	84.88
243.064	87.88
243.298	66.88
243.531	82.88
243.765	62.88
243.998	84.88
244.232	76.88
244.465	77.88
244.699	82.88
244.932	89.88
245.166	84.88
245.399	88.88
245.633	74.88
245.866	89.88
246.099	74.88
246.333	71.88
246.566	73.88
246.8	70.88
247.033	73.88
247.266	77.88
247.5	86.88
247.733	91.88
247.966	98.88
248.2	85.88
248.433	68.88
248.666	79.88
248.899	88.88
249.133	87.88
249.366	91.88
249.599	94.88
249.832	77.88
250.066	72.88
250.299	101.88
250.532	80.88
250.765	82.88
250.998	95.88
251.231	77.88
251.465	89.88
251.698	67.88
251.931	88.88
252.164	84.88
252.397	93.88
252.63	85.88
252.863	84.88
253.096	86.88
253.329	74.88
253.562	92.88
253.795	84.88
254.028	81.88
254.261	83.88
254.494	63.88
254.727	91.88
254.96	92.88
255.193	79.88
255.426	71.88
255.659	86.88
255.892	71.88
256.124	75.88
256.357	87.88
256.59	80.88
256.823	92.88
257.056	78.88
257.289	83.88
257.521	90.88
257.754	68.88
257.987	77.88
258.22	86.88
258.452	72.88
258.685	80.88
258.918	82.88
259.151	99.88
259.383	100.88
259.616	83.88
259.849	84.88
260.081	84.88
260.314	93.88
260.547	76.88
260.779	68.88
261.012	85.88
261.244	86.88
261.477	85.88
261.71	91.88
261.942	98.88
262.175	92.88
262.407	90.88
262.64	85.88
262.872	84.88
263.105	77.88
263.337	96.88
263.57	82.88
263.802	85.88
264.035	89.88
264.267	101.88
264.499	86.88
264.732	84.88
264.964	68.88
265.197	88.88
265.429	70.88
265.661	104.88
265.894	75.88
266.126	100.88
266.358	83.88
266.591	82.88
266.823	73.88
267.055	76.88
267.287	91.88
267.52	92.88
267.752	77.88
267.984	78.88
268.216	81.88
268.448	106.88
268.681	84.88
268.913	93.88
269.145	66.88
269.377	82.88
269.609	82.88
269.841	86.88
270.073	89.88
270.306	85.88
270.538	77.88
270.77	84.88
271.002	78.88
271.234	94.88
271.466	70.88
271.698	87.88
271.93	80.88
272.162	84.88
272.394	82.88
272.626	73.88
272.858	81.88
273.09	84.88
273.322	81.88
273.553	86.88
273.785	84.88
274.017	92.88
274.249	94.88
274.481	94.88
274.713	84.88
274.945	97.88
275.176	94.88
275.408	83.88
275.64	82.88
275.872	99.88
276.104	80.88
276.335	88.88
276.567	87.88
276.799	96.88
277.031	97.88
277.262	92.88
277.494	98.88
277.726	77.88
277.957	107.88
278.189	88.88
278.421	100.88
278.652	94.88
278.884	82.88
279.115	92.88
279.347	88.88
279.579	76.88
279.81	80.88
280.042	75.88
280.273	82.88
280.505	92.88
280.736	84.88
280.968	90.88
281.199	72.88
281.431	87.88
281.662	97.88
281.894	89.88
282.125	101.88
282.356	101.88
282.588	120.88
282.819	107.88
283.051	98.88
283.282	92.88
283.513	77.88
283.745	85.88
283.976	96.88
284.207	105.88
284.439	98.88
284.67	90.88
284.901	78.88
285.132	104.88
285.364	90.88
285.595	86.88
285.826	93.88
286.057	78.88
286.288	80.88
286.52	82.88
286.751	81.88
286.982	84.88
287.213	84.88
287.444	73.88
287.675	93.88
287.906	96.88
288.138	98.88
288.369	85.88
288.6	103.88
288.831	97.88
289.062	91.88
289.293	78.88
289.524	87.88
289.755	77.88
289.986	82.88
290.217	84.88
290.448	96.88
290.679	92.88
290.91	88.88
291.141	90.88
291.371	94.88
291.602	94.88
291.833	76.88
292.064	82.88
292.295	100.88
292.526	97.88
292.757	93.88
292.987	96.88
293.218	84.88
293.449	81.88
293.68	97.88
293.91	93.88
294.141	79.88
294.372	83.88
294.603	90.88
294.833	111.88
295.064	86.88
295.295	84.88
295.525	98.88
295.756	84.88
295.987	116.88
296.217	129.88
296.448	115.88
296.679	108.88
296.909	95.88
297.14	77.88
297.37	86.88
297.601	94.88
297.831	82.88
298.062	93.88
298.292	99.88
298.523	93.88
298.753	82.88
298.984	90.88
299.214	86.88
299.445	85.88
299.675	108.88
299.905	93.88
300.136	97.88
300.366	85.88
300.597	84.88
300.827	100.88
301.057	110.88
301.288	98.88
301.518	86.88
301.748	93.88
301.979	90.88
302.209	87.88
302.439	97.88
302.669	88.88
302.9	76.88
303.13	100.88
303.36	91.88
303.59	87.88
303.82	99.88
304.051	101.88
304.281	82.88
304.511	94.88
304.741	80.88
304.971	92.88
305.201	93.88
305.431	91.88
305.661	92.88
305.891	80.88
306.121	97.88
306.352	102.88
306.582	84.88
306.812	96.88
307.042	85.88
307.272	102.88
307.502	104.88
307.731	80.88
307.961	74.88
308.191	87.88
308.421	103.88
308.651	83.88
308.881	101.88
309.111	98.88
309.341	85.88
309.571	102.88
309.8	95.88
310.03	106.88
310.26	105.88
310.49	115.88
310.72	110.88
310.949	93.88
311.179	99.88
311.409	98.88
311.639	101.88
311.868	80.88
312.098	90.88
312.328	104.88
312.557	106.88
312.787	100.88
313.017	98.88
313.246	100.88
313.476	86.88
313.706	91.88
313.935	80.88
314.165	103.88
314.394	96.88
314.624	110.88
314.853	100.88
315.083	101.88
315.312	93.88
315.542	94.88
315.771	93.88
316.001	86.88
316.23	110.88
316.46	106.88
316.689	100.88
316.919	84.88
317.148	97.88
317.377	95.88
317.607	107.88
317.836	100.88
318.065	98.88
318.295	90.88
318.524	98.88
318.753	78.88
318.983	93.88
319.212	107.88
319.441	111.88
319.67	104.88
319.9	96.88
320.129	102.88
320.358	97.88
320.587	99.88
320.816	94.88
321.046	100.88
321.275	105.88
321.504	87.88
321.733	96.88
321.962	94.88
322.191	89.88
322.42	109.88
322.649	116.88
322.878	114.88
323.108	99.88
323.337	122.88
323.566	137.88
323.795	129.88
324.024	192.88
324.253	363.88
324.482	726.88
324.71	1489.88
324.939	1948.88
325.168	717.88
325.397	243.88
325.626	151.88
325.855	135.88
326.084	129.88
326.313	123.88
326.542	150.88
326.77	222.88
326.999	419.88
327.228	855.88
327.457	1573.88
327.686	1204.88
327.914	331.88
328.143	162.88
328.372	130.88
328.6	123.88
328.829	112.88
329.058	110.88
329.287	116.88
329.515	111.88
329.744	105.88
329.972	82.88
330.201	96.88
330.43	102.88
330.658	115.88
330.887	114.88
331.115	109.88
331.344	85.88
331.572	101.88
331.801	109.88
332.03	110.88
332.258	107.88
332.486	85.88
332.715	98.88
332.943	93.88
333.172	89.88
333.4	108.88
333.629	94.88
333.857	104.88
334.085	109.88
334.314	93.88
334.542	80.88
334.771	105.88
334.999	107.88
335.227	108.88
335.455	98.88
335.684	81.88
335.912	117.88
336.14	97.88
336.369	95.88
336.597	78.88
336.825	99.88
337.053	94.88
337.281	103.88
337.51	97.88
337.738	85.88
337.966	83.88
338.194	84.88
338.422	89.88
338.65	86.88
338.878	107.88
339.106	88.88
339.334	99.88
339.562	110.88
339.79	76.88
340.018	95.88
340.246	82.88
340.474	90.88
340.702	85.88
340.93	84.88
341.158	98.88
341.386	106.88
341.614	96.88
341.842	91.88
342.07	80.88
342.298	115.88
342.526	97.88
342.754	84.88
342.981	102.88
343.209	83.88
343.437	99.88
343.665	99.88
343.893	88.88
344.12	104.88
344.348	93.88
344.576	92.88
344.804	107.88
345.031	99.88
345.259	100.88
345.487	101.88
345.714	96.88
345.942	93.88
346.17	79.88
346.397	118.88
346.625	101.88
346.853	89.88
347.08	85.88
347.308	80.88
347.535	96.88
347.763	95.88
347.99	107.88
348.218	113.88
348.445	101.88
348.673	82.88
348.9	105.88
349.128	94.88
349.355	97.88
349.583	93.88
349.81	95.88
350.037	77.88
350.265	88.88
350.492	96.88
350.72	87.88
350.947	95.88
351.174	121.88
351.402	91.88
351.629	101.88
351.856	98.88
352.083	104.88
352.311	89.88
352.538	106.88
352.765	105.88
352.992	113.88
353.22	114.88
353.447	101.88
353.674	90.88
353.901	101.88
354.128	101.88
354.355	100.88
354.583	98.88
354.81	98.88
355.037	105.88
355.264	108.88
355.491	91.88
355.718	102.88
355.945	80.88
356.172	81.88
356.399	107.88
356.626	99.88
356.853	92.88
357.08	93.88
357.307	103.88
357.534	94.88
357.761	106.88
357.988	107.88
358.215	100.88
358.441	93.88
358.668	107.88
358.895	103.88
359.122	89.88
359.349	99.88
359.576	88.88
359.802	93.88
360.029	97.88
360.256	82.88
360.483	88.88
360.709	100.88
360.936	101.88
361.163	85.88
361.39	90.88
361.616	82.88
361.843	89.88
362.07	96.88
362.296	108.88
362.523	87.88
362.749	89.88
362.976	80.88
363.203	93.88
363.429	78.88
363.656	92.88
363.882	82.88
364.109	84.88
364.335	100.88
364.562	84.88
364.788	108.88
365.015	89.88
365.241	96.88
365.468	111.88
365.694	88.88
365.92	93.88
366.147	90.88
366.373	88.88
366.599	82.88
366.826	91.88
367.052	92.88
367.278	83.88
367.505	100.88
367.731	93.88
367.957	65.88
368.184	80.88
368.41	98.88
368.636	99.88
368.862	101.88
369.089	92.88
369.315	97.88
369.541	82.88
369.767	98.88
369.993	99.88
370.219	89.88
370.445	88.88
370.672	83.88
370.898	84.88
371.124	95.88
371.35	92.88
371.576	85.88
371.802	86.88
372.028	73.88
372.254	93.88
372.48	98.88
372.706	102.88
372.932	104.88
373.158	95.88
373.384	82.88
373.61	81.88
373.835	101.88
374.061	87.88
374.287	114.88
374.513	92.88
374.739	91.88
374.965	89.88
375.191	94.88
375.416	91.88
375.642	92.88
375.868	87.88
376.094	92.88
376.319	96.88
376.545	84.88
376.771	98.88
376.997	87.88
377.222	93.88
377.448	90.88
377.674	84.88
377.899	98.88
378.125	100.88
378.35	89.88
378.576	106.88
378.802	96.88
379.027	103.88
379.253	97.88
379.478	94.88
379.704	83.88
379.929	102.88
380.155	92.88
380.38	95.88
380.606	102.88
380.831	114.88
381.057	98.88
381.282	110.88
381.507	105.88
381.733	84.88
381.958	102.88
382.184	103.88
382.409	104.88
382.634	97.88
382.86	101.88
383.085	108.88
383.31	117.88
383.535	101.88
383.761	87.88
383.986	91.88
384.211	104.88
384.436	97.88
384.662	112.88
384.887	113.88
385.112	109.88
385.337	126.88
385.562	117.88
385.787	106.88
386.013	102.88
386.238	115.88
386.463	105.88
386.688	115.88
386.913	104.88
387.138	112.88
387.363	105.88
387.588	102.88
387.813	107.88
388.038	90.88
388.263	100.88
388.488	110.88
388.713	109.88
388.938	101.88
389.163	82.88
389.387	99.88
389.612	107.88
389.837	90.88
390.062	86.88
390.287	106.88
390.512	109.88
390.736	93.88
390.961	100.88
391.186	88.88
391.411	90.88
391.636	97.88
391.86	85.88
392.085	75.88
392.31	94.88
392.534	100.88
392.759	92.88
392.984	90.88
393.208	91.88
393.433	118.88
393.658	95.88
393.882	79.88
394.107	86.88
394.331	94.88
394.556	96.88
394.78	92.88
395.005	98.88
395.229	83.88
395.454	91.88
395.678	80.88
395.903	84.88
396.127	93.88
396.352	99.88
396.576	93.88
396.801	93.88
397.025	96.88
397.249	94.88
397.474	85.88
397.698	84.88
397.922	84.88
398.147	91.88
398.371	86.88
398.595	87.88
398.82	85.88
399.044	77.88
399.268	97.88
399.492	85.88
399.717	84.88
399.941	94.88
400.165	92.88
400.389	80.88
400.613	82.88
400.837	88.88
401.062	100.88
401.286	100.88
401.51	81.88
401.734	85.88
401.958	85.88
402.182	120.88
402.406	146.88
402.63	112.88
402.854	97.88
403.078	98.88
403.302	89.88
403.526	85.88
403.75	95.88
403.974	80.88
404.198	87.88
404.422	96.88
404.645	89.88
404.869	90.88
405.093	92.88
405.317	100.88
405.541	91.88
405.765	88.88
405.988	108.88
406.212	144.88
406.436	189.88
406.66	144.88
406.883	117.88
407.107	102.88
407.331	88.88
407.555	90.88
407.778	87.88
408.002	88.88
408.226	91.88
408.449	99.88
408.673	99.88
408.896	90.88
409.12	92.88
409.344	90.88
409.567	97.88
409.791	94.88
410.014	104.88
410.238	104.88
410.461	105.88
410.685	116.88
410.908	108.88
411.132	112.88
411.355	105.88
411.578	87.88
411.802	88.88
412.025	83.88
412.249	80.88
412.472	84.88
412.695	91.88
412.919	82.88
413.142	97.88
413.365	99.88
413.589	75.88
413.812	100.88
414.035	104.88
414.258	92.88
414.482	87.88
414.705	88.88
414.928	90.88
415.151	102.88
415.374	101.88
415.597	94.88
415.821	99.88
416.044	91.88
416.267	87.88
416.49	104.88
416.713	86.88
416.936	84.88
417.159	78.88
417.382	90.88
417.605	82.88
417.828	94.88
418.051	83.88
418.274	95.88
418.497	97.88
418.72	88.88
418.943	101.88
419.166	85.88
419.389	91.88
419.611	80.88
419.834	84.88
420.057	89.88
420.28	92.88
420.503	83.88
420.726	88.88
420.948	86.88
421.171	85.88
421.394	89.88
421.617	88.88
421.839	104.88
422.062	89.88
422.285	100.88
422.507	82.88
422.73	100.88
422.953	110.88
423.175	79.88
423.398	91.88
423.621	77.88
423.843	96.88
424.066	92.88
424.288	103.88
424.511	100.88
424.733	94.88
424.956	106.88
425.178	97.88
425.401	96.88
425.623	108.88
425.846	96.88
426.068	78.88
426.291	102.88
426.513	84.88
426.735	87.88
426.958	98.88
427.18	100.88
427.402	111.88
427.625	164.88
427.847	114.88
428.069	104.88
428.292	90.88
428.514	100.88
428.736	84.88
428.958	85.88
429.181	70.88
429.403	90.88
429.625	83.88
429.847	91.88
430.069	94.88
430.292	98.88
430.514	82.88
430.736	87.88
430.958	96.88
431.18	78.88
431.402	82.88
431.624	95.88
431.846	91.88
432.068	91.88
432.29	89.88
432.512	91.88
432.734	99.88
432.956	92.88
433.178	88.88
433.4	102.88
433.622	96.88
433.844	82.88
434.066	87.88
434.287	91.88
434.509	88.88
434.731	89.88
434.953	84.88
435.175	95.88
435.397	91.88
435.618	109.88
435.84	104.88
436.062	124.88
436.284	125.88
436.505	106.88
436.727	82.88
436.949	93.88
437.17	98.88
437.392	95.88
437.614	90.88
437.835	100.88
438.057	120.88
438.278	125.88
438.5	89.88
438.721	124.88
438.943	106.88
439.165	88.88
439.386	94.88
439.608	102.88
439.829	83.88
440.05	116.88
440.272	130.88
440.493	97.88
440.715	92.88
440.936	96.88
441.158	84.88
441.379	90.88
441.6	89.88
441.822	87.88
442.043	97.88
442.264	116.88
442.486	102.88
442.707	110.88
442.928	91.88
443.149	123.88
443.371	112.88
443.592	107.88
443.813	122.88
444.034	109.88
444.255	78.88
444.476	80.88
444.698	89.88
444.919	95.88
445.14	144.88
445.361	114.88
445.582	106.88
445.803	124.88
446.024	129.88
446.245	130.88
446.466	100.88
446.687	87.88
446.908	89.88
447.129	91.88
447.35	97.88
447.571	86.88
447.792	89.88
448.013	108.88
448.234	101.88
448.455	107.88
448.675	107.88
448.896	121.88
449.117	101.88
449.338	115.88
449.559	121.88
449.779	140.88
450	93.88
450.221	92.88
450.442	92.88
450.662	77.88
450.883	95.88
451.104	88.88
451.324	91.88
451.545	108.88
451.766	86.88
451.986	94.88
452.207	94.88
452.428	76.88
452.648	85.88
452.869	102.88
453.089	86.88
453.31	103.88
453.53	103.88
453.751	86.88
453.971	96.88
454.192	109.88
454.412	100.88
454.633	92.88
454.853	99.88
455.073	75.88
455.294	71.88
455.514	104.88
455.734	88.88
455.955	87.88
456.175	86.88
456.395	88.88
456.616	56.88
456.836	81.88
457.056	98.88
457.276	101.88
457.497	93.88
457.717	80.88
457.937	96.88
458.157	93.88
458.377	90.88
458.598	95.88
458.818	128.88
459.038	129.88
459.258	124.88
459.478	86.88
459.698	95.88
459.918	85.88
460.138	86.88
460.358	79.88
460.578	93.88
460.798	96.88
461.018	105.88
461.238	89.88
461.458	90.88
461.678	92.88
461.898	86.88
462.118	107.88
462.338	85.88
462.558	77.88
462.777	86.88
462.997	89.88
463.217	86.88
463.437	93.88
463.657	87.88
463.876	71.88
464.096	94.88
464.316	92.88
464.536	69.88
464.755	96.88
464.975	105.88
465.195	157.88
465.414	130.88
465.634	109.88
465.854	110.88
466.073	91.88
466.293	80.88
466.512	96.88
466.732	87.88
466.951	85.88
467.171	80.88
467.391	95.88
467.61	95.88
467.829	98.88
468.049	90.88
468.268	106.88
468.488	87.88
468.707	81.88
468.927	91.88
469.146	91.88
469.365	92.88
469.585	107.88
469.804	89.88
470.023	92.88
470.243	88.88
470.462	101.88
470.681	88.88
470.901	86.88
471.12	97.88
471.339	85.88
471.558	93.88
471.777	96.88
471.997	88.88
472.216	115.88
472.435	100.88
472.654	98.88
472.873	91.88
473.092	94.88
473.311	80.88
473.53	88.88
473.749	96.88
473.968	93.88
474.187	104.88
474.406	105.88
474.625	82.88
474.844	90.88
475.063	94.88
475.282	96.88
475.501	80.88
475.72	96.88
475.939	78.88
476.158	91.88
476.377	99.88
476.596	84.88
476.814	86.88
477.033	91.88
477.252	93.88
477.471	92.88
477.69	85.88
477.908	76.88
478.127	88.88
478.346	104.88
478.564	98.88
478.783	101.88
479.002	93.88
479.22	84.88
479.439	111.88
479.658	102.88
479.876	101.88
480.095	85.88
480.313	94.88
480.532	80.88
480.751	92.88
480.969	100.88
481.188	77.88
481.406	100.88
481.624	91.88
481.843	74.88
482.061	82.88
482.28	106.88
482.498	101.88
482.717	84.88
482.935	100.88
483.153	83.88
483.372	87.88
483.59	86.88
483.808	89.88
484.027	100.88
484.245	92.88
484.463	94.88
484.681	111.88
484.9	106.88
485.118	112.88
485.336	99.88
485.554	99.88
485.772	96.88
485.99	104.88
486.209	106.88
486.427	104.88
486.645	110.88
486.863	109.88
487.081	115.88
487.299	93.88
487.517	96.88
487.735	104.88
487.953	110.88
488.171	93.88
488.389	96.88
488.607	87.88
488.825	93.88
489.043	93.88
489.261	101.88
489.479	94.88
489.696	94.88
489.914	86.88
490.132	103.88
490.35	104.88
490.568	100.88
490.786	89.88
491.003	85.88
491.221	95.88
491.439	97.88
491.657	96.88
491.874	87.88
492.092	104.88
492.31	98.88
492.527	96.88
492.745	97.88
492.963	95.88
493.18	92.88
493.398	94.88
493.615	101.88
493.833	100.88
494.05	92.88
494.268	77.88
494.485	97.88
494.703	92.88
494.92	80.88
495.138	86.88
495.355	94.88
495.573	90.88
495.79	89.88
496.008	97.88
496.225	87.88
496.442	94.88
496.66	104.88
496.877	92.88
497.094	101.88
497.312	95.88
497.529	88.88
497.746	96.88
497.963	91.88
498.181	93.88
498.398	93.88
498.615	115.88
498.832	101.88
499.049	102.88
499.267	104.88
499.484	98.88
499.701	107.88
499.918	110.88
500.135	86.88
500.352	80.88
500.569	104.88
500.786	87.88
501.003	91.88
501.22	85.88
501.437	90.88
501.654	94.88
501.871	95.88
502.088	97.88
502.305	98.88
502.522	101.88
502.739	88.88
502.956	94.88
503.172	116.88
503.389	94.88
503.606	96.88
503.823	90.88
504.04	100.88
504.256	81.88
504.473	94.88
504.69	96.88
504.907	91.88
505.123	94.88
505.34	78.88
505.557	94.88
505.773	83.88
505.99	81.88
506.207	95.88
506.423	86.88
506.64	74.88
506.856	84.88
507.073	88.88
507.289	86.88
507.506	96.88
507.722	111.88
507.939	99.88
508.155	105.88
508.372	94.88
508.588	90.88
508.805	98.88
509.021	86.88
509.238	106.88
509.454	98.88
509.67	94.88
509.887	101.88
510.103	131.88
510.319	182.88
510.536	656.88
510.752	1963.88
510.968	569.88
511.184	150.88
511.401	106.88
511.617	94.88
511.833	103.88
512.049	93.88
512.265	92.88
512.481	112.88
512.698	88.88
512.914	102.88
513.13	94.88
513.346	104.88
513.562	97.88
513.778	99.88
513.994	97.88
514.21	92.88
514.426	108.88
514.642	147.88
514.858	121.88
