Data from Uncirc_1984_H10_HRD10591_00056.txt Node
Date: Wed Jan 03 12:21:48 EST 2024
User: Yrep
Spectrometer: HR+D1059
Trigger mode: 1
Integration Time (sec): 1.000000E-1
Scans to average: 1
Electric dark correction enabled: true
Nonlinearity correction enabled: false
Boxcar width: 0
XAxis mode: Wavelengths
Number of Pixels in Spectrum: 2048
>>>>>Begin Spectral Data<<<<<
223.165	-18.38
223.4	-18.38
223.635	-18.38
223.869	-17.38
224.104	-14.38
224.338	-9.38
224.573	-7.38
224.808	-5.38
225.042	-4.38
225.277	-10.38
225.511	-1.38
225.746	21.62
225.98	-6.38
226.215	1.62
226.449	9.62
226.683	20.62
226.918	23.62
227.152	17.62
227.387	27.62
227.621	57.62
227.856	44.62
228.09	40.62
228.324	48.62
228.559	41.62
228.793	52.62
229.027	46.62
229.262	66.62
229.496	68.62
229.73	82.62
229.964	64.62
230.199	79.62
230.433	68.62
230.667	78.62
230.901	71.62
231.136	81.62
231.37	78.62
231.604	84.62
231.838	90.62
232.072	74.62
232.306	76.62
232.541	66.62
232.775	81.62
233.009	71.62
233.243	66.62
233.477	76.62
233.711	82.62
233.945	65.62
234.179	77.62
234.413	80.62
234.647	79.62
234.881	73.62
235.115	90.62
235.349	63.62
235.583	62.62
235.817	72.62
236.051	69.62
236.285	61.62
236.519	70.62
236.753	66.62
236.987	68.62
237.221	80.62
237.455	96.62
237.689	79.62
237.922	78.62
238.156	67.62
238.39	66.62
238.624	70.62
238.858	81.62
239.091	73.62
239.325	71.62
239.559	86.62
239.793	82.62
240.027	79.62
240.26	85.62
240.494	74.62
240.728	72.62
240.961	69.62
241.195	65.62
241.429	88.62
241.662	77.62
241.896	80.62
242.13	66.62
242.363	79.62
242.597	70.62
242.83	73.62
243.064	64.62
243.298	68.62
243.531	74.62
243.765	87.62
243.998	92.62
244.232	74.62
244.465	90.62
244.699	74.62
244.932	66.62
245.166	82.62
245.399	74.62
245.633	67.62
245.866	71.62
246.099	76.62
246.333	77.62
246.566	71.62
246.8	75.62
247.033	66.62
247.266	79.62
247.5	87.62
247.733	81.62
247.966	84.62
248.2	77.62
248.433	74.62
248.666	87.62
248.899	92.62
249.133	76.62
249.366	93.62
249.599	98.62
249.832	83.62
250.066	83.62
250.299	84.62
250.532	66.62
250.765	97.62
250.998	78.62
251.231	71.62
251.465	80.62
251.698	74.62
251.931	84.62
252.164	77.62
252.397	76.62
252.63	80.62
252.863	80.62
253.096	81.62
253.329	69.62
253.562	88.62
253.795	76.62
254.028	82.62
254.261	65.62
254.494	81.62
254.727	71.62
254.96	79.62
255.193	89.62
255.426	81.62
255.659	79.62
255.892	87.62
256.124	76.62
256.357	76.62
256.59	68.62
256.823	86.62
257.056	72.62
257.289	72.62
257.521	70.62
257.754	80.62
257.987	82.62
258.22	87.62
258.452	77.62
258.685	81.62
258.918	78.62
259.151	84.62
259.383	80.62
259.616	71.62
259.849	67.62
260.081	76.62
260.314	68.62
260.547	83.62
260.779	75.62
261.012	89.62
261.244	74.62
261.477	88.62
261.71	86.62
261.942	103.62
262.175	99.62
262.407	94.62
262.64	64.62
262.872	70.62
263.105	73.62
263.337	73.62
263.57	93.62
263.802	81.62
264.035	74.62
264.267	85.62
264.499	94.62
264.732	86.62
264.964	72.62
265.197	69.62
265.429	78.62
265.661	85.62
265.894	75.62
266.126	90.62
266.358	76.62
266.591	84.62
266.823	88.62
267.055	85.62
267.287	80.62
267.52	95.62
267.752	88.62
267.984	74.62
268.216	88.62
268.448	97.62
268.681	93.62
268.913	71.62
269.145	82.62
269.377	70.62
269.609	76.62
269.841	76.62
270.073	85.62
270.306	66.62
270.538	84.62
270.77	76.62
271.002	88.62
271.234	97.62
271.466	89.62
271.698	77.62
271.93	85.62
272.162	87.62
272.394	89.62
272.626	78.62
272.858	89.62
273.09	85.62
273.322	71.62
273.553	72.62
273.785	74.62
274.017	69.62
274.249	88.62
274.481	88.62
274.713	83.62
274.945	94.62
275.176	80.62
275.408	86.62
275.64	80.62
275.872	83.62
276.104	73.62
276.335	95.62
276.567	93.62
276.799	98.62
277.031	91.62
277.262	88.62
277.494	76.62
277.726	81.62
277.957	72.62
278.189	70.62
278.421	76.62
278.652	70.62
278.884	83.62
279.115	81.62
279.347	80.62
279.579	82.62
279.81	87.62
280.042	67.62
280.273	79.62
280.505	83.62
280.736	95.62
280.968	79.62
281.199	102.62
281.431	87.62
281.662	76.62
281.894	86.62
282.125	88.62
282.356	98.62
282.588	129.62
282.819	98.62
283.051	98.62
283.282	80.62
283.513	86.62
283.745	70.62
283.976	67.62
284.207	81.62
284.439	84.62
284.67	88.62
284.901	76.62
285.132	80.62
285.364	86.62
285.595	81.62
285.826	86.62
286.057	87.62
286.288	84.62
286.52	80.62
286.751	72.62
286.982	79.62
287.213	77.62
287.444	93.62
287.675	86.62
287.906	83.62
288.138	92.62
288.369	81.62
288.6	100.62
288.831	86.62
289.062	95.62
289.293	95.62
289.524	101.62
289.755	88.62
289.986	90.62
290.217	92.62
290.448	96.62
290.679	78.62
290.91	98.62
291.141	91.62
291.371	78.62
291.602	79.62
291.833	84.62
292.064	91.62
292.295	87.62
292.526	71.62
292.757	80.62
292.987	82.62
293.218	86.62
293.449	73.62
293.68	94.62
293.91	90.62
294.141	87.62
294.372	69.62
294.603	82.62
294.833	96.62
295.064	80.62
295.295	92.62
295.525	101.62
295.756	106.62
295.987	91.62
296.217	126.62
296.448	124.62
296.679	79.62
296.909	83.62
297.14	90.62
297.37	93.62
297.601	83.62
297.831	87.62
298.062	82.62
298.292	93.62
298.523	94.62
298.753	89.62
298.984	88.62
299.214	81.62
299.445	101.62
299.675	92.62
299.905	82.62
300.136	87.62
300.366	71.62
300.597	81.62
300.827	86.62
301.057	93.62
301.288	93.62
301.518	88.62
301.748	76.62
301.979	92.62
302.209	93.62
302.439	89.62
302.669	66.62
302.9	86.62
303.13	81.62
303.36	88.62
303.59	109.62
303.82	88.62
304.051	91.62
304.281	84.62
304.511	96.62
304.741	95.62
304.971	85.62
305.201	98.62
305.431	86.62
305.661	86.62
305.891	92.62
306.121	91.62
306.352	98.62
306.582	96.62
306.812	89.62
307.042	84.62
307.272	102.62
307.502	80.62
307.731	71.62
307.961	93.62
308.191	80.62
308.421	96.62
308.651	90.62
308.881	92.62
309.111	82.62
309.341	91.62
309.571	91.62
309.8	98.62
310.03	94.62
310.26	77.62
310.49	97.62
310.72	80.62
310.949	97.62
311.179	91.62
311.409	100.62
311.639	102.62
311.868	88.62
312.098	83.62
312.328	92.62
312.557	108.62
312.787	83.62
313.017	100.62
313.246	95.62
313.476	61.62
313.706	92.62
313.935	99.62
314.165	93.62
314.394	81.62
314.624	71.62
314.853	78.62
315.083	85.62
315.312	81.62
315.542	96.62
315.771	86.62
316.001	86.62
316.23	92.62
316.46	89.62
316.689	98.62
316.919	94.62
317.148	92.62
317.377	102.62
317.607	94.62
317.836	96.62
318.065	83.62
318.295	86.62
318.524	97.62
318.753	89.62
318.983	96.62
319.212	93.62
319.441	106.62
319.67	89.62
319.9	88.62
320.129	85.62
320.358	100.62
320.587	85.62
320.816	96.62
321.046	95.62
321.275	99.62
321.504	79.62
321.733	107.62
321.962	93.62
322.191	92.62
322.42	104.62
322.649	81.62
322.878	98.62
323.108	105.62
323.337	112.62
323.566	127.62
323.795	135.62
324.024	168.62
324.253	348.62
324.482	718.62
324.71	1404.62
324.939	1819.62
325.168	688.62
325.397	217.62
325.626	149.62
325.855	116.62
326.084	120.62
326.313	122.62
326.542	133.62
326.77	196.62
326.999	374.62
327.228	801.62
327.457	1438.62
327.686	1118.62
327.914	305.62
328.143	164.62
328.372	126.62
328.6	121.62
328.829	112.62
329.058	98.62
329.287	102.62
329.515	94.62
329.744	88.62
329.972	93.62
330.201	96.62
330.43	97.62
330.658	99.62
330.887	125.62
331.115	113.62
331.344	100.62
331.572	84.62
331.801	94.62
332.03	96.62
332.258	81.62
332.486	83.62
332.715	88.62
332.943	98.62
333.172	103.62
333.4	83.62
333.629	103.62
333.857	118.62
334.085	97.62
334.314	94.62
334.542	104.62
334.771	88.62
334.999	100.62
335.227	94.62
335.455	93.62
335.684	99.62
335.912	98.62
336.14	104.62
336.369	98.62
336.597	95.62
336.825	82.62
337.053	89.62
337.281	105.62
337.51	104.62
337.738	80.62
337.966	83.62
338.194	97.62
338.422	105.62
338.65	97.62
338.878	101.62
339.106	79.62
339.334	88.62
339.562	87.62
339.79	91.62
340.018	92.62
340.246	84.62
340.474	85.62
340.702	82.62
340.93	93.62
341.158	82.62
341.386	91.62
341.614	98.62
341.842	97.62
342.07	87.62
342.298	84.62
342.526	86.62
342.754	78.62
342.981	87.62
343.209	83.62
343.437	102.62
343.665	107.62
343.893	81.62
344.12	94.62
344.348	100.62
344.576	91.62
344.804	91.62
345.031	110.62
345.259	101.62
345.487	93.62
345.714	82.62
345.942	97.62
346.17	72.62
346.397	94.62
346.625	87.62
346.853	95.62
347.08	81.62
347.308	95.62
347.535	95.62
347.763	102.62
347.99	98.62
348.218	86.62
348.445	78.62
348.673	94.62
348.9	82.62
349.128	104.62
349.355	88.62
349.583	99.62
349.81	105.62
350.037	91.62
350.265	96.62
350.492	105.62
350.72	98.62
350.947	88.62
351.174	100.62
351.402	112.62
351.629	97.62
351.856	93.62
352.083	97.62
352.311	81.62
352.538	81.62
352.765	111.62
352.992	113.62
353.22	112.62
353.447	92.62
353.674	97.62
353.901	96.62
354.128	89.62
354.355	93.62
354.583	113.62
354.81	89.62
355.037	80.62
355.264	107.62
355.491	102.62
355.718	93.62
355.945	89.62
356.172	104.62
356.399	91.62
356.626	92.62
356.853	104.62
357.08	93.62
357.307	101.62
357.534	94.62
357.761	87.62
357.988	94.62
358.215	94.62
358.441	86.62
358.668	81.62
358.895	89.62
359.122	82.62
359.349	100.62
359.576	86.62
359.802	84.62
360.029	94.62
360.256	92.62
360.483	93.62
360.709	84.62
360.936	106.62
361.163	78.62
361.39	93.62
361.616	92.62
361.843	73.62
362.07	106.62
362.296	87.62
362.523	77.62
362.749	63.62
362.976	98.62
363.203	88.62
363.429	94.62
363.656	104.62
363.882	87.62
364.109	89.62
364.335	92.62
364.562	94.62
364.788	87.62
365.015	96.62
365.241	98.62
365.468	109.62
365.694	105.62
365.92	82.62
366.147	69.62
366.373	95.62
366.599	89.62
366.826	73.62
367.052	76.62
367.278	109.62
367.505	87.62
367.731	87.62
367.957	68.62
368.184	80.62
368.41	91.62
368.636	106.62
368.862	115.62
369.089	96.62
369.315	94.62
369.541	94.62
369.767	88.62
369.993	91.62
370.219	78.62
370.445	88.62
370.672	71.62
370.898	78.62
371.124	84.62
371.35	88.62
371.576	77.62
371.802	80.62
372.028	71.62
372.254	86.62
372.48	94.62
372.706	87.62
372.932	76.62
373.158	81.62
373.384	102.62
373.61	93.62
373.835	89.62
374.061	96.62
374.287	88.62
374.513	81.62
374.739	73.62
374.965	89.62
375.191	83.62
375.416	78.62
375.642	116.62
375.868	88.62
376.094	88.62
376.319	80.62
376.545	76.62
376.771	79.62
376.997	80.62
377.222	81.62
377.448	104.62
377.674	101.62
377.899	70.62
378.125	84.62
378.35	86.62
378.576	91.62
378.802	73.62
379.027	83.62
379.253	89.62
379.478	99.62
379.704	90.62
379.929	96.62
380.155	95.62
380.38	95.62
380.606	85.62
380.831	98.62
381.057	85.62
381.282	90.62
381.507	97.62
381.733	80.62
381.958	101.62
382.184	85.62
382.409	102.62
382.634	81.62
382.86	94.62
383.085	88.62
383.31	87.62
383.535	97.62
383.761	83.62
383.986	100.62
384.211	107.62
384.436	89.62
384.662	92.62
384.887	105.62
385.112	103.62
385.337	90.62
385.562	109.62
385.787	97.62
386.013	104.62
386.238	102.62
386.463	92.62
386.688	103.62
386.913	96.62
387.138	92.62
387.363	97.62
387.588	96.62
387.813	94.62
388.038	105.62
388.263	103.62
388.488	100.62
388.713	89.62
388.938	86.62
389.163	84.62
389.387	97.62
389.612	94.62
389.837	85.62
390.062	81.62
390.287	87.62
390.512	99.62
390.736	92.62
390.961	92.62
391.186	79.62
391.411	117.62
391.636	88.62
391.86	90.62
392.085	78.62
392.31	88.62
392.534	104.62
392.759	79.62
392.984	83.62
393.208	84.62
393.433	85.62
393.658	83.62
393.882	95.62
394.107	94.62
394.331	82.62
394.556	77.62
394.78	74.62
395.005	79.62
395.229	82.62
395.454	64.62
395.678	86.62
395.903	86.62
396.127	96.62
396.352	98.62
396.576	82.62
396.801	105.62
397.025	92.62
397.249	88.62
397.474	82.62
397.698	87.62
397.922	80.62
398.147	73.62
398.371	76.62
398.595	84.62
398.82	87.62
399.044	89.62
399.268	91.62
399.492	95.62
399.717	78.62
399.941	90.62
400.165	91.62
400.389	90.62
400.613	100.62
400.837	79.62
401.062	96.62
401.286	70.62
401.51	95.62
401.734	101.62
401.958	98.62
402.182	123.62
402.406	134.62
402.63	93.62
402.854	86.62
403.078	90.62
403.302	89.62
403.526	81.62
403.75	84.62
403.974	84.62
404.198	71.62
404.422	85.62
404.645	92.62
404.869	88.62
405.093	90.62
405.317	96.62
405.541	88.62
405.765	83.62
405.988	105.62
406.212	149.62
406.436	177.62
406.66	118.62
406.883	84.62
407.107	83.62
407.331	101.62
407.555	100.62
407.778	100.62
408.002	88.62
408.226	95.62
408.449	96.62
408.673	94.62
408.896	87.62
409.12	89.62
409.344	81.62
409.567	88.62
409.791	85.62
410.014	89.62
410.238	93.62
410.461	97.62
410.685	105.62
410.908	108.62
411.132	80.62
411.355	80.62
411.578	79.62
411.802	73.62
412.025	78.62
412.249	73.62
412.472	95.62
412.695	97.62
412.919	93.62
413.142	85.62
413.365	83.62
413.589	98.62
413.812	93.62
414.035	83.62
414.258	94.62
414.482	78.62
414.705	81.62
414.928	79.62
415.151	80.62
415.374	78.62
415.597	80.62
415.821	90.62
416.044	66.62
416.267	66.62
416.49	69.62
416.713	82.62
416.936	84.62
417.159	89.62
417.382	78.62
417.605	86.62
417.828	78.62
418.051	89.62
418.274	102.62
418.497	87.62
418.72	86.62
418.943	69.62
419.166	71.62
419.389	88.62
419.611	80.62
419.834	91.62
420.057	91.62
420.28	81.62
420.503	85.62
420.726	87.62
420.948	90.62
421.171	77.62
421.394	80.62
421.617	88.62
421.839	81.62
422.062	85.62
422.285	94.62
422.507	95.62
422.73	91.62
422.953	91.62
423.175	98.62
423.398	78.62
423.621	92.62
423.843	73.62
424.066	83.62
424.288	84.62
424.511	80.62
424.733	82.62
424.956	105.62
425.178	93.62
425.401	104.62
425.623	102.62
425.846	71.62
426.068	79.62
426.291	89.62
426.513	73.62
426.735	90.62
426.958	86.62
427.18	99.62
427.402	112.62
427.625	140.62
427.847	117.62
428.069	94.62
428.292	83.62
428.514	83.62
428.736	80.62
428.958	83.62
429.181	77.62
429.403	80.62
429.625	79.62
429.847	78.62
430.069	85.62
430.292	86.62
430.514	82.62
430.736	88.62
430.958	93.62
431.18	80.62
431.402	92.62
431.624	80.62
431.846	74.62
432.068	67.62
432.29	93.62
432.512	73.62
432.734	95.62
432.956	78.62
433.178	102.62
433.4	100.62
433.622	68.62
433.844	92.62
434.066	80.62
434.287	76.62
434.509	85.62
434.731	101.62
434.953	82.62
435.175	94.62
435.397	81.62
435.618	82.62
435.84	87.62
436.062	98.62
436.284	115.62
436.505	98.62
436.727	100.62
436.949	87.62
437.17	89.62
437.392	80.62
437.614	86.62
437.835	100.62
438.057	110.62
438.278	99.62
438.5	98.62
438.721	92.62
438.943	97.62
439.165	80.62
439.386	87.62
439.608	91.62
439.829	93.62
440.05	98.62
440.272	117.62
440.493	93.62
440.715	93.62
440.936	95.62
441.158	94.62
441.379	100.62
441.6	88.62
441.822	92.62
442.043	83.62
442.264	112.62
442.486	85.62
442.707	88.62
442.928	98.62
443.149	125.62
443.371	113.62
443.592	86.62
443.813	98.62
444.034	103.62
444.255	100.62
444.476	64.62
444.698	73.62
444.919	92.62
445.14	117.62
445.361	114.62
445.582	111.62
445.803	112.62
446.024	106.62
446.245	106.62
446.466	116.62
446.687	84.62
446.908	97.62
447.129	106.62
447.35	83.62
447.571	80.62
447.792	90.62
448.013	82.62
448.234	100.62
448.455	97.62
448.675	110.62
448.896	97.62
449.117	97.62
449.338	97.62
449.559	104.62
449.779	113.62
450	73.62
450.221	85.62
450.442	89.62
450.662	91.62
450.883	100.62
451.104	100.62
451.324	93.62
451.545	89.62
451.766	69.62
451.986	78.62
452.207	78.62
452.428	87.62
452.648	99.62
452.869	105.62
453.089	105.62
453.31	96.62
453.53	69.62
453.751	90.62
453.971	88.62
454.192	102.62
454.412	88.62
454.633	90.62
454.853	88.62
455.073	83.62
455.294	85.62
455.514	82.62
455.734	89.62
455.955	87.62
456.175	67.62
456.395	87.62
456.616	94.62
456.836	74.62
457.056	79.62
457.276	74.62
457.497	76.62
457.717	80.62
457.937	83.62
458.157	82.62
458.377	91.62
458.598	101.62
458.818	122.62
459.038	135.62
459.258	110.62
459.478	98.62
459.698	67.62
459.918	86.62
460.138	87.62
460.358	78.62
460.578	96.62
460.798	82.62
461.018	77.62
461.238	85.62
461.458	84.62
461.678	76.62
461.898	74.62
462.118	71.62
462.338	92.62
462.558	95.62
462.777	79.62
462.997	79.62
463.217	78.62
463.437	82.62
463.657	86.62
463.876	95.62
464.096	94.62
464.316	86.62
464.536	89.62
464.755	98.62
464.975	96.62
465.195	133.62
465.414	131.62
465.634	91.62
465.854	83.62
466.073	81.62
466.293	86.62
466.512	84.62
466.732	80.62
466.951	84.62
467.171	82.62
467.391	85.62
467.61	99.62
467.829	87.62
468.049	103.62
468.268	73.62
468.488	82.62
468.707	88.62
468.927	73.62
469.146	86.62
469.365	83.62
469.585	82.62
469.804	84.62
470.023	94.62
470.243	84.62
470.462	87.62
470.681	100.62
470.901	96.62
471.12	93.62
471.339	81.62
471.558	77.62
471.777	85.62
471.997	80.62
472.216	93.62
472.435	88.62
472.654	81.62
472.873	88.62
473.092	88.62
473.311	87.62
473.53	81.62
473.749	76.62
473.968	101.62
474.187	109.62
474.406	97.62
474.625	88.62
474.844	71.62
475.063	79.62
475.282	88.62
475.501	90.62
475.72	91.62
475.939	105.62
476.158	82.62
476.377	82.62
476.596	73.62
476.814	86.62
477.033	93.62
477.252	85.62
477.471	74.62
477.69	78.62
477.908	90.62
478.127	79.62
478.346	80.62
478.564	91.62
478.783	91.62
479.002	93.62
479.22	88.62
479.439	87.62
479.658	101.62
479.876	88.62
480.095	81.62
480.313	77.62
480.532	83.62
480.751	93.62
480.969	98.62
481.188	89.62
481.406	105.62
481.624	75.62
481.843	86.62
482.061	76.62
482.28	92.62
482.498	97.62
482.717	98.62
482.935	85.62
483.153	98.62
483.372	74.62
483.59	80.62
483.808	88.62
484.027	77.62
484.245	90.62
484.463	69.62
484.681	92.62
484.9	99.62
485.118	100.62
485.336	90.62
485.554	88.62
485.772	102.62
485.99	96.62
486.209	111.62
486.427	92.62
486.645	95.62
486.863	109.62
487.081	105.62
487.299	93.62
487.517	88.62
487.735	84.62
487.953	78.62
488.171	93.62
488.389	89.62
488.607	95.62
488.825	94.62
489.043	90.62
489.261	80.62
489.479	83.62
489.696	86.62
489.914	98.62
490.132	80.62
490.35	92.62
490.568	103.62
490.786	80.62
491.003	77.62
491.221	82.62
491.439	103.62
491.657	80.62
491.874	97.62
492.092	80.62
492.31	94.62
492.527	87.62
492.745	89.62
492.963	90.62
493.18	94.62
493.398	88.62
493.615	93.62
493.833	78.62
494.05	73.62
494.268	98.62
494.485	93.62
494.703	83.62
494.92	74.62
495.138	82.62
495.355	88.62
495.573	93.62
495.79	90.62
496.008	77.62
496.225	83.62
496.442	76.62
496.66	101.62
496.877	92.62
497.094	96.62
497.312	96.62
497.529	87.62
497.746	84.62
497.963	72.62
498.181	83.62
498.398	87.62
498.615	108.62
498.832	93.62
499.049	101.62
499.267	88.62
499.484	86.62
499.701	86.62
499.918	86.62
500.135	84.62
500.352	88.62
500.569	77.62
500.786	94.62
501.003	80.62
501.22	77.62
501.437	97.62
501.654	88.62
501.871	98.62
502.088	86.62
502.305	87.62
502.522	73.62
502.739	80.62
502.956	86.62
503.172	96.62
503.389	92.62
503.606	92.62
503.823	96.62
504.04	71.62
504.256	92.62
504.473	90.62
504.69	80.62
504.907	87.62
505.123	84.62
505.34	84.62
505.557	87.62
505.773	93.62
505.99	83.62
506.207	84.62
506.423	87.62
506.64	96.62
506.856	93.62
507.073	87.62
507.289	85.62
507.506	90.62
507.722	87.62
507.939	103.62
508.155	94.62
508.372	83.62
508.588	94.62
508.805	88.62
509.021	94.62
509.238	92.62
509.454	89.62
509.67	89.62
509.887	114.62
510.103	107.62
510.319	198.62
510.536	667.62
510.752	2074.62
510.968	556.62
511.184	144.62
511.401	87.62
511.617	88.62
511.833	83.62
512.049	85.62
512.265	99.62
512.481	99.62
512.698	86.62
512.914	95.62
513.13	100.62
513.346	83.62
513.562	86.62
513.778	75.62
513.994	82.62
514.21	92.62
514.426	93.62
514.642	113.62
514.858	112.62
515.074	173.62
515.29	381.62
515.506	1178.62
515.721	440.62
515.937	148.62
516.153	98.62
516.369	94.62
516.585	93.62
516.801	94.62
517.016	76.62
517.232	87.62
