Data from Uncirc_1984_H10_HRD10591_00068.txt Node
Date: Wed Jan 03 12:21:50 EST 2024
User: Yrep
Spectrometer: HR+D1059
Trigger mode: 1
Integration Time (sec): 1.000000E-1
Scans to average: 1
Electric dark correction enabled: true
Nonlinearity correction enabled: false
Boxcar width: 0
XAxis mode: Wavelengths
Number of Pixels in Spectrum: 2048
>>>>>Begin Spectral Data<<<<<
223.165	-10.88
223.4	-10.88
223.635	-10.88
223.869	-11.88
224.104	-18.88
224.338	-16.88
224.573	-30.88
224.808	-8.88
225.042	-13.88
225.277	-12.88
225.511	-1.88
225.746	3.12
225.98	19.12
226.215	13.12
226.449	22.12
226.683	19.12
226.918	22.12
227.152	28.12
227.387	34.12
227.621	48.12
227.856	58.12
228.09	47.12
228.324	47.12
228.559	55.12
228.793	50.12
229.027	67.12
229.262	59.12
229.496	64.12
229.73	66.12
229.964	78.12
230.199	77.12
230.433	72.12
230.667	81.12
230.901	68.12
231.136	59.12
231.37	79.12
231.604	75.12
231.838	82.12
232.072	78.12
232.306	95.12
232.541	88.12
232.775	79.12
233.009	71.12
233.243	75.12
233.477	79.12
233.711	89.12
233.945	78.12
234.179	90.12
234.413	83.12
234.647	72.12
234.881	74.12
235.115	81.12
235.349	74.12
235.583	78.12
235.817	71.12
236.051	61.12
236.285	63.12
236.519	92.12
236.753	68.12
236.987	78.12
237.221	98.12
237.455	71.12
237.689	84.12
237.922	72.12
238.156	66.12
238.39	68.12
238.624	62.12
238.858	75.12
239.091	75.12
239.325	75.12
239.559	80.12
239.793	83.12
240.027	76.12
240.26	83.12
240.494	78.12
240.728	78.12
240.961	83.12
241.195	78.12
241.429	66.12
241.662	68.12
241.896	68.12
242.13	80.12
242.363	72.12
242.597	60.12
242.83	89.12
243.064	67.12
243.298	72.12
243.531	84.12
243.765	66.12
243.998	72.12
244.232	74.12
244.465	87.12
244.699	81.12
244.932	71.12
245.166	82.12
245.399	75.12
245.633	94.12
245.866	80.12
246.099	71.12
246.333	59.12
246.566	82.12
246.8	62.12
247.033	82.12
247.266	76.12
247.5	66.12
247.733	67.12
247.966	80.12
248.2	72.12
248.433	74.12
248.666	87.12
248.899	86.12
249.133	83.12
249.366	106.12
249.599	97.12
249.832	92.12
250.066	74.12
250.299	90.12
250.532	76.12
250.765	69.12
250.998	74.12
251.231	75.12
251.465	75.12
251.698	80.12
251.931	72.12
252.164	74.12
252.397	74.12
252.63	80.12
252.863	80.12
253.096	74.12
253.329	82.12
253.562	82.12
253.795	82.12
254.028	73.12
254.261	80.12
254.494	74.12
254.727	84.12
254.96	86.12
255.193	86.12
255.426	72.12
255.659	64.12
255.892	71.12
256.124	66.12
256.357	91.12
256.59	62.12
256.823	79.12
257.056	64.12
257.289	82.12
257.521	74.12
257.754	75.12
257.987	86.12
258.22	74.12
258.452	92.12
258.685	84.12
258.918	72.12
259.151	83.12
259.383	81.12
259.616	71.12
259.849	77.12
260.081	82.12
260.314	82.12
260.547	60.12
260.779	79.12
261.012	78.12
261.244	91.12
261.477	96.12
261.71	82.12
261.942	116.12
262.175	104.12
262.407	82.12
262.64	75.12
262.872	72.12
263.105	85.12
263.337	90.12
263.57	80.12
263.802	77.12
264.035	81.12
264.267	95.12
264.499	87.12
264.732	86.12
264.964	83.12
265.197	80.12
265.429	75.12
265.661	78.12
265.894	82.12
266.126	80.12
266.358	72.12
266.591	68.12
266.823	86.12
267.055	79.12
267.287	76.12
267.52	99.12
267.752	74.12
267.984	101.12
268.216	90.12
268.448	88.12
268.681	75.12
268.913	86.12
269.145	65.12
269.377	68.12
269.609	79.12
269.841	80.12
270.073	75.12
270.306	103.12
270.538	84.12
270.77	79.12
271.002	78.12
271.234	87.12
271.466	86.12
271.698	75.12
271.93	94.12
272.162	89.12
272.394	70.12
272.626	85.12
272.858	80.12
273.09	83.12
273.322	92.12
273.553	85.12
273.785	78.12
274.017	79.12
274.249	83.12
274.481	83.12
274.713	90.12
274.945	75.12
275.176	84.12
275.408	82.12
275.64	80.12
275.872	78.12
276.104	88.12
276.335	97.12
276.567	86.12
276.799	98.12
277.031	102.12
277.262	95.12
277.494	99.12
277.726	81.12
277.957	87.12
278.189	86.12
278.421	73.12
278.652	84.12
278.884	79.12
279.115	82.12
279.347	73.12
279.579	87.12
279.81	81.12
280.042	90.12
280.273	88.12
280.505	75.12
280.736	82.12
280.968	81.12
281.199	71.12
281.431	82.12
281.662	71.12
281.894	80.12
282.125	94.12
282.356	108.12
282.588	121.12
282.819	107.12
283.051	88.12
283.282	75.12
283.513	107.12
283.745	90.12
283.976	75.12
284.207	91.12
284.439	84.12
284.67	96.12
284.901	74.12
285.132	75.12
285.364	91.12
285.595	86.12
285.826	71.12
286.057	105.12
286.288	111.12
286.52	79.12
286.751	81.12
286.982	87.12
287.213	91.12
287.444	75.12
287.675	75.12
287.906	94.12
288.138	85.12
288.369	90.12
288.6	97.12
288.831	80.12
289.062	90.12
289.293	90.12
289.524	84.12
289.755	80.12
289.986	88.12
290.217	95.12
290.448	82.12
290.679	86.12
290.91	78.12
291.141	87.12
291.371	99.12
291.602	81.12
291.833	76.12
292.064	90.12
292.295	86.12
292.526	90.12
292.757	88.12
292.987	102.12
293.218	90.12
293.449	86.12
293.68	79.12
293.91	68.12
294.141	84.12
294.372	88.12
294.603	76.12
294.833	80.12
295.064	80.12
295.295	84.12
295.525	82.12
295.756	92.12
295.987	100.12
296.217	116.12
296.448	122.12
296.679	94.12
296.909	86.12
297.14	88.12
297.37	83.12
297.601	91.12
297.831	97.12
298.062	84.12
298.292	88.12
298.523	83.12
298.753	80.12
298.984	101.12
299.214	87.12
299.445	88.12
299.675	111.12
299.905	88.12
300.136	89.12
300.366	87.12
300.597	90.12
300.827	90.12
301.057	94.12
301.288	109.12
301.518	101.12
301.748	79.12
301.979	81.12
302.209	82.12
302.439	84.12
302.669	99.12
302.9	76.12
303.13	81.12
303.36	83.12
303.59	87.12
303.82	92.12
304.051	82.12
304.281	74.12
304.511	86.12
304.741	90.12
304.971	69.12
305.201	86.12
305.431	92.12
305.661	87.12
305.891	83.12
306.121	93.12
306.352	81.12
306.582	96.12
306.812	104.12
307.042	79.12
307.272	86.12
307.502	102.12
307.731	89.12
307.961	91.12
308.191	94.12
308.421	99.12
308.651	86.12
308.881	99.12
309.111	90.12
309.341	93.12
309.571	97.12
309.8	104.12
310.03	92.12
310.26	101.12
310.49	89.12
310.72	103.12
310.949	98.12
311.179	81.12
311.409	83.12
311.639	106.12
311.868	103.12
312.098	95.12
312.328	87.12
312.557	106.12
312.787	110.12
313.017	89.12
313.246	93.12
313.476	103.12
313.706	91.12
313.935	90.12
314.165	80.12
314.394	89.12
314.624	82.12
314.853	94.12
315.083	90.12
315.312	94.12
315.542	88.12
315.771	90.12
316.001	83.12
316.23	86.12
316.46	73.12
316.689	95.12
316.919	99.12
317.148	86.12
317.377	95.12
317.607	96.12
317.836	97.12
318.065	85.12
318.295	83.12
318.524	92.12
318.753	92.12
318.983	91.12
319.212	98.12
319.441	100.12
319.67	81.12
319.9	104.12
320.129	86.12
320.358	88.12
320.587	100.12
320.816	97.12
321.046	96.12
321.275	105.12
321.504	93.12
321.733	87.12
321.962	96.12
322.191	98.12
322.42	87.12
322.649	101.12
322.878	114.12
323.108	108.12
323.337	113.12
323.566	128.12
323.795	142.12
324.024	196.12
324.253	343.12
324.482	698.12
324.71	1486.12
324.939	2011.12
325.168	741.12
325.397	237.12
325.626	134.12
325.855	126.12
326.084	111.12
326.313	118.12
326.542	147.12
326.77	226.12
326.999	423.12
327.228	868.12
327.457	1509.12
327.686	1227.12
327.914	336.12
328.143	165.12
328.372	147.12
328.6	119.12
328.829	123.12
329.058	120.12
329.287	123.12
329.515	100.12
329.744	85.12
329.972	110.12
330.201	109.12
330.43	116.12
330.658	104.12
330.887	130.12
331.115	122.12
331.344	107.12
331.572	99.12
331.801	95.12
332.03	98.12
332.258	103.12
332.486	102.12
332.715	94.12
332.943	91.12
333.172	110.12
333.4	100.12
333.629	118.12
333.857	99.12
334.085	122.12
334.314	102.12
334.542	88.12
334.771	107.12
334.999	94.12
335.227	102.12
335.455	91.12
335.684	92.12
335.912	94.12
336.14	105.12
336.369	89.12
336.597	89.12
336.825	97.12
337.053	97.12
337.281	93.12
337.51	94.12
337.738	86.12
337.966	78.12
338.194	92.12
338.422	100.12
338.65	98.12
338.878	91.12
339.106	80.12
339.334	94.12
339.562	87.12
339.79	99.12
340.018	99.12
340.246	107.12
340.474	87.12
340.702	90.12
340.93	68.12
341.158	86.12
341.386	92.12
341.614	99.12
341.842	99.12
342.07	86.12
342.298	81.12
342.526	110.12
342.754	78.12
342.981	94.12
343.209	98.12
343.437	87.12
343.665	91.12
343.893	100.12
344.12	83.12
344.348	74.12
344.576	94.12
344.804	79.12
345.031	92.12
345.259	99.12
345.487	90.12
345.714	97.12
345.942	101.12
346.17	96.12
346.397	88.12
346.625	96.12
346.853	86.12
347.08	80.12
347.308	83.12
347.535	89.12
347.763	98.12
347.99	98.12
348.218	90.12
348.445	106.12
348.673	119.12
348.9	104.12
349.128	85.12
349.355	79.12
349.583	101.12
349.81	94.12
350.037	83.12
350.265	94.12
350.492	110.12
350.72	82.12
350.947	107.12
351.174	108.12
351.402	93.12
351.629	101.12
351.856	118.12
352.083	111.12
352.311	91.12
352.538	102.12
352.765	105.12
352.992	111.12
353.22	128.12
353.447	114.12
353.674	107.12
353.901	104.12
354.128	89.12
354.355	100.12
354.583	91.12
354.81	87.12
355.037	86.12
355.264	95.12
355.491	86.12
355.718	84.12
355.945	99.12
356.172	94.12
356.399	106.12
356.626	95.12
356.853	90.12
357.08	86.12
357.307	94.12
357.534	103.12
357.761	95.12
357.988	98.12
358.215	80.12
358.441	90.12
358.668	87.12
358.895	86.12
359.122	82.12
359.349	87.12
359.576	97.12
359.802	111.12
360.029	121.12
360.256	116.12
360.483	112.12
360.709	103.12
360.936	92.12
361.163	89.12
361.39	91.12
361.616	89.12
361.843	85.12
362.07	99.12
362.296	99.12
362.523	88.12
362.749	97.12
362.976	86.12
363.203	87.12
363.429	80.12
363.656	85.12
363.882	90.12
364.109	91.12
364.335	94.12
364.562	92.12
364.788	91.12
365.015	100.12
365.241	99.12
365.468	104.12
365.694	103.12
365.92	102.12
366.147	92.12
366.373	94.12
366.599	98.12
366.826	88.12
367.052	87.12
367.278	85.12
367.505	91.12
367.731	89.12
367.957	96.12
368.184	88.12
368.41	88.12
368.636	85.12
368.862	109.12
369.089	110.12
369.315	99.12
369.541	89.12
369.767	101.12
369.993	90.12
370.219	89.12
370.445	95.12
370.672	85.12
370.898	74.12
371.124	91.12
371.35	91.12
371.576	78.12
371.802	91.12
372.028	84.12
372.254	88.12
372.48	74.12
372.706	90.12
372.932	96.12
373.158	93.12
373.384	84.12
373.61	80.12
373.835	83.12
374.061	82.12
374.287	86.12
374.513	90.12
374.739	87.12
374.965	87.12
375.191	87.12
375.416	89.12
375.642	85.12
375.868	96.12
376.094	78.12
376.319	93.12
376.545	77.12
376.771	87.12
376.997	89.12
377.222	83.12
377.448	80.12
377.674	83.12
377.899	83.12
378.125	83.12
378.35	89.12
378.576	89.12
378.802	79.12
379.027	92.12
379.253	90.12
379.478	107.12
379.704	98.12
379.929	84.12
380.155	106.12
380.38	96.12
380.606	83.12
380.831	86.12
381.057	88.12
381.282	93.12
381.507	106.12
381.733	94.12
381.958	104.12
382.184	72.12
382.409	88.12
382.634	97.12
382.86	102.12
383.085	98.12
383.31	76.12
383.535	94.12
383.761	93.12
383.986	91.12
384.211	96.12
384.436	91.12
384.662	104.12
384.887	105.12
385.112	84.12
385.337	93.12
385.562	106.12
385.787	106.12
386.013	104.12
386.238	97.12
386.463	108.12
386.688	111.12
386.913	100.12
387.138	84.12
387.363	88.12
387.588	92.12
387.813	91.12
388.038	86.12
388.263	94.12
388.488	101.12
388.713	90.12
388.938	80.12
389.163	76.12
389.387	98.12
389.612	107.12
389.837	95.12
390.062	100.12
390.287	97.12
390.512	88.12
390.736	96.12
390.961	80.12
391.186	86.12
391.411	83.12
391.636	78.12
391.86	85.12
392.085	84.12
392.31	81.12
392.534	88.12
392.759	98.12
392.984	90.12
393.208	95.12
393.433	82.12
393.658	94.12
393.882	82.12
394.107	86.12
394.331	84.12
394.556	89.12
394.78	102.12
395.005	98.12
395.229	83.12
395.454	84.12
395.678	86.12
395.903	85.12
396.127	91.12
396.352	91.12
396.576	89.12
396.801	84.12
397.025	82.12
397.249	83.12
397.474	92.12
397.698	96.12
397.922	79.12
398.147	84.12
398.371	90.12
398.595	88.12
398.82	99.12
399.044	90.12
399.268	88.12
399.492	83.12
399.717	90.12
399.941	80.12
400.165	95.12
400.389	75.12
400.613	107.12
400.837	99.12
401.062	105.12
401.286	89.12
401.51	99.12
401.734	98.12
401.958	101.12
402.182	112.12
402.406	152.12
402.63	123.12
402.854	111.12
403.078	80.12
403.302	94.12
403.526	84.12
403.75	84.12
403.974	85.12
404.198	78.12
404.422	86.12
404.645	87.12
404.869	101.12
405.093	102.12
405.317	97.12
405.541	98.12
405.765	94.12
405.988	107.12
406.212	149.12
406.436	199.12
406.66	134.12
406.883	89.12
407.107	89.12
407.331	102.12
407.555	88.12
407.778	99.12
408.002	75.12
408.226	87.12
408.449	91.12
408.673	99.12
408.896	92.12
409.12	87.12
409.344	92.12
409.567	91.12
409.791	92.12
410.014	99.12
410.238	98.12
410.461	94.12
410.685	92.12
410.908	101.12
411.132	110.12
411.355	97.12
411.578	88.12
411.802	91.12
412.025	84.12
412.249	85.12
412.472	96.12
412.695	93.12
412.919	82.12
413.142	93.12
413.365	85.12
413.589	90.12
413.812	88.12
414.035	80.12
414.258	94.12
414.482	92.12
414.705	93.12
414.928	89.12
415.151	95.12
415.374	86.12
415.597	92.12
415.821	90.12
416.044	81.12
416.267	88.12
416.49	94.12
416.713	98.12
416.936	92.12
417.159	69.12
417.382	78.12
417.605	96.12
417.828	97.12
418.051	90.12
418.274	85.12
418.497	68.12
418.72	80.12
418.943	87.12
419.166	95.12
419.389	87.12
419.611	87.12
419.834	98.12
420.057	96.12
420.28	76.12
420.503	74.12
420.726	103.12
420.948	90.12
421.171	85.12
421.394	89.12
421.617	97.12
421.839	80.12
422.062	92.12
422.285	92.12
422.507	97.12
422.73	114.12
422.953	98.12
423.175	91.12
423.398	93.12
423.621	96.12
423.843	92.12
424.066	89.12
424.288	78.12
424.511	84.12
424.733	100.12
424.956	88.12
425.178	94.12
425.401	101.12
425.623	100.12
425.846	81.12
426.068	110.12
426.291	90.12
426.513	104.12
426.735	87.12
426.958	84.12
427.18	102.12
427.402	132.12
427.625	153.12
427.847	128.12
428.069	96.12
428.292	90.12
428.514	97.12
428.736	78.12
428.958	91.12
429.181	86.12
429.403	76.12
429.625	102.12
429.847	93.12
430.069	107.12
430.292	86.12
430.514	90.12
430.736	79.12
430.958	76.12
431.18	94.12
431.402	94.12
431.624	72.12
431.846	82.12
432.068	91.12
432.29	79.12
432.512	83.12
432.734	89.12
432.956	107.12
433.178	95.12
433.4	95.12
433.622	97.12
433.844	94.12
434.066	87.12
434.287	94.12
434.509	100.12
434.731	86.12
434.953	88.12
435.175	99.12
435.397	105.12
435.618	96.12
435.84	102.12
436.062	105.12
436.284	104.12
436.505	97.12
436.727	102.12
436.949	96.12
437.17	88.12
437.392	94.12
437.614	84.12
437.835	103.12
438.057	114.12
438.278	108.12
438.5	94.12
438.721	114.12
438.943	92.12
439.165	90.12
439.386	69.12
439.608	92.12
439.829	95.12
440.05	121.12
440.272	130.12
440.493	86.12
440.715	111.12
440.936	88.12
441.158	86.12
441.379	87.12
441.6	90.12
441.822	82.12
442.043	104.12
442.264	112.12
442.486	98.12
442.707	76.12
442.928	105.12
443.149	113.12
443.371	135.12
443.592	96.12
443.813	102.12
444.034	102.12
444.255	76.12
444.476	88.12
444.698	91.12
444.919	96.12
445.14	132.12
445.361	115.12
445.582	113.12
445.803	118.12
446.024	123.12
446.245	124.12
446.466	106.12
446.687	100.12
446.908	90.12
447.129	78.12
447.35	84.12
447.571	86.12
447.792	91.12
448.013	95.12
448.234	105.12
448.455	100.12
448.675	98.12
448.896	112.12
449.117	103.12
449.338	100.12
449.559	123.12
449.779	121.12
450	96.12
450.221	89.12
450.442	86.12
450.662	96.12
450.883	97.12
451.104	112.12
451.324	89.12
451.545	82.12
451.766	89.12
451.986	79.12
452.207	87.12
452.428	92.12
452.648	103.12
452.869	114.12
453.089	102.12
453.31	100.12
453.53	103.12
453.751	80.12
453.971	90.12
454.192	105.12
454.412	104.12
454.633	91.12
454.853	70.12
455.073	78.12
455.294	87.12
455.514	109.12
455.734	72.12
455.955	78.12
456.175	83.12
456.395	84.12
456.616	97.12
456.836	83.12
457.056	81.12
457.276	94.12
457.497	87.12
457.717	74.12
457.937	82.12
458.157	93.12
458.377	95.12
458.598	105.12
458.818	120.12
459.038	132.12
459.258	118.12
459.478	103.12
459.698	80.12
459.918	89.12
460.138	80.12
460.358	88.12
460.578	88.12
460.798	82.12
461.018	88.12
461.238	91.12
461.458	93.12
461.678	90.12
461.898	88.12
462.118	88.12
462.338	81.12
462.558	80.12
462.777	73.12
462.997	81.12
463.217	84.12
463.437	84.12
463.657	80.12
463.876	79.12
464.096	101.12
464.316	86.12
464.536	86.12
464.755	108.12
464.975	115.12
465.195	156.12
465.414	138.12
465.634	101.12
465.854	81.12
466.073	84.12
466.293	98.12
466.512	96.12
466.732	69.12
466.951	92.12
467.171	89.12
467.391	96.12
467.61	98.12
467.829	104.12
468.049	91.12
468.268	83.12
468.488	78.12
468.707	91.12
468.927	92.12
469.146	83.12
469.365	80.12
469.585	105.12
469.804	98.12
470.023	87.12
470.243	91.12
470.462	103.12
470.681	100.12
470.901	94.12
471.12	74.12
471.339	98.12
471.558	103.12
471.777	102.12
471.997	86.12
472.216	88.12
472.435	84.12
472.654	84.12
472.873	94.12
473.092	97.12
473.311	78.12
473.53	85.12
473.749	80.12
473.968	85.12
474.187	96.12
474.406	89.12
474.625	85.12
474.844	70.12
475.063	85.12
475.282	90.12
475.501	83.12
475.72	90.12
475.939	76.12
476.158	83.12
476.377	76.12
476.596	80.12
476.814	72.12
477.033	97.12
477.252	88.12
477.471	79.12
477.69	93.12
477.908	89.12
478.127	87.12
478.346	82.12
478.564	77.12
478.783	79.12
479.002	100.12
479.22	95.12
479.439	105.12
479.658	108.12
479.876	78.12
480.095	71.12
480.313	95.12
480.532	103.12
480.751	96.12
480.969	103.12
481.188	86.12
481.406	107.12
481.624	106.12
481.843	85.12
482.061	73.12
482.28	88.12
482.498	94.12
482.717	87.12
482.935	93.12
483.153	91.12
483.372	89.12
483.59	97.12
483.808	85.12
484.027	88.12
484.245	92.12
484.463	102.12
484.681	92.12
484.9	88.12
485.118	99.12
485.336	89.12
485.554	97.12
485.772	113.12
485.99	94.12
486.209	105.12
486.427	106.12
486.645	104.12
486.863	117.12
487.081	106.12
487.299	94.12
487.517	102.12
487.735	94.12
487.953	86.12
488.171	95.12
488.389	88.12
488.607	97.12
488.825	97.12
489.043	83.12
489.261	83.12
489.479	88.12
489.696	108.12
489.914	93.12
490.132	82.12
490.35	87.12
490.568	88.12
490.786	80.12
491.003	97.12
491.221	95.12
491.439	87.12
491.657	88.12
491.874	87.12
492.092	79.12
492.31	71.12
492.527	103.12
492.745	94.12
492.963	92.12
493.18	98.12
493.398	83.12
493.615	82.12
493.833	91.12
494.05	96.12
494.268	92.12
494.485	88.12
494.703	82.12
494.92	98.12
495.138	73.12
495.355	91.12
495.573	93.12
495.79	86.12
496.008	85.12
496.225	95.12
496.442	88.12
496.66	78.12
496.877	74.12
497.094	86.12
497.312	97.12
497.529	99.12
497.746	92.12
497.963	97.12
498.181	91.12
498.398	96.12
498.615	99.12
498.832	82.12
499.049	95.12
499.267	96.12
499.484	95.12
499.701	91.12
499.918	84.12
500.135	97.12
500.352	85.12
500.569	97.12
500.786	100.12
501.003	85.12
501.22	75.12
501.437	102.12
501.654	75.12
501.871	115.12
502.088	90.12
502.305	73.12
502.522	80.12
502.739	84.12
502.956	87.12
503.172	90.12
503.389	102.12
503.606	120.12
503.823	98.12
504.04	101.12
504.256	98.12
504.473	92.12
504.69	93.12
504.907	86.12
505.123	83.12
505.34	94.12
505.557	86.12
505.773	105.12
505.99	82.12
506.207	87.12
506.423	98.12
506.64	86.12
506.856	95.12
507.073	91.12
507.289	86.12
507.506	104.12
507.722	109.12
507.939	105.12
508.155	92.12
508.372	86.12
508.588	102.12
508.805	73.12
509.021	81.12
509.238	97.12
509.454	92.12
509.67	89.12
509.887	96.12
510.103	109.12
510.319	214.12
510.536	713.12
510.752	2199.12
510.968	599.12
511.184	152.12
511.401	113.12
511.617	104.12
511.833	82.12
512.049	92.12
512.265	87.12
512.481	84.12
512.698	98.12
512.914	92.12
513.13	91.12
513.346	83.12
513.562	102.12
513.778	90.12
513.994	96.12
514.21	95.12
514.426	103.12
514.642	121.12
514.858	110.12
515.074	148.12
515.29	408.12
515.506	1302.12
515.721	473.12
515.937	144.12
516.153	99.12
