Data from Uncirc_1984_H10_HRD10591_00084.txt Node
Date: Wed Jan 03 12:21:54 EST 2024
User: Yrep
Spectrometer: HR+D1059
Trigger mode: 1
Integration Time (sec): 1.000000E-1
Scans to average: 1
Electric dark correction enabled: true
Nonlinearity correction enabled: false
Boxcar width: 0
XAxis mode: Wavelengths
Number of Pixels in Spectrum: 2048
>>>>>Begin Spectral Data<<<<<
223.165	-14.31
223.4	-14.31
223.635	-14.31
223.869	-23.31
224.104	-14.31
224.338	-10.31
224.573	-23.31
224.808	-22.31
225.042	-15.31
225.277	-13.31
225.511	0.69
225.746	2.69
225.98	15.69
226.215	16.69
226.449	20.69
226.683	30.69
226.918	19.69
227.152	29.69
227.387	27.69
227.621	40.69
227.856	50.69
228.09	28.69
228.324	49.69
228.559	56.69
228.793	71.69
229.027	60.69
229.262	69.69
229.496	74.69
229.73	64.69
229.964	82.69
230.199	62.69
230.433	66.69
230.667	80.69
230.901	81.69
231.136	88.69
231.37	71.69
231.604	74.69
231.838	88.69
232.072	86.69
232.306	94.69
232.541	78.69
232.775	87.69
233.009	82.69
233.243	72.69
233.477	73.69
233.711	73.69
233.945	87.69
234.179	71.69
234.413	68.69
234.647	70.69
234.881	74.69
235.115	83.69
235.349	73.69
235.583	86.69
235.817	84.69
236.051	82.69
236.285	76.69
236.519	82.69
236.753	72.69
236.987	82.69
237.221	78.69
237.455	93.69
237.689	69.69
237.922	69.69
238.156	80.69
238.39	70.69
238.624	66.69
238.858	70.69
239.091	63.69
239.325	67.69
239.559	77.69
239.793	73.69
240.027	72.69
240.26	63.69
240.494	74.69
240.728	69.69
240.961	80.69
241.195	78.69
241.429	79.69
241.662	70.69
241.896	73.69
242.13	91.69
242.363	77.69
242.597	90.69
242.83	84.69
243.064	80.69
243.298	75.69
243.531	82.69
243.765	75.69
243.998	66.69
244.232	74.69
244.465	81.69
244.699	70.69
244.932	76.69
245.166	79.69
245.399	82.69
245.633	67.69
245.866	73.69
246.099	78.69
246.333	69.69
246.566	79.69
246.8	60.69
247.033	83.69
247.266	66.69
247.5	78.69
247.733	78.69
247.966	78.69
248.2	68.69
248.433	90.69
248.666	88.69
248.899	87.69
249.133	99.69
249.366	96.69
249.599	106.69
249.832	98.69
250.066	78.69
250.299	79.69
250.532	78.69
250.765	84.69
250.998	95.69
251.231	70.69
251.465	72.69
251.698	69.69
251.931	64.69
252.164	80.69
252.397	79.69
252.63	76.69
252.863	73.69
253.096	89.69
253.329	84.69
253.562	99.69
253.795	84.69
254.028	82.69
254.261	86.69
254.494	96.69
254.727	80.69
254.96	91.69
255.193	83.69
255.426	78.69
255.659	80.69
255.892	98.69
256.124	81.69
256.357	76.69
256.59	67.69
256.823	70.69
257.056	74.69
257.289	76.69
257.521	80.69
257.754	86.69
257.987	75.69
258.22	76.69
258.452	84.69
258.685	87.69
258.918	79.69
259.151	70.69
259.383	84.69
259.616	73.69
259.849	81.69
260.081	95.69
260.314	87.69
260.547	84.69
260.779	84.69
261.012	78.69
261.244	80.69
261.477	93.69
261.71	86.69
261.942	108.69
262.175	95.69
262.407	90.69
262.64	74.69
262.872	75.69
263.105	82.69
263.337	86.69
263.57	71.69
263.802	82.69
264.035	80.69
264.267	85.69
264.499	86.69
264.732	91.69
264.964	75.69
265.197	84.69
265.429	95.69
265.661	69.69
265.894	80.69
266.126	90.69
266.358	84.69
266.591	73.69
266.823	70.69
267.055	88.69
267.287	86.69
267.52	76.69
267.752	90.69
267.984	81.69
268.216	71.69
268.448	90.69
268.681	80.69
268.913	81.69
269.145	75.69
269.377	77.69
269.609	102.69
269.841	81.69
270.073	78.69
270.306	72.69
270.538	86.69
270.77	91.69
271.002	76.69
271.234	89.69
271.466	82.69
271.698	84.69
271.93	79.69
272.162	103.69
272.394	76.69
272.626	91.69
272.858	63.69
273.09	82.69
273.322	87.69
273.553	72.69
273.785	75.69
274.017	80.69
274.249	86.69
274.481	74.69
274.713	86.69
274.945	79.69
275.176	71.69
275.408	76.69
275.64	81.69
275.872	91.69
276.104	90.69
276.335	88.69
276.567	96.69
276.799	109.69
277.031	88.69
277.262	84.69
277.494	88.69
277.726	83.69
277.957	83.69
278.189	95.69
278.421	84.69
278.652	68.69
278.884	79.69
279.115	88.69
279.347	78.69
279.579	79.69
279.81	82.69
280.042	95.69
280.273	94.69
280.505	96.69
280.736	81.69
280.968	73.69
281.199	83.69
281.431	96.69
281.662	105.69
281.894	90.69
282.125	106.69
282.356	104.69
282.588	118.69
282.819	99.69
283.051	92.69
283.282	79.69
283.513	97.69
283.745	83.69
283.976	97.69
284.207	89.69
284.439	83.69
284.67	91.69
284.901	88.69
285.132	74.69
285.364	97.69
285.595	81.69
285.826	95.69
286.057	96.69
286.288	82.69
286.52	84.69
286.751	94.69
286.982	81.69
287.213	83.69
287.444	80.69
287.675	78.69
287.906	76.69
288.138	85.69
288.369	79.69
288.6	100.69
288.831	79.69
289.062	80.69
289.293	85.69
289.524	70.69
289.755	85.69
289.986	87.69
290.217	78.69
290.448	86.69
290.679	81.69
290.91	84.69
291.141	79.69
291.371	81.69
291.602	80.69
291.833	91.69
292.064	86.69
292.295	71.69
292.526	94.69
292.757	86.69
292.987	78.69
293.218	81.69
293.449	81.69
293.68	83.69
293.91	78.69
294.141	86.69
294.372	86.69
294.603	89.69
294.833	81.69
295.064	107.69
295.295	75.69
295.525	96.69
295.756	96.69
295.987	119.69
296.217	148.69
296.448	104.69
296.679	83.69
296.909	82.69
297.14	93.69
297.37	91.69
297.601	87.69
297.831	90.69
298.062	95.69
298.292	86.69
298.523	86.69
298.753	100.69
298.984	88.69
299.214	85.69
299.445	103.69
299.675	92.69
299.905	103.69
300.136	89.69
300.366	79.69
300.597	80.69
300.827	91.69
301.057	101.69
301.288	88.69
301.518	89.69
301.748	103.69
301.979	93.69
302.209	88.69
302.439	85.69
302.669	90.69
302.9	88.69
303.13	75.69
303.36	90.69
303.59	86.69
303.82	106.69
304.051	103.69
304.281	88.69
304.511	86.69
304.741	88.69
304.971	85.69
305.201	86.69
305.431	88.69
305.661	96.69
305.891	108.69
306.121	97.69
306.352	84.69
306.582	100.69
306.812	86.69
307.042	100.69
307.272	94.69
307.502	81.69
307.731	100.69
307.961	97.69
308.191	74.69
308.421	91.69
308.651	89.69
308.881	94.69
309.111	92.69
309.341	91.69
309.571	104.69
309.8	97.69
310.03	100.69
310.26	99.69
310.49	100.69
310.72	99.69
310.949	102.69
311.179	80.69
311.409	96.69
311.639	87.69
311.868	91.69
312.098	91.69
312.328	84.69
312.557	94.69
312.787	98.69
313.017	87.69
313.246	86.69
313.476	94.69
313.706	91.69
313.935	95.69
314.165	106.69
314.394	111.69
314.624	88.69
314.853	87.69
315.083	75.69
315.312	85.69
315.542	83.69
315.771	95.69
316.001	84.69
316.23	85.69
316.46	89.69
316.689	88.69
316.919	87.69
317.148	82.69
317.377	94.69
317.607	95.69
317.836	92.69
318.065	90.69
318.295	88.69
318.524	86.69
318.753	91.69
318.983	88.69
319.212	91.69
319.441	92.69
319.67	104.69
319.9	93.69
320.129	98.69
320.358	98.69
320.587	98.69
320.816	102.69
321.046	83.69
321.275	102.69
321.504	84.69
321.733	102.69
321.962	95.69
322.191	100.69
322.42	98.69
322.649	110.69
322.878	102.69
323.108	112.69
323.337	121.69
323.566	130.69
323.795	148.69
324.024	192.69
324.253	393.69
324.482	796.69
324.71	1637.69
324.939	2156.69
325.168	807.69
325.397	251.69
325.626	139.69
325.855	145.69
326.084	113.69
326.313	128.69
326.542	144.69
326.77	211.69
326.999	443.69
327.228	924.69
327.457	1657.69
327.686	1329.69
327.914	356.69
328.143	177.69
328.372	147.69
328.6	116.69
328.829	120.69
329.058	129.69
329.287	120.69
329.515	111.69
329.744	103.69
329.972	94.69
330.201	100.69
330.43	95.69
330.658	116.69
330.887	120.69
331.115	116.69
331.344	102.69
331.572	102.69
331.801	103.69
332.03	106.69
332.258	100.69
332.486	97.69
332.715	98.69
332.943	86.69
333.172	96.69
333.4	99.69
333.629	118.69
333.857	103.69
334.085	105.69
334.314	97.69
334.542	99.69
334.771	90.69
334.999	92.69
335.227	98.69
335.455	80.69
335.684	103.69
335.912	88.69
336.14	97.69
336.369	97.69
336.597	101.69
336.825	100.69
337.053	90.69
337.281	84.69
337.51	86.69
337.738	80.69
337.966	83.69
338.194	92.69
338.422	88.69
338.65	103.69
338.878	98.69
339.106	92.69
339.334	83.69
339.562	95.69
339.79	92.69
340.018	86.69
340.246	83.69
340.474	93.69
340.702	74.69
340.93	86.69
341.158	101.69
341.386	90.69
341.614	99.69
341.842	87.69
342.07	83.69
342.298	98.69
342.526	94.69
342.754	84.69
342.981	93.69
343.209	88.69
343.437	104.69
343.665	90.69
343.893	98.69
344.12	82.69
344.348	88.69
344.576	82.69
344.804	89.69
345.031	101.69
345.259	99.69
345.487	99.69
345.714	79.69
345.942	92.69
346.17	95.69
346.397	94.69
346.625	81.69
346.853	86.69
347.08	92.69
347.308	95.69
347.535	101.69
347.763	104.69
347.99	100.69
348.218	105.69
348.445	99.69
348.673	98.69
348.9	92.69
349.128	86.69
349.355	83.69
349.583	82.69
349.81	101.69
350.037	88.69
350.265	93.69
350.492	106.69
350.72	95.69
350.947	111.69
351.174	106.69
351.402	110.69
351.629	103.69
351.856	114.69
352.083	97.69
352.311	100.69
352.538	98.69
352.765	105.69
352.992	125.69
353.22	99.69
353.447	95.69
353.674	86.69
353.901	104.69
354.128	97.69
354.355	95.69
354.583	90.69
354.81	92.69
355.037	103.69
355.264	91.69
355.491	83.69
355.718	87.69
355.945	87.69
356.172	87.69
356.399	107.69
356.626	87.69
356.853	99.69
357.08	104.69
357.307	85.69
357.534	86.69
357.761	95.69
357.988	97.69
358.215	97.69
358.441	102.69
358.668	67.69
358.895	92.69
359.122	84.69
359.349	79.69
359.576	95.69
359.802	103.69
360.029	100.69
360.256	105.69
360.483	100.69
360.709	87.69
360.936	94.69
361.163	93.69
361.39	98.69
361.616	97.69
361.843	78.69
362.07	92.69
362.296	84.69
362.523	91.69
362.749	92.69
362.976	93.69
363.203	98.69
363.429	89.69
363.656	78.69
363.882	63.69
364.109	86.69
364.335	102.69
364.562	80.69
364.788	101.69
365.015	98.69
365.241	96.69
365.468	108.69
365.694	104.69
365.92	91.69
366.147	101.69
366.373	91.69
366.599	86.69
366.826	86.69
367.052	96.69
367.278	86.69
367.505	84.69
367.731	98.69
367.957	71.69
368.184	82.69
368.41	85.69
368.636	107.69
368.862	114.69
369.089	103.69
369.315	86.69
369.541	91.69
369.767	103.69
369.993	88.69
370.219	81.69
370.445	83.69
370.672	93.69
370.898	94.69
371.124	88.69
371.35	86.69
371.576	78.69
371.802	92.69
372.028	78.69
372.254	75.69
372.48	88.69
372.706	85.69
372.932	72.69
373.158	84.69
373.384	96.69
373.61	91.69
373.835	84.69
374.061	90.69
374.287	88.69
374.513	87.69
374.739	87.69
374.965	98.69
375.191	78.69
375.416	101.69
375.642	68.69
375.868	85.69
376.094	94.69
376.319	91.69
376.545	94.69
376.771	90.69
376.997	98.69
377.222	89.69
377.448	96.69
377.674	69.69
377.899	86.69
378.125	86.69
378.35	80.69
378.576	86.69
378.802	91.69
379.027	90.69
379.253	82.69
379.478	78.69
379.704	90.69
379.929	91.69
380.155	90.69
380.38	92.69
380.606	104.69
380.831	86.69
381.057	98.69
381.282	99.69
381.507	104.69
381.733	97.69
381.958	106.69
382.184	86.69
382.409	82.69
382.634	90.69
382.86	88.69
383.085	100.69
383.31	97.69
383.535	90.69
383.761	93.69
383.986	97.69
384.211	83.69
384.436	93.69
384.662	98.69
384.887	95.69
385.112	105.69
385.337	106.69
385.562	94.69
385.787	88.69
386.013	86.69
386.238	104.69
386.463	101.69
386.688	105.69
386.913	94.69
387.138	100.69
387.363	90.69
387.588	95.69
387.813	105.69
388.038	100.69
388.263	90.69
388.488	114.69
388.713	94.69
388.938	83.69
389.163	83.69
389.387	89.69
389.612	106.69
389.837	91.69
390.062	76.69
390.287	84.69
390.512	79.69
390.736	69.69
390.961	102.69
391.186	92.69
391.411	92.69
391.636	84.69
391.86	99.69
392.085	84.69
392.31	82.69
392.534	84.69
392.759	91.69
392.984	84.69
393.208	84.69
393.433	95.69
393.658	96.69
393.882	88.69
394.107	92.69
394.331	106.69
394.556	82.69
394.78	82.69
395.005	89.69
395.229	80.69
395.454	99.69
395.678	87.69
395.903	99.69
396.127	100.69
396.352	90.69
396.576	92.69
396.801	74.69
397.025	91.69
397.249	82.69
397.474	85.69
397.698	91.69
397.922	98.69
398.147	89.69
398.371	90.69
398.595	86.69
398.82	82.69
399.044	83.69
399.268	91.69
399.492	90.69
399.717	79.69
399.941	94.69
400.165	94.69
400.389	103.69
400.613	80.69
400.837	74.69
401.062	86.69
401.286	98.69
401.51	93.69
401.734	90.69
401.958	95.69
402.182	114.69
402.406	152.69
402.63	118.69
402.854	88.69
403.078	90.69
403.302	86.69
403.526	94.69
403.75	97.69
403.974	79.69
404.198	96.69
404.422	91.69
404.645	83.69
404.869	84.69
405.093	93.69
405.317	96.69
405.541	75.69
405.765	92.69
405.988	104.69
406.212	169.69
406.436	227.69
406.66	140.69
406.883	102.69
407.107	90.69
407.331	80.69
407.555	78.69
407.778	91.69
408.002	86.69
408.226	91.69
408.449	98.69
408.673	97.69
408.896	104.69
409.12	99.69
409.344	84.69
409.567	82.69
409.791	86.69
410.014	85.69
410.238	91.69
410.461	83.69
410.685	89.69
410.908	85.69
411.132	105.69
411.355	89.69
411.578	105.69
411.802	97.69
412.025	103.69
412.249	100.69
412.472	80.69
412.695	92.69
412.919	83.69
413.142	73.69
413.365	86.69
413.589	95.69
413.812	76.69
414.035	94.69
414.258	86.69
414.482	97.69
414.705	94.69
414.928	87.69
415.151	78.69
415.374	98.69
415.597	74.69
415.821	78.69
416.044	88.69
416.267	86.69
416.49	90.69
416.713	78.69
416.936	98.69
417.159	103.69
417.382	97.69
417.605	86.69
417.828	94.69
418.051	98.69
418.274	88.69
418.497	78.69
418.72	94.69
418.943	94.69
419.166	94.69
419.389	88.69
419.611	80.69
419.834	100.69
420.057	88.69
420.28	73.69
420.503	91.69
420.726	73.69
420.948	83.69
421.171	89.69
421.394	73.69
421.617	82.69
421.839	99.69
422.062	95.69
422.285	85.69
422.507	108.69
422.73	116.69
422.953	92.69
423.175	95.69
423.398	83.69
423.621	74.69
423.843	78.69
424.066	88.69
424.288	94.69
424.511	97.69
424.733	86.69
424.956	100.69
425.178	104.69
425.401	96.69
425.623	118.69
425.846	76.69
426.068	86.69
426.291	86.69
426.513	83.69
426.735	81.69
426.958	82.69
427.18	94.69
427.402	136.69
427.625	157.69
427.847	116.69
428.069	84.69
428.292	83.69
428.514	80.69
428.736	82.69
428.958	90.69
429.181	72.69
429.403	75.69
429.625	90.69
429.847	86.69
430.069	98.69
430.292	91.69
430.514	87.69
430.736	85.69
430.958	74.69
431.18	75.69
431.402	87.69
431.624	95.69
431.846	84.69
432.068	87.69
432.29	82.69
432.512	91.69
432.734	76.69
432.956	87.69
433.178	92.69
433.4	104.69
433.622	99.69
433.844	87.69
434.066	97.69
434.287	94.69
434.509	102.69
434.731	87.69
434.953	87.69
435.175	97.69
435.397	81.69
435.618	113.69
435.84	108.69
436.062	131.69
436.284	110.69
436.505	101.69
436.727	72.69
436.949	93.69
437.17	90.69
437.392	92.69
437.614	88.69
437.835	109.69
438.057	110.69
438.278	116.69
438.5	105.69
438.721	122.69
438.943	96.69
439.165	98.69
439.386	91.69
439.608	90.69
439.829	98.69
440.05	119.69
440.272	134.69
440.493	106.69
440.715	92.69
440.936	85.69
441.158	101.69
441.379	85.69
441.6	84.69
441.822	100.69
442.043	90.69
442.264	95.69
442.486	99.69
442.707	97.69
442.928	101.69
443.149	106.69
443.371	121.69
443.592	112.69
443.813	110.69
444.034	102.69
444.255	86.69
444.476	91.69
444.698	69.69
444.919	72.69
445.14	131.69
445.361	104.69
445.582	102.69
445.803	130.69
446.024	137.69
446.245	144.69
446.466	102.69
446.687	94.69
446.908	88.69
447.129	83.69
447.35	69.69
447.571	86.69
447.792	105.69
448.013	93.69
448.234	108.69
448.455	112.69
448.675	101.69
448.896	112.69
449.117	102.69
449.338	96.69
449.559	116.69
449.779	116.69
450	96.69
450.221	70.69
450.442	78.69
450.662	76.69
450.883	100.69
451.104	103.69
451.324	80.69
451.545	88.69
451.766	83.69
451.986	95.69
452.207	86.69
452.428	80.69
452.648	103.69
452.869	108.69
453.089	107.69
453.31	107.69
453.53	84.69
453.751	91.69
453.971	86.69
454.192	87.69
454.412	93.69
454.633	71.69
454.853	100.69
455.073	93.69
455.294	87.69
455.514	98.69
455.734	94.69
455.955	87.69
456.175	73.69
456.395	67.69
456.616	96.69
456.836	89.69
457.056	81.69
457.276	95.69
457.497	83.69
457.717	86.69
457.937	76.69
458.157	76.69
458.377	91.69
458.598	112.69
458.818	146.69
459.038	144.69
459.258	106.69
459.478	88.69
459.698	69.69
459.918	81.69
460.138	87.69
460.358	84.69
460.578	88.69
460.798	103.69
461.018	87.69
461.238	74.69
461.458	80.69
461.678	105.69
461.898	82.69
462.118	88.69
462.338	104.69
462.558	82.69
462.777	76.69
462.997	80.69
463.217	90.69
463.437	82.69
463.657	84.69
463.876	80.69
464.096	82.69
464.316	96.69
464.536	82.69
464.755	88.69
464.975	98.69
465.195	151.69
465.414	142.69
465.634	104.69
465.854	76.69
466.073	86.69
466.293	90.69
466.512	86.69
466.732	87.69
466.951	83.69
467.171	94.69
467.391	86.69
467.61	110.69
467.829	95.69
468.049	82.69
468.268	89.69
468.488	88.69
468.707	86.69
468.927	75.69
469.146	86.69
469.365	87.69
469.585	83.69
469.804	98.69
470.023	92.69
470.243	75.69
470.462	94.69
470.681	95.69
470.901	101.69
471.12	89.69
471.339	102.69
471.558	78.69
471.777	71.69
471.997	89.69
472.216	104.69
472.435	98.69
472.654	88.69
472.873	82.69
473.092	78.69
473.311	69.69
473.53	84.69
473.749	101.69
473.968	84.69
474.187	101.69
474.406	92.69
474.625	80.69
474.844	89.69
475.063	92.69
475.282	90.69
475.501	70.69
475.72	95.69
475.939	76.69
476.158	86.69
476.377	80.69
476.596	90.69
476.814	73.69
477.033	96.69
477.252	80.69
477.471	94.69
477.69	105.69
477.908	80.69
478.127	86.69
478.346	92.69
478.564	78.69
478.783	99.69
479.002	81.69
479.22	98.69
479.439	99.69
479.658	102.69
479.876	95.69
480.095	78.69
480.313	89.69
480.532	92.69
480.751	87.69
480.969	96.69
481.188	111.69
481.406	105.69
481.624	92.69
481.843	94.69
482.061	92.69
482.28	80.69
482.498	95.69
482.717	81.69
482.935	84.69
483.153	102.69
483.372	84.69
483.59	85.69
483.808	91.69
484.027	88.69
484.245	98.69
484.463	95.69
484.681	74.69
484.9	84.69
485.118	86.69
485.336	93.69
485.554	99.69
485.772	96.69
485.99	110.69
486.209	89.69
486.427	99.69
486.645	110.69
486.863	104.69
487.081	89.69
487.299	96.69
487.517	86.69
487.735	93.69
487.953	92.69
488.171	93.69
488.389	89.69
488.607	102.69
488.825	90.69
489.043	97.69
489.261	101.69
489.479	82.69
489.696	100.69
489.914	95.69
490.132	90.69
490.35	90.69
490.568	91.69
490.786	91.69
491.003	93.69
491.221	93.69
491.439	81.69
491.657	87.69
491.874	84.69
492.092	96.69
492.31	106.69
492.527	89.69
492.745	97.69
492.963	80.69
493.18	88.69
493.398	98.69
493.615	96.69
493.833	94.69
494.05	87.69
494.268	94.69
494.485	84.69
494.703	91.69
494.92	92.69
495.138	90.69
495.355	72.69
495.573	87.69
495.79	88.69
496.008	99.69
496.225	90.69
496.442	79.69
496.66	84.69
496.877	92.69
497.094	79.69
497.312	94.69
497.529	90.69
497.746	93.69
497.963	96.69
498.181	96.69
498.398	97.69
498.615	103.69
498.832	100.69
499.049	87.69
499.267	85.69
499.484	89.69
499.701	93.69
499.918	82.69
500.135	83.69
500.352	99.69
500.569	91.69
500.786	89.69
501.003	84.69
501.22	89.69
501.437	89.69
501.654	97.69
501.871	94.69
502.088	90.69
502.305	109.69
502.522	89.69
502.739	89.69
502.956	84.69
503.172	81.69
503.389	102.69
503.606	102.69
503.823	96.69
504.04	98.69
504.256	78.69
504.473	90.69
504.69	80.69
504.907	80.69
505.123	83.69
505.34	82.69
505.557	90.69
505.773	97.69
505.99	80.69
506.207	87.69
506.423	88.69
506.64	76.69
506.856	84.69
507.073	95.69
507.289	73.69
507.506	89.69
507.722	105.69
507.939	110.69
508.155	102.69
508.372	91.69
508.588	101.69
508.805	74.69
509.021	98.69
509.238	102.69
509.454	108.69
509.67	119.69
509.887	97.69
510.103	140.69
510.319	222.69
510.536	768.69
510.752	2358.69
510.968	643.69
511.184	166.69
511.401	116.69
511.617	96.69
511.833	94.69
512.049	94.69
512.265	88.69
512.481	89.69
512.698	88.69
512.914	88.69
513.13	87.69
513.346	91.69
513.562	93.69
513.778	93.69
513.994	100.69
514.21	111.69
514.426	111.69
514.642	120.69
514.858	127.69
515.074	147.69
515.29	416.69
515.506	1394.69
515.721	507.69
515.937	148.69
516.153	106.69
516.369	98.69
