Data from Uncirc_1984_H10_HRD10591_00079.txt Node
Date: Wed Jan 03 12:21:53 EST 2024
User: Yrep
Spectrometer: HR+D1059
Trigger mode: 1
Integration Time (sec): 1.000000E-1
Scans to average: 1
Electric dark correction enabled: true
Nonlinearity correction enabled: false
Boxcar width: 0
XAxis mode: Wavelengths
Number of Pixels in Spectrum: 2048
>>>>>Begin Spectral Data<<<<<
223.165	-16.19
223.4	-16.19
223.635	-16.19
223.869	1.81
224.104	-8.19
224.338	-16.19
224.573	-20.19
224.808	-12.19
225.042	-16.19
225.277	-12.19
225.511	8.81
225.746	-1.19
225.98	-1.19
226.215	10.81
226.449	18.81
226.683	10.81
226.918	26.81
227.152	25.81
227.387	25.81
227.621	50.81
227.856	41.81
228.09	54.81
228.324	47.81
228.559	47.81
228.793	43.81
229.027	61.81
229.262	54.81
229.496	60.81
229.73	84.81
229.964	56.81
230.199	79.81
230.433	77.81
230.667	65.81
230.901	75.81
231.136	94.81
231.37	87.81
231.604	77.81
231.838	83.81
232.072	89.81
232.306	81.81
232.541	85.81
232.775	69.81
233.009	79.81
233.243	78.81
233.477	72.81
233.711	79.81
233.945	75.81
234.179	82.81
234.413	66.81
234.647	84.81
234.881	72.81
235.115	96.81
235.349	90.81
235.583	79.81
235.817	80.81
236.051	70.81
236.285	70.81
236.519	65.81
236.753	71.81
236.987	71.81
237.221	77.81
237.455	74.81
237.689	64.81
237.922	82.81
238.156	79.81
238.39	66.81
238.624	60.81
238.858	79.81
239.091	71.81
239.325	58.81
239.559	74.81
239.793	75.81
240.027	82.81
240.26	63.81
240.494	68.81
240.728	84.81
240.961	88.81
241.195	77.81
241.429	79.81
241.662	67.81
241.896	82.81
242.13	73.81
242.363	73.81
242.597	73.81
242.83	70.81
243.064	59.81
243.298	71.81
243.531	81.81
243.765	87.81
243.998	81.81
244.232	67.81
244.465	65.81
244.699	80.81
244.932	86.81
245.166	82.81
245.399	64.81
245.633	86.81
245.866	73.81
246.099	69.81
246.333	88.81
246.566	68.81
246.8	72.81
247.033	79.81
247.266	75.81
247.5	70.81
247.733	93.81
247.966	79.81
248.2	80.81
248.433	83.81
248.666	64.81
248.899	73.81
249.133	81.81
249.366	103.81
249.599	104.81
249.832	86.81
250.066	87.81
250.299	97.81
250.532	76.81
250.765	83.81
250.998	75.81
251.231	71.81
251.465	88.81
251.698	70.81
251.931	77.81
252.164	71.81
252.397	64.81
252.63	77.81
252.863	73.81
253.096	67.81
253.329	68.81
253.562	71.81
253.795	79.81
254.028	72.81
254.261	79.81
254.494	99.81
254.727	91.81
254.96	79.81
255.193	77.81
255.426	69.81
255.659	71.81
255.892	83.81
256.124	83.81
256.357	82.81
256.59	88.81
256.823	81.81
257.056	79.81
257.289	71.81
257.521	81.81
257.754	77.81
257.987	67.81
258.22	88.81
258.452	77.81
258.685	75.81
258.918	86.81
259.151	72.81
259.383	73.81
259.616	83.81
259.849	82.81
260.081	64.81
260.314	86.81
260.547	80.81
260.779	96.81
261.012	87.81
261.244	71.81
261.477	87.81
261.71	78.81
261.942	105.81
262.175	104.81
262.407	95.81
262.64	86.81
262.872	88.81
263.105	92.81
263.337	69.81
263.57	71.81
263.802	92.81
264.035	55.81
264.267	72.81
264.499	88.81
264.732	74.81
264.964	92.81
265.197	95.81
265.429	83.81
265.661	70.81
265.894	77.81
266.126	77.81
266.358	78.81
266.591	100.81
266.823	86.81
267.055	78.81
267.287	74.81
267.52	87.81
267.752	91.81
267.984	87.81
268.216	86.81
268.448	82.81
268.681	87.81
268.913	92.81
269.145	94.81
269.377	91.81
269.609	86.81
269.841	84.81
270.073	92.81
270.306	71.81
270.538	81.81
270.77	93.81
271.002	73.81
271.234	86.81
271.466	79.81
271.698	88.81
271.93	95.81
272.162	86.81
272.394	77.81
272.626	82.81
272.858	101.81
273.09	88.81
273.322	77.81
273.553	85.81
273.785	82.81
274.017	74.81
274.249	82.81
274.481	79.81
274.713	66.81
274.945	81.81
275.176	95.81
275.408	93.81
275.64	96.81
275.872	98.81
276.104	95.81
276.335	85.81
276.567	102.81
276.799	97.81
277.031	104.81
277.262	97.81
277.494	88.81
277.726	66.81
277.957	95.81
278.189	86.81
278.421	73.81
278.652	90.81
278.884	99.81
279.115	73.81
279.347	89.81
279.579	77.81
279.81	81.81
280.042	80.81
280.273	90.81
280.505	95.81
280.736	72.81
280.968	86.81
281.199	80.81
281.431	82.81
281.662	85.81
281.894	95.81
282.125	106.81
282.356	82.81
282.588	128.81
282.819	106.81
283.051	89.81
283.282	84.81
283.513	74.81
283.745	92.81
283.976	86.81
284.207	81.81
284.439	83.81
284.67	89.81
284.901	88.81
285.132	89.81
285.364	84.81
285.595	88.81
285.826	91.81
286.057	86.81
286.288	75.81
286.52	80.81
286.751	79.81
286.982	67.81
287.213	93.81
287.444	89.81
287.675	82.81
287.906	85.81
288.138	84.81
288.369	90.81
288.6	77.81
288.831	82.81
289.062	73.81
289.293	75.81
289.524	77.81
289.755	90.81
289.986	81.81
290.217	81.81
290.448	86.81
290.679	91.81
290.91	89.81
291.141	81.81
291.371	89.81
291.602	89.81
291.833	81.81
292.064	93.81
292.295	80.81
292.526	89.81
292.757	80.81
292.987	78.81
293.218	98.81
293.449	87.81
293.68	74.81
293.91	74.81
294.141	85.81
294.372	87.81
294.603	95.81
294.833	93.81
295.064	89.81
295.295	87.81
295.525	91.81
295.756	110.81
295.987	110.81
296.217	131.81
296.448	115.81
296.679	82.81
296.909	96.81
297.14	90.81
297.37	82.81
297.601	78.81
297.831	79.81
298.062	92.81
298.292	89.81
298.523	79.81
298.753	90.81
298.984	89.81
299.214	93.81
299.445	81.81
299.675	98.81
299.905	93.81
300.136	101.81
300.366	72.81
300.597	84.81
300.827	97.81
301.057	96.81
301.288	105.81
301.518	85.81
301.748	99.81
301.979	89.81
302.209	96.81
302.439	100.81
302.669	83.81
302.9	82.81
303.13	85.81
303.36	99.81
303.59	98.81
303.82	100.81
304.051	92.81
304.281	99.81
304.511	90.81
304.741	74.81
304.971	97.81
305.201	97.81
305.431	86.81
305.661	89.81
305.891	97.81
306.121	71.81
306.352	98.81
306.582	110.81
306.812	87.81
307.042	99.81
307.272	99.81
307.502	107.81
307.731	100.81
307.961	88.81
308.191	98.81
308.421	79.81
308.651	89.81
308.881	79.81
309.111	104.81
309.341	77.81
309.571	86.81
309.8	96.81
310.03	93.81
310.26	93.81
310.49	115.81
310.72	94.81
310.949	90.81
311.179	108.81
311.409	111.81
311.639	106.81
311.868	95.81
312.098	107.81
312.328	91.81
312.557	93.81
312.787	103.81
313.017	92.81
313.246	81.81
313.476	102.81
313.706	97.81
313.935	95.81
314.165	105.81
314.394	81.81
314.624	82.81
314.853	91.81
315.083	79.81
315.312	108.81
315.542	95.81
315.771	75.81
316.001	90.81
316.23	76.81
316.46	95.81
316.689	84.81
316.919	93.81
317.148	111.81
317.377	100.81
317.607	89.81
317.836	83.81
318.065	92.81
318.295	85.81
318.524	86.81
318.753	82.81
318.983	88.81
319.212	90.81
319.441	90.81
319.67	105.81
319.9	97.81
320.129	99.81
320.358	102.81
320.587	90.81
320.816	96.81
321.046	94.81
321.275	93.81
321.504	86.81
321.733	105.81
321.962	109.81
322.191	99.81
322.42	103.81
322.649	99.81
322.878	98.81
323.108	118.81
323.337	120.81
323.566	126.81
323.795	143.81
324.024	197.81
324.253	358.81
324.482	743.81
324.71	1589.81
324.939	2029.81
325.168	769.81
325.397	222.81
325.626	135.81
325.855	118.81
326.084	118.81
326.313	132.81
326.542	136.81
326.77	208.81
326.999	415.81
327.228	858.81
327.457	1616.81
327.686	1296.81
327.914	355.81
328.143	185.81
328.372	134.81
328.6	123.81
328.829	115.81
329.058	116.81
329.287	122.81
329.515	113.81
329.744	101.81
329.972	93.81
330.201	103.81
330.43	106.81
330.658	112.81
330.887	128.81
331.115	117.81
331.344	82.81
331.572	100.81
331.801	100.81
332.03	94.81
332.258	91.81
332.486	85.81
332.715	103.81
332.943	85.81
333.172	88.81
333.4	106.81
333.629	97.81
333.857	102.81
334.085	74.81
334.314	103.81
334.542	99.81
334.771	85.81
334.999	95.81
335.227	101.81
335.455	82.81
335.684	95.81
335.912	81.81
336.14	81.81
336.369	93.81
336.597	102.81
336.825	86.81
337.053	84.81
337.281	91.81
337.51	114.81
337.738	86.81
337.966	93.81
338.194	90.81
338.422	103.81
338.65	96.81
338.878	91.81
339.106	99.81
339.334	103.81
339.562	95.81
339.79	101.81
340.018	102.81
340.246	93.81
340.474	75.81
340.702	88.81
340.93	84.81
341.158	93.81
341.386	103.81
341.614	101.81
341.842	111.81
342.07	95.81
342.298	90.81
342.526	89.81
342.754	90.81
342.981	80.81
343.209	89.81
343.437	106.81
343.665	98.81
343.893	94.81
344.12	83.81
344.348	89.81
344.576	87.81
344.804	92.81
345.031	97.81
345.259	96.81
345.487	94.81
345.714	97.81
345.942	101.81
346.17	90.81
346.397	95.81
346.625	92.81
346.853	78.81
347.08	89.81
347.308	98.81
347.535	83.81
347.763	89.81
347.99	88.81
348.218	99.81
348.445	100.81
348.673	88.81
348.9	96.81
349.128	106.81
349.355	96.81
349.583	88.81
349.81	86.81
350.037	94.81
350.265	96.81
350.492	82.81
350.72	98.81
350.947	96.81
351.174	94.81
351.402	113.81
351.629	107.81
351.856	88.81
352.083	96.81
352.311	102.81
352.538	106.81
352.765	99.81
352.992	100.81
353.22	102.81
353.447	85.81
353.674	104.81
353.901	91.81
354.128	104.81
354.355	96.81
354.583	95.81
354.81	67.81
355.037	85.81
355.264	92.81
355.491	101.81
355.718	95.81
355.945	102.81
356.172	98.81
356.399	87.81
356.626	81.81
356.853	98.81
357.08	106.81
357.307	86.81
357.534	80.81
357.761	88.81
357.988	90.81
358.215	90.81
358.441	117.81
358.668	98.81
358.895	90.81
359.122	87.81
359.349	86.81
359.576	99.81
359.802	90.81
360.029	92.81
360.256	94.81
360.483	89.81
360.709	79.81
360.936	79.81
361.163	97.81
361.39	95.81
361.616	95.81
361.843	98.81
362.07	97.81
362.296	90.81
362.523	88.81
362.749	78.81
362.976	77.81
363.203	78.81
363.429	77.81
363.656	91.81
363.882	87.81
364.109	96.81
364.335	89.81
364.562	95.81
364.788	99.81
365.015	99.81
365.241	95.81
365.468	112.81
365.694	86.81
365.92	94.81
366.147	92.81
366.373	94.81
366.599	98.81
366.826	87.81
367.052	87.81
367.278	89.81
367.505	81.81
367.731	87.81
367.957	91.81
368.184	90.81
368.41	87.81
368.636	117.81
368.862	96.81
369.089	98.81
369.315	88.81
369.541	90.81
369.767	91.81
369.993	94.81
370.219	94.81
370.445	83.81
370.672	95.81
370.898	81.81
371.124	80.81
371.35	90.81
371.576	95.81
371.802	96.81
372.028	93.81
372.254	90.81
372.48	94.81
372.706	82.81
372.932	90.81
373.158	87.81
373.384	96.81
373.61	89.81
373.835	94.81
374.061	88.81
374.287	99.81
374.513	99.81
374.739	88.81
374.965	77.81
375.191	98.81
375.416	82.81
375.642	82.81
375.868	95.81
376.094	90.81
376.319	83.81
376.545	79.81
376.771	80.81
376.997	96.81
377.222	86.81
377.448	90.81
377.674	86.81
377.899	97.81
378.125	67.81
378.35	103.81
378.576	93.81
378.802	78.81
379.027	88.81
379.253	102.81
379.478	97.81
379.704	105.81
379.929	91.81
380.155	97.81
380.38	75.81
380.606	89.81
380.831	94.81
381.057	95.81
381.282	87.81
381.507	90.81
381.733	96.81
381.958	84.81
382.184	96.81
382.409	91.81
382.634	82.81
382.86	93.81
383.085	85.81
383.31	91.81
383.535	83.81
383.761	94.81
383.986	96.81
384.211	96.81
384.436	108.81
384.662	86.81
384.887	101.81
385.112	87.81
385.337	86.81
385.562	102.81
385.787	116.81
386.013	98.81
386.238	112.81
386.463	95.81
386.688	95.81
386.913	96.81
387.138	100.81
387.363	104.81
387.588	94.81
387.813	86.81
388.038	96.81
388.263	99.81
388.488	107.81
388.713	106.81
388.938	80.81
389.163	87.81
389.387	107.81
389.612	103.81
389.837	84.81
390.062	98.81
390.287	88.81
390.512	86.81
390.736	96.81
390.961	88.81
391.186	93.81
391.411	89.81
391.636	90.81
391.86	86.81
392.085	82.81
392.31	79.81
392.534	70.81
392.759	96.81
392.984	81.81
393.208	82.81
393.433	84.81
393.658	82.81
393.882	90.81
394.107	88.81
394.331	84.81
394.556	98.81
394.78	91.81
395.005	75.81
395.229	91.81
395.454	82.81
395.678	74.81
395.903	80.81
396.127	94.81
396.352	87.81
396.576	82.81
396.801	81.81
397.025	94.81
397.249	84.81
397.474	85.81
397.698	93.81
397.922	97.81
398.147	84.81
398.371	73.81
398.595	88.81
398.82	89.81
399.044	91.81
399.268	79.81
399.492	97.81
399.717	64.81
399.941	79.81
400.165	88.81
400.389	83.81
400.613	87.81
400.837	82.81
401.062	80.81
401.286	85.81
401.51	84.81
401.734	86.81
401.958	97.81
402.182	133.81
402.406	154.81
402.63	118.81
402.854	86.81
403.078	78.81
403.302	73.81
403.526	85.81
403.75	77.81
403.974	78.81
404.198	89.81
404.422	84.81
404.645	78.81
404.869	90.81
405.093	103.81
405.317	89.81
405.541	100.81
405.765	100.81
405.988	113.81
406.212	158.81
406.436	192.81
406.66	134.81
406.883	94.81
407.107	87.81
407.331	83.81
407.555	97.81
407.778	100.81
408.002	95.81
408.226	81.81
408.449	86.81
408.673	94.81
408.896	93.81
409.12	94.81
409.344	85.81
409.567	85.81
409.791	97.81
410.014	89.81
410.238	78.81
410.461	82.81
410.685	85.81
410.908	95.81
411.132	106.81
411.355	104.81
411.578	99.81
411.802	89.81
412.025	86.81
412.249	86.81
412.472	102.81
412.695	95.81
412.919	101.81
413.142	77.81
413.365	88.81
413.589	101.81
413.812	97.81
414.035	91.81
414.258	93.81
414.482	105.81
414.705	95.81
414.928	82.81
415.151	93.81
415.374	100.81
415.597	64.81
415.821	82.81
416.044	73.81
416.267	89.81
416.49	82.81
416.713	87.81
416.936	88.81
417.159	77.81
417.382	86.81
417.605	63.81
417.828	97.81
418.051	83.81
418.274	95.81
418.497	92.81
418.72	77.81
418.943	81.81
419.166	90.81
419.389	110.81
419.611	84.81
419.834	93.81
420.057	95.81
420.28	81.81
420.503	82.81
420.726	106.81
420.948	71.81
421.171	96.81
421.394	95.81
421.617	95.81
421.839	88.81
422.062	85.81
422.285	87.81
422.507	93.81
422.73	110.81
422.953	87.81
423.175	107.81
423.398	94.81
423.621	96.81
423.843	84.81
424.066	87.81
424.288	90.81
424.511	96.81
424.733	93.81
424.956	97.81
425.178	88.81
425.401	98.81
425.623	89.81
425.846	105.81
426.068	91.81
426.291	90.81
426.513	90.81
426.735	84.81
426.958	102.81
427.18	103.81
427.402	135.81
427.625	143.81
427.847	113.81
428.069	98.81
428.292	81.81
428.514	95.81
428.736	90.81
428.958	84.81
429.181	74.81
429.403	87.81
429.625	74.81
429.847	98.81
430.069	90.81
430.292	93.81
430.514	82.81
430.736	82.81
430.958	88.81
431.18	98.81
431.402	96.81
431.624	89.81
431.846	80.81
432.068	79.81
432.29	87.81
432.512	75.81
432.734	80.81
432.956	93.81
433.178	99.81
433.4	106.81
433.622	88.81
433.844	89.81
434.066	89.81
434.287	90.81
434.509	84.81
434.731	80.81
434.953	89.81
435.175	90.81
435.397	81.81
435.618	97.81
435.84	109.81
436.062	115.81
436.284	99.81
436.505	96.81
436.727	99.81
436.949	106.81
437.17	88.81
437.392	111.81
437.614	90.81
437.835	96.81
438.057	105.81
438.278	81.81
438.5	100.81
438.721	101.81
438.943	86.81
439.165	70.81
439.386	75.81
439.608	89.81
439.829	97.81
440.05	105.81
440.272	134.81
440.493	99.81
440.715	94.81
440.936	92.81
441.158	85.81
441.379	89.81
441.6	77.81
441.822	83.81
442.043	89.81
442.264	95.81
442.486	94.81
442.707	90.81
442.928	101.81
443.149	132.81
443.371	110.81
443.592	105.81
443.813	107.81
444.034	106.81
444.255	74.81
444.476	98.81
444.698	97.81
444.919	87.81
445.14	133.81
445.361	117.81
445.582	105.81
445.803	103.81
446.024	122.81
446.245	103.81
446.466	120.81
446.687	88.81
446.908	85.81
447.129	77.81
447.35	80.81
447.571	80.81
447.792	90.81
448.013	98.81
448.234	106.81
448.455	94.81
448.675	99.81
448.896	110.81
449.117	102.81
449.338	88.81
449.559	124.81
449.779	132.81
450	88.81
450.221	100.81
450.442	97.81
450.662	104.81
450.883	85.81
451.104	97.81
451.324	94.81
451.545	90.81
451.766	78.81
451.986	71.81
452.207	95.81
452.428	84.81
452.648	92.81
452.869	103.81
453.089	106.81
453.31	103.81
453.53	103.81
453.751	79.81
453.971	81.81
454.192	86.81
454.412	68.81
454.633	74.81
454.853	80.81
455.073	87.81
455.294	86.81
455.514	86.81
455.734	80.81
455.955	89.81
456.175	72.81
456.395	89.81
456.616	71.81
456.836	100.81
457.056	93.81
457.276	80.81
457.497	84.81
457.717	85.81
457.937	89.81
458.157	93.81
458.377	86.81
458.598	104.81
458.818	128.81
459.038	128.81
459.258	117.81
459.478	83.81
459.698	94.81
459.918	87.81
460.138	93.81
460.358	73.81
460.578	87.81
460.798	85.81
461.018	91.81
461.238	82.81
461.458	87.81
461.678	72.81
461.898	91.81
462.118	101.81
462.338	71.81
462.558	93.81
462.777	84.81
462.997	88.81
463.217	67.81
463.437	94.81
463.657	81.81
463.876	94.81
464.096	86.81
464.316	70.81
464.536	70.81
464.755	85.81
464.975	104.81
465.195	149.81
465.414	131.81
465.634	87.81
465.854	85.81
466.073	99.81
466.293	79.81
466.512	86.81
466.732	91.81
466.951	68.81
467.171	95.81
467.391	95.81
467.61	93.81
467.829	99.81
468.049	88.81
468.268	84.81
468.488	81.81
468.707	82.81
468.927	88.81
469.146	87.81
469.365	95.81
469.585	76.81
469.804	86.81
470.023	95.81
470.243	81.81
470.462	96.81
470.681	88.81
470.901	86.81
471.12	78.81
471.339	79.81
471.558	93.81
471.777	86.81
471.997	95.81
472.216	80.81
472.435	97.81
472.654	80.81
472.873	71.81
473.092	79.81
473.311	102.81
473.53	89.81
473.749	83.81
473.968	95.81
474.187	96.81
474.406	87.81
474.625	98.81
474.844	88.81
475.063	78.81
475.282	84.81
475.501	81.81
475.72	94.81
475.939	82.81
476.158	96.81
476.377	95.81
476.596	82.81
476.814	81.81
477.033	90.81
477.252	82.81
477.471	85.81
477.69	83.81
477.908	85.81
478.127	84.81
478.346	81.81
478.564	74.81
478.783	78.81
479.002	91.81
479.22	90.81
479.439	105.81
479.658	101.81
479.876	88.81
480.095	88.81
480.313	93.81
480.532	92.81
480.751	72.81
480.969	90.81
481.188	118.81
481.406	107.81
481.624	85.81
481.843	87.81
482.061	80.81
482.28	83.81
482.498	103.81
482.717	91.81
482.935	86.81
483.153	95.81
483.372	97.81
483.59	92.81
483.808	93.81
484.027	74.81
484.245	102.81
484.463	94.81
484.681	101.81
484.9	81.81
485.118	98.81
485.336	93.81
485.554	102.81
485.772	71.81
485.99	98.81
486.209	102.81
486.427	91.81
486.645	99.81
486.863	96.81
487.081	88.81
487.299	97.81
487.517	99.81
487.735	103.81
487.953	94.81
488.171	94.81
488.389	89.81
488.607	98.81
488.825	85.81
489.043	104.81
489.261	94.81
489.479	87.81
489.696	87.81
489.914	86.81
490.132	90.81
490.35	81.81
490.568	91.81
490.786	106.81
491.003	90.81
491.221	91.81
491.439	96.81
491.657	93.81
491.874	83.81
492.092	83.81
492.31	83.81
492.527	84.81
492.745	85.81
492.963	100.81
493.18	81.81
493.398	79.81
493.615	110.81
493.833	87.81
494.05	81.81
494.268	80.81
494.485	91.81
494.703	90.81
494.92	88.81
495.138	70.81
495.355	93.81
495.573	87.81
495.79	86.81
496.008	88.81
496.225	87.81
496.442	89.81
496.66	81.81
496.877	97.81
497.094	84.81
497.312	81.81
497.529	94.81
497.746	88.81
497.963	102.81
498.181	95.81
498.398	100.81
498.615	111.81
498.832	88.81
499.049	78.81
499.267	90.81
499.484	95.81
499.701	88.81
499.918	85.81
500.135	108.81
500.352	91.81
500.569	87.81
500.786	94.81
501.003	103.81
501.22	95.81
501.437	90.81
501.654	104.81
501.871	103.81
502.088	91.81
502.305	93.81
502.522	88.81
502.739	99.81
502.956	83.81
503.172	84.81
503.389	96.81
503.606	96.81
503.823	98.81
504.04	95.81
504.256	80.81
504.473	98.81
504.69	98.81
504.907	102.81
505.123	94.81
505.34	88.81
505.557	94.81
505.773	99.81
505.99	89.81
506.207	75.81
506.423	79.81
506.64	83.81
506.856	84.81
507.073	97.81
507.289	89.81
507.506	83.81
507.722	97.81
507.939	108.81
508.155	95.81
508.372	103.81
508.588	85.81
508.805	90.81
509.021	91.81
509.238	104.81
509.454	115.81
509.67	94.81
509.887	101.81
510.103	126.81
510.319	196.81
510.536	719.81
510.752	2345.81
510.968	634.81
511.184	145.81
511.401	109.81
511.617	97.81
511.833	97.81
512.049	96.81
512.265	100.81
512.481	83.81
512.698	85.81
512.914	75.81
513.13	77.81
513.346	78.81
513.562	95.81
513.778	86.81
513.994	94.81
514.21	93.81
514.426	112.81
514.642	120.81
514.858	119.81
515.074	147.81
515.29	410.81
515.506	1383.81
515.721	477.81
515.937	142.81
516.153	95.81
516.369	87.81
516.585	95.81
