Data from Uncirc_1984_H10_HRD10591_00100.txt Node
Date: Wed Jan 03 12:21:57 EST 2024
User: Yrep
Spectrometer: HR+D1059
Trigger mode: 1
Integration Time (sec): 1.000000E-1
Scans to average: 1
Electric dark correction enabled: true
Nonlinearity correction enabled: false
Boxcar width: 0
XAxis mode: Wavelengths
Number of Pixels in Spectrum: 2048
>>>>>Begin Spectral Data<<<<<
223.165	-12.12
223.4	-12.12
223.635	-12.12
223.869	-10.12
224.104	-34.12
224.338	-24.12
224.573	-11.12
224.808	-8.12
225.042	-11.12
225.277	-14.12
225.511	-4.12
225.746	17.88
225.98	11.88
226.215	-1.12
226.449	12.88
226.683	22.88
226.918	24.88
227.152	39.88
227.387	32.88
227.621	36.88
227.856	35.88
228.09	37.88
228.324	47.88
228.559	52.88
228.793	59.88
229.027	68.88
229.262	75.88
229.496	70.88
229.73	78.88
229.964	92.88
230.199	72.88
230.433	80.88
230.667	93.88
230.901	84.88
231.136	82.88
231.37	84.88
231.604	88.88
231.838	103.88
232.072	77.88
232.306	78.88
232.541	88.88
232.775	89.88
233.009	87.88
233.243	71.88
233.477	76.88
233.711	90.88
233.945	80.88
234.179	72.88
234.413	102.88
234.647	85.88
234.881	90.88
235.115	67.88
235.349	83.88
235.583	76.88
235.817	71.88
236.051	86.88
236.285	75.88
236.519	92.88
236.753	89.88
236.987	91.88
237.221	85.88
237.455	82.88
237.689	83.88
237.922	75.88
238.156	83.88
238.39	84.88
238.624	74.88
238.858	66.88
239.091	68.88
239.325	89.88
239.559	75.88
239.793	94.88
240.027	80.88
240.26	66.88
240.494	72.88
240.728	88.88
240.961	73.88
241.195	78.88
241.429	77.88
241.662	99.88
241.896	77.88
242.13	80.88
242.363	84.88
242.597	78.88
242.83	82.88
243.064	72.88
243.298	80.88
243.531	81.88
243.765	89.88
243.998	79.88
244.232	102.88
244.465	81.88
244.699	83.88
244.932	84.88
245.166	86.88
245.399	86.88
245.633	94.88
245.866	84.88
246.099	83.88
246.333	80.88
246.566	85.88
246.8	84.88
247.033	91.88
247.266	77.88
247.5	76.88
247.733	80.88
247.966	77.88
248.2	93.88
248.433	88.88
248.666	81.88
248.899	81.88
249.133	85.88
249.366	109.88
249.599	94.88
249.832	81.88
250.066	96.88
250.299	89.88
250.532	75.88
250.765	77.88
250.998	74.88
251.231	71.88
251.465	74.88
251.698	93.88
251.931	91.88
252.164	85.88
252.397	82.88
252.63	72.88
252.863	93.88
253.096	83.88
253.329	82.88
253.562	85.88
253.795	97.88
254.028	87.88
254.261	95.88
254.494	84.88
254.727	90.88
254.96	84.88
255.193	82.88
255.426	82.88
255.659	68.88
255.892	91.88
256.124	100.88
256.357	75.88
256.59	88.88
256.823	89.88
257.056	83.88
257.289	92.88
257.521	84.88
257.754	105.88
257.987	83.88
258.22	75.88
258.452	94.88
258.685	88.88
258.918	94.88
259.151	78.88
259.383	81.88
259.616	81.88
259.849	66.88
260.081	84.88
260.314	70.88
260.547	84.88
260.779	82.88
261.012	84.88
261.244	102.88
261.477	92.88
261.71	98.88
261.942	107.88
262.175	114.88
262.407	80.88
262.64	78.88
262.872	80.88
263.105	84.88
263.337	92.88
263.57	68.88
263.802	82.88
264.035	88.88
264.267	77.88
264.499	78.88
264.732	86.88
264.964	89.88
265.197	73.88
265.429	78.88
265.661	75.88
265.894	92.88
266.126	90.88
266.358	81.88
266.591	85.88
266.823	86.88
267.055	78.88
267.287	82.88
267.52	80.88
267.752	88.88
267.984	73.88
268.216	84.88
268.448	92.88
268.681	89.88
268.913	93.88
269.145	91.88
269.377	86.88
269.609	96.88
269.841	83.88
270.073	83.88
270.306	75.88
270.538	90.88
270.77	84.88
271.002	84.88
271.234	73.88
271.466	94.88
271.698	89.88
271.93	81.88
272.162	90.88
272.394	88.88
272.626	76.88
272.858	78.88
273.09	86.88
273.322	73.88
273.553	75.88
273.785	68.88
274.017	91.88
274.249	95.88
274.481	92.88
274.713	82.88
274.945	90.88
275.176	92.88
275.408	91.88
275.64	89.88
275.872	84.88
276.104	93.88
276.335	87.88
276.567	106.88
276.799	108.88
277.031	106.88
277.262	98.88
277.494	88.88
277.726	86.88
277.957	93.88
278.189	101.88
278.421	94.88
278.652	93.88
278.884	76.88
279.115	88.88
279.347	70.88
279.579	96.88
279.81	96.88
280.042	78.88
280.273	87.88
280.505	98.88
280.736	80.88
280.968	89.88
281.199	91.88
281.431	82.88
281.662	85.88
281.894	76.88
282.125	106.88
282.356	127.88
282.588	143.88
282.819	106.88
283.051	96.88
283.282	92.88
283.513	89.88
283.745	86.88
283.976	84.88
284.207	96.88
284.439	95.88
284.67	104.88
284.901	90.88
285.132	96.88
285.364	77.88
285.595	74.88
285.826	92.88
286.057	89.88
286.288	83.88
286.52	93.88
286.751	101.88
286.982	82.88
287.213	91.88
287.444	89.88
287.675	84.88
287.906	86.88
288.138	90.88
288.369	98.88
288.6	95.88
288.831	74.88
289.062	100.88
289.293	93.88
289.524	67.88
289.755	75.88
289.986	100.88
290.217	83.88
290.448	71.88
290.679	86.88
290.91	94.88
291.141	79.88
291.371	85.88
291.602	101.88
291.833	81.88
292.064	95.88
292.295	93.88
292.526	74.88
292.757	86.88
292.987	93.88
293.218	82.88
293.449	84.88
293.68	87.88
293.91	90.88
294.141	93.88
294.372	71.88
294.603	89.88
294.833	101.88
295.064	88.88
295.295	85.88
295.525	91.88
295.756	106.88
295.987	117.88
296.217	129.88
296.448	125.88
296.679	101.88
296.909	86.88
297.14	89.88
297.37	84.88
297.601	74.88
297.831	82.88
298.062	102.88
298.292	70.88
298.523	78.88
298.753	99.88
298.984	93.88
299.214	101.88
299.445	95.88
299.675	93.88
299.905	102.88
300.136	95.88
300.366	87.88
300.597	109.88
300.827	72.88
301.057	120.88
301.288	111.88
301.518	104.88
301.748	85.88
301.979	95.88
302.209	96.88
302.439	92.88
302.669	80.88
302.9	92.88
303.13	101.88
303.36	102.88
303.59	94.88
303.82	107.88
304.051	87.88
304.281	89.88
304.511	81.88
304.741	86.88
304.971	82.88
305.201	100.88
305.431	89.88
305.661	93.88
305.891	88.88
306.121	94.88
306.352	84.88
306.582	105.88
306.812	103.88
307.042	92.88
307.272	85.88
307.502	89.88
307.731	98.88
307.961	88.88
308.191	97.88
308.421	78.88
308.651	96.88
308.881	86.88
309.111	88.88
309.341	99.88
309.571	89.88
309.8	102.88
310.03	109.88
310.26	107.88
310.49	107.88
310.72	106.88
310.949	98.88
311.179	94.88
311.409	93.88
311.639	88.88
311.868	90.88
312.098	103.88
312.328	90.88
312.557	104.88
312.787	106.88
313.017	100.88
313.246	108.88
313.476	94.88
313.706	99.88
313.935	107.88
314.165	100.88
314.394	98.88
314.624	101.88
314.853	98.88
315.083	89.88
315.312	81.88
315.542	82.88
315.771	91.88
316.001	101.88
316.23	101.88
316.46	98.88
316.689	99.88
316.919	105.88
317.148	99.88
317.377	95.88
317.607	97.88
317.836	99.88
318.065	100.88
318.295	84.88
318.524	87.88
318.753	92.88
318.983	87.88
319.212	117.88
319.441	113.88
319.67	99.88
319.9	96.88
320.129	93.88
320.358	90.88
320.587	96.88
320.816	109.88
321.046	92.88
321.275	92.88
321.504	102.88
321.733	88.88
321.962	97.88
322.191	103.88
322.42	99.88
322.649	107.88
322.878	121.88
323.108	113.88
323.337	131.88
323.566	120.88
323.795	134.88
324.024	210.88
324.253	380.88
324.482	806.88
324.71	1621.88
324.939	2156.88
325.168	787.88
325.397	258.88
325.626	138.88
325.855	137.88
326.084	107.88
326.313	137.88
326.542	153.88
326.77	212.88
326.999	426.88
327.228	939.88
327.457	1720.88
327.686	1318.88
327.914	350.88
328.143	181.88
328.372	142.88
328.6	118.88
328.829	120.88
329.058	123.88
329.287	117.88
329.515	108.88
329.744	99.88
329.972	102.88
330.201	101.88
330.43	111.88
330.658	120.88
330.887	121.88
331.115	116.88
331.344	100.88
331.572	113.88
331.801	106.88
332.03	97.88
332.258	99.88
332.486	95.88
332.715	106.88
332.943	95.88
333.172	82.88
333.4	105.88
333.629	109.88
333.857	115.88
334.085	105.88
334.314	111.88
334.542	110.88
334.771	105.88
334.999	108.88
335.227	96.88
335.455	100.88
335.684	97.88
335.912	108.88
336.14	102.88
336.369	100.88
336.597	101.88
336.825	105.88
337.053	90.88
337.281	91.88
337.51	101.88
337.738	74.88
337.966	105.88
338.194	93.88
338.422	96.88
338.65	80.88
338.878	98.88
339.106	84.88
339.334	94.88
339.562	103.88
339.79	108.88
340.018	106.88
340.246	91.88
340.474	86.88
340.702	88.88
340.93	81.88
341.158	92.88
341.386	91.88
341.614	97.88
341.842	98.88
342.07	93.88
342.298	100.88
342.526	101.88
342.754	105.88
342.981	95.88
343.209	87.88
343.437	106.88
343.665	106.88
343.893	89.88
344.12	105.88
344.348	98.88
344.576	97.88
344.804	104.88
345.031	85.88
345.259	96.88
345.487	96.88
345.714	89.88
345.942	85.88
346.17	91.88
346.397	92.88
346.625	98.88
346.853	96.88
347.08	92.88
347.308	96.88
347.535	98.88
347.763	96.88
347.99	92.88
348.218	92.88
348.445	109.88
348.673	89.88
348.9	117.88
349.128	106.88
349.355	110.88
349.583	90.88
349.81	93.88
350.037	99.88
350.265	88.88
350.492	75.88
350.72	99.88
350.947	88.88
351.174	102.88
351.402	112.88
351.629	95.88
351.856	115.88
352.083	108.88
352.311	107.88
352.538	110.88
352.765	117.88
352.992	108.88
353.22	117.88
353.447	100.88
353.674	93.88
353.901	99.88
354.128	106.88
354.355	98.88
354.583	102.88
354.81	107.88
355.037	96.88
355.264	85.88
355.491	96.88
355.718	87.88
355.945	99.88
356.172	105.88
356.399	102.88
356.626	84.88
356.853	96.88
357.08	87.88
357.307	107.88
357.534	92.88
357.761	96.88
357.988	96.88
358.215	93.88
358.441	96.88
358.668	96.88
358.895	88.88
359.122	91.88
359.349	89.88
359.576	91.88
359.802	94.88
360.029	113.88
360.256	107.88
360.483	100.88
360.709	94.88
360.936	82.88
361.163	94.88
361.39	104.88
361.616	90.88
361.843	80.88
362.07	96.88
362.296	109.88
362.523	89.88
362.749	90.88
362.976	89.88
363.203	104.88
363.429	96.88
363.656	88.88
363.882	82.88
364.109	94.88
364.335	92.88
364.562	100.88
364.788	99.88
365.015	102.88
365.241	114.88
365.468	103.88
365.694	100.88
365.92	106.88
366.147	91.88
366.373	98.88
366.599	76.88
366.826	103.88
367.052	104.88
367.278	103.88
367.505	86.88
367.731	97.88
367.957	90.88
368.184	84.88
368.41	93.88
368.636	112.88
368.862	112.88
369.089	110.88
369.315	104.88
369.541	85.88
369.767	92.88
369.993	93.88
370.219	98.88
370.445	89.88
370.672	77.88
370.898	85.88
371.124	84.88
371.35	98.88
371.576	92.88
371.802	90.88
372.028	84.88
372.254	80.88
372.48	79.88
372.706	78.88
372.932	74.88
373.158	85.88
373.384	91.88
373.61	96.88
373.835	92.88
374.061	90.88
374.287	102.88
374.513	97.88
374.739	101.88
374.965	92.88
375.191	74.88
375.416	96.88
375.642	104.88
375.868	96.88
376.094	101.88
376.319	93.88
376.545	92.88
376.771	89.88
376.997	93.88
377.222	93.88
377.448	89.88
377.674	96.88
377.899	99.88
378.125	89.88
378.35	91.88
378.576	104.88
378.802	106.88
379.027	91.88
379.253	88.88
379.478	101.88
379.704	78.88
379.929	101.88
380.155	93.88
380.38	86.88
380.606	88.88
380.831	99.88
381.057	89.88
381.282	93.88
381.507	116.88
381.733	83.88
381.958	92.88
382.184	99.88
382.409	100.88
382.634	97.88
382.86	96.88
383.085	83.88
383.31	90.88
383.535	108.88
383.761	100.88
383.986	99.88
384.211	77.88
384.436	74.88
384.662	102.88
384.887	101.88
385.112	108.88
385.337	101.88
385.562	88.88
385.787	92.88
386.013	98.88
386.238	116.88
386.463	98.88
386.688	109.88
386.913	106.88
387.138	91.88
387.363	95.88
387.588	104.88
387.813	105.88
388.038	102.88
388.263	106.88
388.488	94.88
388.713	94.88
388.938	104.88
389.163	100.88
389.387	84.88
389.612	98.88
389.837	99.88
390.062	97.88
390.287	94.88
390.512	105.88
390.736	101.88
390.961	96.88
391.186	91.88
391.411	92.88
391.636	99.88
391.86	87.88
392.085	94.88
392.31	79.88
392.534	85.88
392.759	98.88
392.984	89.88
393.208	86.88
393.433	90.88
393.658	89.88
393.882	85.88
394.107	93.88
394.331	87.88
394.556	78.88
394.78	80.88
395.005	96.88
395.229	85.88
395.454	87.88
395.678	96.88
395.903	95.88
396.127	84.88
396.352	89.88
396.576	87.88
396.801	102.88
397.025	94.88
397.249	89.88
397.474	92.88
397.698	88.88
397.922	88.88
398.147	84.88
398.371	93.88
398.595	86.88
398.82	75.88
399.044	88.88
399.268	101.88
399.492	98.88
399.717	112.88
399.941	96.88
400.165	83.88
400.389	102.88
400.613	68.88
400.837	99.88
401.062	84.88
401.286	94.88
401.51	101.88
401.734	95.88
401.958	101.88
402.182	120.88
402.406	157.88
402.63	117.88
402.854	91.88
403.078	94.88
403.302	85.88
403.526	88.88
403.75	80.88
403.974	92.88
404.198	93.88
404.422	97.88
404.645	85.88
404.869	103.88
405.093	97.88
405.317	103.88
405.541	105.88
405.765	98.88
405.988	113.88
406.212	152.88
406.436	202.88
406.66	146.88
406.883	98.88
407.107	91.88
407.331	96.88
407.555	99.88
407.778	99.88
408.002	92.88
408.226	96.88
408.449	93.88
408.673	97.88
408.896	99.88
409.12	99.88
409.344	94.88
409.567	84.88
409.791	102.88
410.014	88.88
410.238	97.88
410.461	89.88
410.685	102.88
410.908	91.88
411.132	109.88
411.355	110.88
411.578	97.88
411.802	100.88
412.025	91.88
412.249	95.88
412.472	98.88
412.695	85.88
412.919	81.88
413.142	91.88
413.365	100.88
413.589	91.88
413.812	90.88
414.035	92.88
414.258	86.88
414.482	90.88
414.705	87.88
414.928	92.88
415.151	93.88
415.374	86.88
415.597	95.88
415.821	88.88
416.044	83.88
416.267	77.88
416.49	92.88
416.713	70.88
416.936	76.88
417.159	81.88
417.382	102.88
417.605	100.88
417.828	102.88
418.051	100.88
418.274	89.88
418.497	90.88
418.72	94.88
418.943	102.88
419.166	93.88
419.389	90.88
419.611	103.88
419.834	97.88
420.057	90.88
420.28	77.88
420.503	108.88
420.726	93.88
420.948	90.88
421.171	105.88
421.394	96.88
421.617	92.88
421.839	99.88
422.062	103.88
422.285	98.88
422.507	92.88
422.73	100.88
422.953	88.88
423.175	91.88
423.398	88.88
423.621	97.88
423.843	86.88
424.066	101.88
424.288	81.88
424.511	82.88
424.733	109.88
424.956	103.88
425.178	107.88
425.401	94.88
425.623	103.88
425.846	89.88
426.068	110.88
426.291	88.88
426.513	88.88
426.735	86.88
426.958	82.88
427.18	117.88
427.402	128.88
427.625	160.88
427.847	124.88
428.069	105.88
428.292	69.88
428.514	85.88
428.736	96.88
428.958	88.88
429.181	106.88
429.403	87.88
429.625	90.88
429.847	83.88
430.069	111.88
430.292	88.88
430.514	78.88
430.736	76.88
430.958	93.88
431.18	85.88
431.402	91.88
431.624	89.88
431.846	86.88
432.068	85.88
432.29	80.88
432.512	87.88
432.734	81.88
432.956	89.88
433.178	99.88
433.4	89.88
433.622	101.88
433.844	77.88
434.066	87.88
434.287	105.88
434.509	107.88
434.731	102.88
434.953	97.88
435.175	104.88
435.397	77.88
435.618	92.88
435.84	91.88
436.062	109.88
436.284	118.88
436.505	101.88
436.727	111.88
436.949	91.88
437.17	85.88
437.392	84.88
437.614	94.88
437.835	123.88
438.057	135.88
438.278	100.88
438.5	98.88
438.721	110.88
438.943	93.88
439.165	78.88
439.386	93.88
439.608	90.88
439.829	101.88
440.05	117.88
440.272	131.88
440.493	95.88
440.715	82.88
440.936	93.88
441.158	87.88
441.379	97.88
441.6	104.88
441.822	101.88
442.043	90.88
442.264	108.88
442.486	115.88
442.707	97.88
442.928	114.88
443.149	133.88
443.371	123.88
443.592	110.88
443.813	109.88
444.034	108.88
444.255	90.88
444.476	89.88
444.698	77.88
444.919	75.88
445.14	122.88
445.361	122.88
445.582	121.88
445.803	127.88
446.024	135.88
446.245	137.88
446.466	112.88
446.687	91.88
446.908	95.88
447.129	100.88
447.35	82.88
447.571	96.88
447.792	102.88
448.013	104.88
448.234	104.88
448.455	97.88
448.675	119.88
448.896	117.88
449.117	102.88
449.338	105.88
449.559	125.88
449.779	120.88
450	82.88
450.221	91.88
450.442	96.88
450.662	88.88
450.883	112.88
451.104	105.88
451.324	110.88
451.545	81.88
451.766	94.88
451.986	93.88
452.207	94.88
452.428	93.88
452.648	122.88
452.869	124.88
453.089	103.88
453.31	110.88
453.53	97.88
453.751	86.88
453.971	106.88
454.192	113.88
454.412	89.88
454.633	90.88
454.853	91.88
455.073	89.88
455.294	97.88
455.514	107.88
455.734	93.88
455.955	85.88
456.175	92.88
456.395	83.88
456.616	80.88
456.836	81.88
457.056	90.88
457.276	88.88
457.497	87.88
457.717	89.88
457.937	84.88
458.157	104.88
458.377	96.88
458.598	102.88
458.818	148.88
459.038	141.88
459.258	122.88
459.478	93.88
459.698	80.88
459.918	101.88
460.138	84.88
460.358	85.88
460.578	91.88
460.798	88.88
461.018	85.88
461.238	99.88
461.458	93.88
461.678	101.88
461.898	100.88
462.118	100.88
462.338	94.88
462.558	84.88
462.777	88.88
462.997	89.88
463.217	74.88
463.437	98.88
463.657	100.88
463.876	102.88
464.096	105.88
464.316	100.88
464.536	96.88
464.755	90.88
464.975	104.88
465.195	160.88
465.414	175.88
465.634	100.88
465.854	85.88
466.073	89.88
466.293	104.88
466.512	97.88
466.732	97.88
466.951	93.88
467.171	89.88
467.391	110.88
467.61	114.88
467.829	92.88
468.049	101.88
468.268	90.88
468.488	81.88
468.707	91.88
468.927	78.88
469.146	94.88
469.365	96.88
469.585	83.88
469.804	94.88
470.023	93.88
470.243	89.88
470.462	111.88
470.681	119.88
470.901	93.88
471.12	95.88
471.339	96.88
471.558	98.88
471.777	83.88
471.997	89.88
472.216	103.88
472.435	110.88
472.654	93.88
472.873	99.88
473.092	88.88
473.311	92.88
473.53	89.88
473.749	92.88
473.968	102.88
474.187	106.88
474.406	81.88
474.625	96.88
474.844	94.88
475.063	80.88
475.282	87.88
475.501	83.88
475.72	87.88
475.939	83.88
476.158	96.88
476.377	80.88
476.596	76.88
476.814	96.88
477.033	109.88
477.252	98.88
477.471	91.88
477.69	96.88
477.908	81.88
478.127	99.88
478.346	91.88
478.564	74.88
478.783	98.88
479.002	101.88
479.22	101.88
479.439	108.88
479.658	104.88
479.876	105.88
480.095	100.88
480.313	90.88
480.532	101.88
480.751	97.88
480.969	111.88
481.188	128.88
481.406	106.88
481.624	85.88
481.843	104.88
482.061	93.88
482.28	89.88
482.498	87.88
482.717	97.88
482.935	107.88
483.153	93.88
483.372	82.88
483.59	89.88
483.808	107.88
484.027	98.88
484.245	91.88
484.463	84.88
484.681	98.88
484.9	99.88
485.118	93.88
485.336	104.88
485.554	96.88
485.772	102.88
485.99	101.88
486.209	116.88
486.427	115.88
486.645	109.88
486.863	119.88
487.081	107.88
487.299	99.88
487.517	102.88
487.735	90.88
487.953	87.88
488.171	90.88
488.389	92.88
488.607	94.88
488.825	95.88
489.043	92.88
489.261	91.88
489.479	92.88
489.696	98.88
489.914	92.88
490.132	90.88
490.35	99.88
490.568	98.88
490.786	104.88
491.003	96.88
491.221	98.88
491.439	78.88
491.657	92.88
491.874	90.88
492.092	106.88
492.31	104.88
492.527	92.88
492.745	88.88
492.963	92.88
493.18	86.88
493.398	80.88
493.615	96.88
493.833	112.88
494.05	100.88
494.268	80.88
494.485	90.88
494.703	104.88
494.92	98.88
495.138	93.88
495.355	90.88
495.573	98.88
495.79	84.88
496.008	87.88
496.225	93.88
496.442	93.88
496.66	100.88
496.877	88.88
497.094	90.88
497.312	100.88
497.529	93.88
497.746	97.88
497.963	109.88
498.181	93.88
498.398	83.88
498.615	100.88
498.832	98.88
499.049	85.88
499.267	96.88
499.484	93.88
499.701	98.88
499.918	96.88
500.135	96.88
500.352	97.88
500.569	89.88
500.786	78.88
501.003	86.88
501.22	81.88
501.437	91.88
501.654	106.88
501.871	99.88
502.088	91.88
502.305	84.88
502.522	99.88
502.739	88.88
502.956	90.88
503.172	99.88
503.389	94.88
503.606	118.88
503.823	108.88
504.04	98.88
504.256	93.88
504.473	91.88
504.69	93.88
504.907	92.88
505.123	96.88
505.34	90.88
505.557	90.88
505.773	89.88
505.99	88.88
506.207	94.88
506.423	80.88
506.64	92.88
506.856	101.88
507.073	92.88
507.289	92.88
507.506	90.88
507.722	104.88
507.939	96.88
508.155	105.88
508.372	97.88
508.588	93.88
508.805	94.88
509.021	102.88
509.238	106.88
509.454	106.88
509.67	95.88
509.887	106.88
510.103	141.88
510.319	223.88
510.536	775.88
510.752	2361.88
510.968	652.88
511.184	156.88
511.401	116.88
511.617	90.88
511.833	92.88
512.049	84.88
512.265	74.88
512.481	92.88
512.698	86.88
512.914	94.88
513.13	80.88
513.346	81.88
513.562	82.88
513.778	99.88
513.994	103.88
514.21	101.88
514.426	126.88
514.642	130.88
