Data from Uncirc_1984_H10_HRD10591_00072.txt Node
Date: Wed Jan 03 12:21:51 EST 2024
User: Yrep
Spectrometer: HR+D1059
Trigger mode: 1
Integration Time (sec): 1.000000E-1
Scans to average: 1
Electric dark correction enabled: true
Nonlinearity correction enabled: false
Boxcar width: 0
XAxis mode: Wavelengths
Number of Pixels in Spectrum: 2048
>>>>>Begin Spectral Data<<<<<
223.165	-17.5
223.4	-17.5
223.635	-17.5
223.869	-26.5
224.104	-14.5
224.338	-19.5
224.573	-16.5
224.808	-11.5
225.042	-0.5
225.277	6.5
225.511	4.5
225.746	4.5
225.98	-0.5
226.215	9.5
226.449	4.5
226.683	23.5
226.918	31.5
227.152	22.5
227.387	30.5
227.621	48.5
227.856	40.5
228.09	33.5
228.324	43.5
228.559	57.5
228.793	70.5
229.027	60.5
229.262	60.5
229.496	65.5
229.73	82.5
229.964	78.5
230.199	68.5
230.433	75.5
230.667	89.5
230.901	61.5
231.136	84.5
231.37	95.5
231.604	73.5
231.838	79.5
232.072	80.5
232.306	72.5
232.541	60.5
232.775	85.5
233.009	70.5
233.243	65.5
233.477	67.5
233.711	66.5
233.945	75.5
234.179	80.5
234.413	62.5
234.647	76.5
234.881	76.5
235.115	74.5
235.349	70.5
235.583	84.5
235.817	77.5
236.051	68.5
236.285	67.5
236.519	69.5
236.753	81.5
236.987	62.5
237.221	76.5
237.455	88.5
237.689	76.5
237.922	77.5
238.156	73.5
238.39	69.5
238.624	92.5
238.858	62.5
239.091	74.5
239.325	73.5
239.559	69.5
239.793	85.5
240.027	72.5
240.26	82.5
240.494	89.5
240.728	74.5
240.961	79.5
241.195	73.5
241.429	76.5
241.662	76.5
241.896	85.5
242.13	63.5
242.363	64.5
242.597	63.5
242.83	74.5
243.064	70.5
243.298	69.5
243.531	84.5
243.765	86.5
243.998	86.5
244.232	68.5
244.465	73.5
244.699	70.5
244.932	74.5
245.166	81.5
245.399	73.5
245.633	81.5
245.866	73.5
246.099	73.5
246.333	81.5
246.566	83.5
246.8	77.5
247.033	92.5
247.266	78.5
247.5	66.5
247.733	83.5
247.966	77.5
248.2	71.5
248.433	75.5
248.666	72.5
248.899	62.5
249.133	83.5
249.366	91.5
249.599	93.5
249.832	99.5
250.066	92.5
250.299	72.5
250.532	78.5
250.765	73.5
250.998	84.5
251.231	70.5
251.465	56.5
251.698	73.5
251.931	72.5
252.164	68.5
252.397	78.5
252.63	80.5
252.863	80.5
253.096	80.5
253.329	81.5
253.562	80.5
253.795	72.5
254.028	82.5
254.261	82.5
254.494	90.5
254.727	80.5
254.96	77.5
255.193	83.5
255.426	88.5
255.659	58.5
255.892	81.5
256.124	100.5
256.357	73.5
256.59	74.5
256.823	78.5
257.056	96.5
257.289	74.5
257.521	95.5
257.754	87.5
257.987	85.5
258.22	96.5
258.452	71.5
258.685	77.5
258.918	71.5
259.151	70.5
259.383	90.5
259.616	77.5
259.849	84.5
260.081	67.5
260.314	95.5
260.547	78.5
260.779	89.5
261.012	88.5
261.244	68.5
261.477	92.5
261.71	80.5
261.942	105.5
262.175	117.5
262.407	79.5
262.64	74.5
262.872	71.5
263.105	80.5
263.337	91.5
263.57	74.5
263.802	81.5
264.035	87.5
264.267	72.5
264.499	86.5
264.732	80.5
264.964	83.5
265.197	75.5
265.429	58.5
265.661	71.5
265.894	80.5
266.126	69.5
266.358	80.5
266.591	82.5
266.823	87.5
267.055	88.5
267.287	66.5
267.52	80.5
267.752	79.5
267.984	83.5
268.216	77.5
268.448	82.5
268.681	69.5
268.913	82.5
269.145	84.5
269.377	85.5
269.609	78.5
269.841	87.5
270.073	92.5
270.306	84.5
270.538	82.5
270.77	72.5
271.002	80.5
271.234	69.5
271.466	82.5
271.698	74.5
271.93	77.5
272.162	82.5
272.394	83.5
272.626	88.5
272.858	60.5
273.09	80.5
273.322	82.5
273.553	106.5
273.785	83.5
274.017	80.5
274.249	87.5
274.481	67.5
274.713	91.5
274.945	101.5
275.176	81.5
275.408	86.5
275.64	92.5
275.872	78.5
276.104	69.5
276.335	92.5
276.567	105.5
276.799	93.5
277.031	104.5
277.262	77.5
277.494	81.5
277.726	70.5
277.957	73.5
278.189	86.5
278.421	78.5
278.652	85.5
278.884	87.5
279.115	80.5
279.347	76.5
279.579	80.5
279.81	81.5
280.042	87.5
280.273	84.5
280.505	94.5
280.736	84.5
280.968	90.5
281.199	83.5
281.431	70.5
281.662	88.5
281.894	89.5
282.125	103.5
282.356	109.5
282.588	134.5
282.819	104.5
283.051	78.5
283.282	78.5
283.513	83.5
283.745	79.5
283.976	82.5
284.207	67.5
284.439	82.5
284.67	78.5
284.901	97.5
285.132	82.5
285.364	80.5
285.595	88.5
285.826	86.5
286.057	69.5
286.288	95.5
286.52	93.5
286.751	79.5
286.982	80.5
287.213	84.5
287.444	93.5
287.675	73.5
287.906	72.5
288.138	78.5
288.369	84.5
288.6	90.5
288.831	91.5
289.062	97.5
289.293	72.5
289.524	78.5
289.755	76.5
289.986	83.5
290.217	79.5
290.448	77.5
290.679	85.5
290.91	88.5
291.141	85.5
291.371	90.5
291.602	95.5
291.833	91.5
292.064	96.5
292.295	82.5
292.526	83.5
292.757	94.5
292.987	90.5
293.218	92.5
293.449	90.5
293.68	76.5
293.91	84.5
294.141	95.5
294.372	77.5
294.603	88.5
294.833	93.5
295.064	87.5
295.295	94.5
295.525	90.5
295.756	98.5
295.987	115.5
296.217	129.5
296.448	109.5
296.679	83.5
296.909	88.5
297.14	80.5
297.37	101.5
297.601	77.5
297.831	75.5
298.062	92.5
298.292	80.5
298.523	100.5
298.753	91.5
298.984	88.5
299.214	83.5
299.445	95.5
299.675	104.5
299.905	83.5
300.136	94.5
300.366	86.5
300.597	102.5
300.827	95.5
301.057	101.5
301.288	103.5
301.518	84.5
301.748	88.5
301.979	98.5
302.209	79.5
302.439	82.5
302.669	78.5
302.9	84.5
303.13	97.5
303.36	77.5
303.59	85.5
303.82	98.5
304.051	92.5
304.281	94.5
304.511	95.5
304.741	79.5
304.971	80.5
305.201	91.5
305.431	76.5
305.661	85.5
305.891	82.5
306.121	83.5
306.352	94.5
306.582	85.5
306.812	71.5
307.042	94.5
307.272	73.5
307.502	83.5
307.731	97.5
307.961	78.5
308.191	72.5
308.421	86.5
308.651	89.5
308.881	88.5
309.111	93.5
309.341	88.5
309.571	98.5
309.8	96.5
310.03	91.5
310.26	88.5
310.49	106.5
310.72	105.5
310.949	104.5
311.179	86.5
311.409	98.5
311.639	88.5
311.868	87.5
312.098	87.5
312.328	90.5
312.557	106.5
312.787	100.5
313.017	103.5
313.246	89.5
313.476	98.5
313.706	77.5
313.935	71.5
314.165	98.5
314.394	99.5
314.624	69.5
314.853	85.5
315.083	109.5
315.312	88.5
315.542	87.5
315.771	87.5
316.001	78.5
316.23	87.5
316.46	86.5
316.689	86.5
316.919	95.5
317.148	99.5
317.377	97.5
317.607	88.5
317.836	79.5
318.065	88.5
318.295	81.5
318.524	97.5
318.753	88.5
318.983	91.5
319.212	109.5
319.441	104.5
319.67	103.5
319.9	97.5
320.129	104.5
320.358	93.5
320.587	87.5
320.816	85.5
321.046	98.5
321.275	88.5
321.504	82.5
321.733	89.5
321.962	91.5
322.191	96.5
322.42	103.5
322.649	101.5
322.878	110.5
323.108	106.5
323.337	92.5
323.566	113.5
323.795	148.5
324.024	174.5
324.253	355.5
324.482	744.5
324.71	1504.5
324.939	2011.5
325.168	731.5
325.397	235.5
325.626	143.5
325.855	113.5
326.084	127.5
326.313	124.5
326.542	147.5
326.77	216.5
326.999	406.5
327.228	834.5
327.457	1549.5
327.686	1243.5
327.914	334.5
328.143	174.5
328.372	121.5
328.6	111.5
328.829	100.5
329.058	100.5
329.287	110.5
329.515	107.5
329.744	85.5
329.972	90.5
330.201	97.5
330.43	103.5
330.658	114.5
330.887	120.5
331.115	114.5
331.344	88.5
331.572	96.5
331.801	103.5
332.03	104.5
332.258	87.5
332.486	97.5
332.715	81.5
332.943	100.5
333.172	91.5
333.4	103.5
333.629	97.5
333.857	95.5
334.085	93.5
334.314	93.5
334.542	92.5
334.771	103.5
334.999	97.5
335.227	81.5
335.455	92.5
335.684	84.5
335.912	97.5
336.14	88.5
336.369	106.5
336.597	94.5
336.825	78.5
337.053	84.5
337.281	96.5
337.51	96.5
337.738	95.5
337.966	95.5
338.194	69.5
338.422	92.5
338.65	78.5
338.878	71.5
339.106	80.5
339.334	95.5
339.562	92.5
339.79	90.5
340.018	88.5
340.246	90.5
340.474	87.5
340.702	91.5
340.93	80.5
341.158	92.5
341.386	97.5
341.614	87.5
341.842	80.5
342.07	86.5
342.298	72.5
342.526	96.5
342.754	87.5
342.981	108.5
343.209	93.5
343.437	100.5
343.665	101.5
343.893	80.5
344.12	88.5
344.348	89.5
344.576	98.5
344.804	89.5
345.031	95.5
345.259	86.5
345.487	81.5
345.714	98.5
345.942	77.5
346.17	72.5
346.397	80.5
346.625	80.5
346.853	86.5
347.08	94.5
347.308	79.5
347.535	86.5
347.763	82.5
347.99	93.5
348.218	96.5
348.445	88.5
348.673	110.5
348.9	76.5
349.128	95.5
349.355	95.5
349.583	98.5
349.81	90.5
350.037	91.5
350.265	96.5
350.492	90.5
350.72	101.5
350.947	86.5
351.174	100.5
351.402	105.5
351.629	111.5
351.856	93.5
352.083	113.5
352.311	101.5
352.538	108.5
352.765	104.5
352.992	110.5
353.22	104.5
353.447	109.5
353.674	106.5
353.901	104.5
354.128	83.5
354.355	84.5
354.583	89.5
354.81	85.5
355.037	103.5
355.264	104.5
355.491	97.5
355.718	98.5
355.945	88.5
356.172	97.5
356.399	86.5
356.626	96.5
356.853	88.5
357.08	94.5
357.307	88.5
357.534	92.5
357.761	90.5
357.988	94.5
358.215	78.5
358.441	97.5
358.668	97.5
358.895	85.5
359.122	83.5
359.349	90.5
359.576	87.5
359.802	96.5
360.029	110.5
360.256	81.5
360.483	88.5
360.709	88.5
360.936	95.5
361.163	92.5
361.39	97.5
361.616	93.5
361.843	86.5
362.07	99.5
362.296	103.5
362.523	101.5
362.749	81.5
362.976	82.5
363.203	104.5
363.429	83.5
363.656	71.5
363.882	86.5
364.109	90.5
364.335	79.5
364.562	88.5
364.788	81.5
365.015	82.5
365.241	97.5
365.468	104.5
365.694	105.5
365.92	108.5
366.147	73.5
366.373	89.5
366.599	78.5
366.826	89.5
367.052	93.5
367.278	86.5
367.505	98.5
367.731	84.5
367.957	65.5
368.184	84.5
368.41	88.5
368.636	95.5
368.862	116.5
369.089	105.5
369.315	109.5
369.541	86.5
369.767	95.5
369.993	86.5
370.219	84.5
370.445	84.5
370.672	92.5
370.898	89.5
371.124	87.5
371.35	98.5
371.576	95.5
371.802	88.5
372.028	83.5
372.254	90.5
372.48	91.5
372.706	84.5
372.932	92.5
373.158	83.5
373.384	88.5
373.61	94.5
373.835	95.5
374.061	101.5
374.287	90.5
374.513	88.5
374.739	77.5
374.965	98.5
375.191	93.5
375.416	102.5
375.642	92.5
375.868	85.5
376.094	89.5
376.319	90.5
376.545	97.5
376.771	94.5
376.997	82.5
377.222	85.5
377.448	82.5
377.674	89.5
377.899	100.5
378.125	91.5
378.35	89.5
378.576	77.5
378.802	76.5
379.027	91.5
379.253	91.5
379.478	90.5
379.704	96.5
379.929	77.5
380.155	92.5
380.38	93.5
380.606	85.5
380.831	72.5
381.057	82.5
381.282	94.5
381.507	91.5
381.733	93.5
381.958	77.5
382.184	84.5
382.409	80.5
382.634	94.5
382.86	94.5
383.085	96.5
383.31	96.5
383.535	108.5
383.761	91.5
383.986	89.5
384.211	93.5
384.436	91.5
384.662	76.5
384.887	85.5
385.112	81.5
385.337	102.5
385.562	105.5
385.787	93.5
386.013	107.5
386.238	96.5
386.463	100.5
386.688	102.5
386.913	105.5
387.138	94.5
387.363	96.5
387.588	94.5
387.813	88.5
388.038	89.5
388.263	99.5
388.488	101.5
388.713	101.5
388.938	80.5
389.163	89.5
389.387	90.5
389.612	86.5
389.837	91.5
390.062	87.5
390.287	97.5
390.512	93.5
390.736	104.5
390.961	103.5
391.186	89.5
391.411	98.5
391.636	88.5
391.86	98.5
392.085	76.5
392.31	89.5
392.534	84.5
392.759	100.5
392.984	88.5
393.208	65.5
393.433	90.5
393.658	90.5
393.882	84.5
394.107	78.5
394.331	79.5
394.556	83.5
394.78	82.5
395.005	93.5
395.229	99.5
395.454	84.5
395.678	66.5
395.903	92.5
396.127	90.5
396.352	79.5
396.576	87.5
396.801	92.5
397.025	90.5
397.249	97.5
397.474	98.5
397.698	86.5
397.922	91.5
398.147	68.5
398.371	80.5
398.595	89.5
398.82	84.5
399.044	81.5
399.268	91.5
399.492	77.5
399.717	81.5
399.941	89.5
400.165	93.5
400.389	77.5
400.613	110.5
400.837	78.5
401.062	78.5
401.286	76.5
401.51	84.5
401.734	97.5
401.958	98.5
402.182	112.5
402.406	128.5
402.63	112.5
402.854	82.5
403.078	89.5
403.302	96.5
403.526	84.5
403.75	71.5
403.974	72.5
404.198	81.5
404.422	94.5
404.645	94.5
404.869	82.5
405.093	112.5
405.317	98.5
405.541	99.5
405.765	84.5
405.988	103.5
406.212	165.5
406.436	185.5
406.66	122.5
406.883	93.5
407.107	101.5
407.331	81.5
407.555	93.5
407.778	101.5
408.002	85.5
408.226	82.5
408.449	81.5
408.673	100.5
408.896	104.5
409.12	96.5
409.344	80.5
409.567	89.5
409.791	87.5
410.014	91.5
410.238	89.5
410.461	89.5
410.685	82.5
410.908	98.5
411.132	102.5
411.355	97.5
411.578	98.5
411.802	88.5
412.025	97.5
412.249	77.5
412.472	83.5
412.695	77.5
412.919	81.5
413.142	72.5
413.365	74.5
413.589	90.5
413.812	80.5
414.035	94.5
414.258	87.5
414.482	88.5
414.705	81.5
414.928	85.5
415.151	93.5
415.374	90.5
415.597	82.5
415.821	81.5
416.044	91.5
416.267	95.5
416.49	93.5
416.713	82.5
416.936	83.5
417.159	85.5
417.382	93.5
417.605	80.5
417.828	78.5
418.051	70.5
418.274	96.5
418.497	74.5
418.72	85.5
418.943	71.5
419.166	81.5
419.389	78.5
419.611	86.5
419.834	83.5
420.057	97.5
420.28	89.5
420.503	78.5
420.726	76.5
420.948	87.5
421.171	90.5
421.394	90.5
421.617	69.5
421.839	88.5
422.062	88.5
422.285	101.5
422.507	102.5
422.73	92.5
422.953	82.5
423.175	81.5
423.398	93.5
423.621	92.5
423.843	85.5
424.066	65.5
424.288	87.5
424.511	92.5
424.733	102.5
424.956	108.5
425.178	106.5
425.401	96.5
425.623	90.5
425.846	80.5
426.068	94.5
426.291	96.5
426.513	98.5
426.735	86.5
426.958	97.5
427.18	88.5
427.402	120.5
427.625	140.5
427.847	122.5
428.069	108.5
428.292	92.5
428.514	81.5
428.736	95.5
428.958	84.5
429.181	89.5
429.403	89.5
429.625	89.5
429.847	88.5
430.069	92.5
430.292	89.5
430.514	83.5
430.736	84.5
430.958	81.5
431.18	75.5
431.402	80.5
431.624	88.5
431.846	65.5
432.068	84.5
432.29	85.5
432.512	80.5
432.734	82.5
432.956	87.5
433.178	97.5
433.4	100.5
433.622	89.5
433.844	98.5
434.066	76.5
434.287	83.5
434.509	106.5
434.731	97.5
434.953	74.5
435.175	93.5
435.397	83.5
435.618	81.5
435.84	86.5
436.062	124.5
436.284	105.5
436.505	92.5
436.727	105.5
436.949	100.5
437.17	90.5
437.392	86.5
437.614	102.5
437.835	95.5
438.057	99.5
438.278	90.5
438.5	99.5
438.721	110.5
438.943	101.5
439.165	87.5
439.386	82.5
439.608	102.5
439.829	97.5
440.05	113.5
440.272	120.5
440.493	109.5
440.715	84.5
440.936	80.5
441.158	80.5
441.379	92.5
441.6	80.5
441.822	87.5
442.043	99.5
442.264	98.5
442.486	100.5
442.707	96.5
442.928	108.5
443.149	105.5
443.371	126.5
443.592	108.5
443.813	102.5
444.034	103.5
444.255	87.5
444.476	98.5
444.698	89.5
444.919	76.5
445.14	132.5
445.361	113.5
445.582	105.5
445.803	131.5
446.024	105.5
446.245	108.5
446.466	96.5
446.687	82.5
446.908	96.5
447.129	69.5
447.35	68.5
447.571	92.5
447.792	85.5
448.013	94.5
448.234	105.5
448.455	101.5
448.675	105.5
448.896	116.5
449.117	83.5
449.338	95.5
449.559	116.5
449.779	121.5
450	78.5
450.221	81.5
450.442	89.5
450.662	92.5
450.883	104.5
451.104	97.5
451.324	88.5
451.545	89.5
451.766	87.5
451.986	104.5
452.207	93.5
452.428	102.5
452.648	101.5
452.869	98.5
453.089	90.5
453.31	105.5
453.53	96.5
453.751	97.5
453.971	102.5
454.192	98.5
454.412	89.5
454.633	90.5
454.853	93.5
455.073	97.5
455.294	73.5
455.514	107.5
455.734	78.5
455.955	83.5
456.175	93.5
456.395	84.5
456.616	82.5
456.836	88.5
457.056	73.5
457.276	83.5
457.497	84.5
457.717	72.5
457.937	75.5
458.157	94.5
458.377	77.5
458.598	94.5
458.818	134.5
459.038	134.5
459.258	116.5
459.478	104.5
459.698	90.5
459.918	84.5
460.138	89.5
460.358	90.5
460.578	84.5
460.798	79.5
461.018	96.5
461.238	72.5
461.458	85.5
461.678	88.5
461.898	81.5
462.118	85.5
462.338	77.5
462.558	67.5
462.777	88.5
462.997	94.5
463.217	85.5
463.437	78.5
463.657	86.5
463.876	89.5
464.096	87.5
464.316	73.5
464.536	84.5
464.755	89.5
464.975	104.5
465.195	154.5
465.414	145.5
465.634	96.5
465.854	74.5
466.073	95.5
466.293	80.5
466.512	86.5
466.732	85.5
466.951	96.5
467.171	80.5
467.391	93.5
467.61	101.5
467.829	82.5
468.049	73.5
468.268	85.5
468.488	92.5
468.707	100.5
468.927	87.5
469.146	72.5
469.365	86.5
469.585	100.5
469.804	86.5
470.023	80.5
470.243	96.5
470.462	73.5
470.681	88.5
470.901	76.5
471.12	82.5
471.339	84.5
471.558	87.5
471.777	87.5
471.997	85.5
472.216	94.5
472.435	86.5
472.654	88.5
472.873	97.5
473.092	93.5
473.311	95.5
473.53	87.5
473.749	84.5
473.968	89.5
474.187	108.5
474.406	85.5
474.625	81.5
474.844	88.5
475.063	92.5
475.282	105.5
475.501	93.5
475.72	83.5
475.939	74.5
476.158	89.5
476.377	83.5
476.596	91.5
476.814	80.5
477.033	100.5
477.252	86.5
477.471	96.5
477.69	89.5
477.908	90.5
478.127	90.5
478.346	77.5
478.564	75.5
478.783	76.5
479.002	93.5
479.22	90.5
479.439	87.5
479.658	98.5
479.876	89.5
480.095	88.5
480.313	94.5
480.532	72.5
480.751	89.5
480.969	91.5
481.188	85.5
481.406	101.5
481.624	86.5
481.843	96.5
482.061	88.5
482.28	96.5
482.498	90.5
482.717	82.5
482.935	96.5
483.153	80.5
483.372	90.5
483.59	82.5
483.808	91.5
484.027	82.5
484.245	85.5
484.463	76.5
484.681	86.5
484.9	91.5
485.118	108.5
485.336	91.5
485.554	94.5
485.772	99.5
485.99	93.5
486.209	76.5
486.427	88.5
486.645	105.5
486.863	105.5
487.081	110.5
487.299	94.5
487.517	88.5
487.735	80.5
487.953	94.5
488.171	96.5
488.389	93.5
488.607	102.5
488.825	96.5
489.043	84.5
489.261	94.5
489.479	71.5
489.696	72.5
489.914	104.5
490.132	90.5
490.35	96.5
490.568	90.5
490.786	87.5
491.003	81.5
491.221	98.5
491.439	93.5
491.657	90.5
491.874	78.5
492.092	85.5
492.31	96.5
492.527	79.5
492.745	84.5
492.963	79.5
493.18	95.5
493.398	89.5
493.615	88.5
493.833	86.5
494.05	80.5
494.268	83.5
494.485	74.5
494.703	80.5
494.92	73.5
495.138	101.5
495.355	103.5
495.573	87.5
495.79	77.5
496.008	84.5
496.225	87.5
496.442	85.5
496.66	92.5
496.877	109.5
497.094	87.5
497.312	94.5
497.529	81.5
497.746	87.5
497.963	93.5
498.181	84.5
498.398	96.5
498.615	119.5
498.832	95.5
499.049	85.5
499.267	89.5
499.484	93.5
499.701	74.5
499.918	94.5
500.135	94.5
500.352	95.5
500.569	107.5
500.786	104.5
501.003	91.5
501.22	93.5
501.437	93.5
501.654	98.5
501.871	97.5
502.088	82.5
502.305	89.5
502.522	85.5
502.739	96.5
502.956	80.5
503.172	97.5
503.389	98.5
503.606	105.5
503.823	101.5
504.04	87.5
504.256	105.5
504.473	84.5
504.69	87.5
504.907	88.5
505.123	90.5
505.34	92.5
505.557	87.5
505.773	95.5
505.99	102.5
506.207	77.5
506.423	94.5
506.64	85.5
506.856	76.5
507.073	88.5
507.289	74.5
507.506	97.5
507.722	105.5
507.939	105.5
508.155	102.5
508.372	117.5
508.588	76.5
508.805	86.5
509.021	89.5
509.238	109.5
509.454	89.5
509.67	101.5
509.887	103.5
510.103	121.5
510.319	191.5
510.536	649.5
510.752	2110.5
510.968	578.5
511.184	137.5
511.401	111.5
511.617	91.5
511.833	87.5
512.049	104.5
512.265	94.5
512.481	87.5
512.698	69.5
512.914	100.5
513.13	87.5
513.346	103.5
513.562	88.5
513.778	83.5
513.994	85.5
514.21	103.5
514.426	112.5
514.642	122.5
514.858	113.5
515.074	146.5
515.29	372.5
515.506	1246.5
515.721	462.5
515.937	138.5
516.153	99.5
516.369	96.5
516.585	86.5
516.801	88.5
517.016	96.5
517.232	97.5
517.448	95.5
517.664	99.5
517.879	111.5
518.095	92.5
518.311	99.5
518.527	88.5
518.742	70.5
518.958	86.5
519.173	92.5
519.389	96.5
519.605	104.5
519.82	87.5
520.036	94.5
520.251	95.5
520.467	96.5
520.682	97.5
520.898	89.5
521.113	87.5
521.329	118.5
521.544	168.5
521.76	486.5
521.975	2050.5
522.19	1200.5
522.406	257.5
522.621	104.5
522.836	110.5
523.052	96.5
523.267	100.5
523.482	97.5
523.698	100.5
523.913	99.5
524.128	100.5
524.343	97.5
524.559	90.5
524.774	88.5
524.989	90.5
525.204	105.5
525.419	111.5
525.634	80.5
525.849	94.5
526.064	89.5
526.28	88.5
526.495	85.5
526.71	90.5
526.925	83.5
527.14	83.5
527.355	89.5
527.57	91.5
527.785	78.5
527.999	87.5
528.214	90.5
528.429	83.5
528.644	89.5
528.859	86.5
529.074	90.5
529.289	118.5
529.503	168.5
529.718	94.5
529.933	109.5
530.148	80.5
530.363	84.5
530.577	92.5
530.792	96.5
531.007	86.5
531.221	90.5
531.436	90.5
531.651	100.5
531.865	90.5
532.08	87.5
532.295	85.5
532.509	81.5
532.724	95.5
532.938	113.5
533.153	94.5
533.367	92.5
533.582	92.5
533.796	83.5
534.011	89.5
534.225	81.5
534.44	73.5
534.654	96.5
534.868	91.5
535.083	96.5
535.297	104.5
535.511	100.5
535.726	98.5
535.94	88.5
536.154	95.5
536.369	86.5
536.583	84.5
