Data from Uncirc_1984_H10_HRD10591_00042.txt Node
Date: Wed Jan 03 12:21:45 EST 2024
User: Yrep
Spectrometer: HR+D1059
Trigger mode: 1
Integration Time (sec): 1.000000E-1
Scans to average: 1
Electric dark correction enabled: true
Nonlinearity correction enabled: false
Boxcar width: 0
XAxis mode: Wavelengths
Number of Pixels in Spectrum: 2048
>>>>>Begin Spectral Data<<<<<
223.165	-11.88
223.4	-11.88
223.635	-11.88
223.869	-12.88
224.104	-22.88
224.338	-19.88
224.573	-26.88
224.808	-12.88
225.042	-5.88
225.277	-9.88
225.511	-1.88
225.746	-2.88
225.98	2.12
226.215	1.12
226.449	12.12
226.683	33.12
226.918	29.12
227.152	50.12
227.387	41.12
227.621	16.12
227.856	39.12
228.09	31.12
228.324	35.12
228.559	52.12
228.793	55.12
229.027	61.12
229.262	69.12
229.496	65.12
229.73	72.12
229.964	77.12
230.199	61.12
230.433	64.12
230.667	62.12
230.901	80.12
231.136	67.12
231.37	74.12
231.604	78.12
231.838	90.12
232.072	74.12
232.306	92.12
232.541	70.12
232.775	77.12
233.009	69.12
233.243	74.12
233.477	71.12
233.711	85.12
233.945	90.12
234.179	71.12
234.413	67.12
234.647	74.12
234.881	57.12
235.115	78.12
235.349	69.12
235.583	66.12
235.817	71.12
236.051	81.12
236.285	76.12
236.519	64.12
236.753	74.12
236.987	67.12
237.221	74.12
237.455	78.12
237.689	67.12
237.922	93.12
238.156	72.12
238.39	67.12
238.624	67.12
238.858	75.12
239.091	65.12
239.325	54.12
239.559	75.12
239.793	58.12
240.027	76.12
240.26	81.12
240.494	63.12
240.728	78.12
240.961	69.12
241.195	81.12
241.429	71.12
241.662	70.12
241.896	76.12
242.13	70.12
242.363	65.12
242.597	79.12
242.83	80.12
243.064	67.12
243.298	54.12
243.531	66.12
243.765	63.12
243.998	75.12
244.232	78.12
244.465	72.12
244.699	83.12
244.932	67.12
245.166	79.12
245.399	82.12
245.633	70.12
245.866	80.12
246.099	76.12
246.333	71.12
246.566	77.12
246.8	69.12
247.033	89.12
247.266	75.12
247.5	71.12
247.733	66.12
247.966	93.12
248.2	66.12
248.433	89.12
248.666	94.12
248.899	85.12
249.133	89.12
249.366	99.12
249.599	77.12
249.832	82.12
250.066	78.12
250.299	71.12
250.532	58.12
250.765	57.12
250.998	75.12
251.231	74.12
251.465	71.12
251.698	74.12
251.931	66.12
252.164	82.12
252.397	65.12
252.63	72.12
252.863	88.12
253.096	80.12
253.329	85.12
253.562	79.12
253.795	80.12
254.028	83.12
254.261	75.12
254.494	67.12
254.727	75.12
254.96	71.12
255.193	65.12
255.426	70.12
255.659	78.12
255.892	62.12
256.124	81.12
256.357	66.12
256.59	76.12
256.823	74.12
257.056	81.12
257.289	93.12
257.521	74.12
257.754	71.12
257.987	72.12
258.22	78.12
258.452	86.12
258.685	82.12
258.918	78.12
259.151	74.12
259.383	86.12
259.616	80.12
259.849	88.12
260.081	64.12
260.314	75.12
260.547	69.12
260.779	76.12
261.012	86.12
261.244	87.12
261.477	89.12
261.71	81.12
261.942	85.12
262.175	115.12
262.407	87.12
262.64	55.12
262.872	81.12
263.105	83.12
263.337	82.12
263.57	71.12
263.802	77.12
264.035	104.12
264.267	82.12
264.499	78.12
264.732	83.12
264.964	80.12
265.197	73.12
265.429	84.12
265.661	93.12
265.894	70.12
266.126	79.12
266.358	88.12
266.591	79.12
266.823	80.12
267.055	78.12
267.287	77.12
267.52	81.12
267.752	86.12
267.984	68.12
268.216	81.12
268.448	80.12
268.681	91.12
268.913	81.12
269.145	78.12
269.377	93.12
269.609	65.12
269.841	81.12
270.073	74.12
270.306	75.12
270.538	77.12
270.77	75.12
271.002	72.12
271.234	91.12
271.466	88.12
271.698	80.12
271.93	86.12
272.162	88.12
272.394	87.12
272.626	83.12
272.858	88.12
273.09	80.12
273.322	71.12
273.553	75.12
273.785	76.12
274.017	80.12
274.249	78.12
274.481	82.12
274.713	65.12
274.945	98.12
275.176	87.12
275.408	96.12
275.64	97.12
275.872	86.12
276.104	89.12
276.335	88.12
276.567	76.12
276.799	93.12
277.031	80.12
277.262	75.12
277.494	87.12
277.726	81.12
277.957	82.12
278.189	77.12
278.421	84.12
278.652	82.12
278.884	76.12
279.115	83.12
279.347	77.12
279.579	90.12
279.81	83.12
280.042	74.12
280.273	91.12
280.505	92.12
280.736	93.12
280.968	84.12
281.199	79.12
281.431	77.12
281.662	82.12
281.894	80.12
282.125	95.12
282.356	94.12
282.588	130.12
282.819	98.12
283.051	78.12
283.282	75.12
283.513	76.12
283.745	79.12
283.976	61.12
284.207	69.12
284.439	85.12
284.67	79.12
284.901	77.12
285.132	95.12
285.364	84.12
285.595	76.12
285.826	65.12
286.057	82.12
286.288	90.12
286.52	84.12
286.751	92.12
286.982	77.12
287.213	94.12
287.444	81.12
287.675	85.12
287.906	94.12
288.138	71.12
288.369	94.12
288.6	85.12
288.831	71.12
289.062	88.12
289.293	87.12
289.524	75.12
289.755	71.12
289.986	88.12
290.217	72.12
290.448	71.12
290.679	80.12
290.91	84.12
291.141	82.12
291.371	79.12
291.602	79.12
291.833	66.12
292.064	88.12
292.295	82.12
292.526	87.12
292.757	87.12
292.987	87.12
293.218	72.12
293.449	91.12
293.68	83.12
293.91	82.12
294.141	75.12
294.372	85.12
294.603	78.12
294.833	81.12
295.064	80.12
295.295	80.12
295.525	68.12
295.756	79.12
295.987	104.12
296.217	115.12
296.448	113.12
296.679	95.12
296.909	80.12
297.14	88.12
297.37	86.12
297.601	85.12
297.831	80.12
298.062	82.12
298.292	84.12
298.523	95.12
298.753	86.12
298.984	77.12
299.214	82.12
299.445	93.12
299.675	71.12
299.905	83.12
300.136	84.12
300.366	86.12
300.597	95.12
300.827	86.12
301.057	81.12
301.288	98.12
301.518	82.12
301.748	68.12
301.979	104.12
302.209	90.12
302.439	82.12
302.669	88.12
302.9	80.12
303.13	71.12
303.36	86.12
303.59	94.12
303.82	99.12
304.051	87.12
304.281	92.12
304.511	78.12
304.741	72.12
304.971	86.12
305.201	92.12
305.431	95.12
305.661	83.12
305.891	83.12
306.121	96.12
306.352	82.12
306.582	84.12
306.812	85.12
307.042	86.12
307.272	106.12
307.502	88.12
307.731	84.12
307.961	81.12
308.191	78.12
308.421	79.12
308.651	90.12
308.881	98.12
309.111	84.12
309.341	100.12
309.571	83.12
309.8	72.12
310.03	78.12
310.26	88.12
310.49	86.12
310.72	85.12
310.949	90.12
311.179	78.12
311.409	112.12
311.639	92.12
311.868	78.12
312.098	94.12
312.328	102.12
312.557	102.12
312.787	92.12
313.017	82.12
313.246	87.12
313.476	98.12
313.706	94.12
313.935	92.12
314.165	96.12
314.394	72.12
314.624	90.12
314.853	91.12
315.083	99.12
315.312	77.12
315.542	71.12
315.771	79.12
316.001	88.12
316.23	82.12
316.46	84.12
316.689	93.12
316.919	85.12
317.148	85.12
317.377	86.12
317.607	83.12
317.836	84.12
318.065	78.12
318.295	90.12
318.524	83.12
318.753	74.12
318.983	103.12
319.212	98.12
319.441	101.12
319.67	92.12
319.9	96.12
320.129	88.12
320.358	90.12
320.587	90.12
320.816	92.12
321.046	101.12
321.275	98.12
321.504	82.12
321.733	85.12
321.962	84.12
322.191	108.12
322.42	107.12
322.649	102.12
322.878	122.12
323.108	102.12
323.337	120.12
323.566	113.12
323.795	134.12
324.024	179.12
324.253	347.12
324.482	723.12
324.71	1496.12
324.939	1954.12
325.168	708.12
325.397	228.12
325.626	150.12
325.855	120.12
326.084	122.12
326.313	112.12
326.542	140.12
326.77	217.12
326.999	398.12
327.228	830.12
327.457	1511.12
327.686	1214.12
327.914	329.12
328.143	172.12
328.372	134.12
328.6	119.12
328.829	101.12
329.058	111.12
329.287	111.12
329.515	98.12
329.744	100.12
329.972	102.12
330.201	91.12
330.43	102.12
330.658	106.12
330.887	124.12
331.115	108.12
331.344	95.12
331.572	103.12
331.801	84.12
332.03	95.12
332.258	86.12
332.486	81.12
332.715	108.12
332.943	86.12
333.172	77.12
333.4	99.12
333.629	94.12
333.857	99.12
334.085	99.12
334.314	84.12
334.542	88.12
334.771	93.12
334.999	96.12
335.227	86.12
335.455	92.12
335.684	96.12
335.912	87.12
336.14	95.12
336.369	90.12
336.597	73.12
336.825	93.12
337.053	91.12
337.281	74.12
337.51	84.12
337.738	89.12
337.966	82.12
338.194	92.12
338.422	80.12
338.65	76.12
338.878	97.12
339.106	81.12
339.334	85.12
339.562	83.12
339.79	85.12
340.018	84.12
340.246	85.12
340.474	80.12
340.702	84.12
340.93	88.12
341.158	101.12
341.386	86.12
341.614	91.12
341.842	85.12
342.07	81.12
342.298	90.12
342.526	82.12
342.754	86.12
342.981	95.12
343.209	91.12
343.437	91.12
343.665	96.12
343.893	82.12
344.12	87.12
344.348	86.12
344.576	88.12
344.804	86.12
345.031	101.12
345.259	96.12
345.487	75.12
345.714	94.12
345.942	82.12
346.17	94.12
346.397	94.12
346.625	100.12
346.853	83.12
347.08	85.12
347.308	81.12
347.535	96.12
347.763	92.12
347.99	68.12
348.218	92.12
348.445	98.12
348.673	82.12
348.9	88.12
349.128	84.12
349.355	91.12
349.583	77.12
349.81	93.12
350.037	96.12
350.265	100.12
350.492	80.12
350.72	93.12
350.947	92.12
351.174	100.12
351.402	101.12
351.629	108.12
351.856	96.12
352.083	80.12
352.311	98.12
352.538	97.12
352.765	94.12
352.992	99.12
353.22	87.12
353.447	106.12
353.674	93.12
353.901	88.12
354.128	97.12
354.355	96.12
354.583	94.12
354.81	99.12
355.037	87.12
355.264	94.12
355.491	86.12
355.718	84.12
355.945	97.12
356.172	94.12
356.399	87.12
356.626	94.12
356.853	83.12
357.08	87.12
357.307	93.12
357.534	101.12
357.761	95.12
357.988	105.12
358.215	89.12
358.441	100.12
358.668	100.12
358.895	100.12
359.122	94.12
359.349	88.12
359.576	90.12
359.802	82.12
360.029	106.12
360.256	94.12
360.483	91.12
360.709	97.12
360.936	94.12
361.163	94.12
361.39	75.12
361.616	80.12
361.843	80.12
362.07	85.12
362.296	97.12
362.523	105.12
362.749	79.12
362.976	94.12
363.203	86.12
363.429	80.12
363.656	85.12
363.882	93.12
364.109	85.12
364.335	93.12
364.562	91.12
364.788	91.12
365.015	94.12
365.241	98.12
365.468	111.12
365.694	82.12
365.92	85.12
366.147	79.12
366.373	67.12
366.599	75.12
366.826	68.12
367.052	85.12
367.278	78.12
367.505	87.12
367.731	95.12
367.957	82.12
368.184	91.12
368.41	84.12
368.636	92.12
368.862	108.12
369.089	102.12
369.315	96.12
369.541	93.12
369.767	85.12
369.993	85.12
370.219	73.12
370.445	75.12
370.672	78.12
370.898	82.12
371.124	92.12
371.35	71.12
371.576	69.12
371.802	95.12
372.028	79.12
372.254	76.12
372.48	87.12
372.706	84.12
372.932	85.12
373.158	74.12
373.384	83.12
373.61	87.12
373.835	95.12
374.061	87.12
374.287	90.12
374.513	92.12
374.739	96.12
374.965	81.12
375.191	79.12
375.416	83.12
375.642	95.12
375.868	87.12
376.094	90.12
376.319	79.12
376.545	81.12
376.771	82.12
376.997	94.12
377.222	81.12
377.448	79.12
377.674	78.12
377.899	83.12
378.125	96.12
378.35	91.12
378.576	87.12
378.802	84.12
379.027	88.12
379.253	91.12
379.478	90.12
379.704	87.12
379.929	90.12
380.155	84.12
380.38	85.12
380.606	84.12
380.831	102.12
381.057	91.12
381.282	95.12
381.507	84.12
381.733	94.12
381.958	99.12
382.184	88.12
382.409	100.12
382.634	84.12
382.86	95.12
383.085	86.12
383.31	89.12
383.535	96.12
383.761	89.12
383.986	93.12
384.211	98.12
384.436	89.12
384.662	87.12
384.887	87.12
385.112	100.12
385.337	74.12
385.562	107.12
385.787	89.12
386.013	105.12
386.238	114.12
386.463	98.12
386.688	108.12
386.913	90.12
387.138	101.12
387.363	100.12
387.588	97.12
387.813	99.12
388.038	75.12
388.263	100.12
388.488	91.12
388.713	81.12
388.938	77.12
389.163	88.12
389.387	76.12
389.612	95.12
389.837	90.12
390.062	87.12
390.287	85.12
390.512	75.12
390.736	100.12
390.961	93.12
391.186	84.12
391.411	90.12
391.636	71.12
391.86	62.12
392.085	74.12
392.31	81.12
392.534	75.12
392.759	92.12
392.984	83.12
393.208	72.12
393.433	82.12
393.658	96.12
393.882	100.12
394.107	87.12
394.331	78.12
394.556	82.12
394.78	79.12
395.005	64.12
395.229	74.12
395.454	82.12
395.678	67.12
395.903	79.12
396.127	85.12
396.352	68.12
396.576	76.12
396.801	92.12
397.025	69.12
397.249	80.12
397.474	80.12
397.698	78.12
397.922	83.12
398.147	91.12
398.371	75.12
398.595	87.12
398.82	67.12
399.044	88.12
399.268	61.12
399.492	86.12
399.717	81.12
399.941	82.12
400.165	80.12
400.389	86.12
400.613	84.12
400.837	88.12
401.062	71.12
401.286	94.12
401.51	87.12
401.734	70.12
401.958	108.12
402.182	114.12
402.406	132.12
402.63	106.12
402.854	84.12
403.078	87.12
403.302	90.12
403.526	80.12
403.75	81.12
403.974	74.12
404.198	76.12
404.422	84.12
404.645	78.12
404.869	85.12
405.093	94.12
405.317	90.12
405.541	83.12
405.765	81.12
405.988	115.12
406.212	154.12
406.436	214.12
406.66	113.12
406.883	87.12
407.107	76.12
407.331	74.12
407.555	90.12
407.778	100.12
408.002	85.12
408.226	84.12
408.449	94.12
408.673	74.12
408.896	92.12
409.12	95.12
409.344	92.12
409.567	71.12
409.791	74.12
410.014	82.12
410.238	75.12
410.461	89.12
410.685	94.12
410.908	84.12
411.132	90.12
411.355	91.12
411.578	87.12
411.802	74.12
412.025	76.12
412.249	90.12
412.472	78.12
412.695	81.12
412.919	79.12
413.142	69.12
413.365	90.12
413.589	80.12
413.812	90.12
414.035	94.12
414.258	70.12
414.482	95.12
414.705	95.12
414.928	87.12
415.151	90.12
415.374	87.12
415.597	82.12
415.821	95.12
416.044	76.12
416.267	85.12
416.49	87.12
416.713	82.12
416.936	83.12
417.159	78.12
417.382	77.12
417.605	86.12
417.828	87.12
418.051	80.12
418.274	95.12
418.497	83.12
418.72	73.12
418.943	79.12
419.166	81.12
419.389	95.12
419.611	91.12
419.834	78.12
420.057	77.12
420.28	79.12
420.503	76.12
420.726	72.12
420.948	86.12
421.171	84.12
421.394	88.12
421.617	80.12
421.839	93.12
422.062	87.12
422.285	72.12
422.507	85.12
422.73	82.12
422.953	94.12
423.175	62.12
423.398	84.12
423.621	82.12
423.843	77.12
424.066	81.12
424.288	77.12
424.511	86.12
424.733	91.12
424.956	95.12
425.178	94.12
425.401	93.12
425.623	101.12
425.846	84.12
426.068	101.12
426.291	88.12
426.513	77.12
426.735	80.12
426.958	84.12
427.18	100.12
427.402	110.12
427.625	142.12
427.847	119.12
428.069	97.12
428.292	98.12
428.514	93.12
428.736	83.12
428.958	87.12
429.181	82.12
429.403	95.12
429.625	84.12
429.847	91.12
430.069	83.12
430.292	87.12
430.514	86.12
430.736	74.12
430.958	86.12
431.18	86.12
431.402	65.12
431.624	87.12
431.846	82.12
432.068	76.12
432.29	86.12
432.512	90.12
432.734	77.12
432.956	62.12
433.178	90.12
433.4	88.12
433.622	89.12
433.844	81.12
434.066	84.12
434.287	82.12
434.509	90.12
434.731	85.12
434.953	85.12
435.175	98.12
435.397	78.12
435.618	87.12
435.84	96.12
436.062	103.12
436.284	97.12
436.505	89.12
436.727	98.12
436.949	88.12
437.17	86.12
437.392	72.12
437.614	77.12
437.835	102.12
438.057	103.12
438.278	99.12
438.5	99.12
438.721	105.12
438.943	86.12
439.165	82.12
439.386	72.12
439.608	76.12
439.829	97.12
440.05	105.12
440.272	133.12
440.493	89.12
440.715	82.12
440.936	74.12
441.158	94.12
441.379	68.12
441.6	84.12
441.822	84.12
442.043	91.12
442.264	97.12
442.486	87.12
442.707	83.12
442.928	93.12
443.149	127.12
443.371	110.12
443.592	97.12
443.813	100.12
444.034	92.12
444.255	91.12
444.476	94.12
444.698	88.12
444.919	88.12
445.14	131.12
445.361	107.12
445.582	100.12
445.803	118.12
446.024	127.12
446.245	125.12
446.466	95.12
446.687	95.12
446.908	74.12
447.129	83.12
447.35	88.12
447.571	90.12
447.792	87.12
448.013	83.12
448.234	94.12
448.455	88.12
448.675	99.12
448.896	108.12
449.117	100.12
449.338	97.12
449.559	131.12
449.779	128.12
450	99.12
450.221	88.12
450.442	94.12
450.662	81.12
450.883	96.12
451.104	98.12
451.324	96.12
451.545	93.12
451.766	79.12
451.986	76.12
452.207	75.12
452.428	85.12
452.648	95.12
452.869	80.12
453.089	97.12
453.31	108.12
453.53	109.12
453.751	101.12
453.971	87.12
454.192	101.12
454.412	79.12
454.633	82.12
454.853	94.12
455.073	86.12
455.294	76.12
455.514	84.12
455.734	78.12
455.955	79.12
456.175	90.12
456.395	88.12
456.616	69.12
456.836	82.12
457.056	91.12
457.276	89.12
457.497	85.12
457.717	77.12
457.937	91.12
458.157	80.12
458.377	72.12
458.598	87.12
458.818	134.12
459.038	138.12
459.258	106.12
459.478	76.12
459.698	85.12
459.918	85.12
460.138	82.12
460.358	78.12
460.578	78.12
460.798	79.12
461.018	86.12
461.238	84.12
461.458	77.12
461.678	78.12
461.898	76.12
462.118	72.12
462.338	58.12
462.558	83.12
462.777	82.12
462.997	79.12
463.217	80.12
463.437	83.12
463.657	77.12
463.876	98.12
464.096	79.12
464.316	76.12
464.536	89.12
464.755	80.12
464.975	98.12
465.195	145.12
465.414	135.12
465.634	88.12
465.854	90.12
466.073	75.12
466.293	81.12
466.512	62.12
466.732	73.12
466.951	96.12
467.171	81.12
467.391	95.12
467.61	96.12
467.829	85.12
468.049	78.12
468.268	77.12
468.488	76.12
468.707	77.12
468.927	86.12
469.146	87.12
469.365	71.12
469.585	74.12
469.804	96.12
470.023	96.12
470.243	93.12
470.462	91.12
470.681	103.12
470.901	92.12
471.12	74.12
471.339	83.12
471.558	83.12
471.777	89.12
471.997	62.12
472.216	82.12
472.435	88.12
472.654	87.12
472.873	84.12
473.092	91.12
473.311	79.12
473.53	89.12
473.749	69.12
473.968	83.12
474.187	86.12
474.406	85.12
474.625	72.12
474.844	96.12
475.063	91.12
475.282	91.12
475.501	91.12
475.72	85.12
475.939	78.12
476.158	87.12
476.377	76.12
476.596	75.12
476.814	77.12
477.033	83.12
477.252	95.12
477.471	82.12
477.69	87.12
477.908	82.12
478.127	81.12
478.346	85.12
478.564	87.12
478.783	97.12
479.002	95.12
479.22	93.12
479.439	78.12
479.658	95.12
479.876	95.12
480.095	77.12
480.313	79.12
480.532	82.12
480.751	95.12
480.969	89.12
481.188	86.12
481.406	80.12
481.624	84.12
481.843	83.12
482.061	79.12
482.28	83.12
482.498	87.12
482.717	88.12
482.935	86.12
483.153	93.12
483.372	79.12
483.59	95.12
483.808	86.12
484.027	72.12
484.245	91.12
484.463	90.12
484.681	95.12
484.9	83.12
485.118	94.12
485.336	98.12
485.554	79.12
485.772	102.12
485.99	93.12
486.209	103.12
486.427	100.12
486.645	96.12
486.863	98.12
487.081	92.12
487.299	97.12
487.517	82.12
487.735	100.12
487.953	75.12
488.171	87.12
488.389	92.12
488.607	71.12
488.825	81.12
489.043	94.12
489.261	97.12
489.479	82.12
489.696	67.12
489.914	86.12
490.132	88.12
490.35	83.12
490.568	85.12
490.786	71.12
491.003	74.12
491.221	81.12
491.439	80.12
491.657	84.12
491.874	83.12
492.092	92.12
492.31	75.12
492.527	78.12
492.745	76.12
492.963	91.12
493.18	84.12
493.398	74.12
493.615	87.12
493.833	80.12
494.05	80.12
494.268	88.12
494.485	84.12
494.703	95.12
494.92	79.12
495.138	87.12
495.355	84.12
495.573	87.12
495.79	91.12
496.008	85.12
496.225	92.12
496.442	92.12
496.66	81.12
496.877	75.12
497.094	98.12
497.312	93.12
497.529	96.12
497.746	89.12
497.963	86.12
498.181	87.12
498.398	92.12
498.615	103.12
498.832	96.12
499.049	90.12
499.267	81.12
499.484	83.12
499.701	76.12
499.918	97.12
500.135	94.12
500.352	107.12
500.569	78.12
500.786	86.12
501.003	95.12
501.22	83.12
501.437	84.12
501.654	91.12
501.871	107.12
502.088	95.12
502.305	86.12
502.522	74.12
502.739	79.12
502.956	77.12
503.172	91.12
503.389	88.12
503.606	104.12
503.823	94.12
504.04	86.12
504.256	91.12
504.473	90.12
504.69	76.12
504.907	102.12
505.123	72.12
505.34	104.12
505.557	93.12
505.773	81.12
505.99	86.12
506.207	87.12
506.423	80.12
506.64	74.12
506.856	95.12
507.073	79.12
507.289	101.12
507.506	109.12
507.722	106.12
507.939	98.12
508.155	78.12
508.372	95.12
508.588	87.12
508.805	84.12
509.021	104.12
509.238	91.12
509.454	71.12
509.67	95.12
509.887	103.12
510.103	139.12
510.319	204.12
510.536	726.12
510.752	2165.12
510.968	597.12
511.184	136.12
511.401	108.12
511.617	96.12
511.833	77.12
512.049	91.12
512.265	80.12
512.481	87.12
512.698	72.12
512.914	81.12
513.13	80.12
513.346	75.12
513.562	90.12
513.778	94.12
513.994	90.12
514.21	84.12
514.426	100.12
514.642	92.12
514.858	112.12
515.074	140.12
515.29	400.12
515.506	1286.12
515.721	468.12
515.937	136.12
516.153	87.12
516.369	83.12
516.585	94.12
516.801	82.12
517.016	90.12
517.232	85.12
517.448	75.12
517.664	83.12
517.879	100.12
