Data from Uncirc_1984_H10_HRD10591_00093.txt Node
Date: Wed Jan 03 12:21:55 EST 2024
User: Yrep
Spectrometer: HR+D1059
Trigger mode: 1
Integration Time (sec): 1.000000E-1
Scans to average: 1
Electric dark correction enabled: true
Nonlinearity correction enabled: false
Boxcar width: 0
XAxis mode: Wavelengths
Number of Pixels in Spectrum: 2048
>>>>>Begin Spectral Data<<<<<
223.165	-25.06
223.4	-25.06
223.635	-25.06
223.869	-25.06
224.104	-14.06
224.338	-18.06
224.573	-10.06
224.808	-18.06
225.042	-4.06
225.277	1.94
225.511	2.94
225.746	7.94
225.98	0.94
226.215	2.94
226.449	17.94
226.683	2.94
226.918	29.94
227.152	46.94
227.387	29.94
227.621	41.94
227.856	33.94
228.09	51.94
228.324	50.94
228.559	53.94
228.793	42.94
229.027	55.94
229.262	65.94
229.496	71.94
229.73	83.94
229.964	81.94
230.199	61.94
230.433	82.94
230.667	68.94
230.901	87.94
231.136	81.94
231.37	64.94
231.604	76.94
231.838	79.94
232.072	81.94
232.306	69.94
232.541	84.94
232.775	78.94
233.009	72.94
233.243	75.94
233.477	83.94
233.711	61.94
233.945	73.94
234.179	65.94
234.413	81.94
234.647	78.94
234.881	83.94
235.115	73.94
235.349	74.94
235.583	83.94
235.817	76.94
236.051	81.94
236.285	79.94
236.519	74.94
236.753	81.94
236.987	83.94
237.221	71.94
237.455	86.94
237.689	85.94
237.922	91.94
238.156	85.94
238.39	79.94
238.624	78.94
238.858	82.94
239.091	82.94
239.325	64.94
239.559	73.94
239.793	77.94
240.027	69.94
240.26	87.94
240.494	75.94
240.728	62.94
240.961	74.94
241.195	78.94
241.429	81.94
241.662	71.94
241.896	71.94
242.13	80.94
242.363	78.94
242.597	68.94
242.83	68.94
243.064	82.94
243.298	74.94
243.531	70.94
243.765	85.94
243.998	66.94
244.232	67.94
244.465	91.94
244.699	80.94
244.932	86.94
245.166	83.94
245.399	85.94
245.633	66.94
245.866	64.94
246.099	74.94
246.333	74.94
246.566	71.94
246.8	71.94
247.033	67.94
247.266	72.94
247.5	73.94
247.733	66.94
247.966	71.94
248.2	88.94
248.433	80.94
248.666	82.94
248.899	90.94
249.133	86.94
249.366	88.94
249.599	80.94
249.832	79.94
250.066	77.94
250.299	77.94
250.532	88.94
250.765	73.94
250.998	73.94
251.231	89.94
251.465	71.94
251.698	72.94
251.931	68.94
252.164	81.94
252.397	74.94
252.63	93.94
252.863	90.94
253.096	65.94
253.329	70.94
253.562	72.94
253.795	78.94
254.028	77.94
254.261	72.94
254.494	85.94
254.727	79.94
254.96	83.94
255.193	74.94
255.426	88.94
255.659	85.94
255.892	86.94
256.124	85.94
256.357	86.94
256.59	90.94
256.823	81.94
257.056	71.94
257.289	81.94
257.521	75.94
257.754	83.94
257.987	89.94
258.22	75.94
258.452	84.94
258.685	80.94
258.918	67.94
259.151	80.94
259.383	91.94
259.616	78.94
259.849	81.94
260.081	81.94
260.314	74.94
260.547	77.94
260.779	80.94
261.012	95.94
261.244	63.94
261.477	57.94
261.71	81.94
261.942	113.94
262.175	106.94
262.407	92.94
262.64	73.94
262.872	81.94
263.105	89.94
263.337	85.94
263.57	96.94
263.802	97.94
264.035	80.94
264.267	72.94
264.499	82.94
264.732	85.94
264.964	82.94
265.197	87.94
265.429	73.94
265.661	87.94
265.894	75.94
266.126	84.94
266.358	87.94
266.591	82.94
266.823	80.94
267.055	75.94
267.287	89.94
267.52	82.94
267.752	96.94
267.984	87.94
268.216	78.94
268.448	89.94
268.681	82.94
268.913	90.94
269.145	106.94
269.377	83.94
269.609	73.94
269.841	72.94
270.073	76.94
270.306	90.94
270.538	87.94
270.77	70.94
271.002	88.94
271.234	87.94
271.466	78.94
271.698	75.94
271.93	87.94
272.162	75.94
272.394	80.94
272.626	76.94
272.858	95.94
273.09	87.94
273.322	68.94
273.553	88.94
273.785	100.94
274.017	85.94
274.249	89.94
274.481	78.94
274.713	83.94
274.945	87.94
275.176	93.94
275.408	88.94
275.64	75.94
275.872	79.94
276.104	85.94
276.335	93.94
276.567	84.94
276.799	102.94
277.031	111.94
277.262	91.94
277.494	82.94
277.726	93.94
277.957	77.94
278.189	95.94
278.421	83.94
278.652	84.94
278.884	95.94
279.115	103.94
279.347	78.94
279.579	58.94
279.81	87.94
280.042	86.94
280.273	79.94
280.505	74.94
280.736	89.94
280.968	85.94
281.199	71.94
281.431	99.94
281.662	89.94
281.894	83.94
282.125	89.94
282.356	108.94
282.588	111.94
282.819	105.94
283.051	93.94
283.282	89.94
283.513	89.94
283.745	73.94
283.976	85.94
284.207	88.94
284.439	93.94
284.67	83.94
284.901	91.94
285.132	83.94
285.364	86.94
285.595	85.94
285.826	65.94
286.057	89.94
286.288	97.94
286.52	91.94
286.751	92.94
286.982	88.94
287.213	85.94
287.444	86.94
287.675	98.94
287.906	87.94
288.138	89.94
288.369	92.94
288.6	74.94
288.831	111.94
289.062	93.94
289.293	82.94
289.524	89.94
289.755	73.94
289.986	68.94
290.217	90.94
290.448	104.94
290.679	82.94
290.91	106.94
291.141	105.94
291.371	85.94
291.602	77.94
291.833	83.94
292.064	79.94
292.295	74.94
292.526	83.94
292.757	83.94
292.987	94.94
293.218	95.94
293.449	86.94
293.68	82.94
293.91	83.94
294.141	84.94
294.372	98.94
294.603	91.94
294.833	86.94
295.064	66.94
295.295	93.94
295.525	85.94
295.756	90.94
295.987	111.94
296.217	132.94
296.448	120.94
296.679	95.94
296.909	85.94
297.14	79.94
297.37	85.94
297.601	94.94
297.831	61.94
298.062	83.94
298.292	93.94
298.523	105.94
298.753	98.94
298.984	80.94
299.214	82.94
299.445	103.94
299.675	90.94
299.905	98.94
300.136	87.94
300.366	83.94
300.597	93.94
300.827	93.94
301.057	87.94
301.288	92.94
301.518	95.94
301.748	74.94
301.979	84.94
302.209	94.94
302.439	96.94
302.669	105.94
302.9	87.94
303.13	85.94
303.36	95.94
303.59	95.94
303.82	93.94
304.051	95.94
304.281	90.94
304.511	88.94
304.741	95.94
304.971	99.94
305.201	91.94
305.431	77.94
305.661	79.94
305.891	90.94
306.121	91.94
306.352	109.94
306.582	99.94
306.812	100.94
307.042	89.94
307.272	95.94
307.502	93.94
307.731	76.94
307.961	92.94
308.191	85.94
308.421	84.94
308.651	84.94
308.881	94.94
309.111	90.94
309.341	93.94
309.571	85.94
309.8	88.94
310.03	102.94
310.26	99.94
310.49	88.94
310.72	87.94
310.949	104.94
311.179	99.94
311.409	99.94
311.639	91.94
311.868	88.94
312.098	96.94
312.328	99.94
312.557	98.94
312.787	97.94
313.017	87.94
313.246	111.94
313.476	102.94
313.706	101.94
313.935	105.94
314.165	82.94
314.394	84.94
314.624	99.94
314.853	89.94
315.083	97.94
315.312	90.94
315.542	89.94
315.771	88.94
316.001	81.94
316.23	94.94
316.46	86.94
316.689	89.94
316.919	88.94
317.148	106.94
317.377	94.94
317.607	89.94
317.836	82.94
318.065	86.94
318.295	91.94
318.524	88.94
318.753	97.94
318.983	93.94
319.212	97.94
319.441	104.94
319.67	115.94
319.9	99.94
320.129	103.94
320.358	105.94
320.587	93.94
320.816	112.94
321.046	103.94
321.275	100.94
321.504	93.94
321.733	92.94
321.962	86.94
322.191	92.94
322.42	94.94
322.649	113.94
322.878	104.94
323.108	111.94
323.337	118.94
323.566	129.94
323.795	139.94
324.024	190.94
324.253	366.94
324.482	759.94
324.71	1519.94
324.939	2049.94
325.168	769.94
325.397	235.94
325.626	126.94
325.855	115.94
326.084	129.94
326.313	124.94
326.542	155.94
326.77	219.94
326.999	408.94
327.228	853.94
327.457	1589.94
327.686	1274.94
327.914	341.94
328.143	178.94
328.372	127.94
328.6	125.94
328.829	110.94
329.058	105.94
329.287	121.94
329.515	100.94
329.744	101.94
329.972	91.94
330.201	94.94
330.43	107.94
330.658	107.94
330.887	121.94
331.115	115.94
331.344	101.94
331.572	95.94
331.801	88.94
332.03	89.94
332.258	85.94
332.486	96.94
332.715	87.94
332.943	93.94
333.172	80.94
333.4	84.94
333.629	112.94
333.857	107.94
334.085	112.94
334.314	99.94
334.542	94.94
334.771	99.94
334.999	102.94
335.227	88.94
335.455	94.94
335.684	108.94
335.912	97.94
336.14	87.94
336.369	93.94
336.597	102.94
336.825	109.94
337.053	87.94
337.281	79.94
337.51	94.94
337.738	102.94
337.966	86.94
338.194	88.94
338.422	106.94
338.65	88.94
338.878	99.94
339.106	77.94
339.334	86.94
339.562	68.94
339.79	80.94
340.018	77.94
340.246	101.94
340.474	99.94
340.702	74.94
340.93	95.94
341.158	90.94
341.386	88.94
341.614	97.94
341.842	98.94
342.07	91.94
342.298	78.94
342.526	85.94
342.754	93.94
342.981	88.94
343.209	87.94
343.437	96.94
343.665	87.94
343.893	88.94
344.12	94.94
344.348	97.94
344.576	87.94
344.804	78.94
345.031	85.94
345.259	90.94
345.487	84.94
345.714	79.94
345.942	79.94
346.17	91.94
346.397	77.94
346.625	85.94
346.853	94.94
347.08	100.94
347.308	101.94
347.535	103.94
347.763	108.94
347.99	92.94
348.218	89.94
348.445	96.94
348.673	96.94
348.9	96.94
349.128	96.94
349.355	94.94
349.583	97.94
349.81	87.94
350.037	95.94
350.265	100.94
350.492	96.94
350.72	105.94
350.947	94.94
351.174	95.94
351.402	120.94
351.629	90.94
351.856	95.94
352.083	85.94
352.311	84.94
352.538	104.94
352.765	108.94
352.992	106.94
353.22	111.94
353.447	93.94
353.674	99.94
353.901	93.94
354.128	101.94
354.355	94.94
354.583	99.94
354.81	108.94
355.037	99.94
355.264	105.94
355.491	106.94
355.718	98.94
355.945	89.94
356.172	101.94
356.399	93.94
356.626	84.94
356.853	99.94
357.08	82.94
357.307	80.94
357.534	94.94
357.761	104.94
357.988	81.94
358.215	93.94
358.441	91.94
358.668	81.94
358.895	91.94
359.122	85.94
359.349	82.94
359.576	91.94
359.802	104.94
360.029	98.94
360.256	106.94
360.483	104.94
360.709	89.94
360.936	101.94
361.163	96.94
361.39	84.94
361.616	78.94
361.843	75.94
362.07	87.94
362.296	94.94
362.523	87.94
362.749	80.94
362.976	74.94
363.203	107.94
363.429	82.94
363.656	80.94
363.882	90.94
364.109	93.94
364.335	74.94
364.562	79.94
364.788	93.94
365.015	106.94
365.241	101.94
365.468	109.94
365.694	88.94
365.92	89.94
366.147	74.94
366.373	90.94
366.599	81.94
366.826	83.94
367.052	73.94
367.278	90.94
367.505	103.94
367.731	87.94
367.957	91.94
368.184	89.94
368.41	92.94
368.636	97.94
368.862	113.94
369.089	92.94
369.315	89.94
369.541	89.94
369.767	85.94
369.993	106.94
370.219	96.94
370.445	91.94
370.672	85.94
370.898	85.94
371.124	85.94
371.35	81.94
371.576	90.94
371.802	89.94
372.028	81.94
372.254	95.94
372.48	89.94
372.706	87.94
372.932	87.94
373.158	100.94
373.384	99.94
373.61	97.94
373.835	86.94
374.061	97.94
374.287	87.94
374.513	85.94
374.739	86.94
374.965	86.94
375.191	84.94
375.416	79.94
375.642	81.94
375.868	94.94
376.094	87.94
376.319	79.94
376.545	77.94
376.771	76.94
376.997	88.94
377.222	92.94
377.448	87.94
377.674	89.94
377.899	90.94
378.125	99.94
378.35	97.94
378.576	94.94
378.802	99.94
379.027	80.94
379.253	84.94
379.478	90.94
379.704	82.94
379.929	97.94
380.155	79.94
380.38	98.94
380.606	93.94
380.831	99.94
381.057	97.94
381.282	96.94
381.507	101.94
381.733	107.94
381.958	81.94
382.184	100.94
382.409	93.94
382.634	99.94
382.86	82.94
383.085	97.94
383.31	99.94
383.535	103.94
383.761	96.94
383.986	102.94
384.211	97.94
384.436	97.94
384.662	90.94
384.887	98.94
385.112	89.94
385.337	98.94
385.562	111.94
385.787	98.94
386.013	101.94
386.238	106.94
386.463	79.94
386.688	105.94
386.913	94.94
387.138	97.94
387.363	92.94
387.588	104.94
387.813	90.94
388.038	103.94
388.263	97.94
388.488	103.94
388.713	99.94
388.938	109.94
389.163	103.94
389.387	90.94
389.612	80.94
389.837	87.94
390.062	96.94
390.287	89.94
390.512	87.94
390.736	95.94
390.961	98.94
391.186	91.94
391.411	97.94
391.636	98.94
391.86	92.94
392.085	85.94
392.31	82.94
392.534	83.94
392.759	99.94
392.984	89.94
393.208	77.94
393.433	85.94
393.658	99.94
393.882	84.94
394.107	87.94
394.331	81.94
394.556	97.94
394.78	80.94
395.005	73.94
395.229	89.94
395.454	95.94
395.678	97.94
395.903	77.94
396.127	78.94
396.352	88.94
396.576	89.94
396.801	94.94
397.025	85.94
397.249	77.94
397.474	97.94
397.698	82.94
397.922	90.94
398.147	79.94
398.371	89.94
398.595	73.94
398.82	81.94
399.044	83.94
399.268	98.94
399.492	81.94
399.717	94.94
399.941	90.94
400.165	86.94
400.389	82.94
400.613	91.94
400.837	95.94
401.062	83.94
401.286	87.94
401.51	82.94
401.734	83.94
401.958	78.94
402.182	112.94
402.406	157.94
402.63	117.94
402.854	95.94
403.078	95.94
403.302	82.94
403.526	84.94
403.75	79.94
403.974	78.94
404.198	101.94
404.422	94.94
404.645	86.94
404.869	99.94
405.093	90.94
405.317	87.94
405.541	101.94
405.765	82.94
405.988	105.94
406.212	143.94
406.436	198.94
406.66	136.94
406.883	97.94
407.107	95.94
407.331	101.94
407.555	91.94
407.778	93.94
408.002	85.94
408.226	91.94
408.449	89.94
408.673	88.94
408.896	99.94
409.12	104.94
409.344	91.94
409.567	97.94
409.791	93.94
410.014	91.94
410.238	105.94
410.461	95.94
410.685	87.94
410.908	104.94
411.132	87.94
411.355	88.94
411.578	82.94
411.802	88.94
412.025	87.94
412.249	97.94
412.472	88.94
412.695	95.94
412.919	93.94
413.142	86.94
413.365	93.94
413.589	89.94
413.812	95.94
414.035	93.94
414.258	87.94
414.482	96.94
414.705	92.94
414.928	91.94
415.151	89.94
415.374	85.94
415.597	81.94
415.821	103.94
416.044	76.94
416.267	96.94
416.49	80.94
416.713	96.94
416.936	93.94
417.159	90.94
417.382	91.94
417.605	87.94
417.828	89.94
418.051	86.94
418.274	85.94
418.497	91.94
418.72	91.94
418.943	92.94
419.166	88.94
419.389	90.94
419.611	68.94
419.834	85.94
420.057	82.94
420.28	91.94
420.503	95.94
420.726	89.94
420.948	68.94
421.171	94.94
421.394	83.94
421.617	96.94
421.839	85.94
422.062	95.94
422.285	81.94
422.507	96.94
422.73	103.94
422.953	90.94
423.175	94.94
423.398	90.94
423.621	94.94
423.843	73.94
424.066	95.94
424.288	88.94
424.511	112.94
424.733	91.94
424.956	100.94
425.178	98.94
425.401	91.94
425.623	86.94
425.846	86.94
426.068	90.94
426.291	96.94
426.513	95.94
426.735	86.94
426.958	89.94
427.18	102.94
427.402	122.94
427.625	134.94
427.847	123.94
428.069	109.94
428.292	84.94
428.514	90.94
428.736	96.94
428.958	89.94
429.181	82.94
429.403	93.94
429.625	73.94
429.847	89.94
430.069	92.94
430.292	97.94
430.514	89.94
430.736	80.94
430.958	77.94
431.18	73.94
431.402	86.94
431.624	71.94
431.846	81.94
432.068	99.94
432.29	91.94
432.512	90.94
432.734	86.94
432.956	81.94
433.178	106.94
433.4	94.94
433.622	91.94
433.844	77.94
434.066	86.94
434.287	96.94
434.509	90.94
434.731	85.94
434.953	86.94
435.175	75.94
435.397	88.94
435.618	83.94
435.84	101.94
436.062	114.94
436.284	105.94
436.505	103.94
436.727	111.94
436.949	94.94
437.17	86.94
437.392	57.94
437.614	78.94
437.835	93.94
438.057	113.94
438.278	102.94
438.5	107.94
438.721	116.94
438.943	83.94
439.165	79.94
439.386	95.94
439.608	88.94
439.829	83.94
440.05	117.94
440.272	131.94
440.493	88.94
440.715	77.94
440.936	92.94
441.158	97.94
441.379	94.94
441.6	101.94
441.822	78.94
442.043	83.94
442.264	91.94
442.486	102.94
442.707	87.94
442.928	83.94
443.149	103.94
443.371	116.94
443.592	89.94
443.813	111.94
444.034	91.94
444.255	98.94
444.476	86.94
444.698	87.94
444.919	95.94
445.14	117.94
445.361	106.94
445.582	101.94
445.803	125.94
446.024	130.94
446.245	123.94
446.466	94.94
446.687	77.94
446.908	87.94
447.129	88.94
447.35	78.94
447.571	95.94
447.792	92.94
448.013	94.94
448.234	105.94
448.455	87.94
448.675	105.94
448.896	111.94
449.117	98.94
449.338	92.94
449.559	116.94
449.779	107.94
450	91.94
450.221	85.94
450.442	83.94
450.662	88.94
450.883	94.94
451.104	109.94
451.324	85.94
451.545	71.94
451.766	79.94
451.986	80.94
452.207	93.94
452.428	91.94
452.648	101.94
452.869	114.94
453.089	95.94
453.31	98.94
453.53	79.94
453.751	101.94
453.971	100.94
454.192	100.94
454.412	88.94
454.633	79.94
454.853	90.94
455.073	77.94
455.294	90.94
455.514	86.94
455.734	79.94
455.955	91.94
456.175	79.94
456.395	87.94
456.616	86.94
456.836	107.94
457.056	90.94
457.276	82.94
457.497	90.94
457.717	88.94
457.937	86.94
458.157	77.94
458.377	95.94
458.598	95.94
458.818	142.94
459.038	145.94
459.258	104.94
459.478	91.94
459.698	86.94
459.918	83.94
460.138	97.94
460.358	90.94
460.578	73.94
460.798	85.94
461.018	99.94
461.238	90.94
461.458	91.94
461.678	73.94
461.898	89.94
462.118	93.94
462.338	61.94
462.558	96.94
462.777	71.94
462.997	95.94
463.217	88.94
463.437	98.94
463.657	82.94
463.876	88.94
464.096	86.94
464.316	98.94
464.536	87.94
464.755	73.94
464.975	90.94
465.195	152.94
465.414	148.94
465.634	85.94
465.854	89.94
466.073	84.94
466.293	89.94
466.512	89.94
466.732	81.94
466.951	85.94
467.171	95.94
467.391	107.94
467.61	106.94
467.829	96.94
468.049	86.94
468.268	77.94
468.488	75.94
468.707	74.94
468.927	68.94
469.146	79.94
469.365	69.94
469.585	102.94
469.804	90.94
470.023	93.94
470.243	83.94
470.462	96.94
470.681	101.94
470.901	95.94
471.12	89.94
471.339	69.94
471.558	86.94
471.777	93.94
471.997	99.94
472.216	89.94
472.435	85.94
472.654	88.94
472.873	88.94
473.092	68.94
473.311	86.94
473.53	90.94
473.749	90.94
473.968	82.94
474.187	101.94
474.406	90.94
474.625	81.94
474.844	97.94
475.063	83.94
475.282	96.94
475.501	88.94
475.72	89.94
475.939	80.94
476.158	90.94
476.377	74.94
476.596	87.94
476.814	103.94
477.033	86.94
477.252	96.94
477.471	96.94
477.69	96.94
477.908	84.94
478.127	79.94
478.346	70.94
478.564	77.94
478.783	89.94
479.002	81.94
479.22	97.94
479.439	97.94
479.658	93.94
479.876	92.94
480.095	83.94
480.313	82.94
480.532	93.94
480.751	95.94
480.969	93.94
481.188	116.94
481.406	111.94
481.624	98.94
481.843	93.94
482.061	93.94
482.28	96.94
482.498	89.94
482.717	75.94
482.935	78.94
483.153	87.94
483.372	97.94
483.59	105.94
483.808	107.94
484.027	98.94
484.245	95.94
484.463	80.94
484.681	87.94
484.9	91.94
485.118	102.94
485.336	94.94
485.554	107.94
485.772	96.94
485.99	95.94
486.209	110.94
486.427	105.94
486.645	97.94
486.863	93.94
487.081	88.94
487.299	110.94
487.517	101.94
487.735	91.94
487.953	87.94
488.171	88.94
488.389	95.94
488.607	94.94
488.825	92.94
489.043	97.94
489.261	90.94
489.479	90.94
489.696	80.94
489.914	89.94
490.132	63.94
490.35	87.94
490.568	84.94
490.786	90.94
491.003	95.94
491.221	77.94
491.439	86.94
491.657	99.94
491.874	93.94
492.092	83.94
492.31	85.94
492.527	78.94
492.745	98.94
492.963	86.94
493.18	98.94
493.398	92.94
493.615	94.94
493.833	93.94
494.05	95.94
494.268	94.94
494.485	85.94
494.703	74.94
494.92	83.94
495.138	87.94
495.355	85.94
495.573	94.94
495.79	90.94
496.008	85.94
496.225	80.94
496.442	74.94
496.66	95.94
496.877	87.94
497.094	90.94
497.312	81.94
497.529	102.94
497.746	86.94
497.963	93.94
498.181	90.94
498.398	81.94
498.615	98.94
498.832	91.94
499.049	83.94
499.267	93.94
499.484	92.94
499.701	86.94
499.918	90.94
500.135	88.94
500.352	89.94
500.569	97.94
500.786	86.94
501.003	87.94
501.22	93.94
501.437	109.94
501.654	87.94
501.871	98.94
502.088	87.94
502.305	89.94
502.522	83.94
502.739	81.94
502.956	79.94
503.172	85.94
503.389	90.94
503.606	99.94
503.823	92.94
504.04	87.94
504.256	88.94
504.473	89.94
504.69	99.94
504.907	93.94
505.123	81.94
505.34	88.94
505.557	90.94
505.773	99.94
505.99	87.94
506.207	83.94
506.423	75.94
506.64	90.94
506.856	86.94
507.073	85.94
507.289	94.94
507.506	90.94
507.722	95.94
507.939	99.94
508.155	100.94
508.372	91.94
508.588	94.94
508.805	85.94
509.021	101.94
509.238	86.94
509.454	98.94
509.67	94.94
509.887	94.94
510.103	123.94
510.319	217.94
510.536	694.94
510.752	2190.94
510.968	608.94
511.184	147.94
511.401	105.94
511.617	98.94
511.833	88.94
512.049	71.94
512.265	79.94
512.481	83.94
512.698	70.94
512.914	91.94
513.13	93.94
513.346	93.94
513.562	89.94
513.778	101.94
513.994	79.94
514.21	101.94
514.426	118.94
514.642	127.94
514.858	123.94
515.074	163.94
515.29	371.94
515.506	1275.94
515.721	475.94
515.937	144.94
516.153	112.94
516.369	98.94
516.585	90.94
516.801	58.94
