Data from Uncirc_1984_H10_HRD10591_00076.txt Node
Date: Wed Jan 03 12:21:52 EST 2024
User: Yrep
Spectrometer: HR+D1059
Trigger mode: 1
Integration Time (sec): 1.000000E-1
Scans to average: 1
Electric dark correction enabled: true
Nonlinearity correction enabled: false
Boxcar width: 0
XAxis mode: Wavelengths
Number of Pixels in Spectrum: 2048
>>>>>Begin Spectral Data<<<<<
223.165	-17.69
223.4	-17.69
223.635	-17.69
223.869	-16.69
224.104	-12.69
224.338	-7.69
224.573	-13.69
224.808	-17.69
225.042	-30.69
225.277	-4.69
225.511	-5.69
225.746	7.31
225.98	3.31
226.215	19.31
226.449	23.31
226.683	19.31
226.918	28.31
227.152	26.31
227.387	20.31
227.621	30.31
227.856	34.31
228.09	39.31
228.324	46.31
228.559	53.31
228.793	67.31
229.027	63.31
229.262	64.31
229.496	71.31
229.73	85.31
229.964	78.31
230.199	87.31
230.433	62.31
230.667	75.31
230.901	74.31
231.136	88.31
231.37	80.31
231.604	72.31
231.838	91.31
232.072	77.31
232.306	89.31
232.541	70.31
232.775	81.31
233.009	81.31
233.243	80.31
233.477	72.31
233.711	65.31
233.945	82.31
234.179	79.31
234.413	86.31
234.647	78.31
234.881	80.31
235.115	81.31
235.349	83.31
235.583	69.31
235.817	91.31
236.051	86.31
236.285	81.31
236.519	73.31
236.753	81.31
236.987	82.31
237.221	80.31
237.455	83.31
237.689	67.31
237.922	77.31
238.156	78.31
238.39	80.31
238.624	70.31
238.858	71.31
239.091	84.31
239.325	83.31
239.559	74.31
239.793	69.31
240.027	82.31
240.26	79.31
240.494	84.31
240.728	67.31
240.961	79.31
241.195	77.31
241.429	65.31
241.662	71.31
241.896	82.31
242.13	71.31
242.363	70.31
242.597	80.31
242.83	77.31
243.064	78.31
243.298	94.31
243.531	70.31
243.765	87.31
243.998	77.31
244.232	67.31
244.465	85.31
244.699	64.31
244.932	86.31
245.166	77.31
245.399	77.31
245.633	72.31
245.866	71.31
246.099	85.31
246.333	74.31
246.566	66.31
246.8	70.31
247.033	74.31
247.266	66.31
247.5	65.31
247.733	64.31
247.966	87.31
248.2	65.31
248.433	76.31
248.666	69.31
248.899	65.31
249.133	88.31
249.366	94.31
249.599	80.31
249.832	78.31
250.066	94.31
250.299	69.31
250.532	69.31
250.765	77.31
250.998	70.31
251.231	83.31
251.465	77.31
251.698	73.31
251.931	88.31
252.164	67.31
252.397	83.31
252.63	77.31
252.863	77.31
253.096	73.31
253.329	92.31
253.562	72.31
253.795	88.31
254.028	78.31
254.261	71.31
254.494	77.31
254.727	89.31
254.96	90.31
255.193	83.31
255.426	77.31
255.659	81.31
255.892	75.31
256.124	86.31
256.357	73.31
256.59	87.31
256.823	70.31
257.056	90.31
257.289	79.31
257.521	85.31
257.754	76.31
257.987	87.31
258.22	77.31
258.452	93.31
258.685	93.31
258.918	89.31
259.151	68.31
259.383	79.31
259.616	83.31
259.849	71.31
260.081	78.31
260.314	78.31
260.547	81.31
260.779	91.31
261.012	85.31
261.244	89.31
261.477	80.31
261.71	105.31
261.942	107.31
262.175	127.31
262.407	77.31
262.64	77.31
262.872	86.31
263.105	95.31
263.337	77.31
263.57	73.31
263.802	87.31
264.035	88.31
264.267	80.31
264.499	86.31
264.732	86.31
264.964	77.31
265.197	82.31
265.429	69.31
265.661	82.31
265.894	81.31
266.126	77.31
266.358	83.31
266.591	80.31
266.823	73.31
267.055	86.31
267.287	70.31
267.52	78.31
267.752	81.31
267.984	82.31
268.216	87.31
268.448	79.31
268.681	78.31
268.913	73.31
269.145	89.31
269.377	89.31
269.609	80.31
269.841	86.31
270.073	83.31
270.306	77.31
270.538	73.31
270.77	87.31
271.002	74.31
271.234	87.31
271.466	93.31
271.698	85.31
271.93	84.31
272.162	79.31
272.394	83.31
272.626	80.31
272.858	82.31
273.09	97.31
273.322	72.31
273.553	85.31
273.785	100.31
274.017	78.31
274.249	82.31
274.481	81.31
274.713	87.31
274.945	83.31
275.176	93.31
275.408	81.31
275.64	84.31
275.872	89.31
276.104	81.31
276.335	67.31
276.567	89.31
276.799	96.31
277.031	88.31
277.262	86.31
277.494	93.31
277.726	82.31
277.957	91.31
278.189	88.31
278.421	90.31
278.652	84.31
278.884	77.31
279.115	84.31
279.347	90.31
279.579	74.31
279.81	83.31
280.042	68.31
280.273	98.31
280.505	70.31
280.736	88.31
280.968	89.31
281.199	78.31
281.431	87.31
281.662	97.31
281.894	97.31
282.125	93.31
282.356	119.31
282.588	144.31
282.819	103.31
283.051	81.31
283.282	85.31
283.513	92.31
283.745	83.31
283.976	83.31
284.207	82.31
284.439	86.31
284.67	93.31
284.901	108.31
285.132	85.31
285.364	83.31
285.595	85.31
285.826	85.31
286.057	72.31
286.288	81.31
286.52	82.31
286.751	88.31
286.982	86.31
287.213	81.31
287.444	86.31
287.675	84.31
287.906	81.31
288.138	81.31
288.369	87.31
288.6	98.31
288.831	88.31
289.062	84.31
289.293	90.31
289.524	79.31
289.755	80.31
289.986	73.31
290.217	89.31
290.448	76.31
290.679	79.31
290.91	95.31
291.141	94.31
291.371	67.31
291.602	79.31
291.833	78.31
292.064	78.31
292.295	82.31
292.526	97.31
292.757	80.31
292.987	94.31
293.218	98.31
293.449	80.31
293.68	87.31
293.91	89.31
294.141	94.31
294.372	94.31
294.603	94.31
294.833	93.31
295.064	75.31
295.295	102.31
295.525	92.31
295.756	85.31
295.987	100.31
296.217	128.31
296.448	118.31
296.679	95.31
296.909	95.31
297.14	95.31
297.37	103.31
297.601	75.31
297.831	89.31
298.062	86.31
298.292	88.31
298.523	88.31
298.753	94.31
298.984	75.31
299.214	87.31
299.445	86.31
299.675	77.31
299.905	90.31
300.136	84.31
300.366	89.31
300.597	95.31
300.827	90.31
301.057	100.31
301.288	100.31
301.518	88.31
301.748	93.31
301.979	97.31
302.209	94.31
302.439	90.31
302.669	85.31
302.9	92.31
303.13	97.31
303.36	89.31
303.59	96.31
303.82	93.31
304.051	97.31
304.281	94.31
304.511	94.31
304.741	100.31
304.971	94.31
305.201	82.31
305.431	67.31
305.661	80.31
305.891	102.31
306.121	102.31
306.352	113.31
306.582	111.31
306.812	92.31
307.042	86.31
307.272	87.31
307.502	88.31
307.731	95.31
307.961	94.31
308.191	79.31
308.421	94.31
308.651	95.31
308.881	79.31
309.111	95.31
309.341	96.31
309.571	86.31
309.8	96.31
310.03	92.31
310.26	90.31
310.49	88.31
310.72	98.31
310.949	89.31
311.179	100.31
311.409	88.31
311.639	91.31
311.868	97.31
312.098	84.31
312.328	103.31
312.557	80.31
312.787	89.31
313.017	96.31
313.246	95.31
313.476	83.31
313.706	83.31
313.935	87.31
314.165	96.31
314.394	91.31
314.624	93.31
314.853	111.31
315.083	81.31
315.312	91.31
315.542	70.31
315.771	88.31
316.001	97.31
316.23	98.31
316.46	90.31
316.689	87.31
316.919	92.31
317.148	100.31
317.377	95.31
317.607	94.31
317.836	84.31
318.065	102.31
318.295	86.31
318.524	101.31
318.753	97.31
318.983	96.31
319.212	104.31
319.441	107.31
319.67	83.31
319.9	92.31
320.129	91.31
320.358	90.31
320.587	91.31
320.816	86.31
321.046	98.31
321.275	84.31
321.504	91.31
321.733	93.31
321.962	89.31
322.191	105.31
322.42	109.31
322.649	106.31
322.878	115.31
323.108	119.31
323.337	112.31
323.566	120.31
323.795	146.31
324.024	201.31
324.253	378.31
324.482	800.31
324.71	1666.31
324.939	2199.31
325.168	813.31
325.397	232.31
325.626	162.31
325.855	130.31
326.084	115.31
326.313	122.31
326.542	164.31
326.77	210.31
326.999	452.31
327.228	935.31
327.457	1693.31
327.686	1360.31
327.914	351.31
328.143	177.31
328.372	134.31
328.6	109.31
328.829	106.31
329.058	114.31
329.287	114.31
329.515	102.31
329.744	83.31
329.972	108.31
330.201	105.31
330.43	115.31
330.658	108.31
330.887	127.31
331.115	105.31
331.344	97.31
331.572	106.31
331.801	97.31
332.03	97.31
332.258	103.31
332.486	99.31
332.715	84.31
332.943	83.31
333.172	79.31
333.4	87.31
333.629	97.31
333.857	107.31
334.085	90.31
334.314	103.31
334.542	102.31
334.771	104.31
334.999	90.31
335.227	95.31
335.455	106.31
335.684	89.31
335.912	73.31
336.14	86.31
336.369	98.31
336.597	93.31
336.825	106.31
337.053	100.31
337.281	93.31
337.51	88.31
337.738	85.31
337.966	85.31
338.194	102.31
338.422	99.31
338.65	85.31
338.878	93.31
339.106	82.31
339.334	89.31
339.562	81.31
339.79	83.31
340.018	99.31
340.246	80.31
340.474	98.31
340.702	98.31
340.93	94.31
341.158	103.31
341.386	93.31
341.614	95.31
341.842	88.31
342.07	86.31
342.298	102.31
342.526	90.31
342.754	86.31
342.981	91.31
343.209	78.31
343.437	98.31
343.665	98.31
343.893	102.31
344.12	96.31
344.348	88.31
344.576	98.31
344.804	99.31
345.031	91.31
345.259	81.31
345.487	105.31
345.714	96.31
345.942	103.31
346.17	79.31
346.397	86.31
346.625	98.31
346.853	98.31
347.08	90.31
347.308	96.31
347.535	95.31
347.763	100.31
347.99	98.31
348.218	87.31
348.445	97.31
348.673	106.31
348.9	88.31
349.128	91.31
349.355	81.31
349.583	84.31
349.81	86.31
350.037	95.31
350.265	86.31
350.492	80.31
350.72	96.31
350.947	96.31
351.174	117.31
351.402	108.31
351.629	102.31
351.856	99.31
352.083	94.31
352.311	117.31
352.538	107.31
352.765	106.31
352.992	109.31
353.22	108.31
353.447	94.31
353.674	99.31
353.901	88.31
354.128	95.31
354.355	86.31
354.583	101.31
354.81	96.31
355.037	105.31
355.264	92.31
355.491	97.31
355.718	101.31
355.945	92.31
356.172	101.31
356.399	90.31
356.626	91.31
356.853	93.31
357.08	91.31
357.307	101.31
357.534	93.31
357.761	91.31
357.988	92.31
358.215	82.31
358.441	90.31
358.668	101.31
358.895	77.31
359.122	80.31
359.349	93.31
359.576	84.31
359.802	86.31
360.029	88.31
360.256	107.31
360.483	94.31
360.709	101.31
360.936	89.31
361.163	88.31
361.39	89.31
361.616	87.31
361.843	84.31
362.07	94.31
362.296	95.31
362.523	89.31
362.749	85.31
362.976	97.31
363.203	79.31
363.429	85.31
363.656	107.31
363.882	79.31
364.109	88.31
364.335	81.31
364.562	84.31
364.788	97.31
365.015	105.31
365.241	113.31
365.468	116.31
365.694	111.31
365.92	98.31
366.147	75.31
366.373	89.31
366.599	99.31
366.826	97.31
367.052	98.31
367.278	84.31
367.505	102.31
367.731	85.31
367.957	93.31
368.184	94.31
368.41	81.31
368.636	93.31
368.862	114.31
369.089	89.31
369.315	111.31
369.541	94.31
369.767	86.31
369.993	88.31
370.219	98.31
370.445	94.31
370.672	87.31
370.898	85.31
371.124	79.31
371.35	95.31
371.576	81.31
371.802	80.31
372.028	82.31
372.254	83.31
372.48	82.31
372.706	86.31
372.932	100.31
373.158	84.31
373.384	103.31
373.61	79.31
373.835	89.31
374.061	77.31
374.287	85.31
374.513	100.31
374.739	87.31
374.965	90.31
375.191	95.31
375.416	89.31
375.642	92.31
375.868	81.31
376.094	94.31
376.319	98.31
376.545	95.31
376.771	89.31
376.997	96.31
377.222	99.31
377.448	81.31
377.674	89.31
377.899	96.31
378.125	95.31
378.35	85.31
378.576	80.31
378.802	94.31
379.027	91.31
379.253	94.31
379.478	93.31
379.704	79.31
379.929	86.31
380.155	84.31
380.38	81.31
380.606	84.31
380.831	94.31
381.057	106.31
381.282	93.31
381.507	82.31
381.733	100.31
381.958	107.31
382.184	93.31
382.409	100.31
382.634	96.31
382.86	117.31
383.085	95.31
383.31	105.31
383.535	102.31
383.761	99.31
383.986	98.31
384.211	107.31
384.436	106.31
384.662	94.31
384.887	91.31
385.112	105.31
385.337	98.31
385.562	89.31
385.787	98.31
386.013	90.31
386.238	100.31
386.463	99.31
386.688	107.31
386.913	108.31
387.138	110.31
387.363	88.31
387.588	109.31
387.813	96.31
388.038	93.31
388.263	99.31
388.488	99.31
388.713	104.31
388.938	100.31
389.163	91.31
389.387	97.31
389.612	97.31
389.837	99.31
390.062	101.31
390.287	94.31
390.512	93.31
390.736	97.31
390.961	97.31
391.186	95.31
391.411	94.31
391.636	96.31
391.86	95.31
392.085	100.31
392.31	93.31
392.534	89.31
392.759	91.31
392.984	89.31
393.208	84.31
393.433	95.31
393.658	85.31
393.882	94.31
394.107	84.31
394.331	87.31
394.556	90.31
394.78	92.31
395.005	92.31
395.229	96.31
395.454	83.31
395.678	79.31
395.903	87.31
396.127	89.31
396.352	88.31
396.576	80.31
396.801	91.31
397.025	90.31
397.249	86.31
397.474	81.31
397.698	74.31
397.922	72.31
398.147	82.31
398.371	84.31
398.595	86.31
398.82	73.31
399.044	89.31
399.268	109.31
399.492	87.31
399.717	83.31
399.941	93.31
400.165	95.31
400.389	81.31
400.613	90.31
400.837	104.31
401.062	86.31
401.286	93.31
401.51	77.31
401.734	90.31
401.958	107.31
402.182	115.31
402.406	139.31
402.63	108.31
402.854	105.31
403.078	74.31
403.302	92.31
403.526	81.31
403.75	71.31
403.974	87.31
404.198	81.31
404.422	83.31
404.645	91.31
404.869	90.31
405.093	99.31
405.317	94.31
405.541	106.31
405.765	98.31
405.988	97.31
406.212	163.31
406.436	223.31
406.66	142.31
406.883	98.31
407.107	89.31
407.331	89.31
407.555	97.31
407.778	102.31
408.002	91.31
408.226	96.31
408.449	89.31
408.673	87.31
408.896	102.31
409.12	88.31
409.344	90.31
409.567	90.31
409.791	81.31
410.014	98.31
410.238	89.31
410.461	91.31
410.685	94.31
410.908	106.31
411.132	103.31
411.355	93.31
411.578	82.31
411.802	97.31
412.025	98.31
412.249	95.31
412.472	97.31
412.695	76.31
412.919	93.31
413.142	100.31
413.365	87.31
413.589	94.31
413.812	97.31
414.035	92.31
414.258	99.31
414.482	94.31
414.705	88.31
414.928	94.31
415.151	91.31
415.374	72.31
415.597	85.31
415.821	99.31
416.044	92.31
416.267	99.31
416.49	79.31
416.713	90.31
416.936	84.31
417.159	90.31
417.382	80.31
417.605	96.31
417.828	99.31
418.051	97.31
418.274	75.31
418.497	93.31
418.72	103.31
418.943	95.31
419.166	88.31
419.389	83.31
419.611	94.31
419.834	89.31
420.057	77.31
420.28	77.31
420.503	113.31
420.726	82.31
420.948	101.31
421.171	81.31
421.394	86.31
421.617	94.31
421.839	81.31
422.062	89.31
422.285	88.31
422.507	108.31
422.73	103.31
422.953	89.31
423.175	85.31
423.398	86.31
423.621	87.31
423.843	85.31
424.066	89.31
424.288	93.31
424.511	98.31
424.733	104.31
424.956	101.31
425.178	112.31
425.401	95.31
425.623	118.31
425.846	98.31
426.068	95.31
426.291	96.31
426.513	89.31
426.735	80.31
426.958	92.31
427.18	104.31
427.402	134.31
427.625	161.31
427.847	136.31
428.069	105.31
428.292	83.31
428.514	94.31
428.736	77.31
428.958	90.31
429.181	81.31
429.403	84.31
429.625	80.31
429.847	86.31
430.069	106.31
430.292	117.31
430.514	102.31
430.736	77.31
430.958	93.31
431.18	94.31
431.402	79.31
431.624	81.31
431.846	98.31
432.068	85.31
432.29	91.31
432.512	97.31
432.734	93.31
432.956	90.31
433.178	88.31
433.4	95.31
433.622	93.31
433.844	86.31
434.066	93.31
434.287	83.31
434.509	90.31
434.731	93.31
434.953	97.31
435.175	97.31
435.397	93.31
435.618	89.31
435.84	102.31
436.062	125.31
436.284	113.31
436.505	110.31
436.727	84.31
436.949	92.31
437.17	94.31
437.392	79.31
437.614	90.31
437.835	111.31
438.057	124.31
438.278	107.31
438.5	98.31
438.721	130.31
438.943	97.31
439.165	82.31
439.386	99.31
439.608	86.31
439.829	91.31
440.05	116.31
440.272	140.31
440.493	84.31
440.715	89.31
440.936	85.31
441.158	60.31
441.379	88.31
441.6	88.31
441.822	90.31
442.043	101.31
442.264	112.31
442.486	102.31
442.707	84.31
442.928	90.31
443.149	131.31
443.371	123.31
443.592	109.31
443.813	102.31
444.034	99.31
444.255	104.31
444.476	73.31
444.698	91.31
444.919	87.31
445.14	112.31
445.361	135.31
445.582	114.31
445.803	138.31
446.024	129.31
446.245	123.31
446.466	108.31
446.687	81.31
446.908	96.31
447.129	91.31
447.35	102.31
447.571	100.31
447.792	101.31
448.013	81.31
448.234	104.31
448.455	111.31
448.675	101.31
448.896	102.31
449.117	89.31
449.338	106.31
449.559	121.31
449.779	128.31
450	99.31
450.221	89.31
450.442	88.31
450.662	93.31
450.883	108.31
451.104	93.31
451.324	94.31
451.545	97.31
451.766	80.31
451.986	73.31
452.207	77.31
452.428	81.31
452.648	96.31
452.869	91.31
453.089	99.31
453.31	133.31
453.53	95.31
453.751	96.31
453.971	92.31
454.192	92.31
454.412	88.31
454.633	82.31
454.853	89.31
455.073	96.31
455.294	88.31
455.514	105.31
455.734	87.31
455.955	73.31
456.175	86.31
456.395	81.31
456.616	93.31
456.836	86.31
457.056	88.31
457.276	99.31
457.497	77.31
457.717	83.31
457.937	86.31
458.157	82.31
458.377	77.31
458.598	100.31
458.818	138.31
459.038	138.31
459.258	113.31
459.478	89.31
459.698	90.31
459.918	91.31
460.138	84.31
460.358	90.31
460.578	83.31
460.798	94.31
461.018	85.31
461.238	79.31
461.458	98.31
461.678	92.31
461.898	93.31
462.118	94.31
462.338	80.31
462.558	98.31
462.777	78.31
462.997	80.31
463.217	90.31
463.437	93.31
463.657	80.31
463.876	72.31
464.096	81.31
464.316	85.31
464.536	86.31
464.755	94.31
464.975	94.31
465.195	142.31
465.414	151.31
465.634	109.31
465.854	86.31
466.073	95.31
466.293	88.31
466.512	85.31
466.732	90.31
466.951	79.31
467.171	101.31
467.391	82.31
467.61	83.31
467.829	80.31
468.049	88.31
468.268	100.31
468.488	87.31
468.707	80.31
468.927	82.31
469.146	87.31
469.365	98.31
469.585	82.31
469.804	94.31
470.023	79.31
470.243	84.31
470.462	92.31
470.681	96.31
470.901	83.31
471.12	79.31
471.339	79.31
471.558	90.31
471.777	71.31
471.997	81.31
472.216	87.31
472.435	94.31
472.654	100.31
472.873	89.31
473.092	83.31
473.311	91.31
473.53	85.31
473.749	76.31
473.968	89.31
474.187	91.31
474.406	91.31
474.625	88.31
474.844	92.31
475.063	92.31
475.282	87.31
475.501	95.31
475.72	85.31
475.939	100.31
476.158	81.31
476.377	90.31
476.596	84.31
476.814	92.31
477.033	88.31
477.252	79.31
477.471	94.31
477.69	80.31
477.908	94.31
478.127	108.31
478.346	75.31
478.564	85.31
478.783	93.31
479.002	106.31
479.22	85.31
479.439	90.31
479.658	79.31
479.876	104.31
480.095	81.31
480.313	85.31
480.532	81.31
480.751	103.31
480.969	97.31
481.188	107.31
481.406	109.31
481.624	87.31
481.843	87.31
482.061	99.31
482.28	88.31
482.498	73.31
482.717	91.31
482.935	74.31
483.153	89.31
483.372	98.31
483.59	87.31
483.808	95.31
484.027	89.31
484.245	81.31
484.463	85.31
484.681	103.31
484.9	74.31
485.118	92.31
485.336	105.31
485.554	99.31
485.772	87.31
485.99	107.31
486.209	98.31
486.427	105.31
486.645	117.31
486.863	102.31
487.081	93.31
487.299	87.31
487.517	96.31
487.735	85.31
487.953	81.31
488.171	87.31
488.389	107.31
488.607	104.31
488.825	102.31
489.043	96.31
489.261	93.31
489.479	85.31
489.696	96.31
489.914	95.31
490.132	72.31
490.35	79.31
490.568	93.31
490.786	85.31
491.003	82.31
491.221	88.31
491.439	90.31
491.657	89.31
491.874	103.31
492.092	90.31
492.31	81.31
492.527	104.31
492.745	77.31
492.963	95.31
493.18	99.31
493.398	90.31
493.615	91.31
493.833	107.31
494.05	88.31
494.268	89.31
494.485	82.31
494.703	84.31
494.92	103.31
495.138	83.31
495.355	84.31
495.573	84.31
495.79	91.31
496.008	99.31
496.225	101.31
496.442	90.31
496.66	87.31
496.877	79.31
497.094	104.31
497.312	79.31
497.529	94.31
497.746	97.31
497.963	86.31
498.181	91.31
498.398	95.31
498.615	111.31
498.832	97.31
499.049	89.31
499.267	91.31
499.484	82.31
499.701	93.31
499.918	87.31
500.135	101.31
500.352	86.31
500.569	89.31
500.786	83.31
501.003	98.31
501.22	91.31
501.437	102.31
501.654	100.31
501.871	95.31
502.088	95.31
502.305	88.31
502.522	100.31
502.739	81.31
502.956	97.31
503.172	105.31
503.389	104.31
503.606	88.31
503.823	88.31
504.04	88.31
504.256	87.31
504.473	89.31
504.69	86.31
504.907	101.31
505.123	95.31
505.34	94.31
505.557	81.31
505.773	90.31
505.99	94.31
506.207	92.31
506.423	90.31
506.64	84.31
506.856	86.31
507.073	97.31
507.289	99.31
507.506	89.31
507.722	103.31
507.939	102.31
508.155	102.31
508.372	82.31
508.588	89.31
508.805	99.31
509.021	96.31
509.238	97.31
509.454	103.31
509.67	107.31
509.887	113.31
510.103	126.31
510.319	209.31
510.536	727.31
510.752	2287.31
510.968	623.31
511.184	144.31
511.401	107.31
511.617	107.31
511.833	86.31
512.049	82.31
512.265	99.31
512.481	83.31
512.698	97.31
512.914	86.31
513.13	90.31
513.346	77.31
513.562	89.31
513.778	100.31
513.994	91.31
514.21	90.31
514.426	114.31
514.642	134.31
514.858	105.31
515.074	151.31
515.29	419.31
515.506	1335.31
515.721	481.31
515.937	125.31
516.153	112.31
516.369	110.31
