Data from Uncirc_1984_H10_HRD10591_00045.txt Node
Date: Wed Jan 03 12:21:46 EST 2024
User: Yrep
Spectrometer: HR+D1059
Trigger mode: 1
Integration Time (sec): 1.000000E-1
Scans to average: 1
Electric dark correction enabled: true
Nonlinearity correction enabled: false
Boxcar width: 0
XAxis mode: Wavelengths
Number of Pixels in Spectrum: 2048
>>>>>Begin Spectral Data<<<<<
223.165	-32
223.4	-32
223.635	-32
223.869	-10
224.104	-15
224.338	-1
224.573	-9
224.808	-16
225.042	-17
225.277	-6
225.511	2
225.746	2
225.98	9
226.215	2
226.449	13
226.683	25
226.918	19
227.152	34
227.387	24
227.621	28
227.856	33
228.09	61
228.324	54
228.559	55
228.793	56
229.027	47
229.262	58
229.496	73
229.73	85
229.964	81
230.199	77
230.433	79
230.667	78
230.901	80
231.136	69
231.37	79
231.604	102
231.838	83
232.072	78
232.306	85
232.541	83
232.775	93
233.009	81
233.243	75
233.477	78
233.711	83
233.945	80
234.179	79
234.413	97
234.647	92
234.881	84
235.115	74
235.349	73
235.583	65
235.817	81
236.051	92
236.285	79
236.519	88
236.753	88
236.987	73
237.221	71
237.455	70
237.689	69
237.922	88
238.156	78
238.39	77
238.624	88
238.858	71
239.091	77
239.325	83
239.559	70
239.793	101
240.027	81
240.26	77
240.494	87
240.728	76
240.961	72
241.195	77
241.429	81
241.662	71
241.896	87
242.13	80
242.363	78
242.597	80
242.83	85
243.064	84
243.298	93
243.531	92
243.765	85
243.998	74
244.232	84
244.465	94
244.699	89
244.932	75
245.166	73
245.399	88
245.633	77
245.866	73
246.099	59
246.333	89
246.566	73
246.8	71
247.033	77
247.266	69
247.5	64
247.733	80
247.966	81
248.2	64
248.433	79
248.666	79
248.899	73
249.133	81
249.366	83
249.599	97
249.832	77
250.066	89
250.299	60
250.532	88
250.765	89
250.998	81
251.231	67
251.465	87
251.698	82
251.931	72
252.164	79
252.397	79
252.63	89
252.863	71
253.096	74
253.329	81
253.562	84
253.795	74
254.028	81
254.261	77
254.494	70
254.727	82
254.96	83
255.193	85
255.426	74
255.659	94
255.892	70
256.124	85
256.357	83
256.59	89
256.823	83
257.056	74
257.289	71
257.521	84
257.754	91
257.987	94
258.22	85
258.452	85
258.685	67
258.918	90
259.151	77
259.383	85
259.616	71
259.849	79
260.081	76
260.314	72
260.547	75
260.779	84
261.012	82
261.244	79
261.477	92
261.71	98
261.942	114
262.175	117
262.407	87
262.64	65
262.872	74
263.105	85
263.337	85
263.57	80
263.802	87
264.035	72
264.267	72
264.499	81
264.732	86
264.964	82
265.197	74
265.429	74
265.661	80
265.894	78
266.126	89
266.358	89
266.591	71
266.823	101
267.055	77
267.287	101
267.52	71
267.752	68
267.984	94
268.216	86
268.448	80
268.681	79
268.913	90
269.145	83
269.377	80
269.609	82
269.841	79
270.073	86
270.306	90
270.538	80
270.77	95
271.002	87
271.234	82
271.466	62
271.698	89
271.93	82
272.162	68
272.394	75
272.626	85
272.858	78
273.09	66
273.322	90
273.553	102
273.785	75
274.017	86
274.249	81
274.481	75
274.713	89
274.945	79
275.176	88
275.408	79
275.64	73
275.872	73
276.104	84
276.335	75
276.567	89
276.799	93
277.031	95
277.262	86
277.494	97
277.726	70
277.957	71
278.189	87
278.421	91
278.652	84
278.884	81
279.115	87
279.347	82
279.579	85
279.81	94
280.042	81
280.273	90
280.505	93
280.736	78
280.968	90
281.199	82
281.431	87
281.662	96
281.894	89
282.125	106
282.356	103
282.588	129
282.819	107
283.051	105
283.282	102
283.513	89
283.745	94
283.976	92
284.207	90
284.439	97
284.67	87
284.901	69
285.132	91
285.364	77
285.595	86
285.826	96
286.057	86
286.288	106
286.52	83
286.751	81
286.982	80
287.213	96
287.444	87
287.675	85
287.906	74
288.138	81
288.369	80
288.6	92
288.831	85
289.062	92
289.293	88
289.524	101
289.755	79
289.986	79
290.217	85
290.448	84
290.679	78
290.91	87
291.141	88
291.371	85
291.602	86
291.833	77
292.064	78
292.295	92
292.526	82
292.757	87
292.987	88
293.218	83
293.449	94
293.68	87
293.91	78
294.141	101
294.372	81
294.603	94
294.833	85
295.064	90
295.295	86
295.525	97
295.756	105
295.987	116
296.217	138
296.448	119
296.679	100
296.909	71
297.14	82
297.37	96
297.601	85
297.831	89
298.062	96
298.292	89
298.523	87
298.753	98
298.984	85
299.214	91
299.445	84
299.675	88
299.905	93
300.136	93
300.366	90
300.597	89
300.827	84
301.057	90
301.288	102
301.518	95
301.748	94
301.979	97
302.209	89
302.439	81
302.669	88
302.9	89
303.13	95
303.36	90
303.59	92
303.82	93
304.051	96
304.281	99
304.511	87
304.741	100
304.971	89
305.201	99
305.431	89
305.661	90
305.891	86
306.121	86
306.352	98
306.582	107
306.812	81
307.042	94
307.272	93
307.502	104
307.731	95
307.961	89
308.191	76
308.421	86
308.651	95
308.881	97
309.111	94
309.341	104
309.571	89
309.8	98
310.03	96
310.26	82
310.49	95
310.72	94
310.949	104
311.179	98
311.409	103
311.639	94
311.868	90
312.098	87
312.328	97
312.557	95
312.787	113
313.017	114
313.246	103
313.476	88
313.706	96
313.935	95
314.165	102
314.394	90
314.624	85
314.853	97
315.083	81
315.312	79
315.542	89
315.771	103
316.001	89
316.23	80
316.46	81
316.689	92
316.919	93
317.148	82
317.377	99
317.607	100
317.836	96
318.065	83
318.295	95
318.524	84
318.753	89
318.983	95
319.212	86
319.441	114
319.67	108
319.9	94
320.129	98
320.358	99
320.587	103
320.816	98
321.046	93
321.275	103
321.504	81
321.733	83
321.962	98
322.191	118
322.42	110
322.649	106
322.878	116
323.108	109
323.337	128
323.566	129
323.795	152
324.024	190
324.253	388
324.482	883
324.71	1798
324.939	2434
325.168	881
325.397	245
325.626	151
325.855	133
326.084	106
326.313	146
326.542	158
326.77	228
326.999	490
327.228	1007
327.457	1880
327.686	1467
327.914	393
328.143	202
328.372	147
328.6	114
328.829	110
329.058	121
329.287	117
329.515	100
329.744	98
329.972	97
330.201	87
330.43	83
330.658	119
330.887	122
331.115	124
331.344	90
331.572	101
331.801	95
332.03	95
332.258	101
332.486	87
332.715	96
332.943	100
333.172	113
333.4	105
333.629	102
333.857	99
334.085	103
334.314	98
334.542	98
334.771	98
334.999	111
335.227	87
335.455	94
335.684	85
335.912	92
336.14	91
336.369	101
336.597	100
336.825	95
337.053	94
337.281	90
337.51	87
337.738	93
337.966	98
338.194	91
338.422	86
338.65	97
338.878	83
339.106	81
339.334	90
339.562	83
339.79	90
340.018	102
340.246	90
340.474	85
340.702	94
340.93	104
341.158	89
341.386	99
341.614	91
341.842	89
342.07	105
342.298	93
342.526	103
342.754	98
342.981	88
343.209	75
343.437	98
343.665	87
343.893	90
344.12	100
344.348	87
344.576	99
344.804	87
345.031	101
345.259	91
345.487	94
345.714	93
345.942	84
346.17	80
346.397	97
346.625	95
346.853	97
347.08	95
347.308	85
347.535	103
347.763	110
347.99	97
348.218	100
348.445	99
348.673	101
348.9	90
349.128	114
349.355	89
349.583	87
349.81	96
350.037	98
350.265	87
350.492	85
350.72	93
350.947	107
351.174	109
351.402	105
351.629	96
351.856	102
352.083	97
352.311	97
352.538	98
352.765	110
352.992	114
353.22	105
353.447	109
353.674	96
353.901	94
354.128	104
354.355	91
354.583	103
354.81	102
355.037	85
355.264	101
355.491	91
355.718	93
355.945	96
356.172	86
356.399	85
356.626	97
356.853	82
357.08	95
357.307	89
357.534	96
357.761	79
357.988	88
358.215	96
358.441	95
358.668	96
358.895	93
359.122	81
359.349	74
359.576	81
359.802	102
360.029	103
360.256	105
360.483	86
360.709	99
360.936	100
361.163	79
361.39	81
361.616	93
361.843	97
362.07	96
362.296	87
362.523	79
362.749	85
362.976	89
363.203	80
363.429	102
363.656	101
363.882	91
364.109	91
364.335	90
364.562	64
364.788	77
365.015	94
365.241	97
365.468	98
365.694	100
365.92	104
366.147	83
366.373	93
366.599	78
366.826	85
367.052	97
367.278	89
367.505	90
367.731	90
367.957	88
368.184	100
368.41	120
368.636	99
368.862	123
369.089	107
369.315	90
369.541	86
369.767	89
369.993	81
370.219	73
370.445	85
370.672	79
370.898	99
371.124	85
371.35	82
371.576	84
371.802	93
372.028	80
372.254	88
372.48	93
372.706	92
372.932	85
373.158	84
373.384	94
373.61	97
373.835	106
374.061	80
374.287	91
374.513	94
374.739	74
374.965	90
375.191	100
375.416	92
375.642	85
375.868	78
376.094	97
376.319	88
376.545	97
376.771	75
376.997	98
377.222	98
377.448	93
377.674	93
377.899	105
378.125	86
378.35	103
378.576	95
378.802	88
379.027	86
379.253	99
379.478	99
379.704	107
379.929	87
380.155	95
380.38	101
380.606	91
380.831	106
381.057	101
381.282	102
381.507	97
381.733	98
381.958	88
382.184	87
382.409	79
382.634	102
382.86	83
383.085	111
383.31	107
383.535	96
383.761	103
383.986	94
384.211	93
384.436	91
384.662	89
384.887	100
385.112	101
385.337	95
385.562	102
385.787	94
386.013	105
386.238	103
386.463	93
386.688	100
386.913	106
387.138	93
387.363	84
387.588	89
387.813	105
388.038	99
388.263	102
388.488	107
388.713	93
388.938	103
389.163	106
389.387	96
389.612	95
389.837	87
390.062	83
390.287	93
390.512	83
390.736	93
390.961	83
391.186	106
391.411	87
391.636	102
391.86	79
392.085	81
392.31	88
392.534	93
392.759	81
392.984	86
393.208	98
393.433	103
393.658	93
393.882	81
394.107	77
394.331	77
394.556	84
394.78	96
395.005	92
395.229	96
395.454	83
395.678	82
395.903	93
396.127	83
396.352	87
396.576	86
396.801	82
397.025	86
397.249	93
397.474	91
397.698	93
397.922	95
398.147	93
398.371	100
398.595	87
398.82	77
399.044	90
399.268	91
399.492	91
399.717	82
399.941	92
400.165	69
400.389	85
400.613	81
400.837	100
401.062	90
401.286	83
401.51	89
401.734	87
401.958	82
402.182	141
402.406	165
402.63	125
402.854	91
403.078	85
403.302	80
403.526	90
403.75	107
403.974	80
404.198	93
404.422	82
404.645	96
404.869	85
405.093	104
405.317	105
405.541	94
405.765	105
405.988	113
406.212	184
406.436	226
406.66	157
406.883	105
407.107	88
407.331	86
407.555	106
407.778	93
408.002	81
408.226	90
408.449	83
408.673	80
408.896	90
409.12	97
409.344	87
409.567	90
409.791	90
410.014	101
410.238	93
410.461	90
410.685	96
410.908	101
411.132	109
411.355	96
411.578	96
411.802	74
412.025	89
412.249	89
412.472	98
412.695	84
412.919	97
413.142	85
413.365	97
413.589	92
413.812	87
414.035	101
414.258	88
414.482	84
414.705	90
414.928	91
415.151	90
415.374	97
415.597	90
415.821	81
416.044	87
416.267	75
416.49	97
416.713	89
416.936	92
417.159	89
417.382	81
417.605	101
417.828	87
418.051	102
418.274	93
418.497	89
418.72	85
418.943	88
419.166	87
419.389	96
419.611	90
419.834	97
420.057	104
420.28	81
420.503	87
420.726	95
420.948	85
421.171	71
421.394	91
421.617	95
421.839	84
422.062	86
422.285	92
422.507	93
422.73	96
422.953	99
423.175	86
423.398	102
423.621	91
423.843	81
424.066	95
424.288	102
424.511	87
424.733	90
424.956	108
425.178	106
425.401	103
425.623	93
425.846	75
426.068	89
426.291	83
426.513	84
426.735	96
426.958	82
427.18	108
427.402	135
427.625	163
427.847	118
428.069	93
428.292	90
428.514	85
428.736	82
428.958	87
429.181	79
429.403	76
429.625	83
429.847	89
430.069	95
430.292	98
430.514	94
430.736	100
430.958	79
431.18	80
431.402	85
431.624	101
431.846	81
432.068	76
432.29	85
432.512	91
432.734	93
432.956	89
433.178	107
433.4	102
433.622	86
433.844	86
434.066	88
434.287	88
434.509	92
434.731	87
434.953	88
435.175	85
435.397	91
435.618	107
435.84	100
436.062	112
436.284	112
436.505	106
436.727	111
436.949	106
437.17	88
437.392	83
437.614	92
437.835	100
438.057	109
438.278	126
438.5	106
438.721	102
438.943	98
439.165	86
439.386	95
439.608	91
439.829	94
440.05	111
440.272	137
440.493	88
440.715	86
440.936	96
441.158	87
441.379	88
441.6	97
441.822	94
442.043	105
442.264	112
442.486	87
442.707	93
442.928	101
443.149	138
443.371	115
443.592	97
443.813	110
444.034	103
444.255	102
444.476	86
444.698	85
444.919	93
445.14	125
445.361	126
445.582	99
445.803	130
446.024	144
446.245	119
446.466	99
446.687	89
446.908	103
447.129	77
447.35	66
447.571	95
447.792	91
448.013	87
448.234	91
448.455	95
448.675	104
448.896	111
449.117	97
449.338	93
449.559	129
449.779	131
450	87
450.221	82
450.442	94
450.662	89
450.883	109
451.104	107
451.324	85
451.545	81
451.766	90
451.986	97
452.207	96
452.428	97
452.648	98
452.869	103
453.089	101
453.31	102
453.53	97
453.751	94
453.971	85
454.192	95
454.412	89
454.633	88
454.853	92
455.073	87
455.294	94
455.514	83
455.734	78
455.955	79
456.175	85
456.395	96
456.616	86
456.836	86
457.056	70
457.276	69
457.497	77
457.717	86
457.937	92
458.157	89
458.377	88
458.598	107
458.818	151
459.038	133
459.258	110
459.478	96
459.698	91
459.918	95
460.138	88
460.358	86
460.578	81
460.798	84
461.018	86
461.238	73
461.458	81
461.678	69
461.898	99
462.118	84
462.338	73
462.558	82
462.777	93
462.997	77
463.217	93
463.437	86
463.657	81
463.876	71
464.096	92
464.316	95
464.536	101
464.755	89
464.975	105
465.195	163
465.414	159
465.634	102
465.854	104
466.073	82
466.293	89
466.512	87
466.732	77
466.951	82
467.171	85
467.391	90
467.61	112
467.829	96
468.049	98
468.268	94
468.488	88
468.707	79
468.927	80
469.146	80
469.365	88
469.585	93
469.804	89
470.023	96
470.243	94
470.462	97
470.681	118
470.901	81
471.12	90
471.339	89
471.558	77
471.777	77
471.997	71
472.216	87
472.435	90
472.654	81
472.873	83
473.092	84
473.311	72
473.53	80
473.749	87
473.968	95
474.187	99
474.406	97
474.625	75
474.844	90
475.063	89
475.282	78
475.501	90
475.72	85
475.939	85
476.158	88
476.377	86
476.596	86
476.814	88
477.033	87
477.252	81
477.471	84
477.69	90
477.908	81
478.127	95
478.346	91
478.564	92
478.783	104
479.002	79
479.22	94
479.439	77
479.658	107
479.876	100
480.095	91
480.313	93
480.532	84
480.751	96
480.969	101
481.188	98
481.406	96
481.624	94
481.843	77
482.061	87
482.28	86
482.498	86
482.717	87
482.935	95
483.153	73
483.372	80
483.59	103
483.808	90
484.027	93
484.245	78
484.463	97
484.681	86
484.9	93
485.118	102
485.336	98
485.554	105
485.772	103
485.99	105
486.209	118
486.427	105
486.645	107
486.863	105
487.081	105
487.299	93
487.517	91
487.735	88
487.953	74
488.171	99
488.389	105
488.607	93
488.825	93
489.043	90
489.261	90
489.479	84
489.696	90
489.914	83
490.132	97
490.35	74
490.568	89
490.786	94
491.003	86
491.221	82
491.439	80
491.657	100
491.874	87
492.092	91
492.31	79
492.527	86
492.745	90
492.963	95
493.18	88
493.398	87
493.615	83
493.833	74
494.05	83
494.268	97
494.485	74
494.703	89
494.92	91
495.138	92
495.355	105
495.573	91
495.79	92
496.008	99
496.225	99
496.442	80
496.66	78
496.877	88
497.094	84
497.312	89
497.529	98
497.746	102
497.963	88
498.181	92
498.398	90
498.615	112
498.832	97
499.049	90
499.267	91
499.484	83
499.701	90
499.918	98
500.135	103
500.352	80
500.569	88
500.786	86
501.003	101
501.22	97
501.437	95
501.654	99
501.871	103
502.088	90
502.305	95
502.522	86
502.739	95
502.956	90
503.172	96
503.389	99
503.606	100
503.823	101
504.04	98
504.256	94
504.473	70
504.69	95
504.907	90
505.123	87
505.34	83
505.557	91
505.773	87
505.99	95
506.207	77
506.423	72
506.64	91
506.856	88
507.073	96
507.289	102
507.506	101
507.722	112
507.939	106
508.155	71
508.372	82
508.588	102
508.805	96
509.021	99
509.238	88
509.454	93
509.67	85
509.887	104
510.103	137
510.319	224
510.536	806
510.752	2554
510.968	674
511.184	166
511.401	112
511.617	101
511.833	98
512.049	101
512.265	83
512.481	90
512.698	83
512.914	95
513.13	103
513.346	99
513.562	100
513.778	98
513.994	90
514.21	98
514.426	120
514.642	145
514.858	117
515.074	145
515.29	484
515.506	1582
515.721	548
515.937	157
516.153	109
516.369	97
516.585	99
516.801	96
517.016	89
517.232	87
517.448	98
517.664	100
517.879	87
518.095	102
518.311	84
518.527	96
518.742	86
518.958	94
519.173	91
519.389	90
519.605	100
519.82	105
520.036	103
520.251	122
520.467	104
520.682	113
520.898	111
521.113	114
521.329	141
521.544	203
521.76	621
521.975	2631
522.19	1515
522.406	321
522.621	132
522.836	107
523.052	99
523.267	86
523.482	85
523.698	81
523.913	109
524.128	93
524.343	103
524.559	88
524.774	88
524.989	88
525.204	104
525.419	83
525.634	87
525.849	89
526.064	75
526.28	86
526.495	85
526.71	103
526.925	94
527.14	90
527.355	84
527.57	91
527.785	94
527.999	79
528.214	91
528.429	82
528.644	91
528.859	95
529.074	89
529.289	119
529.503	168
529.718	113
529.933	83
530.148	88
530.363	105
530.577	85
530.792	94
531.007	73
531.221	102
531.436	90
531.651	93
531.865	98
532.08	95
532.295	77
532.509	73
532.724	73
532.938	99
533.153	92
533.367	84
533.582	90
533.796	93
534.011	91
534.225	93
534.44	86
534.654	103
534.868	98
535.083	87
535.297	97
535.511	113
535.726	93
535.94	79
536.154	94
536.369	90
536.583	90
536.797	100
537.011	87
537.225	86
537.44	83
537.654	80
537.868	76
538.082	90
538.296	81
538.51	86
538.724	93
538.938	94
539.153	97
539.367	103
539.581	105
539.795	95
540.009	82
540.222	85
540.436	85
540.65	98
540.864	83
541.078	85
541.292	99
541.506	83
541.72	87
541.934	87
542.147	79
542.361	89
542.575	91
542.789	94
543.002	98
543.216	93
543.43	80
543.644	82
543.857	95
544.071	77
544.285	85
544.498	98
544.712	86
544.925	79
545.139	70
545.352	81
545.566	88
545.779	91
545.993	95
546.206	79
546.42	88
546.633	97
546.847	96
547.06	84
547.274	88
547.487	66
547.7	90
547.914	89
548.127	90
548.34	83
548.554	85
548.767	87
548.98	93
549.193	102
549.407	103
549.62	71
549.833	82
550.046	83
550.259	96
550.473	106
550.686	96
550.899	80
551.112	97
551.325	93
551.538	93
551.751	89
551.964	88
552.177	88
552.39	89
552.603	72
552.816	74
553.029	102
553.242	104
553.455	91
553.667	104
553.88	90
554.093	83
554.306	79
554.519	90
554.732	85
554.944	89
555.157	91
555.37	70
555.583	94
555.795	93
556.008	77
556.221	85
556.433	80
556.646	82
556.859	87
557.071	76
557.284	83
557.496	84
557.709	95
557.921	99
558.134	97
558.346	98
558.559	86
558.771	84
558.984	69
559.196	84
559.409	79
559.621	86
559.833	80
560.046	82
560.258	79
560.47	91
560.683	90
560.895	88
561.107	85
561.32	91
561.532	67
561.744	96
561.956	90
562.168	73
562.381	91
562.593	101
562.805	96
563.017	87
563.229	92
563.441	89
563.653	71
563.865	97
564.077	79
564.289	85
564.501	88
564.713	90
564.925	90
565.137	108
565.349	81
565.561	71
565.773	89
565.985	86
566.197	96
566.408	97
566.62	70
566.832	90
567.044	99
567.255	81
567.467	69
567.679	82
567.891	79
568.102	90
568.314	100
568.526	77
568.737	90
568.949	96
569.161	82
569.372	86
569.584	96
569.795	81
570.007	126
570.218	252
570.43	145
570.641	85
570.853	77
571.064	85
571.276	86
571.487	79
571.698	82
571.91	71
572.121	88
572.333	74
572.544	87
572.755	91
572.966	86
573.178	80
573.389	85
573.6	93
573.811	82
574.023	104
574.234	89
574.445	95
574.656	77
574.867	92
575.078	93
575.289	80
575.501	105
575.712	84
575.923	86
576.134	94
576.345	99
576.556	90
576.767	90
576.978	90
577.188	101
577.399	90
577.61	90
577.821	97
578.032	106
578.243	287
578.454	829
578.665	221
578.875	105
579.086	102
579.297	85
579.508	88
579.718	87
579.929	90
580.14	86
580.35	90
580.561	72
580.772	73
580.982	82
581.193	85
581.403	90
581.614	91
581.825	99
582.035	85
582.246	80
582.456	85
582.667	90
582.877	92
583.087	104
583.298	79
583.508	101
583.719	85
583.929	94
584.139	81
584.35	95
584.56	111
584.77	83
584.981	73
