Data from Uncirc_1984_H10_HRD10591_00074.txt Node
Date: Wed Jan 03 12:21:52 EST 2024
User: Yrep
Spectrometer: HR+D1059
Trigger mode: 1
Integration Time (sec): 1.000000E-1
Scans to average: 1
Electric dark correction enabled: true
Nonlinearity correction enabled: false
Boxcar width: 0
XAxis mode: Wavelengths
Number of Pixels in Spectrum: 2048
>>>>>Begin Spectral Data<<<<<
223.165	-14.25
223.4	-14.25
223.635	-14.25
223.869	-26.25
224.104	-20.25
224.338	-25.25
224.573	-23.25
224.808	-15.25
225.042	-1.25
225.277	-3.25
225.511	0.75
225.746	13.75
225.98	-0.25
226.215	4.75
226.449	17.75
226.683	24.75
226.918	34.75
227.152	32.75
227.387	36.75
227.621	33.75
227.856	47.75
228.09	41.75
228.324	56.75
228.559	56.75
228.793	53.75
229.027	65.75
229.262	73.75
229.496	61.75
229.73	93.75
229.964	99.75
230.199	72.75
230.433	73.75
230.667	82.75
230.901	75.75
231.136	87.75
231.37	78.75
231.604	81.75
231.838	74.75
232.072	90.75
232.306	92.75
232.541	68.75
232.775	72.75
233.009	86.75
233.243	98.75
233.477	95.75
233.711	86.75
233.945	85.75
234.179	88.75
234.413	71.75
234.647	85.75
234.881	83.75
235.115	81.75
235.349	84.75
235.583	82.75
235.817	87.75
236.051	72.75
236.285	71.75
236.519	80.75
236.753	72.75
236.987	75.75
237.221	89.75
237.455	80.75
237.689	93.75
237.922	70.75
238.156	77.75
238.39	73.75
238.624	86.75
238.858	70.75
239.091	81.75
239.325	80.75
239.559	92.75
239.793	81.75
240.027	68.75
240.26	64.75
240.494	80.75
240.728	81.75
240.961	92.75
241.195	97.75
241.429	77.75
241.662	78.75
241.896	83.75
242.13	70.75
242.363	75.75
242.597	76.75
242.83	76.75
243.064	81.75
243.298	84.75
243.531	81.75
243.765	84.75
243.998	96.75
244.232	77.75
244.465	84.75
244.699	82.75
244.932	79.75
245.166	70.75
245.399	83.75
245.633	61.75
245.866	72.75
246.099	74.75
246.333	87.75
246.566	64.75
246.8	68.75
247.033	82.75
247.266	77.75
247.5	96.75
247.733	92.75
247.966	86.75
248.2	81.75
248.433	66.75
248.666	74.75
248.899	80.75
249.133	86.75
249.366	95.75
249.599	88.75
249.832	93.75
250.066	93.75
250.299	97.75
250.532	73.75
250.765	78.75
250.998	87.75
251.231	93.75
251.465	83.75
251.698	92.75
251.931	88.75
252.164	74.75
252.397	88.75
252.63	76.75
252.863	67.75
253.096	84.75
253.329	86.75
253.562	73.75
253.795	88.75
254.028	88.75
254.261	91.75
254.494	83.75
254.727	86.75
254.96	97.75
255.193	103.75
255.426	85.75
255.659	77.75
255.892	84.75
256.124	81.75
256.357	84.75
256.59	91.75
256.823	98.75
257.056	73.75
257.289	75.75
257.521	92.75
257.754	76.75
257.987	83.75
258.22	105.75
258.452	81.75
258.685	88.75
258.918	88.75
259.151	88.75
259.383	72.75
259.616	88.75
259.849	82.75
260.081	82.75
260.314	86.75
260.547	91.75
260.779	77.75
261.012	82.75
261.244	80.75
261.477	81.75
261.71	85.75
261.942	110.75
262.175	120.75
262.407	88.75
262.64	92.75
262.872	72.75
263.105	89.75
263.337	80.75
263.57	92.75
263.802	88.75
264.035	89.75
264.267	92.75
264.499	82.75
264.732	74.75
264.964	85.75
265.197	80.75
265.429	74.75
265.661	80.75
265.894	83.75
266.126	84.75
266.358	87.75
266.591	76.75
266.823	92.75
267.055	82.75
267.287	90.75
267.52	90.75
267.752	82.75
267.984	75.75
268.216	93.75
268.448	99.75
268.681	82.75
268.913	87.75
269.145	73.75
269.377	91.75
269.609	74.75
269.841	96.75
270.073	78.75
270.306	92.75
270.538	83.75
270.77	80.75
271.002	77.75
271.234	83.75
271.466	84.75
271.698	83.75
271.93	96.75
272.162	82.75
272.394	85.75
272.626	90.75
272.858	90.75
273.09	71.75
273.322	80.75
273.553	95.75
273.785	85.75
274.017	81.75
274.249	60.75
274.481	77.75
274.713	83.75
274.945	93.75
275.176	95.75
275.408	90.75
275.64	78.75
275.872	89.75
276.104	82.75
276.335	83.75
276.567	93.75
276.799	112.75
277.031	101.75
277.262	104.75
277.494	87.75
277.726	82.75
277.957	84.75
278.189	73.75
278.421	95.75
278.652	87.75
278.884	92.75
279.115	84.75
279.347	82.75
279.579	92.75
279.81	93.75
280.042	90.75
280.273	86.75
280.505	89.75
280.736	90.75
280.968	92.75
281.199	87.75
281.431	88.75
281.662	74.75
281.894	94.75
282.125	100.75
282.356	116.75
282.588	128.75
282.819	131.75
283.051	87.75
283.282	78.75
283.513	93.75
283.745	88.75
283.976	85.75
284.207	89.75
284.439	87.75
284.67	96.75
284.901	76.75
285.132	75.75
285.364	88.75
285.595	89.75
285.826	84.75
286.057	97.75
286.288	98.75
286.52	89.75
286.751	84.75
286.982	87.75
287.213	67.75
287.444	88.75
287.675	93.75
287.906	94.75
288.138	84.75
288.369	85.75
288.6	94.75
288.831	97.75
289.062	96.75
289.293	91.75
289.524	85.75
289.755	97.75
289.986	92.75
290.217	99.75
290.448	89.75
290.679	75.75
290.91	88.75
291.141	81.75
291.371	85.75
291.602	80.75
291.833	96.75
292.064	101.75
292.295	94.75
292.526	95.75
292.757	102.75
292.987	90.75
293.218	72.75
293.449	73.75
293.68	89.75
293.91	97.75
294.141	94.75
294.372	101.75
294.603	99.75
294.833	93.75
295.064	96.75
295.295	96.75
295.525	86.75
295.756	102.75
295.987	122.75
296.217	131.75
296.448	128.75
296.679	97.75
296.909	70.75
297.14	94.75
297.37	106.75
297.601	73.75
297.831	88.75
298.062	97.75
298.292	80.75
298.523	85.75
298.753	72.75
298.984	88.75
299.214	96.75
299.445	101.75
299.675	98.75
299.905	93.75
300.136	97.75
300.366	107.75
300.597	91.75
300.827	97.75
301.057	96.75
301.288	94.75
301.518	94.75
301.748	92.75
301.979	99.75
302.209	97.75
302.439	85.75
302.669	87.75
302.9	89.75
303.13	94.75
303.36	85.75
303.59	91.75
303.82	106.75
304.051	100.75
304.281	81.75
304.511	109.75
304.741	90.75
304.971	96.75
305.201	81.75
305.431	86.75
305.661	86.75
305.891	92.75
306.121	95.75
306.352	110.75
306.582	118.75
306.812	99.75
307.042	99.75
307.272	97.75
307.502	97.75
307.731	88.75
307.961	90.75
308.191	99.75
308.421	91.75
308.651	97.75
308.881	103.75
309.111	105.75
309.341	95.75
309.571	94.75
309.8	90.75
310.03	100.75
310.26	107.75
310.49	91.75
310.72	111.75
310.949	108.75
311.179	105.75
311.409	90.75
311.639	93.75
311.868	94.75
312.098	109.75
312.328	114.75
312.557	113.75
312.787	110.75
313.017	103.75
313.246	86.75
313.476	91.75
313.706	101.75
313.935	92.75
314.165	91.75
314.394	91.75
314.624	89.75
314.853	89.75
315.083	83.75
315.312	96.75
315.542	90.75
315.771	90.75
316.001	96.75
316.23	113.75
316.46	98.75
316.689	104.75
316.919	102.75
317.148	100.75
317.377	96.75
317.607	94.75
317.836	94.75
318.065	87.75
318.295	84.75
318.524	96.75
318.753	80.75
318.983	91.75
319.212	96.75
319.441	104.75
319.67	114.75
319.9	83.75
320.129	81.75
320.358	90.75
320.587	99.75
320.816	98.75
321.046	102.75
321.275	105.75
321.504	92.75
321.733	91.75
321.962	103.75
322.191	113.75
322.42	104.75
322.649	98.75
322.878	92.75
323.108	126.75
323.337	134.75
323.566	140.75
323.795	156.75
324.024	199.75
324.253	374.75
324.482	814.75
324.71	1734.75
324.939	2322.75
325.168	871.75
325.397	255.75
325.626	152.75
325.855	129.75
326.084	135.75
326.313	140.75
326.542	153.75
326.77	238.75
326.999	459.75
327.228	933.75
327.457	1761.75
327.686	1460.75
327.914	376.75
328.143	194.75
328.372	147.75
328.6	137.75
328.829	137.75
329.058	130.75
329.287	136.75
329.515	112.75
329.744	104.75
329.972	112.75
330.201	116.75
330.43	114.75
330.658	133.75
330.887	137.75
331.115	130.75
331.344	111.75
331.572	124.75
331.801	117.75
332.03	92.75
332.258	104.75
332.486	94.75
332.715	111.75
332.943	86.75
333.172	90.75
333.4	86.75
333.629	103.75
333.857	105.75
334.085	105.75
334.314	93.75
334.542	102.75
334.771	109.75
334.999	101.75
335.227	100.75
335.455	108.75
335.684	98.75
335.912	101.75
336.14	87.75
336.369	93.75
336.597	100.75
336.825	97.75
337.053	113.75
337.281	97.75
337.51	89.75
337.738	93.75
337.966	78.75
338.194	104.75
338.422	109.75
338.65	108.75
338.878	96.75
339.106	96.75
339.334	87.75
339.562	96.75
339.79	86.75
340.018	88.75
340.246	90.75
340.474	88.75
340.702	116.75
340.93	92.75
341.158	97.75
341.386	107.75
341.614	93.75
341.842	82.75
342.07	99.75
342.298	93.75
342.526	83.75
342.754	93.75
342.981	90.75
343.209	86.75
343.437	110.75
343.665	94.75
343.893	94.75
344.12	92.75
344.348	87.75
344.576	87.75
344.804	86.75
345.031	90.75
345.259	110.75
345.487	101.75
345.714	101.75
345.942	86.75
346.17	82.75
346.397	92.75
346.625	86.75
346.853	95.75
347.08	78.75
347.308	87.75
347.535	102.75
347.763	110.75
347.99	103.75
348.218	102.75
348.445	104.75
348.673	98.75
348.9	119.75
349.128	104.75
349.355	107.75
349.583	93.75
349.81	90.75
350.037	114.75
350.265	102.75
350.492	89.75
350.72	102.75
350.947	100.75
351.174	109.75
351.402	112.75
351.629	107.75
351.856	100.75
352.083	89.75
352.311	122.75
352.538	105.75
352.765	114.75
352.992	110.75
353.22	120.75
353.447	108.75
353.674	107.75
353.901	95.75
354.128	84.75
354.355	89.75
354.583	96.75
354.81	98.75
355.037	97.75
355.264	105.75
355.491	94.75
355.718	89.75
355.945	100.75
356.172	90.75
356.399	94.75
356.626	109.75
356.853	117.75
357.08	86.75
357.307	94.75
357.534	105.75
357.761	94.75
357.988	92.75
358.215	76.75
358.441	91.75
358.668	92.75
358.895	94.75
359.122	91.75
359.349	84.75
359.576	97.75
359.802	92.75
360.029	105.75
360.256	110.75
360.483	95.75
360.709	96.75
360.936	85.75
361.163	104.75
361.39	108.75
361.616	104.75
361.843	89.75
362.07	84.75
362.296	115.75
362.523	84.75
362.749	108.75
362.976	94.75
363.203	91.75
363.429	99.75
363.656	88.75
363.882	87.75
364.109	100.75
364.335	88.75
364.562	100.75
364.788	100.75
365.015	96.75
365.241	117.75
365.468	102.75
365.694	113.75
365.92	94.75
366.147	94.75
366.373	85.75
366.599	94.75
366.826	92.75
367.052	99.75
367.278	96.75
367.505	104.75
367.731	104.75
367.957	100.75
368.184	84.75
368.41	94.75
368.636	99.75
368.862	125.75
369.089	121.75
369.315	95.75
369.541	88.75
369.767	99.75
369.993	100.75
370.219	88.75
370.445	90.75
370.672	88.75
370.898	110.75
371.124	101.75
371.35	96.75
371.576	92.75
371.802	101.75
372.028	96.75
372.254	88.75
372.48	89.75
372.706	101.75
372.932	96.75
373.158	104.75
373.384	79.75
373.61	105.75
373.835	90.75
374.061	83.75
374.287	99.75
374.513	98.75
374.739	97.75
374.965	93.75
375.191	97.75
375.416	99.75
375.642	86.75
375.868	82.75
376.094	106.75
376.319	86.75
376.545	89.75
376.771	100.75
376.997	93.75
377.222	105.75
377.448	97.75
377.674	84.75
377.899	94.75
378.125	92.75
378.35	95.75
378.576	86.75
378.802	113.75
379.027	85.75
379.253	100.75
379.478	107.75
379.704	90.75
379.929	85.75
380.155	90.75
380.38	108.75
380.606	93.75
380.831	86.75
381.057	103.75
381.282	91.75
381.507	95.75
381.733	94.75
381.958	94.75
382.184	81.75
382.409	112.75
382.634	101.75
382.86	106.75
383.085	92.75
383.31	104.75
383.535	96.75
383.761	101.75
383.986	104.75
384.211	84.75
384.436	78.75
384.662	98.75
384.887	107.75
385.112	96.75
385.337	97.75
385.562	112.75
385.787	112.75
386.013	107.75
386.238	105.75
386.463	108.75
386.688	120.75
386.913	93.75
387.138	84.75
387.363	98.75
387.588	90.75
387.813	96.75
388.038	99.75
388.263	102.75
388.488	102.75
388.713	104.75
388.938	98.75
389.163	94.75
389.387	112.75
389.612	106.75
389.837	92.75
390.062	104.75
390.287	89.75
390.512	97.75
390.736	81.75
390.961	83.75
391.186	83.75
391.411	85.75
391.636	101.75
391.86	105.75
392.085	85.75
392.31	94.75
392.534	73.75
392.759	97.75
392.984	105.75
393.208	107.75
393.433	93.75
393.658	96.75
393.882	76.75
394.107	88.75
394.331	91.75
394.556	83.75
394.78	92.75
395.005	87.75
395.229	79.75
395.454	115.75
395.678	87.75
395.903	84.75
396.127	81.75
396.352	83.75
396.576	76.75
396.801	82.75
397.025	90.75
397.249	85.75
397.474	100.75
397.698	88.75
397.922	77.75
398.147	86.75
398.371	86.75
398.595	83.75
398.82	94.75
399.044	100.75
399.268	89.75
399.492	92.75
399.717	95.75
399.941	84.75
400.165	108.75
400.389	107.75
400.613	80.75
400.837	78.75
401.062	105.75
401.286	92.75
401.51	98.75
401.734	97.75
401.958	101.75
402.182	117.75
402.406	147.75
402.63	125.75
402.854	88.75
403.078	82.75
403.302	91.75
403.526	91.75
403.75	90.75
403.974	81.75
404.198	92.75
404.422	95.75
404.645	99.75
404.869	105.75
405.093	105.75
405.317	104.75
405.541	91.75
405.765	128.75
405.988	106.75
406.212	164.75
406.436	226.75
406.66	147.75
406.883	107.75
407.107	86.75
407.331	97.75
407.555	92.75
407.778	95.75
408.002	95.75
408.226	97.75
408.449	93.75
408.673	95.75
408.896	105.75
409.12	91.75
409.344	92.75
409.567	81.75
409.791	89.75
410.014	99.75
410.238	99.75
410.461	94.75
410.685	91.75
410.908	109.75
411.132	110.75
411.355	90.75
411.578	94.75
411.802	90.75
412.025	93.75
412.249	70.75
412.472	97.75
412.695	84.75
412.919	95.75
413.142	90.75
413.365	88.75
413.589	90.75
413.812	94.75
414.035	108.75
414.258	91.75
414.482	102.75
414.705	112.75
414.928	94.75
415.151	107.75
415.374	87.75
415.597	83.75
415.821	89.75
416.044	105.75
416.267	86.75
416.49	85.75
416.713	98.75
416.936	85.75
417.159	86.75
417.382	83.75
417.605	93.75
417.828	98.75
418.051	99.75
418.274	90.75
418.497	101.75
418.72	95.75
418.943	100.75
419.166	103.75
419.389	94.75
419.611	82.75
419.834	89.75
420.057	94.75
420.28	93.75
420.503	105.75
420.726	94.75
420.948	102.75
421.171	94.75
421.394	89.75
421.617	89.75
421.839	88.75
422.062	101.75
422.285	99.75
422.507	93.75
422.73	94.75
422.953	99.75
423.175	97.75
423.398	87.75
423.621	93.75
423.843	89.75
424.066	92.75
424.288	95.75
424.511	88.75
424.733	94.75
424.956	103.75
425.178	106.75
425.401	109.75
425.623	101.75
425.846	105.75
426.068	101.75
426.291	87.75
426.513	88.75
426.735	99.75
426.958	80.75
427.18	105.75
427.402	146.75
427.625	166.75
427.847	130.75
428.069	104.75
428.292	91.75
428.514	92.75
428.736	92.75
428.958	90.75
429.181	85.75
429.403	92.75
429.625	87.75
429.847	95.75
430.069	107.75
430.292	89.75
430.514	83.75
430.736	76.75
430.958	98.75
431.18	94.75
431.402	84.75
431.624	105.75
431.846	96.75
432.068	92.75
432.29	102.75
432.512	96.75
432.734	98.75
432.956	91.75
433.178	91.75
433.4	104.75
433.622	88.75
433.844	98.75
434.066	97.75
434.287	106.75
434.509	96.75
434.731	96.75
434.953	87.75
435.175	86.75
435.397	88.75
435.618	91.75
435.84	109.75
436.062	156.75
436.284	104.75
436.505	106.75
436.727	101.75
436.949	94.75
437.17	91.75
437.392	89.75
437.614	98.75
437.835	108.75
438.057	136.75
438.278	108.75
438.5	99.75
438.721	125.75
438.943	102.75
439.165	96.75
439.386	84.75
439.608	112.75
439.829	84.75
440.05	114.75
440.272	161.75
440.493	102.75
440.715	88.75
440.936	88.75
441.158	75.75
441.379	88.75
441.6	86.75
441.822	106.75
442.043	97.75
442.264	122.75
442.486	93.75
442.707	97.75
442.928	102.75
443.149	142.75
443.371	134.75
443.592	115.75
443.813	118.75
444.034	106.75
444.255	109.75
444.476	100.75
444.698	98.75
444.919	90.75
445.14	128.75
445.361	135.75
445.582	122.75
445.803	150.75
446.024	148.75
446.245	155.75
446.466	118.75
446.687	89.75
446.908	104.75
447.129	84.75
447.35	89.75
447.571	92.75
447.792	86.75
448.013	97.75
448.234	122.75
448.455	118.75
448.675	118.75
448.896	131.75
449.117	96.75
449.338	105.75
449.559	129.75
449.779	144.75
450	99.75
450.221	94.75
450.442	100.75
450.662	101.75
450.883	108.75
451.104	105.75
451.324	100.75
451.545	89.75
451.766	77.75
451.986	77.75
452.207	83.75
452.428	83.75
452.648	98.75
452.869	112.75
453.089	116.75
453.31	124.75
453.53	106.75
453.751	114.75
453.971	110.75
454.192	108.75
454.412	101.75
454.633	84.75
454.853	97.75
455.073	73.75
455.294	92.75
455.514	98.75
455.734	96.75
455.955	96.75
456.175	92.75
456.395	78.75
456.616	88.75
456.836	76.75
457.056	77.75
457.276	90.75
457.497	76.75
457.717	111.75
457.937	97.75
458.157	87.75
458.377	89.75
458.598	99.75
458.818	155.75
459.038	165.75
459.258	125.75
459.478	96.75
459.698	88.75
459.918	83.75
460.138	91.75
460.358	84.75
460.578	77.75
460.798	89.75
461.018	85.75
461.238	87.75
461.458	89.75
461.678	75.75
461.898	88.75
462.118	98.75
462.338	91.75
462.558	80.75
462.777	88.75
462.997	84.75
463.217	87.75
463.437	76.75
463.657	91.75
463.876	91.75
464.096	97.75
464.316	84.75
464.536	93.75
464.755	92.75
464.975	112.75
465.195	165.75
465.414	161.75
465.634	112.75
465.854	103.75
466.073	92.75
466.293	93.75
466.512	96.75
466.732	89.75
466.951	112.75
467.171	87.75
467.391	92.75
467.61	102.75
467.829	99.75
468.049	109.75
468.268	82.75
468.488	86.75
468.707	93.75
468.927	84.75
469.146	98.75
469.365	72.75
469.585	97.75
469.804	91.75
470.023	102.75
470.243	103.75
470.462	90.75
470.681	100.75
470.901	96.75
471.12	84.75
471.339	91.75
471.558	89.75
471.777	100.75
471.997	88.75
472.216	93.75
472.435	93.75
472.654	91.75
472.873	82.75
473.092	88.75
473.311	77.75
473.53	77.75
473.749	87.75
473.968	102.75
474.187	114.75
474.406	99.75
474.625	97.75
474.844	105.75
475.063	86.75
475.282	85.75
475.501	100.75
475.72	76.75
475.939	79.75
476.158	90.75
476.377	95.75
476.596	89.75
476.814	94.75
477.033	103.75
477.252	87.75
477.471	83.75
477.69	90.75
477.908	78.75
478.127	91.75
478.346	94.75
478.564	84.75
478.783	94.75
479.002	92.75
479.22	93.75
479.439	92.75
479.658	93.75
479.876	93.75
480.095	85.75
480.313	97.75
480.532	94.75
480.751	99.75
480.969	92.75
481.188	95.75
481.406	101.75
481.624	90.75
481.843	84.75
482.061	93.75
482.28	108.75
482.498	101.75
482.717	99.75
482.935	101.75
483.153	84.75
483.372	77.75
483.59	85.75
483.808	82.75
484.027	93.75
484.245	97.75
484.463	93.75
484.681	84.75
484.9	84.75
485.118	89.75
485.336	98.75
485.554	102.75
485.772	97.75
485.99	104.75
486.209	120.75
486.427	114.75
486.645	104.75
486.863	106.75
487.081	109.75
487.299	93.75
487.517	94.75
487.735	102.75
487.953	91.75
488.171	96.75
488.389	87.75
488.607	92.75
488.825	101.75
489.043	80.75
489.261	96.75
489.479	88.75
489.696	99.75
489.914	100.75
490.132	85.75
490.35	92.75
490.568	90.75
490.786	103.75
491.003	101.75
491.221	88.75
491.439	101.75
491.657	99.75
491.874	102.75
492.092	91.75
492.31	94.75
492.527	105.75
492.745	92.75
492.963	92.75
493.18	84.75
493.398	99.75
493.615	98.75
493.833	103.75
494.05	107.75
494.268	90.75
494.485	92.75
494.703	77.75
494.92	97.75
495.138	85.75
495.355	88.75
495.573	95.75
495.79	102.75
496.008	99.75
496.225	91.75
496.442	87.75
496.66	108.75
496.877	85.75
497.094	89.75
497.312	93.75
497.529	99.75
497.746	90.75
497.963	90.75
498.181	88.75
498.398	93.75
498.615	114.75
498.832	124.75
499.049	106.75
499.267	84.75
499.484	80.75
499.701	81.75
499.918	93.75
500.135	85.75
500.352	96.75
500.569	102.75
500.786	77.75
501.003	94.75
501.22	95.75
501.437	89.75
501.654	93.75
501.871	116.75
502.088	94.75
502.305	92.75
502.522	89.75
502.739	76.75
502.956	84.75
503.172	76.75
503.389	93.75
503.606	98.75
503.823	97.75
504.04	105.75
504.256	95.75
504.473	77.75
504.69	100.75
504.907	92.75
505.123	96.75
505.34	97.75
505.557	88.75
505.773	83.75
505.99	98.75
506.207	96.75
506.423	94.75
506.64	99.75
506.856	85.75
507.073	91.75
507.289	95.75
507.506	99.75
507.722	110.75
507.939	106.75
508.155	94.75
508.372	87.75
508.588	85.75
508.805	100.75
509.021	98.75
509.238	102.75
509.454	99.75
509.67	121.75
509.887	113.75
510.103	130.75
510.319	220.75
510.536	762.75
510.752	2482.75
510.968	663.75
511.184	166.75
511.401	114.75
511.617	105.75
511.833	88.75
512.049	99.75
512.265	105.75
512.481	90.75
512.698	99.75
512.914	100.75
513.13	92.75
513.346	86.75
513.562	93.75
513.778	120.75
513.994	106.75
514.21	107.75
514.426	110.75
514.642	126.75
514.858	110.75
