Data from Uncirc_1984_H10_HRD10591_00046.txt Node
Date: Wed Jan 03 12:21:46 EST 2024
User: Yrep
Spectrometer: HR+D1059
Trigger mode: 1
Integration Time (sec): 1.000000E-1
Scans to average: 1
Electric dark correction enabled: true
Nonlinearity correction enabled: false
Boxcar width: 0
XAxis mode: Wavelengths
Number of Pixels in Spectrum: 2048
>>>>>Begin Spectral Data<<<<<
223.165	-16.88
223.4	-16.88
223.635	-16.88
223.869	-13.88
224.104	-28.88
224.338	-24.88
224.573	-15.88
224.808	-14.88
225.042	0.12
225.277	-13.88
225.511	7.12
225.746	-3.88
225.98	10.12
226.215	27.12
226.449	12.12
226.683	19.12
226.918	25.12
227.152	32.12
227.387	39.12
227.621	31.12
227.856	35.12
228.09	49.12
228.324	44.12
228.559	66.12
228.793	59.12
229.027	61.12
229.262	66.12
229.496	84.12
229.73	79.12
229.964	82.12
230.199	79.12
230.433	89.12
230.667	81.12
230.901	74.12
231.136	73.12
231.37	79.12
231.604	83.12
231.838	91.12
232.072	86.12
232.306	80.12
232.541	91.12
232.775	85.12
233.009	74.12
233.243	73.12
233.477	82.12
233.711	91.12
233.945	83.12
234.179	74.12
234.413	71.12
234.647	79.12
234.881	64.12
235.115	76.12
235.349	81.12
235.583	82.12
235.817	75.12
236.051	79.12
236.285	82.12
236.519	95.12
236.753	85.12
236.987	76.12
237.221	69.12
237.455	87.12
237.689	79.12
237.922	80.12
238.156	83.12
238.39	79.12
238.624	78.12
238.858	74.12
239.091	79.12
239.325	87.12
239.559	77.12
239.793	75.12
240.027	83.12
240.26	75.12
240.494	98.12
240.728	83.12
240.961	76.12
241.195	68.12
241.429	86.12
241.662	67.12
241.896	96.12
242.13	86.12
242.363	71.12
242.597	61.12
242.83	84.12
243.064	69.12
243.298	70.12
243.531	84.12
243.765	79.12
243.998	85.12
244.232	86.12
244.465	88.12
244.699	83.12
244.932	87.12
245.166	81.12
245.399	72.12
245.633	79.12
245.866	87.12
246.099	72.12
246.333	75.12
246.566	75.12
246.8	80.12
247.033	73.12
247.266	90.12
247.5	83.12
247.733	71.12
247.966	93.12
248.2	85.12
248.433	83.12
248.666	86.12
248.899	82.12
249.133	78.12
249.366	89.12
249.599	92.12
249.832	81.12
250.066	66.12
250.299	86.12
250.532	81.12
250.765	79.12
250.998	80.12
251.231	74.12
251.465	81.12
251.698	91.12
251.931	73.12
252.164	86.12
252.397	86.12
252.63	87.12
252.863	85.12
253.096	80.12
253.329	64.12
253.562	71.12
253.795	72.12
254.028	98.12
254.261	95.12
254.494	75.12
254.727	90.12
254.96	77.12
255.193	75.12
255.426	85.12
255.659	90.12
255.892	80.12
256.124	77.12
256.357	83.12
256.59	74.12
256.823	85.12
257.056	97.12
257.289	71.12
257.521	86.12
257.754	82.12
257.987	74.12
258.22	83.12
258.452	82.12
258.685	86.12
258.918	88.12
259.151	101.12
259.383	88.12
259.616	85.12
259.849	75.12
260.081	76.12
260.314	78.12
260.547	69.12
260.779	79.12
261.012	79.12
261.244	96.12
261.477	97.12
261.71	100.12
261.942	110.12
262.175	115.12
262.407	90.12
262.64	80.12
262.872	83.12
263.105	82.12
263.337	91.12
263.57	89.12
263.802	88.12
264.035	92.12
264.267	85.12
264.499	86.12
264.732	72.12
264.964	89.12
265.197	95.12
265.429	82.12
265.661	74.12
265.894	93.12
266.126	73.12
266.358	77.12
266.591	92.12
266.823	88.12
267.055	99.12
267.287	91.12
267.52	96.12
267.752	102.12
267.984	79.12
268.216	84.12
268.448	77.12
268.681	85.12
268.913	85.12
269.145	89.12
269.377	87.12
269.609	65.12
269.841	88.12
270.073	79.12
270.306	83.12
270.538	81.12
270.77	89.12
271.002	80.12
271.234	83.12
271.466	83.12
271.698	90.12
271.93	90.12
272.162	77.12
272.394	77.12
272.626	77.12
272.858	92.12
273.09	95.12
273.322	91.12
273.553	90.12
273.785	97.12
274.017	76.12
274.249	76.12
274.481	79.12
274.713	92.12
274.945	88.12
275.176	92.12
275.408	100.12
275.64	87.12
275.872	96.12
276.104	90.12
276.335	77.12
276.567	89.12
276.799	98.12
277.031	100.12
277.262	92.12
277.494	92.12
277.726	88.12
277.957	81.12
278.189	85.12
278.421	82.12
278.652	91.12
278.884	64.12
279.115	83.12
279.347	101.12
279.579	99.12
279.81	85.12
280.042	82.12
280.273	90.12
280.505	71.12
280.736	83.12
280.968	94.12
281.199	95.12
281.431	86.12
281.662	97.12
281.894	79.12
282.125	105.12
282.356	127.12
282.588	138.12
282.819	119.12
283.051	91.12
283.282	93.12
283.513	104.12
283.745	82.12
283.976	88.12
284.207	91.12
284.439	94.12
284.67	91.12
284.901	101.12
285.132	85.12
285.364	95.12
285.595	84.12
285.826	84.12
286.057	95.12
286.288	101.12
286.52	84.12
286.751	77.12
286.982	85.12
287.213	92.12
287.444	91.12
287.675	92.12
287.906	82.12
288.138	92.12
288.369	82.12
288.6	84.12
288.831	91.12
289.062	89.12
289.293	80.12
289.524	86.12
289.755	90.12
289.986	83.12
290.217	92.12
290.448	87.12
290.679	84.12
290.91	101.12
291.141	74.12
291.371	90.12
291.602	78.12
291.833	82.12
292.064	100.12
292.295	90.12
292.526	83.12
292.757	82.12
292.987	73.12
293.218	87.12
293.449	92.12
293.68	83.12
293.91	96.12
294.141	95.12
294.372	84.12
294.603	89.12
294.833	85.12
295.064	92.12
295.295	104.12
295.525	93.12
295.756	95.12
295.987	112.12
296.217	135.12
296.448	130.12
296.679	96.12
296.909	79.12
297.14	95.12
297.37	105.12
297.601	94.12
297.831	88.12
298.062	111.12
298.292	115.12
298.523	95.12
298.753	91.12
298.984	86.12
299.214	86.12
299.445	100.12
299.675	99.12
299.905	98.12
300.136	94.12
300.366	81.12
300.597	80.12
300.827	77.12
301.057	109.12
301.288	89.12
301.518	90.12
301.748	90.12
301.979	107.12
302.209	89.12
302.439	104.12
302.669	93.12
302.9	89.12
303.13	84.12
303.36	97.12
303.59	105.12
303.82	102.12
304.051	94.12
304.281	87.12
304.511	107.12
304.741	90.12
304.971	84.12
305.201	87.12
305.431	85.12
305.661	96.12
305.891	84.12
306.121	102.12
306.352	91.12
306.582	88.12
306.812	99.12
307.042	89.12
307.272	92.12
307.502	103.12
307.731	105.12
307.961	83.12
308.191	97.12
308.421	78.12
308.651	81.12
308.881	89.12
309.111	80.12
309.341	101.12
309.571	90.12
309.8	83.12
310.03	83.12
310.26	98.12
310.49	102.12
310.72	100.12
310.949	102.12
311.179	99.12
311.409	91.12
311.639	89.12
311.868	100.12
312.098	100.12
312.328	100.12
312.557	97.12
312.787	108.12
313.017	105.12
313.246	101.12
313.476	82.12
313.706	101.12
313.935	109.12
314.165	108.12
314.394	91.12
314.624	92.12
314.853	93.12
315.083	83.12
315.312	100.12
315.542	88.12
315.771	85.12
316.001	93.12
316.23	82.12
316.46	96.12
316.689	88.12
316.919	90.12
317.148	95.12
317.377	91.12
317.607	93.12
317.836	94.12
318.065	90.12
318.295	80.12
318.524	100.12
318.753	90.12
318.983	89.12
319.212	112.12
319.441	113.12
319.67	114.12
319.9	109.12
320.129	97.12
320.358	106.12
320.587	103.12
320.816	100.12
321.046	122.12
321.275	104.12
321.504	100.12
321.733	93.12
321.962	100.12
322.191	106.12
322.42	99.12
322.649	111.12
322.878	106.12
323.108	110.12
323.337	134.12
323.566	124.12
323.795	141.12
324.024	211.12
324.253	371.12
324.482	788.12
324.71	1579.12
324.939	2174.12
325.168	807.12
325.397	247.12
325.626	139.12
325.855	121.12
326.084	119.12
326.313	122.12
326.542	148.12
326.77	198.12
326.999	433.12
327.228	889.12
327.457	1679.12
327.686	1332.12
327.914	357.12
328.143	179.12
328.372	143.12
328.6	122.12
328.829	107.12
329.058	119.12
329.287	127.12
329.515	125.12
329.744	87.12
329.972	109.12
330.201	98.12
330.43	93.12
330.658	109.12
330.887	141.12
331.115	120.12
331.344	89.12
331.572	108.12
331.801	95.12
332.03	95.12
332.258	98.12
332.486	95.12
332.715	93.12
332.943	88.12
333.172	103.12
333.4	94.12
333.629	96.12
333.857	97.12
334.085	109.12
334.314	101.12
334.542	100.12
334.771	96.12
334.999	92.12
335.227	95.12
335.455	88.12
335.684	93.12
335.912	99.12
336.14	93.12
336.369	83.12
336.597	88.12
336.825	87.12
337.053	93.12
337.281	96.12
337.51	98.12
337.738	81.12
337.966	86.12
338.194	110.12
338.422	105.12
338.65	91.12
338.878	75.12
339.106	86.12
339.334	87.12
339.562	83.12
339.79	89.12
340.018	95.12
340.246	83.12
340.474	91.12
340.702	96.12
340.93	91.12
341.158	97.12
341.386	85.12
341.614	94.12
341.842	87.12
342.07	89.12
342.298	82.12
342.526	92.12
342.754	94.12
342.981	79.12
343.209	96.12
343.437	97.12
343.665	89.12
343.893	90.12
344.12	80.12
344.348	92.12
344.576	89.12
344.804	103.12
345.031	100.12
345.259	103.12
345.487	77.12
345.714	85.12
345.942	103.12
346.17	97.12
346.397	92.12
346.625	71.12
346.853	82.12
347.08	99.12
347.308	87.12
347.535	89.12
347.763	101.12
347.99	104.12
348.218	108.12
348.445	92.12
348.673	101.12
348.9	100.12
349.128	104.12
349.355	93.12
349.583	103.12
349.81	97.12
350.037	101.12
350.265	100.12
350.492	88.12
350.72	91.12
350.947	96.12
351.174	109.12
351.402	109.12
351.629	98.12
351.856	91.12
352.083	105.12
352.311	100.12
352.538	109.12
352.765	108.12
352.992	99.12
353.22	112.12
353.447	85.12
353.674	118.12
353.901	85.12
354.128	109.12
354.355	95.12
354.583	88.12
354.81	95.12
355.037	92.12
355.264	97.12
355.491	91.12
355.718	85.12
355.945	91.12
356.172	85.12
356.399	91.12
356.626	91.12
356.853	81.12
357.08	94.12
357.307	104.12
357.534	106.12
357.761	109.12
357.988	93.12
358.215	90.12
358.441	87.12
358.668	92.12
358.895	106.12
359.122	100.12
359.349	93.12
359.576	88.12
359.802	109.12
360.029	106.12
360.256	103.12
360.483	91.12
360.709	99.12
360.936	103.12
361.163	86.12
361.39	89.12
361.616	98.12
361.843	87.12
362.07	106.12
362.296	89.12
362.523	95.12
362.749	92.12
362.976	101.12
363.203	83.12
363.429	99.12
363.656	87.12
363.882	97.12
364.109	93.12
364.335	102.12
364.562	94.12
364.788	92.12
365.015	95.12
365.241	100.12
365.468	101.12
365.694	96.12
365.92	103.12
366.147	93.12
366.373	96.12
366.599	88.12
366.826	75.12
367.052	90.12
367.278	91.12
367.505	95.12
367.731	95.12
367.957	86.12
368.184	102.12
368.41	99.12
368.636	120.12
368.862	128.12
369.089	93.12
369.315	91.12
369.541	96.12
369.767	93.12
369.993	88.12
370.219	86.12
370.445	84.12
370.672	85.12
370.898	83.12
371.124	96.12
371.35	81.12
371.576	95.12
371.802	100.12
372.028	84.12
372.254	86.12
372.48	83.12
372.706	99.12
372.932	86.12
373.158	92.12
373.384	89.12
373.61	76.12
373.835	79.12
374.061	98.12
374.287	84.12
374.513	87.12
374.739	89.12
374.965	91.12
375.191	84.12
375.416	87.12
375.642	88.12
375.868	102.12
376.094	92.12
376.319	102.12
376.545	92.12
376.771	80.12
376.997	85.12
377.222	100.12
377.448	79.12
377.674	81.12
377.899	98.12
378.125	91.12
378.35	85.12
378.576	83.12
378.802	83.12
379.027	93.12
379.253	99.12
379.478	76.12
379.704	92.12
379.929	88.12
380.155	98.12
380.38	94.12
380.606	87.12
380.831	91.12
381.057	83.12
381.282	86.12
381.507	91.12
381.733	95.12
381.958	94.12
382.184	113.12
382.409	93.12
382.634	111.12
382.86	80.12
383.085	103.12
383.31	108.12
383.535	86.12
383.761	93.12
383.986	93.12
384.211	86.12
384.436	107.12
384.662	103.12
384.887	96.12
385.112	106.12
385.337	107.12
385.562	103.12
385.787	83.12
386.013	104.12
386.238	91.12
386.463	106.12
386.688	114.12
386.913	90.12
387.138	108.12
387.363	95.12
387.588	91.12
387.813	103.12
388.038	106.12
388.263	101.12
388.488	100.12
388.713	94.12
388.938	88.12
389.163	106.12
389.387	92.12
389.612	115.12
389.837	100.12
390.062	102.12
390.287	65.12
390.512	101.12
390.736	86.12
390.961	90.12
391.186	108.12
391.411	93.12
391.636	91.12
391.86	73.12
392.085	89.12
392.31	79.12
392.534	85.12
392.759	103.12
392.984	97.12
393.208	93.12
393.433	77.12
393.658	97.12
393.882	76.12
394.107	84.12
394.331	82.12
394.556	93.12
394.78	94.12
395.005	95.12
395.229	77.12
395.454	95.12
395.678	87.12
395.903	91.12
396.127	81.12
396.352	97.12
396.576	84.12
396.801	92.12
397.025	80.12
397.249	81.12
397.474	91.12
397.698	86.12
397.922	91.12
398.147	86.12
398.371	100.12
398.595	100.12
398.82	86.12
399.044	84.12
399.268	68.12
399.492	94.12
399.717	89.12
399.941	89.12
400.165	98.12
400.389	101.12
400.613	89.12
400.837	83.12
401.062	79.12
401.286	91.12
401.51	97.12
401.734	79.12
401.958	103.12
402.182	119.12
402.406	155.12
402.63	105.12
402.854	72.12
403.078	86.12
403.302	99.12
403.526	100.12
403.75	92.12
403.974	86.12
404.198	114.12
404.422	84.12
404.645	91.12
404.869	76.12
405.093	96.12
405.317	113.12
405.541	106.12
405.765	97.12
405.988	120.12
406.212	161.12
406.436	217.12
406.66	145.12
406.883	104.12
407.107	88.12
407.331	90.12
407.555	96.12
407.778	113.12
408.002	82.12
408.226	83.12
408.449	89.12
408.673	96.12
408.896	97.12
409.12	102.12
409.344	101.12
409.567	83.12
409.791	84.12
410.014	96.12
410.238	91.12
410.461	71.12
410.685	87.12
410.908	85.12
411.132	104.12
411.355	93.12
411.578	97.12
411.802	85.12
412.025	86.12
412.249	68.12
412.472	83.12
412.695	82.12
412.919	98.12
413.142	99.12
413.365	103.12
413.589	87.12
413.812	85.12
414.035	95.12
414.258	89.12
414.482	92.12
414.705	90.12
414.928	87.12
415.151	94.12
415.374	83.12
415.597	84.12
415.821	90.12
416.044	96.12
416.267	85.12
416.49	94.12
416.713	93.12
416.936	79.12
417.159	89.12
417.382	92.12
417.605	78.12
417.828	94.12
418.051	92.12
418.274	85.12
418.497	72.12
418.72	86.12
418.943	89.12
419.166	84.12
419.389	99.12
419.611	88.12
419.834	72.12
420.057	94.12
420.28	85.12
420.503	97.12
420.726	81.12
420.948	84.12
421.171	90.12
421.394	92.12
421.617	96.12
421.839	82.12
422.062	87.12
422.285	84.12
422.507	90.12
422.73	99.12
422.953	109.12
423.175	103.12
423.398	86.12
423.621	74.12
423.843	95.12
424.066	93.12
424.288	79.12
424.511	92.12
424.733	98.12
424.956	107.12
425.178	81.12
425.401	95.12
425.623	108.12
425.846	101.12
426.068	91.12
426.291	81.12
426.513	89.12
426.735	90.12
426.958	91.12
427.18	110.12
427.402	145.12
427.625	178.12
427.847	122.12
428.069	87.12
428.292	89.12
428.514	80.12
428.736	95.12
428.958	85.12
429.181	95.12
429.403	84.12
429.625	91.12
429.847	90.12
430.069	92.12
430.292	89.12
430.514	92.12
430.736	93.12
430.958	88.12
431.18	70.12
431.402	95.12
431.624	82.12
431.846	82.12
432.068	70.12
432.29	79.12
432.512	92.12
432.734	85.12
432.956	86.12
433.178	97.12
433.4	88.12
433.622	98.12
433.844	87.12
434.066	96.12
434.287	90.12
434.509	88.12
434.731	95.12
434.953	83.12
435.175	89.12
435.397	91.12
435.618	88.12
435.84	115.12
436.062	117.12
436.284	114.12
436.505	107.12
436.727	92.12
436.949	83.12
437.17	87.12
437.392	87.12
437.614	80.12
437.835	101.12
438.057	127.12
438.278	111.12
438.5	107.12
438.721	123.12
438.943	92.12
439.165	98.12
439.386	87.12
439.608	91.12
439.829	93.12
440.05	129.12
440.272	150.12
440.493	93.12
440.715	83.12
440.936	91.12
441.158	96.12
441.379	90.12
441.6	95.12
441.822	95.12
442.043	97.12
442.264	105.12
442.486	101.12
442.707	97.12
442.928	95.12
443.149	112.12
443.371	135.12
443.592	120.12
443.813	101.12
444.034	110.12
444.255	95.12
444.476	89.12
444.698	97.12
444.919	95.12
445.14	134.12
445.361	116.12
445.582	109.12
445.803	138.12
446.024	137.12
446.245	132.12
446.466	115.12
446.687	89.12
446.908	90.12
447.129	100.12
447.35	91.12
447.571	92.12
447.792	73.12
448.013	74.12
448.234	103.12
448.455	98.12
448.675	119.12
448.896	109.12
449.117	95.12
449.338	103.12
449.559	135.12
449.779	124.12
450	100.12
450.221	84.12
450.442	82.12
450.662	90.12
450.883	97.12
451.104	115.12
451.324	101.12
451.545	105.12
451.766	95.12
451.986	99.12
452.207	91.12
452.428	78.12
452.648	102.12
452.869	106.12
453.089	107.12
453.31	118.12
453.53	93.12
453.751	99.12
453.971	104.12
454.192	108.12
454.412	92.12
454.633	82.12
454.853	94.12
455.073	96.12
455.294	90.12
455.514	113.12
455.734	83.12
455.955	84.12
456.175	85.12
456.395	85.12
456.616	72.12
456.836	90.12
457.056	72.12
457.276	87.12
457.497	76.12
457.717	79.12
457.937	91.12
458.157	84.12
458.377	88.12
458.598	106.12
458.818	137.12
459.038	147.12
459.258	111.12
459.478	95.12
459.698	80.12
459.918	86.12
460.138	91.12
460.358	88.12
460.578	98.12
460.798	81.12
461.018	89.12
461.238	90.12
461.458	85.12
461.678	96.12
461.898	93.12
462.118	95.12
462.338	96.12
462.558	82.12
462.777	73.12
462.997	91.12
463.217	84.12
463.437	81.12
463.657	87.12
463.876	88.12
464.096	96.12
464.316	84.12
464.536	91.12
464.755	97.12
464.975	112.12
465.195	153.12
465.414	139.12
465.634	93.12
465.854	86.12
466.073	82.12
466.293	78.12
466.512	81.12
466.732	79.12
466.951	98.12
467.171	79.12
467.391	93.12
467.61	90.12
467.829	87.12
468.049	76.12
468.268	90.12
468.488	93.12
468.707	97.12
468.927	89.12
469.146	76.12
469.365	79.12
469.585	83.12
469.804	89.12
470.023	86.12
470.243	99.12
470.462	97.12
470.681	106.12
470.901	93.12
471.12	85.12
471.339	88.12
471.558	97.12
471.777	94.12
471.997	79.12
472.216	76.12
472.435	99.12
472.654	81.12
472.873	89.12
473.092	94.12
473.311	85.12
473.53	80.12
473.749	76.12
473.968	91.12
474.187	105.12
474.406	83.12
474.625	100.12
474.844	93.12
475.063	87.12
475.282	84.12
475.501	79.12
475.72	88.12
475.939	88.12
476.158	81.12
476.377	79.12
476.596	104.12
476.814	92.12
477.033	94.12
477.252	69.12
477.471	78.12
477.69	88.12
477.908	84.12
478.127	82.12
478.346	92.12
478.564	84.12
478.783	79.12
479.002	95.12
479.22	97.12
479.439	105.12
479.658	108.12
479.876	106.12
480.095	99.12
480.313	106.12
480.532	81.12
480.751	100.12
480.969	92.12
481.188	96.12
481.406	101.12
481.624	92.12
481.843	91.12
482.061	95.12
482.28	83.12
482.498	79.12
482.717	97.12
482.935	102.12
483.153	85.12
483.372	85.12
483.59	86.12
483.808	90.12
484.027	87.12
484.245	97.12
484.463	87.12
484.681	95.12
484.9	108.12
485.118	90.12
485.336	98.12
485.554	89.12
485.772	105.12
485.99	105.12
486.209	109.12
486.427	100.12
486.645	117.12
486.863	105.12
487.081	99.12
487.299	97.12
487.517	97.12
487.735	100.12
487.953	83.12
488.171	87.12
488.389	100.12
488.607	95.12
488.825	77.12
489.043	91.12
489.261	98.12
489.479	90.12
489.696	76.12
489.914	91.12
490.132	91.12
490.35	80.12
490.568	79.12
490.786	83.12
491.003	89.12
491.221	104.12
491.439	96.12
491.657	88.12
491.874	82.12
492.092	97.12
492.31	90.12
492.527	81.12
492.745	99.12
492.963	80.12
493.18	92.12
493.398	89.12
493.615	95.12
493.833	83.12
494.05	109.12
494.268	92.12
494.485	81.12
494.703	88.12
494.92	83.12
495.138	78.12
495.355	86.12
495.573	88.12
495.79	94.12
496.008	99.12
496.225	83.12
496.442	95.12
496.66	93.12
496.877	79.12
497.094	92.12
497.312	79.12
497.529	103.12
497.746	97.12
497.963	77.12
498.181	85.12
498.398	74.12
498.615	106.12
498.832	93.12
499.049	76.12
499.267	91.12
499.484	103.12
499.701	75.12
499.918	101.12
500.135	81.12
500.352	83.12
500.569	90.12
500.786	89.12
501.003	97.12
501.22	103.12
501.437	82.12
501.654	101.12
501.871	105.12
502.088	87.12
502.305	72.12
502.522	89.12
502.739	93.12
502.956	89.12
503.172	89.12
503.389	96.12
503.606	106.12
503.823	88.12
504.04	85.12
504.256	104.12
504.473	91.12
504.69	89.12
504.907	90.12
505.123	96.12
505.34	96.12
505.557	86.12
505.773	97.12
505.99	95.12
506.207	84.12
506.423	83.12
506.64	78.12
506.856	95.12
507.073	83.12
507.289	96.12
507.506	92.12
507.722	95.12
507.939	104.12
508.155	109.12
508.372	91.12
508.588	93.12
508.805	81.12
509.021	93.12
509.238	100.12
509.454	100.12
509.67	88.12
509.887	97.12
510.103	118.12
510.319	208.12
510.536	713.12
510.752	2305.12
510.968	620.12
511.184	152.12
511.401	100.12
511.617	93.12
511.833	91.12
512.049	98.12
512.265	92.12
512.481	103.12
512.698	93.12
512.914	92.12
513.13	93.12
513.346	84.12
513.562	97.12
513.778	98.12
513.994	111.12
514.21	98.12
514.426	109.12
514.642	122.12
514.858	128.12
515.074	159.12
515.29	393.12
515.506	1369.12
515.721	500.12
