Data from Uncirc_1984_H10_HRD10591_00057.txt Node
Date: Wed Jan 03 12:21:48 EST 2024
User: Yrep
Spectrometer: HR+D1059
Trigger mode: 1
Integration Time (sec): 1.000000E-1
Scans to average: 1
Electric dark correction enabled: true
Nonlinearity correction enabled: false
Boxcar width: 0
XAxis mode: Wavelengths
Number of Pixels in Spectrum: 2048
>>>>>Begin Spectral Data<<<<<
223.165	-15.5
223.4	-15.5
223.635	-15.5
223.869	-1.5
224.104	-19.5
224.338	-30.5
224.573	-19.5
224.808	-25.5
225.042	-6.5
225.277	-11.5
225.511	6.5
225.746	-2.5
225.98	14.5
226.215	8.5
226.449	21.5
226.683	29.5
226.918	29.5
227.152	22.5
227.387	33.5
227.621	41.5
227.856	46.5
228.09	48.5
228.324	50.5
228.559	74.5
228.793	74.5
229.027	70.5
229.262	75.5
229.496	68.5
229.73	93.5
229.964	90.5
230.199	79.5
230.433	75.5
230.667	69.5
230.901	68.5
231.136	63.5
231.37	66.5
231.604	81.5
231.838	93.5
232.072	83.5
232.306	84.5
232.541	85.5
232.775	79.5
233.009	89.5
233.243	67.5
233.477	89.5
233.711	77.5
233.945	93.5
234.179	81.5
234.413	80.5
234.647	81.5
234.881	74.5
235.115	101.5
235.349	94.5
235.583	84.5
235.817	67.5
236.051	73.5
236.285	67.5
236.519	84.5
236.753	85.5
236.987	85.5
237.221	100.5
237.455	89.5
237.689	72.5
237.922	70.5
238.156	98.5
238.39	86.5
238.624	74.5
238.858	82.5
239.091	87.5
239.325	78.5
239.559	91.5
239.793	70.5
240.027	78.5
240.26	71.5
240.494	77.5
240.728	82.5
240.961	69.5
241.195	71.5
241.429	69.5
241.662	74.5
241.896	82.5
242.13	86.5
242.363	86.5
242.597	80.5
242.83	85.5
243.064	86.5
243.298	70.5
243.531	78.5
243.765	93.5
243.998	91.5
244.232	84.5
244.465	75.5
244.699	85.5
244.932	69.5
245.166	90.5
245.399	61.5
245.633	88.5
245.866	78.5
246.099	78.5
246.333	98.5
246.566	75.5
246.8	81.5
247.033	88.5
247.266	81.5
247.5	79.5
247.733	95.5
247.966	71.5
248.2	76.5
248.433	81.5
248.666	79.5
248.899	89.5
249.133	77.5
249.366	88.5
249.599	103.5
249.832	82.5
250.066	81.5
250.299	84.5
250.532	96.5
250.765	90.5
250.998	73.5
251.231	81.5
251.465	102.5
251.698	68.5
251.931	79.5
252.164	92.5
252.397	75.5
252.63	81.5
252.863	82.5
253.096	86.5
253.329	73.5
253.562	78.5
253.795	89.5
254.028	83.5
254.261	87.5
254.494	89.5
254.727	91.5
254.96	84.5
255.193	83.5
255.426	83.5
255.659	83.5
255.892	90.5
256.124	87.5
256.357	88.5
256.59	91.5
256.823	66.5
257.056	83.5
257.289	83.5
257.521	86.5
257.754	87.5
257.987	78.5
258.22	89.5
258.452	89.5
258.685	73.5
258.918	95.5
259.151	83.5
259.383	102.5
259.616	77.5
259.849	81.5
260.081	89.5
260.314	86.5
260.547	93.5
260.779	76.5
261.012	76.5
261.244	83.5
261.477	89.5
261.71	94.5
261.942	111.5
262.175	117.5
262.407	89.5
262.64	74.5
262.872	87.5
263.105	76.5
263.337	83.5
263.57	72.5
263.802	82.5
264.035	82.5
264.267	86.5
264.499	72.5
264.732	78.5
264.964	90.5
265.197	83.5
265.429	86.5
265.661	84.5
265.894	82.5
266.126	86.5
266.358	95.5
266.591	87.5
266.823	86.5
267.055	67.5
267.287	81.5
267.52	91.5
267.752	90.5
267.984	82.5
268.216	93.5
268.448	97.5
268.681	99.5
268.913	85.5
269.145	85.5
269.377	86.5
269.609	85.5
269.841	70.5
270.073	94.5
270.306	92.5
270.538	92.5
270.77	75.5
271.002	81.5
271.234	75.5
271.466	82.5
271.698	89.5
271.93	101.5
272.162	98.5
272.394	87.5
272.626	90.5
272.858	83.5
273.09	88.5
273.322	88.5
273.553	95.5
273.785	80.5
274.017	95.5
274.249	85.5
274.481	95.5
274.713	95.5
274.945	103.5
275.176	77.5
275.408	83.5
275.64	77.5
275.872	85.5
276.104	82.5
276.335	87.5
276.567	91.5
276.799	97.5
277.031	98.5
277.262	92.5
277.494	86.5
277.726	82.5
277.957	83.5
278.189	79.5
278.421	81.5
278.652	86.5
278.884	89.5
279.115	97.5
279.347	77.5
279.579	83.5
279.81	86.5
280.042	89.5
280.273	89.5
280.505	98.5
280.736	92.5
280.968	89.5
281.199	83.5
281.431	87.5
281.662	94.5
281.894	105.5
282.125	86.5
282.356	102.5
282.588	142.5
282.819	112.5
283.051	82.5
283.282	93.5
283.513	94.5
283.745	98.5
283.976	90.5
284.207	98.5
284.439	98.5
284.67	95.5
284.901	87.5
285.132	89.5
285.364	95.5
285.595	92.5
285.826	94.5
286.057	96.5
286.288	88.5
286.52	91.5
286.751	82.5
286.982	82.5
287.213	96.5
287.444	106.5
287.675	95.5
287.906	111.5
288.138	92.5
288.369	88.5
288.6	86.5
288.831	82.5
289.062	90.5
289.293	101.5
289.524	105.5
289.755	89.5
289.986	97.5
290.217	89.5
290.448	89.5
290.679	91.5
290.91	84.5
291.141	99.5
291.371	88.5
291.602	96.5
291.833	107.5
292.064	83.5
292.295	107.5
292.526	97.5
292.757	89.5
292.987	88.5
293.218	93.5
293.449	91.5
293.68	88.5
293.91	92.5
294.141	98.5
294.372	86.5
294.603	92.5
294.833	86.5
295.064	97.5
295.295	104.5
295.525	94.5
295.756	106.5
295.987	97.5
296.217	136.5
296.448	136.5
296.679	99.5
296.909	82.5
297.14	92.5
297.37	95.5
297.601	64.5
297.831	85.5
298.062	109.5
298.292	89.5
298.523	91.5
298.753	70.5
298.984	101.5
299.214	91.5
299.445	81.5
299.675	102.5
299.905	87.5
300.136	93.5
300.366	93.5
300.597	88.5
300.827	97.5
301.057	86.5
301.288	97.5
301.518	103.5
301.748	80.5
301.979	93.5
302.209	89.5
302.439	92.5
302.669	97.5
302.9	95.5
303.13	92.5
303.36	94.5
303.59	98.5
303.82	101.5
304.051	104.5
304.281	105.5
304.511	91.5
304.741	88.5
304.971	88.5
305.201	92.5
305.431	94.5
305.661	109.5
305.891	87.5
306.121	98.5
306.352	121.5
306.582	117.5
306.812	90.5
307.042	95.5
307.272	88.5
307.502	88.5
307.731	89.5
307.961	86.5
308.191	92.5
308.421	93.5
308.651	96.5
308.881	91.5
309.111	108.5
309.341	103.5
309.571	113.5
309.8	85.5
310.03	91.5
310.26	107.5
310.49	97.5
310.72	82.5
310.949	115.5
311.179	98.5
311.409	93.5
311.639	101.5
311.868	95.5
312.098	99.5
312.328	98.5
312.557	106.5
312.787	107.5
313.017	104.5
313.246	105.5
313.476	99.5
313.706	87.5
313.935	98.5
314.165	100.5
314.394	100.5
314.624	75.5
314.853	89.5
315.083	90.5
315.312	101.5
315.542	100.5
315.771	97.5
316.001	99.5
316.23	98.5
316.46	96.5
316.689	91.5
316.919	87.5
317.148	104.5
317.377	99.5
317.607	90.5
317.836	92.5
318.065	103.5
318.295	98.5
318.524	86.5
318.753	113.5
318.983	95.5
319.212	98.5
319.441	108.5
319.67	103.5
319.9	87.5
320.129	108.5
320.358	93.5
320.587	97.5
320.816	104.5
321.046	95.5
321.275	107.5
321.504	95.5
321.733	105.5
321.962	101.5
322.191	94.5
322.42	105.5
322.649	93.5
322.878	102.5
323.108	120.5
323.337	119.5
323.566	131.5
323.795	137.5
324.024	193.5
324.253	376.5
324.482	785.5
324.71	1633.5
324.939	2129.5
325.168	786.5
325.397	244.5
325.626	138.5
325.855	136.5
326.084	130.5
326.313	139.5
326.542	159.5
326.77	221.5
326.999	432.5
327.228	899.5
327.457	1667.5
327.686	1320.5
327.914	358.5
328.143	181.5
328.372	139.5
328.6	137.5
328.829	111.5
329.058	121.5
329.287	126.5
329.515	107.5
329.744	101.5
329.972	124.5
330.201	100.5
330.43	111.5
330.658	122.5
330.887	145.5
331.115	117.5
331.344	101.5
331.572	97.5
331.801	103.5
332.03	104.5
332.258	113.5
332.486	99.5
332.715	97.5
332.943	105.5
333.172	96.5
333.4	99.5
333.629	106.5
333.857	105.5
334.085	108.5
334.314	92.5
334.542	100.5
334.771	99.5
334.999	91.5
335.227	82.5
335.455	98.5
335.684	100.5
335.912	103.5
336.14	87.5
336.369	109.5
336.597	93.5
336.825	99.5
337.053	107.5
337.281	104.5
337.51	108.5
337.738	106.5
337.966	92.5
338.194	89.5
338.422	93.5
338.65	103.5
338.878	82.5
339.106	83.5
339.334	106.5
339.562	79.5
339.79	89.5
340.018	101.5
340.246	93.5
340.474	99.5
340.702	102.5
340.93	97.5
341.158	88.5
341.386	96.5
341.614	112.5
341.842	100.5
342.07	88.5
342.298	103.5
342.526	75.5
342.754	86.5
342.981	91.5
343.209	74.5
343.437	101.5
343.665	108.5
343.893	86.5
344.12	108.5
344.348	94.5
344.576	86.5
344.804	90.5
345.031	88.5
345.259	102.5
345.487	110.5
345.714	106.5
345.942	93.5
346.17	62.5
346.397	92.5
346.625	81.5
346.853	105.5
347.08	91.5
347.308	96.5
347.535	92.5
347.763	86.5
347.99	93.5
348.218	117.5
348.445	103.5
348.673	115.5
348.9	82.5
349.128	87.5
349.355	97.5
349.583	87.5
349.81	88.5
350.037	98.5
350.265	98.5
350.492	99.5
350.72	117.5
350.947	98.5
351.174	101.5
351.402	119.5
351.629	106.5
351.856	103.5
352.083	104.5
352.311	108.5
352.538	102.5
352.765	112.5
352.992	108.5
353.22	116.5
353.447	109.5
353.674	93.5
353.901	99.5
354.128	94.5
354.355	86.5
354.583	100.5
354.81	93.5
355.037	105.5
355.264	107.5
355.491	99.5
355.718	98.5
355.945	98.5
356.172	107.5
356.399	99.5
356.626	89.5
356.853	111.5
357.08	85.5
357.307	83.5
357.534	88.5
357.761	90.5
357.988	91.5
358.215	97.5
358.441	112.5
358.668	85.5
358.895	85.5
359.122	101.5
359.349	82.5
359.576	100.5
359.802	101.5
360.029	106.5
360.256	101.5
360.483	100.5
360.709	101.5
360.936	93.5
361.163	91.5
361.39	95.5
361.616	109.5
361.843	109.5
362.07	98.5
362.296	92.5
362.523	97.5
362.749	91.5
362.976	115.5
363.203	88.5
363.429	85.5
363.656	100.5
363.882	83.5
364.109	93.5
364.335	111.5
364.562	83.5
364.788	88.5
365.015	95.5
365.241	101.5
365.468	102.5
365.694	113.5
365.92	106.5
366.147	95.5
366.373	77.5
366.599	98.5
366.826	97.5
367.052	102.5
367.278	103.5
367.505	97.5
367.731	115.5
367.957	94.5
368.184	89.5
368.41	102.5
368.636	115.5
368.862	106.5
369.089	97.5
369.315	90.5
369.541	99.5
369.767	91.5
369.993	102.5
370.219	97.5
370.445	77.5
370.672	88.5
370.898	85.5
371.124	107.5
371.35	93.5
371.576	101.5
371.802	74.5
372.028	84.5
372.254	73.5
372.48	87.5
372.706	94.5
372.932	86.5
373.158	83.5
373.384	97.5
373.61	78.5
373.835	93.5
374.061	100.5
374.287	99.5
374.513	81.5
374.739	85.5
374.965	99.5
375.191	95.5
375.416	103.5
375.642	90.5
375.868	94.5
376.094	107.5
376.319	93.5
376.545	113.5
376.771	99.5
376.997	87.5
377.222	88.5
377.448	93.5
377.674	84.5
377.899	109.5
378.125	90.5
378.35	98.5
378.576	97.5
378.802	107.5
379.027	85.5
379.253	89.5
379.478	86.5
379.704	87.5
379.929	86.5
380.155	99.5
380.38	87.5
380.606	81.5
380.831	98.5
381.057	95.5
381.282	102.5
381.507	90.5
381.733	90.5
381.958	108.5
382.184	91.5
382.409	91.5
382.634	104.5
382.86	119.5
383.085	98.5
383.31	109.5
383.535	91.5
383.761	99.5
383.986	111.5
384.211	102.5
384.436	106.5
384.662	103.5
384.887	93.5
385.112	100.5
385.337	99.5
385.562	93.5
385.787	105.5
386.013	102.5
386.238	121.5
386.463	99.5
386.688	110.5
386.913	93.5
387.138	97.5
387.363	100.5
387.588	109.5
387.813	103.5
388.038	102.5
388.263	117.5
388.488	107.5
388.713	88.5
388.938	108.5
389.163	107.5
389.387	96.5
389.612	105.5
389.837	109.5
390.062	77.5
390.287	99.5
390.512	76.5
390.736	103.5
390.961	93.5
391.186	101.5
391.411	89.5
391.636	96.5
391.86	87.5
392.085	88.5
392.31	76.5
392.534	90.5
392.759	95.5
392.984	98.5
393.208	108.5
393.433	89.5
393.658	93.5
393.882	99.5
394.107	79.5
394.331	82.5
394.556	83.5
394.78	86.5
395.005	94.5
395.229	85.5
395.454	89.5
395.678	91.5
395.903	90.5
396.127	77.5
396.352	103.5
396.576	94.5
396.801	82.5
397.025	88.5
397.249	85.5
397.474	74.5
397.698	102.5
397.922	93.5
398.147	74.5
398.371	101.5
398.595	96.5
398.82	85.5
399.044	85.5
399.268	91.5
399.492	105.5
399.717	75.5
399.941	91.5
400.165	107.5
400.389	81.5
400.613	96.5
400.837	88.5
401.062	90.5
401.286	86.5
401.51	79.5
401.734	75.5
401.958	93.5
402.182	130.5
402.406	155.5
402.63	113.5
402.854	85.5
403.078	92.5
403.302	93.5
403.526	94.5
403.75	73.5
403.974	81.5
404.198	109.5
404.422	96.5
404.645	93.5
404.869	94.5
405.093	89.5
405.317	98.5
405.541	102.5
405.765	85.5
405.988	124.5
406.212	174.5
406.436	229.5
406.66	138.5
406.883	87.5
407.107	93.5
407.331	90.5
407.555	92.5
407.778	98.5
408.002	91.5
408.226	98.5
408.449	108.5
408.673	97.5
408.896	93.5
409.12	110.5
409.344	98.5
409.567	97.5
409.791	95.5
410.014	90.5
410.238	92.5
410.461	86.5
410.685	106.5
410.908	97.5
411.132	109.5
411.355	110.5
411.578	84.5
411.802	100.5
412.025	95.5
412.249	93.5
412.472	87.5
412.695	100.5
412.919	82.5
413.142	91.5
413.365	90.5
413.589	98.5
413.812	94.5
414.035	95.5
414.258	96.5
414.482	105.5
414.705	97.5
414.928	98.5
415.151	85.5
415.374	95.5
415.597	83.5
415.821	85.5
416.044	90.5
416.267	85.5
416.49	92.5
416.713	83.5
416.936	89.5
417.159	91.5
417.382	88.5
417.605	75.5
417.828	76.5
418.051	89.5
418.274	95.5
418.497	93.5
418.72	83.5
418.943	92.5
419.166	93.5
419.389	106.5
419.611	90.5
419.834	86.5
420.057	95.5
420.28	105.5
420.503	88.5
420.726	91.5
420.948	87.5
421.171	94.5
421.394	95.5
421.617	91.5
421.839	81.5
422.062	86.5
422.285	101.5
422.507	91.5
422.73	102.5
422.953	83.5
423.175	97.5
423.398	80.5
423.621	96.5
423.843	99.5
424.066	88.5
424.288	83.5
424.511	93.5
424.733	109.5
424.956	97.5
425.178	103.5
425.401	92.5
425.623	96.5
425.846	92.5
426.068	93.5
426.291	102.5
426.513	89.5
426.735	100.5
426.958	102.5
427.18	98.5
427.402	129.5
427.625	143.5
427.847	121.5
428.069	110.5
428.292	93.5
428.514	85.5
428.736	87.5
428.958	87.5
429.181	92.5
429.403	76.5
429.625	84.5
429.847	104.5
430.069	87.5
430.292	97.5
430.514	83.5
430.736	102.5
430.958	96.5
431.18	82.5
431.402	78.5
431.624	94.5
431.846	87.5
432.068	74.5
432.29	101.5
432.512	91.5
432.734	81.5
432.956	97.5
433.178	93.5
433.4	101.5
433.622	98.5
433.844	101.5
434.066	89.5
434.287	106.5
434.509	97.5
434.731	92.5
434.953	83.5
435.175	88.5
435.397	91.5
435.618	97.5
435.84	99.5
436.062	116.5
436.284	111.5
436.505	99.5
436.727	100.5
436.949	97.5
437.17	107.5
437.392	81.5
437.614	101.5
437.835	96.5
438.057	124.5
438.278	115.5
438.5	105.5
438.721	119.5
438.943	107.5
439.165	101.5
439.386	100.5
439.608	97.5
439.829	92.5
440.05	123.5
440.272	134.5
440.493	104.5
440.715	78.5
440.936	99.5
441.158	89.5
441.379	76.5
441.6	104.5
441.822	104.5
442.043	94.5
442.264	98.5
442.486	120.5
442.707	91.5
442.928	118.5
443.149	122.5
443.371	116.5
443.592	122.5
443.813	113.5
444.034	115.5
444.255	98.5
444.476	85.5
444.698	84.5
444.919	94.5
445.14	141.5
445.361	115.5
445.582	105.5
445.803	134.5
446.024	127.5
446.245	145.5
446.466	101.5
446.687	78.5
446.908	97.5
447.129	83.5
447.35	98.5
447.571	79.5
447.792	100.5
448.013	96.5
448.234	96.5
448.455	91.5
448.675	111.5
448.896	119.5
449.117	97.5
449.338	101.5
449.559	141.5
449.779	124.5
450	92.5
450.221	99.5
450.442	92.5
450.662	93.5
450.883	107.5
451.104	119.5
451.324	101.5
451.545	85.5
451.766	99.5
451.986	91.5
452.207	80.5
452.428	93.5
452.648	108.5
452.869	115.5
453.089	115.5
453.31	117.5
453.53	113.5
453.751	87.5
453.971	98.5
454.192	95.5
454.412	107.5
454.633	102.5
454.853	97.5
455.073	94.5
455.294	93.5
455.514	119.5
455.734	82.5
455.955	93.5
456.175	90.5
456.395	106.5
456.616	84.5
456.836	88.5
457.056	74.5
457.276	75.5
457.497	88.5
457.717	81.5
457.937	97.5
458.157	92.5
458.377	103.5
458.598	116.5
458.818	139.5
459.038	165.5
459.258	94.5
459.478	81.5
459.698	76.5
459.918	90.5
460.138	102.5
460.358	102.5
460.578	91.5
460.798	92.5
461.018	94.5
461.238	95.5
461.458	86.5
461.678	81.5
461.898	89.5
462.118	89.5
462.338	88.5
462.558	97.5
462.777	94.5
462.997	93.5
463.217	88.5
463.437	77.5
463.657	75.5
463.876	102.5
464.096	89.5
464.316	85.5
464.536	105.5
464.755	97.5
464.975	106.5
465.195	161.5
465.414	156.5
465.634	109.5
465.854	95.5
466.073	93.5
466.293	105.5
466.512	86.5
466.732	73.5
466.951	103.5
467.171	98.5
467.391	79.5
467.61	96.5
467.829	98.5
468.049	100.5
468.268	91.5
468.488	112.5
468.707	85.5
468.927	98.5
469.146	93.5
469.365	99.5
469.585	77.5
469.804	100.5
470.023	102.5
470.243	84.5
470.462	107.5
470.681	103.5
470.901	79.5
471.12	91.5
471.339	78.5
471.558	96.5
471.777	95.5
471.997	77.5
472.216	91.5
472.435	98.5
472.654	95.5
472.873	86.5
473.092	88.5
473.311	97.5
473.53	86.5
473.749	82.5
473.968	86.5
474.187	97.5
474.406	89.5
474.625	111.5
474.844	93.5
475.063	102.5
475.282	84.5
475.501	87.5
475.72	89.5
475.939	77.5
476.158	98.5
476.377	94.5
476.596	92.5
476.814	82.5
477.033	86.5
477.252	82.5
477.471	94.5
477.69	95.5
477.908	97.5
478.127	94.5
478.346	96.5
478.564	92.5
478.783	98.5
479.002	92.5
479.22	97.5
479.439	102.5
479.658	107.5
479.876	92.5
480.095	97.5
480.313	84.5
480.532	81.5
480.751	93.5
480.969	104.5
481.188	107.5
481.406	91.5
481.624	98.5
481.843	91.5
482.061	83.5
482.28	104.5
482.498	105.5
482.717	79.5
482.935	96.5
483.153	97.5
483.372	88.5
483.59	95.5
483.808	85.5
484.027	93.5
484.245	101.5
484.463	103.5
484.681	104.5
484.9	89.5
485.118	101.5
485.336	85.5
485.554	102.5
485.772	106.5
485.99	117.5
486.209	96.5
486.427	114.5
486.645	101.5
486.863	123.5
487.081	105.5
487.299	105.5
487.517	103.5
487.735	96.5
487.953	89.5
488.171	83.5
488.389	95.5
488.607	93.5
488.825	94.5
489.043	97.5
489.261	103.5
489.479	93.5
489.696	99.5
489.914	95.5
490.132	91.5
490.35	97.5
490.568	83.5
490.786	93.5
491.003	102.5
491.221	91.5
491.439	88.5
491.657	97.5
491.874	96.5
492.092	86.5
492.31	102.5
492.527	95.5
492.745	75.5
492.963	97.5
493.18	82.5
493.398	99.5
493.615	91.5
493.833	101.5
494.05	98.5
494.268	85.5
494.485	89.5
494.703	92.5
494.92	99.5
495.138	97.5
495.355	85.5
495.573	97.5
495.79	85.5
496.008	79.5
496.225	109.5
496.442	95.5
496.66	95.5
496.877	96.5
497.094	118.5
497.312	89.5
497.529	87.5
497.746	99.5
497.963	91.5
498.181	96.5
498.398	101.5
498.615	101.5
498.832	100.5
499.049	89.5
499.267	90.5
499.484	78.5
499.701	94.5
499.918	88.5
500.135	101.5
500.352	91.5
500.569	83.5
500.786	76.5
501.003	89.5
501.22	99.5
501.437	106.5
501.654	101.5
501.871	112.5
502.088	85.5
502.305	93.5
502.522	102.5
502.739	68.5
502.956	97.5
503.172	85.5
503.389	104.5
503.606	98.5
503.823	94.5
504.04	89.5
504.256	93.5
504.473	97.5
504.69	92.5
504.907	95.5
505.123	87.5
505.34	90.5
505.557	85.5
505.773	103.5
505.99	86.5
506.207	94.5
506.423	87.5
506.64	95.5
506.856	92.5
507.073	95.5
507.289	81.5
507.506	98.5
507.722	94.5
507.939	105.5
508.155	97.5
508.372	90.5
508.588	106.5
508.805	102.5
509.021	98.5
509.238	98.5
509.454	119.5
509.67	117.5
509.887	104.5
510.103	143.5
510.319	219.5
510.536	747.5
510.752	2359.5
510.968	621.5
511.184	169.5
511.401	115.5
511.617	101.5
511.833	92.5
512.049	94.5
512.265	115.5
512.481	100.5
512.698	94.5
512.914	86.5
513.13	99.5
513.346	89.5
513.562	88.5
513.778	90.5
513.994	98.5
514.21	122.5
514.426	122.5
514.642	132.5
514.858	124.5
515.074	149.5
515.29	456.5
515.506	1401.5
515.721	525.5
515.937	167.5
516.153	106.5
516.369	89.5
516.585	101.5
516.801	89.5
517.016	103.5
517.232	78.5
517.448	109.5
517.664	96.5
517.879	94.5
518.095	89.5
518.311	91.5
518.527	96.5
518.742	98.5
518.958	76.5
519.173	104.5
519.389	98.5
519.605	102.5
519.82	94.5
520.036	99.5
520.251	131.5
520.467	115.5
520.682	103.5
520.898	115.5
521.113	112.5
521.329	142.5
521.544	196.5
521.76	526.5
521.975	2317.5
522.19	1380.5
522.406	301.5
522.621	130.5
522.836	107.5
523.052	91.5
523.267	98.5
523.482	94.5
523.698	106.5
523.913	104.5
524.128	114.5
524.343	91.5
524.559	92.5
524.774	79.5
524.989	91.5
525.204	112.5
525.419	93.5
525.634	91.5
525.849	91.5
526.064	83.5
526.28	91.5
526.495	90.5
526.71	89.5
526.925	93.5
527.14	90.5
527.355	91.5
527.57	93.5
527.785	93.5
527.999	86.5
528.214	95.5
528.429	107.5
528.644	95.5
528.859	98.5
529.074	106.5
529.289	114.5
529.503	176.5
529.718	112.5
529.933	108.5
530.148	82.5
530.363	83.5
530.577	99.5
530.792	95.5
531.007	98.5
531.221	99.5
531.436	85.5
531.651	90.5
531.865	92.5
532.08	98.5
532.295	99.5
532.509	89.5
532.724	94.5
532.938	97.5
533.153	91.5
533.367	97.5
533.582	98.5
533.796	95.5
534.011	80.5
534.225	101.5
