Data from Uncirc_1984_H10_HRD10591_00091.txt Node
Date: Wed Jan 03 12:21:55 EST 2024
User: Yrep
Spectrometer: HR+D1059
Trigger mode: 1
Integration Time (sec): 1.000000E-1
Scans to average: 1
Electric dark correction enabled: true
Nonlinearity correction enabled: false
Boxcar width: 0
XAxis mode: Wavelengths
Number of Pixels in Spectrum: 2048
>>>>>Begin Spectral Data<<<<<
223.165	2.44
223.4	2.44
223.635	2.44
223.869	-13.56
224.104	-23.56
224.338	-11.56
224.573	-10.56
224.808	-28.56
225.042	-6.56
225.277	-12.56
225.511	-3.56
225.746	3.44
225.98	12.44
226.215	-2.56
226.449	4.44
226.683	25.44
226.918	20.44
227.152	44.44
227.387	29.44
227.621	31.44
227.856	45.44
228.09	58.44
228.324	49.44
228.559	49.44
228.793	40.44
229.027	67.44
229.262	79.44
229.496	69.44
229.73	94.44
229.964	92.44
230.199	79.44
230.433	68.44
230.667	72.44
230.901	79.44
231.136	62.44
231.37	79.44
231.604	85.44
231.838	85.44
232.072	82.44
232.306	92.44
232.541	99.44
232.775	67.44
233.009	86.44
233.243	75.44
233.477	83.44
233.711	86.44
233.945	71.44
234.179	83.44
234.413	97.44
234.647	87.44
234.881	80.44
235.115	83.44
235.349	67.44
235.583	78.44
235.817	85.44
236.051	78.44
236.285	83.44
236.519	85.44
236.753	75.44
236.987	72.44
237.221	89.44
237.455	89.44
237.689	85.44
237.922	70.44
238.156	82.44
238.39	81.44
238.624	73.44
238.858	81.44
239.091	66.44
239.325	71.44
239.559	80.44
239.793	73.44
240.027	73.44
240.26	75.44
240.494	76.44
240.728	69.44
240.961	81.44
241.195	81.44
241.429	84.44
241.662	82.44
241.896	92.44
242.13	91.44
242.363	86.44
242.597	83.44
242.83	75.44
243.064	76.44
243.298	82.44
243.531	75.44
243.765	95.44
243.998	90.44
244.232	81.44
244.465	79.44
244.699	86.44
244.932	87.44
245.166	89.44
245.399	88.44
245.633	68.44
245.866	76.44
246.099	74.44
246.333	88.44
246.566	74.44
246.8	83.44
247.033	95.44
247.266	89.44
247.5	77.44
247.733	72.44
247.966	88.44
248.2	82.44
248.433	74.44
248.666	79.44
248.899	76.44
249.133	83.44
249.366	99.44
249.599	88.44
249.832	89.44
250.066	89.44
250.299	72.44
250.532	88.44
250.765	92.44
250.998	62.44
251.231	81.44
251.465	79.44
251.698	88.44
251.931	81.44
252.164	65.44
252.397	76.44
252.63	78.44
252.863	81.44
253.096	55.44
253.329	93.44
253.562	82.44
253.795	80.44
254.028	80.44
254.261	85.44
254.494	85.44
254.727	99.44
254.96	101.44
255.193	89.44
255.426	62.44
255.659	86.44
255.892	76.44
256.124	77.44
256.357	74.44
256.59	95.44
256.823	86.44
257.056	83.44
257.289	68.44
257.521	76.44
257.754	90.44
257.987	71.44
258.22	88.44
258.452	95.44
258.685	90.44
258.918	73.44
259.151	83.44
259.383	83.44
259.616	93.44
259.849	80.44
260.081	99.44
260.314	81.44
260.547	79.44
260.779	72.44
261.012	79.44
261.244	79.44
261.477	94.44
261.71	93.44
261.942	105.44
262.175	102.44
262.407	93.44
262.64	82.44
262.872	79.44
263.105	91.44
263.337	82.44
263.57	81.44
263.802	90.44
264.035	89.44
264.267	74.44
264.499	95.44
264.732	80.44
264.964	73.44
265.197	91.44
265.429	89.44
265.661	83.44
265.894	79.44
266.126	90.44
266.358	75.44
266.591	66.44
266.823	87.44
267.055	86.44
267.287	93.44
267.52	80.44
267.752	86.44
267.984	75.44
268.216	85.44
268.448	81.44
268.681	84.44
268.913	86.44
269.145	87.44
269.377	81.44
269.609	92.44
269.841	95.44
270.073	66.44
270.306	67.44
270.538	92.44
270.77	88.44
271.002	85.44
271.234	83.44
271.466	72.44
271.698	87.44
271.93	77.44
272.162	79.44
272.394	84.44
272.626	82.44
272.858	80.44
273.09	80.44
273.322	78.44
273.553	86.44
273.785	73.44
274.017	99.44
274.249	75.44
274.481	85.44
274.713	75.44
274.945	93.44
275.176	94.44
275.408	86.44
275.64	88.44
275.872	80.44
276.104	98.44
276.335	87.44
276.567	93.44
276.799	93.44
277.031	105.44
277.262	95.44
277.494	92.44
277.726	85.44
277.957	84.44
278.189	82.44
278.421	92.44
278.652	104.44
278.884	94.44
279.115	73.44
279.347	81.44
279.579	87.44
279.81	97.44
280.042	87.44
280.273	86.44
280.505	98.44
280.736	81.44
280.968	93.44
281.199	80.44
281.431	86.44
281.662	84.44
281.894	87.44
282.125	93.44
282.356	102.44
282.588	123.44
282.819	104.44
283.051	94.44
283.282	93.44
283.513	73.44
283.745	83.44
283.976	85.44
284.207	71.44
284.439	93.44
284.67	76.44
284.901	86.44
285.132	96.44
285.364	86.44
285.595	77.44
285.826	107.44
286.057	97.44
286.288	81.44
286.52	82.44
286.751	86.44
286.982	81.44
287.213	92.44
287.444	90.44
287.675	84.44
287.906	91.44
288.138	91.44
288.369	74.44
288.6	91.44
288.831	93.44
289.062	85.44
289.293	88.44
289.524	76.44
289.755	80.44
289.986	83.44
290.217	83.44
290.448	95.44
290.679	92.44
290.91	79.44
291.141	79.44
291.371	95.44
291.602	86.44
291.833	77.44
292.064	76.44
292.295	90.44
292.526	88.44
292.757	85.44
292.987	71.44
293.218	109.44
293.449	97.44
293.68	97.44
293.91	87.44
294.141	79.44
294.372	90.44
294.603	75.44
294.833	92.44
295.064	89.44
295.295	85.44
295.525	81.44
295.756	101.44
295.987	109.44
296.217	118.44
296.448	121.44
296.679	81.44
296.909	80.44
297.14	90.44
297.37	86.44
297.601	80.44
297.831	100.44
298.062	89.44
298.292	95.44
298.523	92.44
298.753	93.44
298.984	81.44
299.214	93.44
299.445	82.44
299.675	96.44
299.905	96.44
300.136	95.44
300.366	82.44
300.597	91.44
300.827	97.44
301.057	89.44
301.288	107.44
301.518	86.44
301.748	86.44
301.979	118.44
302.209	79.44
302.439	95.44
302.669	90.44
302.9	97.44
303.13	90.44
303.36	93.44
303.59	109.44
303.82	92.44
304.051	99.44
304.281	83.44
304.511	71.44
304.741	97.44
304.971	89.44
305.201	86.44
305.431	100.44
305.661	83.44
305.891	73.44
306.121	89.44
306.352	95.44
306.582	111.44
306.812	87.44
307.042	95.44
307.272	85.44
307.502	99.44
307.731	99.44
307.961	84.44
308.191	92.44
308.421	94.44
308.651	87.44
308.881	88.44
309.111	100.44
309.341	92.44
309.571	98.44
309.8	96.44
310.03	88.44
310.26	96.44
310.49	94.44
310.72	104.44
310.949	105.44
311.179	101.44
311.409	93.44
311.639	102.44
311.868	96.44
312.098	91.44
312.328	97.44
312.557	98.44
312.787	111.44
313.017	99.44
313.246	84.44
313.476	90.44
313.706	92.44
313.935	98.44
314.165	102.44
314.394	106.44
314.624	88.44
314.853	73.44
315.083	84.44
315.312	83.44
315.542	89.44
315.771	89.44
316.001	104.44
316.23	87.44
316.46	89.44
316.689	92.44
316.919	88.44
317.148	89.44
317.377	97.44
317.607	105.44
317.836	97.44
318.065	98.44
318.295	87.44
318.524	81.44
318.753	101.44
318.983	87.44
319.212	83.44
319.441	99.44
319.67	104.44
319.9	85.44
320.129	97.44
320.358	103.44
320.587	85.44
320.816	83.44
321.046	86.44
321.275	105.44
321.504	92.44
321.733	97.44
321.962	86.44
322.191	116.44
322.42	90.44
322.649	104.44
322.878	110.44
323.108	123.44
323.337	133.44
323.566	134.44
323.795	144.44
324.024	184.44
324.253	349.44
324.482	756.44
324.71	1499.44
324.939	1988.44
325.168	748.44
325.397	225.44
325.626	147.44
325.855	113.44
326.084	117.44
326.313	124.44
326.542	142.44
326.77	209.44
326.999	415.44
327.228	825.44
327.457	1539.44
327.686	1242.44
327.914	351.44
328.143	173.44
328.372	133.44
328.6	119.44
328.829	104.44
329.058	116.44
329.287	127.44
329.515	121.44
329.744	105.44
329.972	99.44
330.201	102.44
330.43	97.44
330.658	114.44
330.887	117.44
331.115	119.44
331.344	98.44
331.572	91.44
331.801	108.44
332.03	98.44
332.258	106.44
332.486	94.44
332.715	87.44
332.943	82.44
333.172	102.44
333.4	97.44
333.629	95.44
333.857	109.44
334.085	100.44
334.314	106.44
334.542	114.44
334.771	98.44
334.999	95.44
335.227	93.44
335.455	93.44
335.684	94.44
335.912	99.44
336.14	97.44
336.369	96.44
336.597	103.44
336.825	97.44
337.053	99.44
337.281	81.44
337.51	88.44
337.738	88.44
337.966	100.44
338.194	96.44
338.422	89.44
338.65	88.44
338.878	81.44
339.106	94.44
339.334	95.44
339.562	91.44
339.79	92.44
340.018	87.44
340.246	95.44
340.474	95.44
340.702	99.44
340.93	90.44
341.158	83.44
341.386	101.44
341.614	94.44
341.842	97.44
342.07	91.44
342.298	84.44
342.526	86.44
342.754	93.44
342.981	88.44
343.209	91.44
343.437	106.44
343.665	92.44
343.893	87.44
344.12	91.44
344.348	82.44
344.576	91.44
344.804	88.44
345.031	96.44
345.259	96.44
345.487	96.44
345.714	89.44
345.942	102.44
346.17	99.44
346.397	93.44
346.625	92.44
346.853	84.44
347.08	94.44
347.308	85.44
347.535	92.44
347.763	90.44
347.99	96.44
348.218	103.44
348.445	107.44
348.673	102.44
348.9	94.44
349.128	84.44
349.355	100.44
349.583	99.44
349.81	93.44
350.037	97.44
350.265	79.44
350.492	103.44
350.72	96.44
350.947	83.44
351.174	96.44
351.402	107.44
351.629	97.44
351.856	104.44
352.083	97.44
352.311	103.44
352.538	106.44
352.765	108.44
352.992	103.44
353.22	108.44
353.447	101.44
353.674	116.44
353.901	115.44
354.128	99.44
354.355	113.44
354.583	104.44
354.81	102.44
355.037	89.44
355.264	102.44
355.491	107.44
355.718	86.44
355.945	96.44
356.172	96.44
356.399	101.44
356.626	103.44
356.853	89.44
357.08	82.44
357.307	110.44
357.534	96.44
357.761	91.44
357.988	98.44
358.215	89.44
358.441	86.44
358.668	110.44
358.895	98.44
359.122	91.44
359.349	84.44
359.576	98.44
359.802	108.44
360.029	104.44
360.256	110.44
360.483	92.44
360.709	87.44
360.936	100.44
361.163	88.44
361.39	83.44
361.616	89.44
361.843	99.44
362.07	92.44
362.296	87.44
362.523	91.44
362.749	92.44
362.976	87.44
363.203	100.44
363.429	101.44
363.656	85.44
363.882	73.44
364.109	100.44
364.335	74.44
364.562	89.44
364.788	97.44
365.015	97.44
365.241	100.44
365.468	99.44
365.694	89.44
365.92	96.44
366.147	88.44
366.373	91.44
366.599	98.44
366.826	83.44
367.052	99.44
367.278	92.44
367.505	96.44
367.731	83.44
367.957	86.44
368.184	93.44
368.41	108.44
368.636	101.44
368.862	113.44
369.089	105.44
369.315	94.44
369.541	90.44
369.767	82.44
369.993	71.44
370.219	95.44
370.445	88.44
370.672	97.44
370.898	83.44
371.124	82.44
371.35	89.44
371.576	81.44
371.802	77.44
372.028	85.44
372.254	94.44
372.48	94.44
372.706	85.44
372.932	84.44
373.158	90.44
373.384	91.44
373.61	94.44
373.835	73.44
374.061	89.44
374.287	84.44
374.513	93.44
374.739	96.44
374.965	89.44
375.191	85.44
375.416	106.44
375.642	85.44
375.868	101.44
376.094	99.44
376.319	101.44
376.545	84.44
376.771	93.44
376.997	84.44
377.222	90.44
377.448	89.44
377.674	90.44
377.899	101.44
378.125	82.44
378.35	93.44
378.576	83.44
378.802	83.44
379.027	76.44
379.253	92.44
379.478	84.44
379.704	94.44
379.929	85.44
380.155	107.44
380.38	93.44
380.606	93.44
380.831	90.44
381.057	92.44
381.282	93.44
381.507	88.44
381.733	95.44
381.958	108.44
382.184	104.44
382.409	100.44
382.634	109.44
382.86	88.44
383.085	83.44
383.31	97.44
383.535	103.44
383.761	83.44
383.986	83.44
384.211	92.44
384.436	110.44
384.662	106.44
384.887	89.44
385.112	95.44
385.337	93.44
385.562	104.44
385.787	105.44
386.013	97.44
386.238	104.44
386.463	109.44
386.688	98.44
386.913	91.44
387.138	100.44
387.363	97.44
387.588	81.44
387.813	106.44
388.038	116.44
388.263	96.44
388.488	109.44
388.713	95.44
388.938	91.44
389.163	94.44
389.387	89.44
389.612	80.44
389.837	106.44
390.062	92.44
390.287	84.44
390.512	92.44
390.736	95.44
390.961	92.44
391.186	93.44
391.411	98.44
391.636	97.44
391.86	88.44
392.085	103.44
392.31	87.44
392.534	85.44
392.759	83.44
392.984	83.44
393.208	81.44
393.433	87.44
393.658	90.44
393.882	82.44
394.107	79.44
394.331	88.44
394.556	89.44
394.78	83.44
395.005	92.44
395.229	83.44
395.454	80.44
395.678	81.44
395.903	88.44
396.127	85.44
396.352	97.44
396.576	86.44
396.801	73.44
397.025	97.44
397.249	89.44
397.474	90.44
397.698	91.44
397.922	85.44
398.147	95.44
398.371	84.44
398.595	86.44
398.82	63.44
399.044	92.44
399.268	93.44
399.492	99.44
399.717	100.44
399.941	92.44
400.165	92.44
400.389	79.44
400.613	74.44
400.837	79.44
401.062	78.44
401.286	89.44
401.51	98.44
401.734	94.44
401.958	87.44
402.182	118.44
402.406	151.44
402.63	105.44
402.854	84.44
403.078	96.44
403.302	81.44
403.526	81.44
403.75	81.44
403.974	86.44
404.198	91.44
404.422	87.44
404.645	82.44
404.869	87.44
405.093	100.44
405.317	98.44
405.541	99.44
405.765	102.44
405.988	108.44
406.212	163.44
406.436	201.44
406.66	128.44
406.883	92.44
407.107	95.44
407.331	86.44
407.555	98.44
407.778	93.44
408.002	79.44
408.226	81.44
408.449	99.44
408.673	88.44
408.896	79.44
409.12	99.44
409.344	76.44
409.567	90.44
409.791	104.44
410.014	90.44
410.238	96.44
410.461	95.44
410.685	96.44
410.908	96.44
411.132	101.44
411.355	102.44
411.578	105.44
411.802	95.44
412.025	83.44
412.249	93.44
412.472	89.44
412.695	97.44
412.919	81.44
413.142	79.44
413.365	87.44
413.589	83.44
413.812	87.44
414.035	100.44
414.258	89.44
414.482	89.44
414.705	83.44
414.928	99.44
415.151	100.44
415.374	86.44
415.597	90.44
415.821	78.44
416.044	88.44
416.267	84.44
416.49	80.44
416.713	85.44
416.936	86.44
417.159	85.44
417.382	89.44
417.605	89.44
417.828	92.44
418.051	74.44
418.274	85.44
418.497	84.44
418.72	96.44
418.943	82.44
419.166	92.44
419.389	90.44
419.611	99.44
419.834	98.44
420.057	90.44
420.28	89.44
420.503	79.44
420.726	84.44
420.948	101.44
421.171	85.44
421.394	89.44
421.617	80.44
421.839	87.44
422.062	91.44
422.285	98.44
422.507	95.44
422.73	104.44
422.953	79.44
423.175	83.44
423.398	88.44
423.621	89.44
423.843	84.44
424.066	87.44
424.288	89.44
424.511	89.44
424.733	98.44
424.956	95.44
425.178	95.44
425.401	95.44
425.623	101.44
425.846	95.44
426.068	93.44
426.291	91.44
426.513	86.44
426.735	93.44
426.958	97.44
427.18	111.44
427.402	144.44
427.625	149.44
427.847	108.44
428.069	91.44
428.292	75.44
428.514	87.44
428.736	88.44
428.958	92.44
429.181	85.44
429.403	74.44
429.625	87.44
429.847	90.44
430.069	92.44
430.292	100.44
430.514	82.44
430.736	98.44
430.958	95.44
431.18	72.44
431.402	87.44
431.624	73.44
431.846	89.44
432.068	79.44
432.29	90.44
432.512	80.44
432.734	82.44
432.956	98.44
433.178	91.44
433.4	80.44
433.622	88.44
433.844	90.44
434.066	89.44
434.287	84.44
434.509	83.44
434.731	95.44
434.953	82.44
435.175	95.44
435.397	91.44
435.618	103.44
435.84	99.44
436.062	108.44
436.284	106.44
436.505	112.44
436.727	102.44
436.949	95.44
437.17	81.44
437.392	89.44
437.614	77.44
437.835	100.44
438.057	101.44
438.278	100.44
438.5	100.44
438.721	112.44
438.943	104.44
439.165	101.44
439.386	87.44
439.608	89.44
439.829	101.44
440.05	121.44
440.272	128.44
440.493	98.44
440.715	98.44
440.936	87.44
441.158	84.44
441.379	88.44
441.6	94.44
441.822	97.44
442.043	88.44
442.264	115.44
442.486	85.44
442.707	84.44
442.928	97.44
443.149	113.44
443.371	127.44
443.592	106.44
443.813	93.44
444.034	100.44
444.255	97.44
444.476	94.44
444.698	82.44
444.919	84.44
445.14	128.44
445.361	113.44
445.582	114.44
445.803	128.44
446.024	116.44
446.245	134.44
446.466	88.44
446.687	88.44
446.908	84.44
447.129	85.44
447.35	82.44
447.571	103.44
447.792	111.44
448.013	98.44
448.234	100.44
448.455	100.44
448.675	107.44
448.896	100.44
449.117	114.44
449.338	99.44
449.559	125.44
449.779	110.44
450	95.44
450.221	69.44
450.442	86.44
450.662	95.44
450.883	101.44
451.104	106.44
451.324	90.44
451.545	87.44
451.766	89.44
451.986	93.44
452.207	88.44
452.428	93.44
452.648	92.44
452.869	115.44
453.089	119.44
453.31	110.44
453.53	82.44
453.751	89.44
453.971	119.44
454.192	114.44
454.412	92.44
454.633	113.44
454.853	91.44
455.073	96.44
455.294	92.44
455.514	95.44
455.734	93.44
455.955	91.44
456.175	93.44
456.395	96.44
456.616	88.44
456.836	86.44
457.056	92.44
457.276	89.44
457.497	90.44
457.717	79.44
457.937	79.44
458.157	85.44
458.377	94.44
458.598	120.44
458.818	141.44
459.038	159.44
459.258	108.44
459.478	76.44
459.698	87.44
459.918	87.44
460.138	90.44
460.358	83.44
460.578	81.44
460.798	79.44
461.018	89.44
461.238	93.44
461.458	88.44
461.678	80.44
461.898	89.44
462.118	91.44
462.338	80.44
462.558	95.44
462.777	90.44
462.997	100.44
463.217	82.44
463.437	75.44
463.657	83.44
463.876	100.44
464.096	83.44
464.316	95.44
464.536	93.44
464.755	94.44
464.975	108.44
465.195	139.44
465.414	141.44
465.634	97.44
465.854	82.44
466.073	86.44
466.293	84.44
466.512	82.44
466.732	85.44
466.951	88.44
467.171	100.44
467.391	92.44
467.61	95.44
467.829	88.44
468.049	86.44
468.268	91.44
468.488	85.44
468.707	93.44
468.927	86.44
469.146	74.44
469.365	81.44
469.585	94.44
469.804	88.44
470.023	86.44
470.243	89.44
470.462	95.44
470.681	98.44
470.901	80.44
471.12	90.44
471.339	90.44
471.558	77.44
471.777	88.44
471.997	95.44
472.216	84.44
472.435	99.44
472.654	86.44
472.873	83.44
473.092	88.44
473.311	83.44
473.53	105.44
473.749	80.44
473.968	83.44
474.187	101.44
474.406	96.44
474.625	95.44
474.844	78.44
475.063	81.44
475.282	89.44
475.501	97.44
475.72	68.44
475.939	89.44
476.158	81.44
476.377	96.44
476.596	105.44
476.814	85.44
477.033	108.44
477.252	84.44
477.471	89.44
477.69	94.44
477.908	85.44
478.127	84.44
478.346	95.44
478.564	83.44
478.783	91.44
479.002	75.44
479.22	89.44
479.439	102.44
479.658	91.44
479.876	88.44
480.095	95.44
480.313	75.44
480.532	94.44
480.751	83.44
480.969	80.44
481.188	116.44
481.406	107.44
481.624	98.44
481.843	77.44
482.061	99.44
482.28	89.44
482.498	79.44
482.717	75.44
482.935	85.44
483.153	91.44
483.372	87.44
483.59	106.44
483.808	93.44
484.027	89.44
484.245	88.44
484.463	78.44
484.681	92.44
484.9	85.44
485.118	81.44
485.336	84.44
485.554	107.44
485.772	107.44
485.99	102.44
486.209	106.44
486.427	101.44
486.645	100.44
486.863	103.44
487.081	91.44
487.299	87.44
487.517	101.44
487.735	106.44
487.953	82.44
488.171	79.44
488.389	91.44
488.607	81.44
488.825	90.44
489.043	83.44
489.261	83.44
489.479	83.44
489.696	93.44
489.914	97.44
490.132	81.44
490.35	92.44
490.568	90.44
490.786	93.44
491.003	81.44
491.221	95.44
491.439	95.44
491.657	92.44
491.874	95.44
492.092	87.44
492.31	100.44
492.527	88.44
492.745	102.44
492.963	90.44
493.18	75.44
493.398	105.44
493.615	101.44
493.833	99.44
494.05	82.44
494.268	76.44
494.485	87.44
494.703	89.44
494.92	76.44
495.138	98.44
495.355	91.44
495.573	92.44
495.79	106.44
496.008	84.44
496.225	114.44
496.442	87.44
496.66	87.44
496.877	76.44
497.094	81.44
497.312	86.44
497.529	88.44
497.746	84.44
497.963	90.44
498.181	106.44
498.398	89.44
498.615	103.44
498.832	91.44
499.049	89.44
499.267	75.44
499.484	95.44
499.701	75.44
499.918	90.44
500.135	96.44
500.352	83.44
500.569	77.44
500.786	86.44
501.003	95.44
501.22	89.44
501.437	81.44
501.654	94.44
501.871	106.44
502.088	91.44
502.305	101.44
502.522	93.44
502.739	98.44
502.956	93.44
503.172	91.44
503.389	95.44
503.606	110.44
503.823	94.44
504.04	96.44
504.256	98.44
504.473	85.44
504.69	84.44
504.907	96.44
505.123	75.44
505.34	91.44
505.557	88.44
505.773	89.44
505.99	84.44
506.207	107.44
506.423	95.44
506.64	84.44
506.856	96.44
507.073	95.44
507.289	84.44
507.506	95.44
507.722	91.44
507.939	97.44
508.155	95.44
508.372	103.44
508.588	100.44
508.805	109.44
509.021	98.44
509.238	90.44
509.454	100.44
509.67	95.44
509.887	117.44
510.103	123.44
510.319	204.44
510.536	731.44
510.752	2339.44
510.968	640.44
511.184	148.44
511.401	122.44
511.617	102.44
511.833	85.44
512.049	96.44
512.265	94.44
512.481	76.44
512.698	83.44
512.914	91.44
513.13	92.44
513.346	89.44
513.562	68.44
513.778	94.44
513.994	101.44
514.21	108.44
514.426	105.44
514.642	141.44
514.858	118.44
515.074	140.44
515.29	415.44
515.506	1387.44
515.721	488.44
515.937	155.44
516.153	105.44
