Data from Uncirc_1984_H10_HRD10591_00025.txt Node
Date: Wed Jan 03 12:21:42 EST 2024
User: Yrep
Spectrometer: HR+D1059
Trigger mode: 1
Integration Time (sec): 1.000000E-1
Scans to average: 1
Electric dark correction enabled: true
Nonlinearity correction enabled: false
Boxcar width: 0
XAxis mode: Wavelengths
Number of Pixels in Spectrum: 2048
>>>>>Begin Spectral Data<<<<<
223.165	-17.62
223.4	-17.62
223.635	-17.62
223.869	-15.62
224.104	-15.62
224.338	-11.62
224.573	-12.62
224.808	-12.62
225.042	-13.62
225.277	-9.62
225.511	13.38
225.746	2.38
225.98	-9.62
226.215	5.38
226.449	14.38
226.683	34.38
226.918	18.38
227.152	30.38
227.387	35.38
227.621	47.38
227.856	40.38
228.09	42.38
228.324	51.38
228.559	62.38
228.793	72.38
229.027	65.38
229.262	68.38
229.496	70.38
229.73	80.38
229.964	75.38
230.199	71.38
230.433	80.38
230.667	82.38
230.901	78.38
231.136	82.38
231.37	72.38
231.604	89.38
231.838	85.38
232.072	95.38
232.306	81.38
232.541	82.38
232.775	79.38
233.009	69.38
233.243	91.38
233.477	93.38
233.711	72.38
233.945	66.38
234.179	81.38
234.413	86.38
234.647	75.38
234.881	80.38
235.115	72.38
235.349	74.38
235.583	71.38
235.817	76.38
236.051	78.38
236.285	100.38
236.519	84.38
236.753	81.38
236.987	80.38
237.221	80.38
237.455	94.38
237.689	88.38
237.922	77.38
238.156	68.38
238.39	64.38
238.624	65.38
238.858	74.38
239.091	73.38
239.325	75.38
239.559	94.38
239.793	72.38
240.027	66.38
240.26	89.38
240.494	71.38
240.728	88.38
240.961	69.38
241.195	88.38
241.429	76.38
241.662	68.38
241.896	71.38
242.13	81.38
242.363	78.38
242.597	80.38
242.83	75.38
243.064	76.38
243.298	89.38
243.531	84.38
243.765	85.38
243.998	72.38
244.232	90.38
244.465	83.38
244.699	84.38
244.932	74.38
245.166	74.38
245.399	74.38
245.633	82.38
245.866	83.38
246.099	72.38
246.333	94.38
246.566	72.38
246.8	86.38
247.033	86.38
247.266	80.38
247.5	81.38
247.733	78.38
247.966	84.38
248.2	77.38
248.433	66.38
248.666	72.38
248.899	74.38
249.133	70.38
249.366	97.38
249.599	106.38
249.832	73.38
250.066	89.38
250.299	78.38
250.532	77.38
250.765	77.38
250.998	68.38
251.231	87.38
251.465	80.38
251.698	88.38
251.931	91.38
252.164	84.38
252.397	75.38
252.63	81.38
252.863	78.38
253.096	82.38
253.329	65.38
253.562	72.38
253.795	76.38
254.028	70.38
254.261	89.38
254.494	73.38
254.727	83.38
254.96	84.38
255.193	76.38
255.426	78.38
255.659	84.38
255.892	83.38
256.124	90.38
256.357	76.38
256.59	82.38
256.823	67.38
257.056	80.38
257.289	84.38
257.521	84.38
257.754	96.38
257.987	81.38
258.22	88.38
258.452	61.38
258.685	77.38
258.918	84.38
259.151	89.38
259.383	85.38
259.616	87.38
259.849	80.38
260.081	78.38
260.314	84.38
260.547	87.38
260.779	82.38
261.012	94.38
261.244	90.38
261.477	80.38
261.71	103.38
261.942	99.38
262.175	103.38
262.407	94.38
262.64	81.38
262.872	90.38
263.105	78.38
263.337	80.38
263.57	78.38
263.802	94.38
264.035	70.38
264.267	70.38
264.499	74.38
264.732	70.38
264.964	77.38
265.197	85.38
265.429	75.38
265.661	96.38
265.894	83.38
266.126	80.38
266.358	85.38
266.591	84.38
266.823	90.38
267.055	73.38
267.287	77.38
267.52	65.38
267.752	89.38
267.984	82.38
268.216	86.38
268.448	97.38
268.681	88.38
268.913	70.38
269.145	87.38
269.377	73.38
269.609	80.38
269.841	96.38
270.073	106.38
270.306	71.38
270.538	92.38
270.77	85.38
271.002	94.38
271.234	78.38
271.466	84.38
271.698	87.38
271.93	105.38
272.162	79.38
272.394	74.38
272.626	88.38
272.858	93.38
273.09	82.38
273.322	101.38
273.553	87.38
273.785	90.38
274.017	100.38
274.249	83.38
274.481	77.38
274.713	87.38
274.945	86.38
275.176	92.38
275.408	86.38
275.64	77.38
275.872	85.38
276.104	95.38
276.335	90.38
276.567	92.38
276.799	101.38
277.031	98.38
277.262	76.38
277.494	80.38
277.726	95.38
277.957	94.38
278.189	84.38
278.421	88.38
278.652	75.38
278.884	76.38
279.115	102.38
279.347	77.38
279.579	90.38
279.81	80.38
280.042	86.38
280.273	88.38
280.505	80.38
280.736	80.38
280.968	70.38
281.199	72.38
281.431	95.38
281.662	81.38
281.894	88.38
282.125	99.38
282.356	111.38
282.588	153.38
282.819	97.38
283.051	83.38
283.282	84.38
283.513	97.38
283.745	109.38
283.976	97.38
284.207	84.38
284.439	81.38
284.67	79.38
284.901	82.38
285.132	82.38
285.364	99.38
285.595	75.38
285.826	77.38
286.057	93.38
286.288	89.38
286.52	85.38
286.751	72.38
286.982	76.38
287.213	73.38
287.444	89.38
287.675	74.38
287.906	93.38
288.138	80.38
288.369	99.38
288.6	92.38
288.831	80.38
289.062	94.38
289.293	93.38
289.524	107.38
289.755	72.38
289.986	90.38
290.217	86.38
290.448	96.38
290.679	96.38
290.91	87.38
291.141	99.38
291.371	87.38
291.602	81.38
291.833	88.38
292.064	90.38
292.295	85.38
292.526	94.38
292.757	96.38
292.987	75.38
293.218	92.38
293.449	88.38
293.68	88.38
293.91	92.38
294.141	79.38
294.372	76.38
294.603	86.38
294.833	76.38
295.064	88.38
295.295	80.38
295.525	94.38
295.756	103.38
295.987	109.38
296.217	138.38
296.448	129.38
296.679	96.38
296.909	88.38
297.14	76.38
297.37	96.38
297.601	87.38
297.831	90.38
298.062	94.38
298.292	81.38
298.523	90.38
298.753	101.38
298.984	90.38
299.214	77.38
299.445	88.38
299.675	105.38
299.905	96.38
300.136	91.38
300.366	100.38
300.597	92.38
300.827	86.38
301.057	103.38
301.288	109.38
301.518	83.38
301.748	91.38
301.979	90.38
302.209	88.38
302.439	98.38
302.669	96.38
302.9	87.38
303.13	99.38
303.36	100.38
303.59	112.38
303.82	104.38
304.051	84.38
304.281	92.38
304.511	115.38
304.741	105.38
304.971	90.38
305.201	101.38
305.431	80.38
305.661	98.38
305.891	101.38
306.121	86.38
306.352	101.38
306.582	114.38
306.812	81.38
307.042	107.38
307.272	97.38
307.502	99.38
307.731	103.38
307.961	108.38
308.191	89.38
308.421	106.38
308.651	78.38
308.881	93.38
309.111	95.38
309.341	94.38
309.571	100.38
309.8	105.38
310.03	96.38
310.26	96.38
310.49	106.38
310.72	106.38
310.949	98.38
311.179	96.38
311.409	97.38
311.639	73.38
311.868	93.38
312.098	88.38
312.328	85.38
312.557	111.38
312.787	102.38
313.017	103.38
313.246	92.38
313.476	98.38
313.706	100.38
313.935	91.38
314.165	84.38
314.394	115.38
314.624	90.38
314.853	96.38
315.083	90.38
315.312	103.38
315.542	96.38
315.771	93.38
316.001	82.38
316.23	89.38
316.46	93.38
316.689	101.38
316.919	98.38
317.148	98.38
317.377	96.38
317.607	98.38
317.836	105.38
318.065	93.38
318.295	100.38
318.524	98.38
318.753	84.38
318.983	96.38
319.212	96.38
319.441	107.38
319.67	124.38
319.9	94.38
320.129	97.38
320.358	97.38
320.587	94.38
320.816	96.38
321.046	110.38
321.275	86.38
321.504	108.38
321.733	99.38
321.962	98.38
322.191	100.38
322.42	107.38
322.649	98.38
322.878	116.38
323.108	116.38
323.337	118.38
323.566	132.38
323.795	147.38
324.024	204.38
324.253	361.38
324.482	791.38
324.71	1632.38
324.939	2112.38
325.168	784.38
325.397	228.38
325.626	153.38
325.855	131.38
326.084	123.38
326.313	133.38
326.542	141.38
326.77	229.38
326.999	443.38
327.228	938.38
327.457	1678.38
327.686	1321.38
327.914	341.38
328.143	176.38
328.372	141.38
328.6	113.38
328.829	115.38
329.058	120.38
329.287	123.38
329.515	100.38
329.744	94.38
329.972	86.38
330.201	102.38
330.43	104.38
330.658	122.38
330.887	134.38
331.115	110.38
331.344	103.38
331.572	102.38
331.801	104.38
332.03	96.38
332.258	101.38
332.486	89.38
332.715	90.38
332.943	97.38
333.172	92.38
333.4	96.38
333.629	93.38
333.857	107.38
334.085	102.38
334.314	88.38
334.542	107.38
334.771	92.38
334.999	111.38
335.227	100.38
335.455	101.38
335.684	98.38
335.912	93.38
336.14	88.38
336.369	79.38
336.597	105.38
336.825	103.38
337.053	93.38
337.281	98.38
337.51	86.38
337.738	90.38
337.966	109.38
338.194	92.38
338.422	108.38
338.65	94.38
338.878	87.38
339.106	88.38
339.334	96.38
339.562	87.38
339.79	96.38
340.018	94.38
340.246	91.38
340.474	104.38
340.702	94.38
340.93	101.38
341.158	101.38
341.386	92.38
341.614	96.38
341.842	88.38
342.07	86.38
342.298	89.38
342.526	102.38
342.754	87.38
342.981	88.38
343.209	76.38
343.437	96.38
343.665	93.38
343.893	92.38
344.12	98.38
344.348	95.38
344.576	90.38
344.804	88.38
345.031	90.38
345.259	91.38
345.487	90.38
345.714	86.38
345.942	100.38
346.17	92.38
346.397	99.38
346.625	90.38
346.853	99.38
347.08	101.38
347.308	99.38
347.535	100.38
347.763	92.38
347.99	85.38
348.218	108.38
348.445	110.38
348.673	113.38
348.9	96.38
349.128	97.38
349.355	101.38
349.583	95.38
349.81	83.38
350.037	103.38
350.265	93.38
350.492	93.38
350.72	87.38
350.947	100.38
351.174	101.38
351.402	94.38
351.629	97.38
351.856	92.38
352.083	99.38
352.311	121.38
352.538	114.38
352.765	106.38
352.992	124.38
353.22	122.38
353.447	98.38
353.674	93.38
353.901	88.38
354.128	103.38
354.355	99.38
354.583	98.38
354.81	110.38
355.037	98.38
355.264	86.38
355.491	104.38
355.718	90.38
355.945	93.38
356.172	98.38
356.399	97.38
356.626	97.38
356.853	104.38
357.08	107.38
357.307	94.38
357.534	102.38
357.761	98.38
357.988	113.38
358.215	99.38
358.441	87.38
358.668	105.38
358.895	89.38
359.122	86.38
359.349	85.38
359.576	106.38
359.802	99.38
360.029	110.38
360.256	96.38
360.483	96.38
360.709	97.38
360.936	110.38
361.163	94.38
361.39	90.38
361.616	84.38
361.843	83.38
362.07	93.38
362.296	100.38
362.523	102.38
362.749	94.38
362.976	93.38
363.203	88.38
363.429	70.38
363.656	102.38
363.882	95.38
364.109	85.38
364.335	86.38
364.562	88.38
364.788	89.38
365.015	86.38
365.241	109.38
365.468	103.38
365.694	112.38
365.92	96.38
366.147	100.38
366.373	100.38
366.599	88.38
366.826	87.38
367.052	100.38
367.278	102.38
367.505	108.38
367.731	115.38
367.957	88.38
368.184	86.38
368.41	102.38
368.636	111.38
368.862	122.38
369.089	102.38
369.315	99.38
369.541	98.38
369.767	104.38
369.993	91.38
370.219	96.38
370.445	84.38
370.672	91.38
370.898	93.38
371.124	90.38
371.35	86.38
371.576	78.38
371.802	73.38
372.028	98.38
372.254	89.38
372.48	97.38
372.706	100.38
372.932	97.38
373.158	100.38
373.384	95.38
373.61	84.38
373.835	89.38
374.061	91.38
374.287	87.38
374.513	97.38
374.739	90.38
374.965	99.38
375.191	103.38
375.416	92.38
375.642	76.38
375.868	68.38
376.094	97.38
376.319	104.38
376.545	88.38
376.771	97.38
376.997	85.38
377.222	92.38
377.448	85.38
377.674	86.38
377.899	88.38
378.125	81.38
378.35	81.38
378.576	83.38
378.802	100.38
379.027	95.38
379.253	89.38
379.478	85.38
379.704	88.38
379.929	85.38
380.155	75.38
380.38	96.38
380.606	84.38
380.831	100.38
381.057	85.38
381.282	99.38
381.507	98.38
381.733	100.38
381.958	97.38
382.184	89.38
382.409	104.38
382.634	105.38
382.86	94.38
383.085	101.38
383.31	105.38
383.535	93.38
383.761	89.38
383.986	96.38
384.211	108.38
384.436	99.38
384.662	91.38
384.887	108.38
385.112	121.38
385.337	114.38
385.562	104.38
385.787	108.38
386.013	98.38
386.238	107.38
386.463	115.38
386.688	104.38
386.913	95.38
387.138	121.38
387.363	110.38
387.588	102.38
387.813	112.38
388.038	104.38
388.263	114.38
388.488	112.38
388.713	99.38
388.938	86.38
389.163	90.38
389.387	80.38
389.612	99.38
389.837	99.38
390.062	97.38
390.287	84.38
390.512	90.38
390.736	91.38
390.961	86.38
391.186	102.38
391.411	101.38
391.636	92.38
391.86	86.38
392.085	93.38
392.31	96.38
392.534	96.38
392.759	93.38
392.984	87.38
393.208	100.38
393.433	104.38
393.658	82.38
393.882	80.38
394.107	90.38
394.331	90.38
394.556	85.38
394.78	90.38
395.005	97.38
395.229	90.38
395.454	100.38
395.678	90.38
395.903	91.38
396.127	93.38
396.352	97.38
396.576	88.38
396.801	98.38
397.025	91.38
397.249	89.38
397.474	72.38
397.698	71.38
397.922	93.38
398.147	87.38
398.371	87.38
398.595	88.38
398.82	93.38
399.044	98.38
399.268	89.38
399.492	104.38
399.717	76.38
399.941	81.38
400.165	93.38
400.389	101.38
400.613	86.38
400.837	96.38
401.062	85.38
401.286	89.38
401.51	74.38
401.734	87.38
401.958	95.38
402.182	118.38
402.406	164.38
402.63	130.38
402.854	93.38
403.078	82.38
403.302	87.38
403.526	88.38
403.75	86.38
403.974	76.38
404.198	91.38
404.422	98.38
404.645	84.38
404.869	95.38
405.093	96.38
405.317	96.38
405.541	100.38
405.765	108.38
405.988	118.38
406.212	155.38
406.436	194.38
406.66	139.38
406.883	107.38
407.107	86.38
407.331	90.38
407.555	84.38
407.778	97.38
408.002	82.38
408.226	87.38
408.449	98.38
408.673	98.38
408.896	106.38
409.12	100.38
409.344	82.38
409.567	85.38
409.791	82.38
410.014	107.38
410.238	95.38
410.461	109.38
410.685	101.38
410.908	101.38
411.132	105.38
411.355	86.38
411.578	91.38
411.802	91.38
412.025	86.38
412.249	88.38
412.472	93.38
412.695	84.38
412.919	86.38
413.142	92.38
413.365	107.38
413.589	84.38
413.812	96.38
414.035	88.38
414.258	83.38
414.482	84.38
414.705	86.38
414.928	100.38
415.151	98.38
415.374	94.38
415.597	85.38
415.821	105.38
416.044	75.38
416.267	100.38
416.49	94.38
416.713	76.38
416.936	92.38
417.159	95.38
417.382	83.38
417.605	88.38
417.828	87.38
418.051	85.38
418.274	90.38
418.497	102.38
418.72	92.38
418.943	98.38
419.166	80.38
419.389	67.38
419.611	81.38
419.834	82.38
420.057	100.38
420.28	92.38
420.503	101.38
420.726	96.38
420.948	87.38
421.171	88.38
421.394	82.38
421.617	76.38
421.839	92.38
422.062	93.38
422.285	98.38
422.507	109.38
422.73	113.38
422.953	97.38
423.175	94.38
423.398	81.38
423.621	90.38
423.843	90.38
424.066	83.38
424.288	94.38
424.511	101.38
424.733	93.38
424.956	119.38
425.178	110.38
425.401	94.38
425.623	105.38
425.846	80.38
426.068	89.38
426.291	74.38
426.513	100.38
426.735	106.38
426.958	90.38
427.18	100.38
427.402	133.38
427.625	160.38
427.847	114.38
428.069	97.38
428.292	94.38
428.514	87.38
428.736	93.38
428.958	80.38
429.181	82.38
429.403	85.38
429.625	94.38
429.847	93.38
430.069	108.38
430.292	89.38
430.514	88.38
430.736	85.38
430.958	90.38
431.18	92.38
431.402	98.38
431.624	87.38
431.846	74.38
432.068	92.38
432.29	89.38
432.512	105.38
432.734	83.38
432.956	82.38
433.178	92.38
433.4	90.38
433.622	100.38
433.844	86.38
434.066	82.38
434.287	88.38
434.509	84.38
434.731	86.38
434.953	87.38
435.175	96.38
435.397	93.38
435.618	101.38
435.84	93.38
436.062	125.38
436.284	114.38
436.505	102.38
436.727	92.38
436.949	99.38
437.17	95.38
437.392	88.38
437.614	96.38
437.835	106.38
438.057	108.38
438.278	113.38
438.5	99.38
438.721	116.38
438.943	102.38
439.165	96.38
439.386	96.38
439.608	91.38
439.829	118.38
440.05	114.38
440.272	140.38
440.493	105.38
440.715	91.38
440.936	82.38
441.158	96.38
441.379	90.38
441.6	92.38
441.822	101.38
442.043	91.38
442.264	101.38
442.486	102.38
442.707	91.38
442.928	111.38
443.149	116.38
443.371	125.38
443.592	107.38
443.813	117.38
444.034	108.38
444.255	88.38
444.476	90.38
444.698	86.38
444.919	82.38
445.14	129.38
445.361	114.38
445.582	125.38
445.803	117.38
446.024	130.38
446.245	129.38
446.466	115.38
446.687	92.38
446.908	99.38
447.129	83.38
447.35	100.38
447.571	98.38
447.792	101.38
448.013	104.38
448.234	105.38
448.455	92.38
448.675	118.38
448.896	110.38
449.117	93.38
449.338	119.38
449.559	129.38
449.779	126.38
450	91.38
450.221	80.38
450.442	96.38
450.662	102.38
450.883	103.38
451.104	102.38
451.324	98.38
451.545	90.38
451.766	89.38
451.986	74.38
452.207	87.38
452.428	85.38
452.648	96.38
452.869	109.38
453.089	119.38
453.31	104.38
453.53	96.38
453.751	92.38
453.971	92.38
454.192	99.38
454.412	86.38
454.633	83.38
454.853	85.38
455.073	78.38
455.294	92.38
455.514	102.38
455.734	93.38
455.955	90.38
456.175	86.38
456.395	80.38
456.616	88.38
456.836	91.38
457.056	86.38
457.276	100.38
457.497	92.38
457.717	96.38
457.937	96.38
458.157	75.38
458.377	86.38
458.598	110.38
458.818	131.38
459.038	150.38
459.258	121.38
459.478	92.38
459.698	84.38
459.918	86.38
460.138	96.38
460.358	82.38
460.578	98.38
460.798	75.38
461.018	90.38
461.238	99.38
461.458	101.38
461.678	88.38
461.898	93.38
462.118	98.38
462.338	88.38
462.558	80.38
462.777	93.38
462.997	83.38
463.217	87.38
463.437	89.38
463.657	85.38
463.876	89.38
464.096	91.38
464.316	98.38
464.536	87.38
464.755	90.38
464.975	106.38
465.195	156.38
465.414	149.38
465.634	91.38
465.854	91.38
466.073	99.38
466.293	101.38
466.512	88.38
466.732	80.38
466.951	86.38
467.171	110.38
467.391	104.38
467.61	102.38
467.829	94.38
468.049	78.38
468.268	87.38
468.488	95.38
468.707	78.38
468.927	93.38
469.146	95.38
469.365	97.38
469.585	84.38
469.804	107.38
470.023	95.38
470.243	82.38
470.462	104.38
470.681	102.38
470.901	91.38
471.12	89.38
471.339	107.38
471.558	80.38
471.777	90.38
471.997	90.38
472.216	75.38
472.435	92.38
472.654	83.38
472.873	91.38
473.092	96.38
473.311	91.38
473.53	83.38
473.749	66.38
473.968	82.38
474.187	98.38
474.406	86.38
474.625	88.38
474.844	85.38
475.063	97.38
475.282	88.38
475.501	80.38
475.72	97.38
475.939	94.38
476.158	89.38
476.377	79.38
476.596	95.38
476.814	88.38
477.033	99.38
477.252	86.38
477.471	92.38
477.69	87.38
477.908	92.38
478.127	96.38
478.346	94.38
478.564	87.38
478.783	102.38
479.002	88.38
479.22	88.38
479.439	102.38
479.658	104.38
479.876	100.38
480.095	98.38
480.313	94.38
480.532	83.38
480.751	82.38
480.969	78.38
481.188	104.38
481.406	96.38
481.624	88.38
481.843	98.38
482.061	81.38
482.28	85.38
482.498	99.38
482.717	84.38
482.935	109.38
483.153	76.38
483.372	92.38
483.59	78.38
483.808	82.38
484.027	96.38
484.245	107.38
484.463	105.38
484.681	102.38
484.9	108.38
485.118	99.38
485.336	106.38
485.554	100.38
485.772	106.38
485.99	107.38
486.209	117.38
486.427	119.38
486.645	111.38
486.863	111.38
487.081	99.38
487.299	89.38
487.517	70.38
487.735	90.38
487.953	86.38
488.171	96.38
488.389	106.38
488.607	100.38
488.825	75.38
489.043	104.38
489.261	103.38
489.479	102.38
489.696	91.38
489.914	96.38
490.132	79.38
490.35	95.38
490.568	86.38
490.786	91.38
491.003	92.38
491.221	94.38
491.439	91.38
491.657	91.38
491.874	88.38
492.092	89.38
492.31	96.38
492.527	92.38
492.745	85.38
492.963	108.38
493.18	104.38
493.398	80.38
493.615	105.38
493.833	105.38
494.05	83.38
494.268	80.38
494.485	90.38
494.703	72.38
494.92	85.38
495.138	80.38
495.355	94.38
495.573	78.38
495.79	94.38
496.008	105.38
496.225	99.38
496.442	98.38
496.66	86.38
496.877	105.38
497.094	101.38
497.312	91.38
497.529	89.38
497.746	96.38
497.963	84.38
498.181	107.38
498.398	105.38
498.615	113.38
498.832	102.38
499.049	101.38
499.267	90.38
499.484	89.38
499.701	91.38
499.918	101.38
500.135	99.38
500.352	89.38
500.569	90.38
500.786	90.38
501.003	80.38
501.22	91.38
501.437	88.38
501.654	99.38
501.871	105.38
502.088	94.38
502.305	100.38
502.522	97.38
502.739	98.38
502.956	81.38
503.172	92.38
503.389	90.38
503.606	116.38
503.823	90.38
504.04	98.38
504.256	91.38
504.473	102.38
504.69	84.38
504.907	106.38
505.123	91.38
505.34	82.38
505.557	103.38
505.773	104.38
505.99	91.38
506.207	98.38
506.423	84.38
506.64	84.38
506.856	99.38
507.073	102.38
507.289	98.38
507.506	109.38
507.722	115.38
507.939	109.38
508.155	104.38
508.372	90.38
508.588	96.38
508.805	103.38
509.021	105.38
509.238	95.38
509.454	97.38
509.67	91.38
509.887	97.38
510.103	142.38
510.319	199.38
510.536	718.38
510.752	2232.38
510.968	626.38
511.184	148.38
511.401	106.38
511.617	98.38
511.833	107.38
512.049	98.38
512.265	93.38
512.481	93.38
512.698	110.38
512.914	102.38
513.13	90.38
513.346	88.38
513.562	99.38
513.778	106.38
513.994	82.38
514.21	106.38
514.426	115.38
514.642	125.38
514.858	129.38
515.074	144.38
