Data from Uncirc_1984_H10_HRD10591_00051.txt Node
Date: Wed Jan 03 12:21:47 EST 2024
User: Yrep
Spectrometer: HR+D1059
Trigger mode: 1
Integration Time (sec): 1.000000E-1
Scans to average: 1
Electric dark correction enabled: true
Nonlinearity correction enabled: false
Boxcar width: 0
XAxis mode: Wavelengths
Number of Pixels in Spectrum: 2048
>>>>>Begin Spectral Data<<<<<
223.165	-14.19
223.4	-14.19
223.635	-14.19
223.869	-29.19
224.104	-20.19
224.338	-11.19
224.573	-1.19
224.808	-3.19
225.042	-13.19
225.277	-22.19
225.511	-8.19
225.746	-8.19
225.98	6.81
226.215	15.81
226.449	26.81
226.683	9.81
226.918	41.81
227.152	29.81
227.387	35.81
227.621	26.81
227.856	29.81
228.09	43.81
228.324	43.81
228.559	58.81
228.793	58.81
229.027	79.81
229.262	63.81
229.496	66.81
229.73	84.81
229.964	69.81
230.199	72.81
230.433	81.81
230.667	74.81
230.901	67.81
231.136	58.81
231.37	80.81
231.604	85.81
231.838	82.81
232.072	64.81
232.306	81.81
232.541	87.81
232.775	78.81
233.009	78.81
233.243	83.81
233.477	83.81
233.711	78.81
233.945	83.81
234.179	82.81
234.413	82.81
234.647	81.81
234.881	87.81
235.115	81.81
235.349	76.81
235.583	81.81
235.817	64.81
236.051	77.81
236.285	75.81
236.519	82.81
236.753	70.81
236.987	79.81
237.221	74.81
237.455	83.81
237.689	74.81
237.922	71.81
238.156	73.81
238.39	75.81
238.624	69.81
238.858	72.81
239.091	61.81
239.325	74.81
239.559	78.81
239.793	75.81
240.027	85.81
240.26	71.81
240.494	78.81
240.728	71.81
240.961	73.81
241.195	73.81
241.429	78.81
241.662	75.81
241.896	79.81
242.13	68.81
242.363	77.81
242.597	77.81
242.83	89.81
243.064	78.81
243.298	84.81
243.531	69.81
243.765	72.81
243.998	85.81
244.232	86.81
244.465	87.81
244.699	76.81
244.932	85.81
245.166	82.81
245.399	71.81
245.633	71.81
245.866	74.81
246.099	84.81
246.333	78.81
246.566	86.81
246.8	78.81
247.033	64.81
247.266	85.81
247.5	84.81
247.733	80.81
247.966	66.81
248.2	69.81
248.433	70.81
248.666	73.81
248.899	86.81
249.133	65.81
249.366	83.81
249.599	79.81
249.832	82.81
250.066	72.81
250.299	59.81
250.532	72.81
250.765	81.81
250.998	97.81
251.231	85.81
251.465	86.81
251.698	77.81
251.931	72.81
252.164	70.81
252.397	57.81
252.63	83.81
252.863	87.81
253.096	91.81
253.329	78.81
253.562	74.81
253.795	91.81
254.028	87.81
254.261	69.81
254.494	88.81
254.727	77.81
254.96	81.81
255.193	78.81
255.426	73.81
255.659	67.81
255.892	85.81
256.124	77.81
256.357	80.81
256.59	80.81
256.823	83.81
257.056	81.81
257.289	78.81
257.521	83.81
257.754	90.81
257.987	79.81
258.22	74.81
258.452	76.81
258.685	71.81
258.918	75.81
259.151	90.81
259.383	94.81
259.616	98.81
259.849	88.81
260.081	98.81
260.314	87.81
260.547	102.81
260.779	92.81
261.012	84.81
261.244	91.81
261.477	78.81
261.71	81.81
261.942	89.81
262.175	93.81
262.407	70.81
262.64	85.81
262.872	82.81
263.105	87.81
263.337	75.81
263.57	85.81
263.802	89.81
264.035	90.81
264.267	85.81
264.499	81.81
264.732	78.81
264.964	86.81
265.197	86.81
265.429	81.81
265.661	61.81
265.894	90.81
266.126	77.81
266.358	88.81
266.591	70.81
266.823	88.81
267.055	74.81
267.287	82.81
267.52	87.81
267.752	92.81
267.984	87.81
268.216	95.81
268.448	75.81
268.681	66.81
268.913	77.81
269.145	86.81
269.377	76.81
269.609	78.81
269.841	93.81
270.073	86.81
270.306	81.81
270.538	78.81
270.77	99.81
271.002	88.81
271.234	87.81
271.466	81.81
271.698	77.81
271.93	70.81
272.162	78.81
272.394	81.81
272.626	85.81
272.858	78.81
273.09	85.81
273.322	88.81
273.553	79.81
273.785	77.81
274.017	85.81
274.249	81.81
274.481	77.81
274.713	83.81
274.945	83.81
275.176	75.81
275.408	79.81
275.64	73.81
275.872	96.81
276.104	88.81
276.335	83.81
276.567	94.81
276.799	91.81
277.031	111.81
277.262	82.81
277.494	90.81
277.726	93.81
277.957	87.81
278.189	89.81
278.421	81.81
278.652	99.81
278.884	83.81
279.115	84.81
279.347	77.81
279.579	81.81
279.81	63.81
280.042	77.81
280.273	58.81
280.505	83.81
280.736	93.81
280.968	83.81
281.199	78.81
281.431	77.81
281.662	89.81
281.894	93.81
282.125	103.81
282.356	108.81
282.588	118.81
282.819	102.81
283.051	90.81
283.282	81.81
283.513	83.81
283.745	79.81
283.976	90.81
284.207	83.81
284.439	87.81
284.67	96.81
284.901	84.81
285.132	90.81
285.364	82.81
285.595	81.81
285.826	86.81
286.057	79.81
286.288	92.81
286.52	78.81
286.751	80.81
286.982	86.81
287.213	95.81
287.444	80.81
287.675	80.81
287.906	89.81
288.138	92.81
288.369	98.81
288.6	80.81
288.831	89.81
289.062	79.81
289.293	83.81
289.524	83.81
289.755	89.81
289.986	88.81
290.217	80.81
290.448	77.81
290.679	94.81
290.91	93.81
291.141	91.81
291.371	86.81
291.602	80.81
291.833	85.81
292.064	88.81
292.295	90.81
292.526	102.81
292.757	75.81
292.987	85.81
293.218	85.81
293.449	73.81
293.68	85.81
293.91	80.81
294.141	106.81
294.372	93.81
294.603	70.81
294.833	94.81
295.064	90.81
295.295	89.81
295.525	85.81
295.756	81.81
295.987	95.81
296.217	116.81
296.448	125.81
296.679	92.81
296.909	76.81
297.14	68.81
297.37	74.81
297.601	77.81
297.831	77.81
298.062	89.81
298.292	84.81
298.523	84.81
298.753	81.81
298.984	89.81
299.214	90.81
299.445	93.81
299.675	91.81
299.905	87.81
300.136	97.81
300.366	99.81
300.597	70.81
300.827	85.81
301.057	87.81
301.288	95.81
301.518	85.81
301.748	77.81
301.979	93.81
302.209	79.81
302.439	85.81
302.669	73.81
302.9	87.81
303.13	82.81
303.36	87.81
303.59	115.81
303.82	101.81
304.051	88.81
304.281	86.81
304.511	91.81
304.741	91.81
304.971	94.81
305.201	93.81
305.431	89.81
305.661	89.81
305.891	89.81
306.121	94.81
306.352	89.81
306.582	98.81
306.812	78.81
307.042	82.81
307.272	86.81
307.502	101.81
307.731	79.81
307.961	81.81
308.191	89.81
308.421	95.81
308.651	75.81
308.881	88.81
309.111	99.81
309.341	92.81
309.571	103.81
309.8	86.81
310.03	101.81
310.26	89.81
310.49	90.81
310.72	88.81
310.949	98.81
311.179	101.81
311.409	89.81
311.639	99.81
311.868	95.81
312.098	81.81
312.328	93.81
312.557	91.81
312.787	90.81
313.017	94.81
313.246	94.81
313.476	116.81
313.706	89.81
313.935	94.81
314.165	92.81
314.394	102.81
314.624	89.81
314.853	93.81
315.083	91.81
315.312	78.81
315.542	95.81
315.771	94.81
316.001	82.81
316.23	91.81
316.46	83.81
316.689	82.81
316.919	86.81
317.148	88.81
317.377	105.81
317.607	83.81
317.836	95.81
318.065	82.81
318.295	88.81
318.524	84.81
318.753	72.81
318.983	100.81
319.212	99.81
319.441	96.81
319.67	99.81
319.9	72.81
320.129	88.81
320.358	82.81
320.587	105.81
320.816	110.81
321.046	102.81
321.275	86.81
321.504	81.81
321.733	108.81
321.962	97.81
322.191	89.81
322.42	83.81
322.649	96.81
322.878	93.81
323.108	106.81
323.337	114.81
323.566	125.81
323.795	126.81
324.024	175.81
324.253	356.81
324.482	729.81
324.71	1492.81
324.939	1991.81
325.168	739.81
325.397	225.81
325.626	133.81
325.855	119.81
326.084	127.81
326.313	115.81
326.542	145.81
326.77	218.81
326.999	419.81
327.228	826.81
327.457	1558.81
327.686	1211.81
327.914	333.81
328.143	168.81
328.372	128.81
328.6	108.81
328.829	121.81
329.058	128.81
329.287	122.81
329.515	115.81
329.744	110.81
329.972	102.81
330.201	91.81
330.43	111.81
330.658	112.81
330.887	117.81
331.115	106.81
331.344	89.81
331.572	98.81
331.801	77.81
332.03	102.81
332.258	93.81
332.486	90.81
332.715	83.81
332.943	98.81
333.172	85.81
333.4	97.81
333.629	97.81
333.857	103.81
334.085	100.81
334.314	89.81
334.542	94.81
334.771	90.81
334.999	97.81
335.227	99.81
335.455	98.81
335.684	96.81
335.912	97.81
336.14	95.81
336.369	108.81
336.597	95.81
336.825	80.81
337.053	103.81
337.281	81.81
337.51	79.81
337.738	90.81
337.966	90.81
338.194	95.81
338.422	101.81
338.65	93.81
338.878	85.81
339.106	74.81
339.334	89.81
339.562	99.81
339.79	89.81
340.018	87.81
340.246	86.81
340.474	90.81
340.702	100.81
340.93	100.81
341.158	101.81
341.386	96.81
341.614	83.81
341.842	99.81
342.07	99.81
342.298	83.81
342.526	84.81
342.754	101.81
342.981	82.81
343.209	87.81
343.437	101.81
343.665	78.81
343.893	94.81
344.12	93.81
344.348	91.81
344.576	89.81
344.804	98.81
345.031	92.81
345.259	95.81
345.487	99.81
345.714	86.81
345.942	98.81
346.17	98.81
346.397	90.81
346.625	84.81
346.853	86.81
347.08	85.81
347.308	98.81
347.535	84.81
347.763	92.81
347.99	98.81
348.218	106.81
348.445	103.81
348.673	89.81
348.9	101.81
349.128	97.81
349.355	83.81
349.583	95.81
349.81	90.81
350.037	89.81
350.265	99.81
350.492	113.81
350.72	88.81
350.947	97.81
351.174	99.81
351.402	97.81
351.629	99.81
351.856	90.81
352.083	95.81
352.311	99.81
352.538	106.81
352.765	107.81
352.992	90.81
353.22	105.81
353.447	106.81
353.674	87.81
353.901	110.81
354.128	98.81
354.355	81.81
354.583	93.81
354.81	101.81
355.037	88.81
355.264	82.81
355.491	85.81
355.718	81.81
355.945	105.81
356.172	98.81
356.399	98.81
356.626	90.81
356.853	95.81
357.08	99.81
357.307	94.81
357.534	105.81
357.761	101.81
357.988	103.81
358.215	98.81
358.441	109.81
358.668	89.81
358.895	88.81
359.122	92.81
359.349	78.81
359.576	96.81
359.802	87.81
360.029	106.81
360.256	102.81
360.483	90.81
360.709	87.81
360.936	88.81
361.163	90.81
361.39	98.81
361.616	92.81
361.843	80.81
362.07	89.81
362.296	71.81
362.523	81.81
362.749	87.81
362.976	95.81
363.203	95.81
363.429	82.81
363.656	90.81
363.882	94.81
364.109	101.81
364.335	96.81
364.562	90.81
364.788	87.81
365.015	98.81
365.241	87.81
365.468	91.81
365.694	78.81
365.92	101.81
366.147	79.81
366.373	94.81
366.599	81.81
366.826	90.81
367.052	89.81
367.278	99.81
367.505	102.81
367.731	81.81
367.957	83.81
368.184	103.81
368.41	91.81
368.636	96.81
368.862	118.81
369.089	100.81
369.315	95.81
369.541	101.81
369.767	87.81
369.993	97.81
370.219	85.81
370.445	84.81
370.672	90.81
370.898	83.81
371.124	96.81
371.35	95.81
371.576	87.81
371.802	89.81
372.028	78.81
372.254	92.81
372.48	95.81
372.706	82.81
372.932	113.81
373.158	84.81
373.384	79.81
373.61	87.81
373.835	90.81
374.061	95.81
374.287	98.81
374.513	82.81
374.739	86.81
374.965	75.81
375.191	84.81
375.416	77.81
375.642	92.81
375.868	94.81
376.094	98.81
376.319	87.81
376.545	87.81
376.771	96.81
376.997	88.81
377.222	83.81
377.448	93.81
377.674	88.81
377.899	82.81
378.125	71.81
378.35	75.81
378.576	83.81
378.802	92.81
379.027	86.81
379.253	90.81
379.478	81.81
379.704	71.81
379.929	88.81
380.155	87.81
380.38	104.81
380.606	81.81
380.831	94.81
381.057	84.81
381.282	87.81
381.507	73.81
381.733	85.81
381.958	102.81
382.184	105.81
382.409	94.81
382.634	108.81
382.86	97.81
383.085	97.81
383.31	88.81
383.535	108.81
383.761	106.81
383.986	91.81
384.211	94.81
384.436	89.81
384.662	94.81
384.887	104.81
385.112	90.81
385.337	104.81
385.562	90.81
385.787	95.81
386.013	88.81
386.238	103.81
386.463	88.81
386.688	102.81
386.913	102.81
387.138	104.81
387.363	105.81
387.588	103.81
387.813	98.81
388.038	98.81
388.263	95.81
388.488	97.81
388.713	98.81
388.938	97.81
389.163	87.81
389.387	97.81
389.612	86.81
389.837	79.81
390.062	84.81
390.287	89.81
390.512	83.81
390.736	81.81
390.961	72.81
391.186	81.81
391.411	94.81
391.636	87.81
391.86	85.81
392.085	87.81
392.31	74.81
392.534	78.81
392.759	86.81
392.984	80.81
393.208	91.81
393.433	89.81
393.658	88.81
393.882	78.81
394.107	75.81
394.331	79.81
394.556	88.81
394.78	83.81
395.005	82.81
395.229	84.81
395.454	81.81
395.678	80.81
395.903	83.81
396.127	79.81
396.352	95.81
396.576	74.81
396.801	106.81
397.025	83.81
397.249	84.81
397.474	87.81
397.698	86.81
397.922	96.81
398.147	81.81
398.371	78.81
398.595	95.81
398.82	85.81
399.044	93.81
399.268	93.81
399.492	85.81
399.717	89.81
399.941	85.81
400.165	96.81
400.389	98.81
400.613	89.81
400.837	92.81
401.062	94.81
401.286	89.81
401.51	104.81
401.734	74.81
401.958	99.81
402.182	130.81
402.406	146.81
402.63	112.81
402.854	89.81
403.078	87.81
403.302	80.81
403.526	85.81
403.75	90.81
403.974	95.81
404.198	98.81
404.422	104.81
404.645	98.81
404.869	83.81
405.093	96.81
405.317	65.81
405.541	90.81
405.765	88.81
405.988	113.81
406.212	136.81
406.436	191.81
406.66	134.81
406.883	90.81
407.107	97.81
407.331	86.81
407.555	90.81
407.778	97.81
408.002	94.81
408.226	88.81
408.449	92.81
408.673	102.81
408.896	84.81
409.12	90.81
409.344	83.81
409.567	99.81
409.791	101.81
410.014	96.81
410.238	83.81
410.461	91.81
410.685	82.81
410.908	77.81
411.132	110.81
411.355	100.81
411.578	87.81
411.802	95.81
412.025	102.81
412.249	107.81
412.472	81.81
412.695	92.81
412.919	72.81
413.142	85.81
413.365	85.81
413.589	82.81
413.812	90.81
414.035	83.81
414.258	90.81
414.482	81.81
414.705	96.81
414.928	101.81
415.151	100.81
415.374	85.81
415.597	84.81
415.821	93.81
416.044	93.81
416.267	89.81
416.49	95.81
416.713	86.81
416.936	80.81
417.159	90.81
417.382	82.81
417.605	92.81
417.828	86.81
418.051	79.81
418.274	88.81
418.497	86.81
418.72	94.81
418.943	89.81
419.166	87.81
419.389	89.81
419.611	99.81
419.834	74.81
420.057	96.81
420.28	97.81
420.503	95.81
420.726	85.81
420.948	78.81
421.171	68.81
421.394	90.81
421.617	67.81
421.839	81.81
422.062	83.81
422.285	105.81
422.507	87.81
422.73	107.81
422.953	94.81
423.175	79.81
423.398	96.81
423.621	77.81
423.843	81.81
424.066	82.81
424.288	79.81
424.511	92.81
424.733	98.81
424.956	106.81
425.178	87.81
425.401	93.81
425.623	85.81
425.846	95.81
426.068	89.81
426.291	85.81
426.513	87.81
426.735	91.81
426.958	95.81
427.18	103.81
427.402	126.81
427.625	154.81
427.847	127.81
428.069	101.81
428.292	77.81
428.514	82.81
428.736	81.81
428.958	72.81
429.181	81.81
429.403	102.81
429.625	79.81
429.847	96.81
430.069	92.81
430.292	86.81
430.514	93.81
430.736	87.81
430.958	80.81
431.18	70.81
431.402	84.81
431.624	77.81
431.846	82.81
432.068	86.81
432.29	64.81
432.512	82.81
432.734	87.81
432.956	83.81
433.178	119.81
433.4	98.81
433.622	83.81
433.844	102.81
434.066	103.81
434.287	79.81
434.509	87.81
434.731	95.81
434.953	92.81
435.175	85.81
435.397	88.81
435.618	84.81
435.84	87.81
436.062	115.81
436.284	112.81
436.505	109.81
436.727	91.81
436.949	107.81
437.17	88.81
437.392	89.81
437.614	81.81
437.835	112.81
438.057	116.81
438.278	97.81
438.5	106.81
438.721	98.81
438.943	80.81
439.165	74.81
439.386	74.81
439.608	82.81
439.829	90.81
440.05	104.81
440.272	133.81
440.493	94.81
440.715	87.81
440.936	94.81
441.158	102.81
441.379	86.81
441.6	97.81
441.822	78.81
442.043	93.81
442.264	91.81
442.486	87.81
442.707	87.81
442.928	95.81
443.149	118.81
443.371	113.81
443.592	96.81
443.813	103.81
444.034	109.81
444.255	91.81
444.476	90.81
444.698	92.81
444.919	83.81
445.14	134.81
445.361	133.81
445.582	104.81
445.803	111.81
446.024	135.81
446.245	126.81
446.466	99.81
446.687	83.81
446.908	89.81
447.129	92.81
447.35	77.81
447.571	75.81
447.792	91.81
448.013	100.81
448.234	85.81
448.455	87.81
448.675	93.81
448.896	109.81
449.117	89.81
449.338	95.81
449.559	112.81
449.779	120.81
450	91.81
450.221	80.81
450.442	87.81
450.662	86.81
450.883	102.81
451.104	99.81
451.324	97.81
451.545	96.81
451.766	78.81
451.986	70.81
452.207	89.81
452.428	95.81
452.648	97.81
452.869	97.81
453.089	107.81
453.31	121.81
453.53	89.81
453.751	94.81
453.971	89.81
454.192	97.81
454.412	83.81
454.633	95.81
454.853	90.81
455.073	82.81
455.294	67.81
455.514	88.81
455.734	83.81
455.955	81.81
456.175	80.81
456.395	81.81
456.616	80.81
456.836	85.81
457.056	93.81
457.276	71.81
457.497	85.81
457.717	95.81
457.937	82.81
458.157	98.81
458.377	93.81
458.598	90.81
458.818	121.81
459.038	131.81
459.258	98.81
459.478	82.81
459.698	79.81
459.918	87.81
460.138	70.81
460.358	86.81
460.578	74.81
460.798	99.81
461.018	90.81
461.238	71.81
461.458	101.81
461.678	82.81
461.898	83.81
462.118	74.81
462.338	78.81
462.558	87.81
462.777	92.81
462.997	98.81
463.217	81.81
463.437	86.81
463.657	78.81
463.876	70.81
464.096	77.81
464.316	76.81
464.536	101.81
464.755	82.81
464.975	86.81
465.195	150.81
465.414	136.81
465.634	96.81
465.854	93.81
466.073	79.81
466.293	64.81
466.512	87.81
466.732	88.81
466.951	99.81
467.171	78.81
467.391	84.81
467.61	99.81
467.829	86.81
468.049	93.81
468.268	86.81
468.488	95.81
468.707	82.81
468.927	101.81
469.146	78.81
469.365	81.81
469.585	98.81
469.804	94.81
470.023	94.81
470.243	107.81
470.462	83.81
470.681	97.81
470.901	100.81
471.12	82.81
471.339	77.81
471.558	87.81
471.777	61.81
471.997	78.81
472.216	89.81
472.435	85.81
472.654	98.81
472.873	100.81
473.092	87.81
473.311	85.81
473.53	77.81
473.749	67.81
473.968	93.81
474.187	106.81
474.406	88.81
474.625	81.81
474.844	95.81
475.063	92.81
475.282	91.81
475.501	75.81
475.72	102.81
475.939	96.81
476.158	85.81
476.377	86.81
476.596	83.81
476.814	87.81
477.033	74.81
477.252	86.81
477.471	86.81
477.69	80.81
477.908	90.81
478.127	89.81
478.346	73.81
478.564	87.81
478.783	93.81
479.002	88.81
479.22	80.81
479.439	98.81
479.658	103.81
479.876	102.81
480.095	83.81
480.313	91.81
480.532	92.81
480.751	93.81
480.969	97.81
481.188	86.81
481.406	78.81
481.624	74.81
481.843	74.81
482.061	86.81
482.28	67.81
482.498	82.81
482.717	82.81
482.935	90.81
483.153	91.81
483.372	87.81
483.59	74.81
483.808	83.81
484.027	84.81
484.245	77.81
484.463	96.81
484.681	97.81
484.9	97.81
485.118	98.81
485.336	91.81
485.554	94.81
485.772	91.81
485.99	97.81
486.209	102.81
486.427	86.81
486.645	86.81
486.863	117.81
487.081	109.81
487.299	90.81
487.517	79.81
487.735	74.81
487.953	98.81
488.171	76.81
488.389	88.81
488.607	89.81
488.825	80.81
489.043	80.81
489.261	76.81
489.479	95.81
489.696	84.81
489.914	87.81
490.132	100.81
490.35	81.81
490.568	82.81
490.786	73.81
491.003	85.81
491.221	90.81
491.439	82.81
491.657	78.81
491.874	81.81
492.092	80.81
492.31	83.81
492.527	87.81
492.745	104.81
492.963	82.81
493.18	91.81
493.398	89.81
493.615	82.81
493.833	91.81
494.05	88.81
494.268	88.81
494.485	81.81
494.703	84.81
494.92	94.81
495.138	89.81
495.355	89.81
495.573	102.81
495.79	66.81
496.008	78.81
496.225	86.81
496.442	74.81
496.66	95.81
496.877	85.81
497.094	95.81
497.312	96.81
497.529	93.81
497.746	91.81
497.963	98.81
498.181	88.81
498.398	94.81
498.615	105.81
498.832	85.81
499.049	91.81
499.267	84.81
499.484	85.81
499.701	94.81
499.918	83.81
500.135	93.81
500.352	103.81
500.569	82.81
500.786	92.81
501.003	87.81
501.22	87.81
501.437	95.81
501.654	93.81
501.871	101.81
502.088	97.81
502.305	88.81
502.522	84.81
502.739	89.81
502.956	74.81
503.172	83.81
503.389	112.81
503.606	91.81
503.823	99.81
504.04	80.81
504.256	78.81
504.473	90.81
504.69	70.81
504.907	91.81
505.123	93.81
505.34	87.81
505.557	90.81
505.773	86.81
505.99	88.81
506.207	90.81
506.423	99.81
506.64	91.81
506.856	91.81
507.073	75.81
507.289	77.81
507.506	92.81
507.722	100.81
507.939	94.81
508.155	92.81
508.372	90.81
508.588	79.81
508.805	90.81
509.021	114.81
509.238	95.81
509.454	92.81
509.67	92.81
509.887	98.81
510.103	122.81
510.319	197.81
510.536	627.81
510.752	2070.81
510.968	563.81
511.184	155.81
511.401	111.81
511.617	94.81
511.833	85.81
512.049	95.81
512.265	77.81
512.481	93.81
512.698	85.81
512.914	87.81
513.13	90.81
513.346	86.81
513.562	77.81
513.778	81.81
513.994	82.81
514.21	118.81
514.426	95.81
514.642	107.81
514.858	114.81
515.074	154.81
515.29	362.81
515.506	1223.81
515.721	443.81
515.937	131.81
516.153	102.81
516.369	93.81
516.585	106.81
516.801	100.81
517.016	76.81
