Data from Uncirc_1984_H10_HRD10591_00030.txt Node
Date: Wed Jan 03 12:21:43 EST 2024
User: Yrep
Spectrometer: HR+D1059
Trigger mode: 1
Integration Time (sec): 1.000000E-1
Scans to average: 1
Electric dark correction enabled: true
Nonlinearity correction enabled: false
Boxcar width: 0
XAxis mode: Wavelengths
Number of Pixels in Spectrum: 2048
>>>>>Begin Spectral Data<<<<<
223.165	-6.75
223.4	-6.75
223.635	-6.75
223.869	-19.75
224.104	-19.75
224.338	-15.75
224.573	-4.75
224.808	-15.75
225.042	0.25
225.277	-22.75
225.511	-2.75
225.746	-1.75
225.98	-5.75
226.215	5.25
226.449	18.25
226.683	26.25
226.918	30.25
227.152	35.25
227.387	38.25
227.621	47.25
227.856	46.25
228.09	36.25
228.324	63.25
228.559	64.25
228.793	57.25
229.027	51.25
229.262	73.25
229.496	59.25
229.73	93.25
229.964	71.25
230.199	62.25
230.433	92.25
230.667	81.25
230.901	77.25
231.136	86.25
231.37	78.25
231.604	84.25
231.838	82.25
232.072	72.25
232.306	79.25
232.541	69.25
232.775	86.25
233.009	75.25
233.243	71.25
233.477	74.25
233.711	80.25
233.945	82.25
234.179	83.25
234.413	78.25
234.647	74.25
234.881	90.25
235.115	80.25
235.349	81.25
235.583	82.25
235.817	62.25
236.051	75.25
236.285	90.25
236.519	86.25
236.753	87.25
236.987	79.25
237.221	85.25
237.455	89.25
237.689	75.25
237.922	81.25
238.156	71.25
238.39	72.25
238.624	77.25
238.858	71.25
239.091	89.25
239.325	80.25
239.559	88.25
239.793	96.25
240.027	84.25
240.26	82.25
240.494	78.25
240.728	74.25
240.961	75.25
241.195	80.25
241.429	71.25
241.662	66.25
241.896	73.25
242.13	75.25
242.363	74.25
242.597	73.25
242.83	90.25
243.064	86.25
243.298	89.25
243.531	84.25
243.765	85.25
243.998	84.25
244.232	79.25
244.465	78.25
244.699	71.25
244.932	80.25
245.166	81.25
245.399	74.25
245.633	80.25
245.866	81.25
246.099	75.25
246.333	92.25
246.566	75.25
246.8	78.25
247.033	78.25
247.266	84.25
247.5	78.25
247.733	76.25
247.966	86.25
248.2	90.25
248.433	80.25
248.666	89.25
248.899	80.25
249.133	80.25
249.366	100.25
249.599	90.25
249.832	74.25
250.066	68.25
250.299	80.25
250.532	68.25
250.765	81.25
250.998	74.25
251.231	92.25
251.465	72.25
251.698	82.25
251.931	84.25
252.164	75.25
252.397	92.25
252.63	68.25
252.863	76.25
253.096	93.25
253.329	82.25
253.562	70.25
253.795	81.25
254.028	80.25
254.261	98.25
254.494	77.25
254.727	86.25
254.96	76.25
255.193	80.25
255.426	88.25
255.659	76.25
255.892	86.25
256.124	80.25
256.357	91.25
256.59	85.25
256.823	81.25
257.056	76.25
257.289	80.25
257.521	75.25
257.754	78.25
257.987	76.25
258.22	96.25
258.452	93.25
258.685	74.25
258.918	66.25
259.151	88.25
259.383	80.25
259.616	92.25
259.849	84.25
260.081	90.25
260.314	72.25
260.547	75.25
260.779	90.25
261.012	84.25
261.244	87.25
261.477	95.25
261.71	87.25
261.942	96.25
262.175	113.25
262.407	90.25
262.64	74.25
262.872	70.25
263.105	81.25
263.337	89.25
263.57	80.25
263.802	74.25
264.035	80.25
264.267	71.25
264.499	72.25
264.732	74.25
264.964	81.25
265.197	76.25
265.429	83.25
265.661	74.25
265.894	84.25
266.126	77.25
266.358	89.25
266.591	90.25
266.823	87.25
267.055	93.25
267.287	97.25
267.52	95.25
267.752	68.25
267.984	70.25
268.216	74.25
268.448	97.25
268.681	68.25
268.913	82.25
269.145	87.25
269.377	87.25
269.609	99.25
269.841	80.25
270.073	87.25
270.306	87.25
270.538	65.25
270.77	83.25
271.002	82.25
271.234	80.25
271.466	97.25
271.698	70.25
271.93	81.25
272.162	84.25
272.394	87.25
272.626	79.25
272.858	76.25
273.09	86.25
273.322	83.25
273.553	96.25
273.785	86.25
274.017	65.25
274.249	80.25
274.481	95.25
274.713	68.25
274.945	63.25
275.176	75.25
275.408	94.25
275.64	88.25
275.872	74.25
276.104	88.25
276.335	91.25
276.567	98.25
276.799	106.25
277.031	90.25
277.262	87.25
277.494	85.25
277.726	79.25
277.957	88.25
278.189	76.25
278.421	99.25
278.652	88.25
278.884	94.25
279.115	85.25
279.347	70.25
279.579	96.25
279.81	91.25
280.042	90.25
280.273	86.25
280.505	88.25
280.736	88.25
280.968	79.25
281.199	80.25
281.431	73.25
281.662	89.25
281.894	81.25
282.125	97.25
282.356	125.25
282.588	131.25
282.819	103.25
283.051	91.25
283.282	70.25
283.513	92.25
283.745	78.25
283.976	80.25
284.207	81.25
284.439	91.25
284.67	91.25
284.901	96.25
285.132	85.25
285.364	95.25
285.595	91.25
285.826	72.25
286.057	88.25
286.288	81.25
286.52	82.25
286.751	90.25
286.982	86.25
287.213	83.25
287.444	85.25
287.675	98.25
287.906	87.25
288.138	100.25
288.369	87.25
288.6	104.25
288.831	91.25
289.062	105.25
289.293	94.25
289.524	89.25
289.755	91.25
289.986	86.25
290.217	87.25
290.448	90.25
290.679	89.25
290.91	109.25
291.141	96.25
291.371	84.25
291.602	86.25
291.833	99.25
292.064	80.25
292.295	86.25
292.526	104.25
292.757	82.25
292.987	69.25
293.218	91.25
293.449	82.25
293.68	102.25
293.91	98.25
294.141	90.25
294.372	68.25
294.603	83.25
294.833	85.25
295.064	80.25
295.295	86.25
295.525	103.25
295.756	92.25
295.987	97.25
296.217	134.25
296.448	118.25
296.679	98.25
296.909	97.25
297.14	70.25
297.37	82.25
297.601	88.25
297.831	101.25
298.062	95.25
298.292	89.25
298.523	78.25
298.753	94.25
298.984	97.25
299.214	98.25
299.445	94.25
299.675	102.25
299.905	93.25
300.136	78.25
300.366	83.25
300.597	102.25
300.827	94.25
301.057	102.25
301.288	95.25
301.518	95.25
301.748	64.25
301.979	106.25
302.209	103.25
302.439	104.25
302.669	76.25
302.9	63.25
303.13	87.25
303.36	87.25
303.59	102.25
303.82	95.25
304.051	90.25
304.281	98.25
304.511	80.25
304.741	82.25
304.971	71.25
305.201	98.25
305.431	88.25
305.661	103.25
305.891	75.25
306.121	93.25
306.352	116.25
306.582	86.25
306.812	94.25
307.042	102.25
307.272	86.25
307.502	94.25
307.731	92.25
307.961	65.25
308.191	89.25
308.421	92.25
308.651	105.25
308.881	98.25
309.111	87.25
309.341	92.25
309.571	87.25
309.8	85.25
310.03	88.25
310.26	93.25
310.49	106.25
310.72	97.25
310.949	79.25
311.179	104.25
311.409	99.25
311.639	98.25
311.868	96.25
312.098	86.25
312.328	91.25
312.557	95.25
312.787	98.25
313.017	93.25
313.246	88.25
313.476	91.25
313.706	91.25
313.935	88.25
314.165	94.25
314.394	95.25
314.624	97.25
314.853	92.25
315.083	91.25
315.312	78.25
315.542	95.25
315.771	102.25
316.001	94.25
316.23	94.25
316.46	92.25
316.689	98.25
316.919	91.25
317.148	83.25
317.377	98.25
317.607	94.25
317.836	91.25
318.065	99.25
318.295	96.25
318.524	79.25
318.753	93.25
318.983	102.25
319.212	105.25
319.441	110.25
319.67	96.25
319.9	98.25
320.129	83.25
320.358	93.25
320.587	94.25
320.816	103.25
321.046	106.25
321.275	96.25
321.504	85.25
321.733	107.25
321.962	112.25
322.191	89.25
322.42	100.25
322.649	100.25
322.878	89.25
323.108	111.25
323.337	106.25
323.566	115.25
323.795	150.25
324.024	216.25
324.253	352.25
324.482	769.25
324.71	1500.25
324.939	2006.25
325.168	734.25
325.397	232.25
325.626	127.25
325.855	128.25
326.084	114.25
326.313	131.25
326.542	140.25
326.77	196.25
326.999	418.25
327.228	859.25
327.457	1550.25
327.686	1251.25
327.914	342.25
328.143	184.25
328.372	126.25
328.6	108.25
328.829	117.25
329.058	107.25
329.287	127.25
329.515	113.25
329.744	99.25
329.972	112.25
330.201	94.25
330.43	107.25
330.658	109.25
330.887	132.25
331.115	117.25
331.344	98.25
331.572	106.25
331.801	115.25
332.03	88.25
332.258	98.25
332.486	98.25
332.715	100.25
332.943	102.25
333.172	93.25
333.4	93.25
333.629	106.25
333.857	114.25
334.085	94.25
334.314	95.25
334.542	96.25
334.771	89.25
334.999	93.25
335.227	102.25
335.455	94.25
335.684	100.25
335.912	102.25
336.14	98.25
336.369	99.25
336.597	102.25
336.825	101.25
337.053	107.25
337.281	94.25
337.51	87.25
337.738	85.25
337.966	84.25
338.194	101.25
338.422	97.25
338.65	95.25
338.878	94.25
339.106	87.25
339.334	95.25
339.562	82.25
339.79	100.25
340.018	94.25
340.246	99.25
340.474	86.25
340.702	97.25
340.93	89.25
341.158	88.25
341.386	91.25
341.614	90.25
341.842	94.25
342.07	97.25
342.298	100.25
342.526	80.25
342.754	96.25
342.981	75.25
343.209	90.25
343.437	105.25
343.665	83.25
343.893	86.25
344.12	82.25
344.348	96.25
344.576	89.25
344.804	94.25
345.031	86.25
345.259	83.25
345.487	86.25
345.714	90.25
345.942	98.25
346.17	95.25
346.397	99.25
346.625	97.25
346.853	100.25
347.08	100.25
347.308	103.25
347.535	87.25
347.763	102.25
347.99	99.25
348.218	95.25
348.445	109.25
348.673	99.25
348.9	100.25
349.128	84.25
349.355	95.25
349.583	93.25
349.81	79.25
350.037	107.25
350.265	90.25
350.492	98.25
350.72	97.25
350.947	89.25
351.174	101.25
351.402	98.25
351.629	101.25
351.856	91.25
352.083	88.25
352.311	113.25
352.538	106.25
352.765	106.25
352.992	103.25
353.22	100.25
353.447	104.25
353.674	103.25
353.901	87.25
354.128	105.25
354.355	101.25
354.583	96.25
354.81	84.25
355.037	88.25
355.264	95.25
355.491	99.25
355.718	95.25
355.945	89.25
356.172	91.25
356.399	85.25
356.626	89.25
356.853	89.25
357.08	88.25
357.307	91.25
357.534	91.25
357.761	94.25
357.988	93.25
358.215	82.25
358.441	84.25
358.668	107.25
358.895	88.25
359.122	88.25
359.349	78.25
359.576	88.25
359.802	94.25
360.029	89.25
360.256	109.25
360.483	112.25
360.709	88.25
360.936	91.25
361.163	89.25
361.39	96.25
361.616	94.25
361.843	79.25
362.07	84.25
362.296	99.25
362.523	87.25
362.749	105.25
362.976	103.25
363.203	100.25
363.429	90.25
363.656	78.25
363.882	98.25
364.109	74.25
364.335	91.25
364.562	88.25
364.788	77.25
365.015	87.25
365.241	84.25
365.468	114.25
365.694	102.25
365.92	104.25
366.147	104.25
366.373	90.25
366.599	87.25
366.826	108.25
367.052	97.25
367.278	93.25
367.505	82.25
367.731	80.25
367.957	71.25
368.184	86.25
368.41	89.25
368.636	96.25
368.862	116.25
369.089	108.25
369.315	84.25
369.541	92.25
369.767	84.25
369.993	91.25
370.219	103.25
370.445	83.25
370.672	90.25
370.898	100.25
371.124	91.25
371.35	80.25
371.576	87.25
371.802	98.25
372.028	88.25
372.254	81.25
372.48	94.25
372.706	74.25
372.932	84.25
373.158	90.25
373.384	84.25
373.61	96.25
373.835	96.25
374.061	97.25
374.287	74.25
374.513	85.25
374.739	95.25
374.965	90.25
375.191	100.25
375.416	86.25
375.642	84.25
375.868	96.25
376.094	103.25
376.319	100.25
376.545	90.25
376.771	91.25
376.997	104.25
377.222	84.25
377.448	90.25
377.674	84.25
377.899	93.25
378.125	89.25
378.35	83.25
378.576	91.25
378.802	80.25
379.027	93.25
379.253	96.25
379.478	82.25
379.704	106.25
379.929	95.25
380.155	89.25
380.38	86.25
380.606	84.25
380.831	110.25
381.057	94.25
381.282	91.25
381.507	88.25
381.733	87.25
381.958	97.25
382.184	92.25
382.409	105.25
382.634	83.25
382.86	109.25
383.085	92.25
383.31	102.25
383.535	87.25
383.761	89.25
383.986	106.25
384.211	89.25
384.436	83.25
384.662	98.25
384.887	107.25
385.112	94.25
385.337	102.25
385.562	88.25
385.787	103.25
386.013	125.25
386.238	110.25
386.463	118.25
386.688	105.25
386.913	103.25
387.138	103.25
387.363	102.25
387.588	94.25
387.813	91.25
388.038	108.25
388.263	112.25
388.488	93.25
388.713	98.25
388.938	86.25
389.163	87.25
389.387	87.25
389.612	80.25
389.837	86.25
390.062	99.25
390.287	116.25
390.512	90.25
390.736	102.25
390.961	97.25
391.186	99.25
391.411	89.25
391.636	80.25
391.86	84.25
392.085	97.25
392.31	99.25
392.534	98.25
392.759	89.25
392.984	91.25
393.208	88.25
393.433	98.25
393.658	86.25
393.882	84.25
394.107	86.25
394.331	74.25
394.556	71.25
394.78	94.25
395.005	78.25
395.229	87.25
395.454	80.25
395.678	89.25
395.903	85.25
396.127	90.25
396.352	85.25
396.576	82.25
396.801	87.25
397.025	89.25
397.249	88.25
397.474	90.25
397.698	91.25
397.922	73.25
398.147	88.25
398.371	89.25
398.595	90.25
398.82	92.25
399.044	83.25
399.268	82.25
399.492	81.25
399.717	93.25
399.941	90.25
400.165	90.25
400.389	78.25
400.613	78.25
400.837	89.25
401.062	73.25
401.286	92.25
401.51	87.25
401.734	96.25
401.958	91.25
402.182	114.25
402.406	155.25
402.63	118.25
402.854	95.25
403.078	85.25
403.302	85.25
403.526	87.25
403.75	86.25
403.974	73.25
404.198	94.25
404.422	82.25
404.645	85.25
404.869	93.25
405.093	90.25
405.317	79.25
405.541	90.25
405.765	96.25
405.988	105.25
406.212	142.25
406.436	190.25
406.66	136.25
406.883	85.25
407.107	84.25
407.331	89.25
407.555	82.25
407.778	96.25
408.002	97.25
408.226	91.25
408.449	98.25
408.673	81.25
408.896	91.25
409.12	91.25
409.344	83.25
409.567	91.25
409.791	95.25
410.014	95.25
410.238	88.25
410.461	100.25
410.685	82.25
410.908	105.25
411.132	114.25
411.355	89.25
411.578	90.25
411.802	89.25
412.025	88.25
412.249	80.25
412.472	87.25
412.695	97.25
412.919	74.25
413.142	72.25
413.365	88.25
413.589	74.25
413.812	99.25
414.035	90.25
414.258	89.25
414.482	85.25
414.705	88.25
414.928	82.25
415.151	91.25
415.374	105.25
415.597	81.25
415.821	102.25
416.044	94.25
416.267	92.25
416.49	93.25
416.713	82.25
416.936	98.25
417.159	81.25
417.382	93.25
417.605	76.25
417.828	97.25
418.051	92.25
418.274	94.25
418.497	88.25
418.72	78.25
418.943	72.25
419.166	97.25
419.389	88.25
419.611	100.25
419.834	91.25
420.057	76.25
420.28	87.25
420.503	81.25
420.726	80.25
420.948	83.25
421.171	83.25
421.394	104.25
421.617	93.25
421.839	80.25
422.062	90.25
422.285	92.25
422.507	96.25
422.73	104.25
422.953	92.25
423.175	81.25
423.398	92.25
423.621	96.25
423.843	95.25
424.066	86.25
424.288	81.25
424.511	94.25
424.733	89.25
424.956	90.25
425.178	94.25
425.401	88.25
425.623	84.25
425.846	108.25
426.068	73.25
426.291	93.25
426.513	82.25
426.735	90.25
426.958	88.25
427.18	108.25
427.402	139.25
427.625	154.25
427.847	121.25
428.069	106.25
428.292	93.25
428.514	92.25
428.736	82.25
428.958	80.25
429.181	95.25
429.403	96.25
429.625	91.25
429.847	94.25
430.069	92.25
430.292	90.25
430.514	74.25
430.736	69.25
430.958	90.25
431.18	73.25
431.402	80.25
431.624	81.25
431.846	71.25
432.068	81.25
432.29	78.25
432.512	92.25
432.734	100.25
432.956	86.25
433.178	95.25
433.4	99.25
433.622	100.25
433.844	81.25
434.066	86.25
434.287	90.25
434.509	100.25
434.731	110.25
434.953	90.25
435.175	103.25
435.397	94.25
435.618	87.25
435.84	94.25
436.062	122.25
436.284	109.25
436.505	92.25
436.727	97.25
436.949	79.25
437.17	84.25
437.392	90.25
437.614	93.25
437.835	105.25
438.057	125.25
438.278	91.25
438.5	86.25
438.721	119.25
438.943	103.25
439.165	82.25
439.386	82.25
439.608	97.25
439.829	112.25
440.05	114.25
440.272	128.25
440.493	105.25
440.715	102.25
440.936	95.25
441.158	88.25
441.379	83.25
441.6	82.25
441.822	85.25
442.043	99.25
442.264	88.25
442.486	97.25
442.707	87.25
442.928	99.25
443.149	123.25
443.371	114.25
443.592	95.25
443.813	96.25
444.034	108.25
444.255	99.25
444.476	82.25
444.698	91.25
444.919	80.25
445.14	134.25
445.361	106.25
445.582	111.25
445.803	119.25
446.024	132.25
446.245	132.25
446.466	109.25
446.687	99.25
446.908	86.25
447.129	80.25
447.35	90.25
447.571	89.25
447.792	91.25
448.013	95.25
448.234	116.25
448.455	90.25
448.675	104.25
448.896	122.25
449.117	114.25
449.338	94.25
449.559	122.25
449.779	111.25
450	84.25
450.221	95.25
450.442	89.25
450.662	98.25
450.883	114.25
451.104	111.25
451.324	89.25
451.545	90.25
451.766	79.25
451.986	87.25
452.207	94.25
452.428	81.25
452.648	75.25
452.869	109.25
453.089	99.25
453.31	100.25
453.53	91.25
453.751	78.25
453.971	91.25
454.192	104.25
454.412	90.25
454.633	91.25
454.853	95.25
455.073	88.25
455.294	77.25
455.514	103.25
455.734	88.25
455.955	74.25
456.175	77.25
456.395	88.25
456.616	78.25
456.836	82.25
457.056	99.25
457.276	77.25
457.497	78.25
457.717	76.25
457.937	85.25
458.157	80.25
458.377	82.25
458.598	103.25
458.818	137.25
459.038	139.25
459.258	114.25
459.478	107.25
459.698	72.25
459.918	86.25
460.138	82.25
460.358	75.25
460.578	86.25
460.798	88.25
461.018	69.25
461.238	88.25
461.458	82.25
461.678	83.25
461.898	85.25
462.118	87.25
462.338	74.25
462.558	84.25
462.777	80.25
462.997	79.25
463.217	86.25
463.437	83.25
463.657	85.25
463.876	94.25
464.096	90.25
464.316	96.25
464.536	86.25
464.755	94.25
464.975	104.25
465.195	118.25
465.414	139.25
465.634	92.25
465.854	85.25
466.073	82.25
466.293	91.25
466.512	92.25
466.732	87.25
466.951	95.25
467.171	102.25
467.391	84.25
467.61	89.25
467.829	83.25
468.049	94.25
468.268	90.25
468.488	74.25
468.707	75.25
468.927	90.25
469.146	82.25
469.365	74.25
469.585	91.25
469.804	96.25
470.023	103.25
470.243	97.25
470.462	99.25
470.681	104.25
470.901	97.25
471.12	101.25
471.339	87.25
471.558	97.25
471.777	76.25
471.997	93.25
472.216	84.25
472.435	88.25
472.654	79.25
472.873	96.25
473.092	84.25
473.311	84.25
473.53	81.25
473.749	85.25
473.968	84.25
474.187	89.25
474.406	91.25
474.625	76.25
474.844	96.25
475.063	81.25
475.282	86.25
475.501	98.25
475.72	75.25
475.939	92.25
476.158	84.25
476.377	89.25
476.596	90.25
476.814	88.25
477.033	86.25
477.252	87.25
477.471	86.25
477.69	92.25
477.908	97.25
478.127	95.25
478.346	86.25
478.564	100.25
478.783	94.25
479.002	92.25
479.22	106.25
479.439	110.25
479.658	99.25
479.876	76.25
480.095	88.25
480.313	89.25
480.532	84.25
480.751	98.25
480.969	97.25
481.188	90.25
481.406	101.25
481.624	85.25
481.843	72.25
482.061	92.25
482.28	88.25
482.498	90.25
482.717	79.25
482.935	90.25
483.153	93.25
483.372	96.25
483.59	82.25
483.808	81.25
484.027	82.25
484.245	96.25
484.463	98.25
484.681	103.25
484.9	92.25
485.118	95.25
485.336	102.25
485.554	93.25
485.772	98.25
485.99	111.25
486.209	102.25
486.427	85.25
486.645	119.25
486.863	123.25
487.081	109.25
487.299	97.25
487.517	104.25
487.735	86.25
487.953	74.25
488.171	88.25
488.389	94.25
488.607	102.25
488.825	92.25
489.043	72.25
489.261	92.25
489.479	95.25
489.696	91.25
489.914	75.25
490.132	93.25
490.35	106.25
490.568	97.25
490.786	86.25
491.003	76.25
491.221	92.25
491.439	88.25
491.657	88.25
491.874	100.25
492.092	85.25
492.31	87.25
492.527	64.25
492.745	74.25
492.963	82.25
493.18	97.25
493.398	101.25
493.615	96.25
493.833	103.25
494.05	78.25
494.268	91.25
494.485	102.25
494.703	91.25
494.92	94.25
495.138	89.25
495.355	100.25
495.573	98.25
495.79	81.25
496.008	92.25
496.225	85.25
496.442	84.25
496.66	87.25
496.877	89.25
497.094	92.25
497.312	89.25
497.529	95.25
497.746	81.25
497.963	81.25
498.181	103.25
498.398	91.25
498.615	109.25
498.832	95.25
499.049	101.25
499.267	97.25
499.484	86.25
499.701	88.25
499.918	87.25
500.135	97.25
500.352	89.25
500.569	73.25
500.786	100.25
501.003	102.25
501.22	90.25
501.437	95.25
501.654	92.25
501.871	105.25
502.088	94.25
502.305	79.25
502.522	86.25
502.739	95.25
502.956	86.25
503.172	87.25
503.389	94.25
503.606	104.25
503.823	106.25
504.04	92.25
504.256	84.25
504.473	83.25
504.69	99.25
504.907	87.25
505.123	86.25
505.34	97.25
505.557	89.25
505.773	89.25
505.99	92.25
506.207	80.25
506.423	95.25
506.64	83.25
506.856	88.25
507.073	88.25
507.289	95.25
507.506	95.25
507.722	111.25
507.939	120.25
508.155	96.25
508.372	95.25
508.588	82.25
508.805	87.25
509.021	94.25
509.238	106.25
509.454	95.25
509.67	100.25
509.887	101.25
510.103	110.25
510.319	222.25
510.536	674.25
510.752	2098.25
510.968	593.25
511.184	154.25
511.401	109.25
511.617	96.25
511.833	103.25
512.049	84.25
512.265	82.25
512.481	95.25
512.698	97.25
512.914	89.25
513.13	101.25
513.346	98.25
513.562	78.25
513.778	90.25
513.994	96.25
514.21	110.25
514.426	96.25
514.642	126.25
514.858	121.25
515.074	163.25
515.29	370.25
515.506	1211.25
515.721	455.25
515.937	154.25
516.153	104.25
516.369	98.25
