Data from Uncirc_1984_H10_HRD10591_00048.txt Node
Date: Wed Jan 03 12:21:46 EST 2024
User: Yrep
Spectrometer: HR+D1059
Trigger mode: 1
Integration Time (sec): 1.000000E-1
Scans to average: 1
Electric dark correction enabled: true
Nonlinearity correction enabled: false
Boxcar width: 0
XAxis mode: Wavelengths
Number of Pixels in Spectrum: 2048
>>>>>Begin Spectral Data<<<<<
223.165	-18
223.4	-18
223.635	-18
223.869	-22
224.104	-27
224.338	-26
224.573	-15
224.808	-4
225.042	-5
225.277	9
225.511	1
225.746	-1
225.98	16
226.215	0
226.449	24
226.683	16
226.918	23
227.152	29
227.387	16
227.621	46
227.856	44
228.09	54
228.324	45
228.559	51
228.793	67
229.027	66
229.262	55
229.496	73
229.73	66
229.964	77
230.199	72
230.433	79
230.667	75
230.901	80
231.136	69
231.37	87
231.604	78
231.838	78
232.072	92
232.306	85
232.541	101
232.775	68
233.009	93
233.243	77
233.477	84
233.711	82
233.945	81
234.179	89
234.413	92
234.647	89
234.881	74
235.115	78
235.349	70
235.583	73
235.817	87
236.051	88
236.285	59
236.519	61
236.753	79
236.987	75
237.221	68
237.455	85
237.689	79
237.922	79
238.156	75
238.39	83
238.624	86
238.858	77
239.091	56
239.325	79
239.559	74
239.793	72
240.027	85
240.26	77
240.494	68
240.728	85
240.961	82
241.195	72
241.429	84
241.662	83
241.896	79
242.13	77
242.363	78
242.597	85
242.83	81
243.064	62
243.298	58
243.531	72
243.765	75
243.998	87
244.232	86
244.465	65
244.699	89
244.932	70
245.166	69
245.399	74
245.633	74
245.866	80
246.099	75
246.333	63
246.566	85
246.8	86
247.033	86
247.266	77
247.5	67
247.733	81
247.966	89
248.2	68
248.433	72
248.666	80
248.899	73
249.133	83
249.366	90
249.599	89
249.832	78
250.066	79
250.299	89
250.532	84
250.765	77
250.998	72
251.231	83
251.465	90
251.698	84
251.931	78
252.164	72
252.397	85
252.63	72
252.863	75
253.096	70
253.329	79
253.562	79
253.795	93
254.028	78
254.261	84
254.494	74
254.727	89
254.96	86
255.193	80
255.426	79
255.659	89
255.892	73
256.124	84
256.357	93
256.59	100
256.823	75
257.056	86
257.289	78
257.521	68
257.754	82
257.987	77
258.22	84
258.452	93
258.685	77
258.918	72
259.151	86
259.383	80
259.616	83
259.849	78
260.081	75
260.314	77
260.547	95
260.779	72
261.012	97
261.244	86
261.477	89
261.71	77
261.942	106
262.175	97
262.407	88
262.64	92
262.872	72
263.105	82
263.337	94
263.57	62
263.802	81
264.035	79
264.267	81
264.499	65
264.732	71
264.964	83
265.197	88
265.429	71
265.661	78
265.894	71
266.126	85
266.358	87
266.591	82
266.823	85
267.055	87
267.287	81
267.52	79
267.752	87
267.984	75
268.216	73
268.448	86
268.681	82
268.913	95
269.145	93
269.377	81
269.609	79
269.841	95
270.073	86
270.306	71
270.538	89
270.77	82
271.002	81
271.234	90
271.466	81
271.698	81
271.93	84
272.162	79
272.394	78
272.626	79
272.858	80
273.09	95
273.322	78
273.553	82
273.785	84
274.017	71
274.249	83
274.481	80
274.713	84
274.945	82
275.176	88
275.408	89
275.64	89
275.872	77
276.104	103
276.335	86
276.567	95
276.799	92
277.031	104
277.262	96
277.494	86
277.726	74
277.957	76
278.189	93
278.421	78
278.652	87
278.884	95
279.115	90
279.347	83
279.579	85
279.81	94
280.042	70
280.273	85
280.505	87
280.736	102
280.968	78
281.199	87
281.431	85
281.662	88
281.894	93
282.125	103
282.356	95
282.588	133
282.819	109
283.051	100
283.282	81
283.513	77
283.745	86
283.976	95
284.207	74
284.439	91
284.67	89
284.901	86
285.132	72
285.364	86
285.595	94
285.826	80
286.057	72
286.288	81
286.52	81
286.751	89
286.982	83
287.213	95
287.444	101
287.675	88
287.906	91
288.138	92
288.369	94
288.6	87
288.831	91
289.062	91
289.293	95
289.524	88
289.755	90
289.986	94
290.217	87
290.448	75
290.679	73
290.91	86
291.141	82
291.371	84
291.602	98
291.833	93
292.064	79
292.295	94
292.526	73
292.757	78
292.987	83
293.218	80
293.449	95
293.68	83
293.91	73
294.141	85
294.372	89
294.603	88
294.833	81
295.064	87
295.295	101
295.525	91
295.756	95
295.987	108
296.217	115
296.448	120
296.679	97
296.909	83
297.14	94
297.37	89
297.601	79
297.831	85
298.062	102
298.292	93
298.523	73
298.753	86
298.984	77
299.214	98
299.445	89
299.675	90
299.905	100
300.136	89
300.366	82
300.597	87
300.827	86
301.057	92
301.288	90
301.518	95
301.748	92
301.979	104
302.209	91
302.439	93
302.669	83
302.9	87
303.13	97
303.36	100
303.59	94
303.82	97
304.051	100
304.281	89
304.511	94
304.741	90
304.971	81
305.201	89
305.431	87
305.661	71
305.891	92
306.121	83
306.352	77
306.582	86
306.812	94
307.042	81
307.272	94
307.502	103
307.731	105
307.961	87
308.191	77
308.421	93
308.651	96
308.881	90
309.111	87
309.341	96
309.571	91
309.8	87
310.03	90
310.26	96
310.49	103
310.72	86
310.949	97
311.179	95
311.409	93
311.639	90
311.868	97
312.098	90
312.328	83
312.557	102
312.787	91
313.017	103
313.246	90
313.476	91
313.706	89
313.935	89
314.165	89
314.394	96
314.624	97
314.853	94
315.083	94
315.312	87
315.542	98
315.771	101
316.001	95
316.23	87
316.46	89
316.689	76
316.919	93
317.148	101
317.377	91
317.607	94
317.836	77
318.065	103
318.295	86
318.524	99
318.753	85
318.983	85
319.212	87
319.441	95
319.67	101
319.9	84
320.129	97
320.358	86
320.587	92
320.816	102
321.046	97
321.275	93
321.504	98
321.733	96
321.962	103
322.191	109
322.42	98
322.649	99
322.878	98
323.108	107
323.337	113
323.566	121
323.795	135
324.024	171
324.253	336
324.482	669
324.71	1343
324.939	1841
325.168	686
325.397	198
325.626	113
325.855	111
326.084	111
326.313	120
326.542	141
326.77	181
326.999	382
327.228	771
327.457	1407
327.686	1113
327.914	318
328.143	166
328.372	119
328.6	106
328.829	98
329.058	120
329.287	122
329.515	103
329.744	107
329.972	89
330.201	82
330.43	111
330.658	111
330.887	124
331.115	114
331.344	95
331.572	87
331.801	92
332.03	91
332.258	89
332.486	81
332.715	104
332.943	88
333.172	98
333.4	83
333.629	104
333.857	93
334.085	88
334.314	85
334.542	105
334.771	83
334.999	79
335.227	98
335.455	81
335.684	86
335.912	86
336.14	87
336.369	98
336.597	97
336.825	105
337.053	92
337.281	96
337.51	100
337.738	97
337.966	95
338.194	89
338.422	93
338.65	111
338.878	96
339.106	88
339.334	107
339.562	81
339.79	82
340.018	99
340.246	83
340.474	90
340.702	85
340.93	83
341.158	91
341.386	86
341.614	75
341.842	89
342.07	80
342.298	101
342.526	95
342.754	86
342.981	83
343.209	85
343.437	103
343.665	94
343.893	85
344.12	89
344.348	91
344.576	70
344.804	91
345.031	84
345.259	94
345.487	91
345.714	83
345.942	89
346.17	88
346.397	100
346.625	94
346.853	83
347.08	85
347.308	90
347.535	85
347.763	109
347.99	90
348.218	88
348.445	99
348.673	90
348.9	95
349.128	87
349.355	88
349.583	96
349.81	104
350.037	93
350.265	96
350.492	97
350.72	87
350.947	100
351.174	120
351.402	106
351.629	92
351.856	94
352.083	95
352.311	100
352.538	97
352.765	101
352.992	94
353.22	98
353.447	98
353.674	90
353.901	101
354.128	91
354.355	90
354.583	98
354.81	102
355.037	90
355.264	86
355.491	78
355.718	86
355.945	91
356.172	89
356.399	87
356.626	95
356.853	79
357.08	99
357.307	91
357.534	87
357.761	86
357.988	90
358.215	79
358.441	99
358.668	82
358.895	102
359.122	95
359.349	92
359.576	91
359.802	103
360.029	102
360.256	95
360.483	96
360.709	90
360.936	89
361.163	96
361.39	106
361.616	93
361.843	86
362.07	90
362.296	82
362.523	87
362.749	85
362.976	90
363.203	90
363.429	80
363.656	80
363.882	73
364.109	99
364.335	98
364.562	90
364.788	92
365.015	90
365.241	95
365.468	104
365.694	93
365.92	98
366.147	86
366.373	81
366.599	94
366.826	65
367.052	86
367.278	90
367.505	85
367.731	72
367.957	75
368.184	97
368.41	97
368.636	106
368.862	95
369.089	96
369.315	83
369.541	81
369.767	91
369.993	90
370.219	82
370.445	97
370.672	79
370.898	99
371.124	93
371.35	92
371.576	81
371.802	85
372.028	92
372.254	93
372.48	75
372.706	86
372.932	87
373.158	89
373.384	78
373.61	92
373.835	88
374.061	94
374.287	75
374.513	93
374.739	77
374.965	85
375.191	102
375.416	82
375.642	90
375.868	98
376.094	89
376.319	78
376.545	79
376.771	87
376.997	84
377.222	89
377.448	90
377.674	95
377.899	93
378.125	93
378.35	88
378.576	86
378.802	85
379.027	96
379.253	88
379.478	92
379.704	94
379.929	88
380.155	64
380.38	102
380.606	89
380.831	97
381.057	82
381.282	89
381.507	89
381.733	81
381.958	84
382.184	98
382.409	82
382.634	99
382.86	80
383.085	93
383.31	107
383.535	125
383.761	83
383.986	99
384.211	94
384.436	91
384.662	86
384.887	99
385.112	99
385.337	90
385.562	101
385.787	97
386.013	98
386.238	107
386.463	109
386.688	104
386.913	88
387.138	98
387.363	85
387.588	103
387.813	106
388.038	99
388.263	97
388.488	100
388.713	92
388.938	82
389.163	87
389.387	81
389.612	78
389.837	89
390.062	89
390.287	90
390.512	98
390.736	87
390.961	75
391.186	84
391.411	103
391.636	88
391.86	84
392.085	84
392.31	78
392.534	91
392.759	72
392.984	81
393.208	70
393.433	67
393.658	74
393.882	93
394.107	79
394.331	96
394.556	81
394.78	76
395.005	79
395.229	88
395.454	73
395.678	87
395.903	105
396.127	88
396.352	85
396.576	95
396.801	88
397.025	83
397.249	81
397.474	90
397.698	82
397.922	89
398.147	83
398.371	86
398.595	72
398.82	79
399.044	82
399.268	87
399.492	81
399.717	87
399.941	97
400.165	100
400.389	75
400.613	74
400.837	81
401.062	85
401.286	89
401.51	96
401.734	82
401.958	96
402.182	122
402.406	140
402.63	115
402.854	89
403.078	89
403.302	88
403.526	86
403.75	97
403.974	82
404.198	83
404.422	85
404.645	87
404.869	81
405.093	88
405.317	86
405.541	88
405.765	69
405.988	97
406.212	150
406.436	183
406.66	126
406.883	93
407.107	74
407.331	78
407.555	103
407.778	87
408.002	78
408.226	77
408.449	81
408.673	90
408.896	90
409.12	82
409.344	99
409.567	106
409.791	89
410.014	97
410.238	97
410.461	74
410.685	87
410.908	91
411.132	90
411.355	96
411.578	93
411.802	83
412.025	95
412.249	97
412.472	81
412.695	81
412.919	85
413.142	91
413.365	87
413.589	87
413.812	79
414.035	93
414.258	91
414.482	84
414.705	79
414.928	83
415.151	91
415.374	94
415.597	81
415.821	96
416.044	86
416.267	83
416.49	87
416.713	85
416.936	75
417.159	85
417.382	85
417.605	82
417.828	72
418.051	81
418.274	75
418.497	83
418.72	72
418.943	83
419.166	86
419.389	88
419.611	88
419.834	87
420.057	93
420.28	93
420.503	77
420.726	74
420.948	85
421.171	86
421.394	97
421.617	95
421.839	75
422.062	81
422.285	97
422.507	87
422.73	106
422.953	90
423.175	72
423.398	93
423.621	93
423.843	95
424.066	82
424.288	74
424.511	64
424.733	102
424.956	93
425.178	86
425.401	99
425.623	89
425.846	77
426.068	88
426.291	87
426.513	87
426.735	93
426.958	93
427.18	96
427.402	117
427.625	146
427.847	109
428.069	92
428.292	79
428.514	90
428.736	72
428.958	75
429.181	87
429.403	100
429.625	89
429.847	82
430.069	85
430.292	87
430.514	77
430.736	91
430.958	91
431.18	65
431.402	87
431.624	89
431.846	83
432.068	84
432.29	80
432.512	88
432.734	82
432.956	85
433.178	85
433.4	96
433.622	106
433.844	71
434.066	83
434.287	81
434.509	99
434.731	91
434.953	112
435.175	75
435.397	90
435.618	80
435.84	105
436.062	116
436.284	101
436.505	93
436.727	97
436.949	95
437.17	94
437.392	82
437.614	98
437.835	96
438.057	105
438.278	111
438.5	95
438.721	126
438.943	105
439.165	79
439.386	77
439.608	86
439.829	81
440.05	105
440.272	122
440.493	95
440.715	85
440.936	94
441.158	84
441.379	86
441.6	89
441.822	97
442.043	73
442.264	104
442.486	103
442.707	104
442.928	89
443.149	119
443.371	94
443.592	97
443.813	101
444.034	93
444.255	79
444.476	83
444.698	79
444.919	74
445.14	131
445.361	108
445.582	99
445.803	122
446.024	102
446.245	117
446.466	120
446.687	94
446.908	95
447.129	87
447.35	95
447.571	93
447.792	94
448.013	111
448.234	95
448.455	98
448.675	105
448.896	116
449.117	110
449.338	97
449.559	119
449.779	116
450	93
450.221	93
450.442	89
450.662	97
450.883	100
451.104	98
451.324	105
451.545	86
451.766	89
451.986	80
452.207	97
452.428	88
452.648	93
452.869	98
453.089	111
453.31	110
453.53	81
453.751	88
453.971	87
454.192	108
454.412	97
454.633	73
454.853	85
455.073	82
455.294	85
455.514	88
455.734	95
455.955	85
456.175	83
456.395	82
456.616	88
456.836	89
457.056	84
457.276	85
457.497	85
457.717	65
457.937	86
458.157	84
458.377	100
458.598	101
458.818	128
459.038	141
459.258	93
459.478	82
459.698	85
459.918	89
460.138	79
460.358	72
460.578	77
460.798	68
461.018	86
461.238	98
461.458	93
461.678	103
461.898	98
462.118	82
462.338	74
462.558	89
462.777	80
462.997	93
463.217	91
463.437	74
463.657	75
463.876	86
464.096	80
464.316	76
464.536	91
464.755	91
464.975	94
465.195	155
465.414	122
465.634	87
465.854	75
466.073	85
466.293	90
466.512	87
466.732	83
466.951	98
467.171	83
467.391	92
467.61	97
467.829	84
468.049	89
468.268	93
468.488	98
468.707	84
468.927	95
469.146	75
469.365	80
469.585	85
469.804	94
470.023	92
470.243	97
470.462	101
470.681	102
470.901	82
471.12	80
471.339	97
471.558	80
471.777	87
471.997	77
472.216	90
472.435	83
472.654	87
472.873	95
473.092	79
473.311	74
473.53	83
473.749	87
473.968	96
474.187	96
474.406	87
474.625	95
474.844	87
475.063	94
475.282	90
475.501	83
475.72	98
475.939	86
476.158	80
476.377	90
476.596	86
476.814	85
477.033	83
477.252	86
477.471	81
477.69	75
477.908	104
478.127	99
478.346	86
478.564	95
478.783	94
479.002	81
479.22	90
479.439	98
479.658	103
479.876	97
480.095	87
480.313	89
480.532	95
480.751	91
480.969	104
481.188	107
481.406	104
481.624	92
481.843	90
482.061	95
482.28	84
482.498	91
482.717	84
482.935	79
483.153	100
483.372	105
483.59	83
483.808	90
484.027	96
484.245	85
484.463	87
484.681	95
484.9	91
485.118	85
485.336	83
485.554	98
485.772	106
485.99	97
486.209	85
486.427	96
486.645	110
486.863	114
487.081	97
487.299	95
487.517	93
487.735	107
487.953	98
488.171	84
488.389	94
488.607	100
488.825	69
489.043	63
489.261	93
489.479	93
489.696	86
489.914	81
490.132	84
490.35	88
490.568	95
490.786	89
491.003	102
491.221	96
491.439	79
491.657	89
491.874	95
492.092	96
492.31	94
492.527	95
492.745	85
492.963	81
493.18	73
493.398	94
493.615	91
493.833	84
494.05	82
494.268	83
494.485	97
494.703	94
494.92	92
495.138	87
495.355	79
495.573	78
495.79	91
496.008	83
496.225	96
496.442	95
496.66	79
496.877	101
497.094	109
497.312	95
497.529	87
497.746	92
497.963	92
498.181	93
498.398	88
498.615	102
498.832	96
499.049	90
499.267	81
499.484	100
499.701	96
499.918	88
500.135	93
500.352	89
500.569	75
500.786	98
501.003	89
501.22	90
501.437	81
501.654	97
501.871	91
502.088	95
502.305	103
502.522	85
502.739	93
502.956	86
503.172	84
503.389	96
503.606	97
503.823	96
504.04	101
504.256	91
504.473	81
504.69	93
504.907	95
505.123	76
505.34	96
505.557	95
505.773	77
505.99	80
506.207	106
506.423	83
506.64	83
506.856	87
507.073	94
507.289	89
507.506	96
507.722	97
507.939	125
508.155	101
508.372	93
508.588	89
508.805	104
509.021	101
509.238	102
509.454	96
509.67	104
509.887	96
510.103	126
510.319	192
510.536	645
510.752	2020
510.968	563
511.184	135
511.401	96
511.617	101
511.833	85
512.049	82
512.265	95
512.481	73
512.698	97
512.914	104
513.13	88
513.346	99
513.562	81
513.778	103
513.994	96
514.21	102
514.426	109
514.642	105
514.858	114
515.074	156
515.29	353
515.506	1198
515.721	453
515.937	130
516.153	107
516.369	89
516.585	103
516.801	81
517.016	74
517.232	87
517.448	97
517.664	73
517.879	80
518.095	97
518.311	95
518.527	95
518.742	99
518.958	79
519.173	95
519.389	90
519.605	96
519.82	101
520.036	116
520.251	116
520.467	113
520.682	101
520.898	102
521.113	108
521.329	145
521.544	183
521.76	461
521.975	1905
522.19	1165
522.406	263
522.621	117
522.836	88
523.052	94
523.267	90
523.482	85
523.698	103
523.913	102
524.128	87
524.343	94
524.559	96
524.774	82
524.989	90
525.204	94
525.419	85
525.634	97
525.849	80
526.064	86
526.28	75
526.495	101
526.71	86
526.925	87
527.14	81
527.355	87
527.57	88
527.785	83
527.999	89
528.214	103
528.429	96
528.644	100
528.859	83
529.074	102
529.289	105
529.503	140
529.718	106
529.933	83
530.148	96
530.363	99
530.577	79
530.792	88
531.007	102
531.221	91
531.436	105
531.651	114
531.865	103
532.08	97
532.295	93
532.509	82
532.724	95
532.938	77
533.153	93
533.367	89
533.582	89
533.796	91
534.011	88
534.225	83
534.44	82
534.654	89
534.868	101
535.083	106
535.297	83
535.511	101
535.726	98
535.94	94
536.154	102
536.369	92
536.583	101
536.797	97
537.011	81
537.225	92
537.44	82
537.654	99
537.868	85
538.082	99
538.296	64
538.51	97
538.724	93
538.938	96
539.153	95
539.367	89
539.581	87
539.795	90
540.009	100
540.222	86
540.436	110
540.65	97
540.864	91
541.078	96
541.292	93
541.506	91
541.72	88
541.934	92
542.147	80
542.361	90
542.575	94
542.789	98
543.002	81
543.216	87
543.43	85
543.644	76
543.857	93
544.071	87
544.285	90
544.498	92
544.712	88
544.925	86
545.139	95
545.352	93
545.566	70
545.779	95
545.993	78
546.206	94
546.42	88
546.633	97
546.847	91
547.06	104
547.274	85
547.487	88
547.7	73
547.914	83
548.127	91
548.34	73
548.554	93
548.767	88
548.98	93
549.193	74
549.407	96
549.62	104
549.833	87
550.046	90
550.259	71
550.473	88
550.686	85
550.899	77
551.112	86
551.325	86
551.538	88
551.751	95
551.964	93
552.177	88
552.39	87
552.603	90
552.816	86
553.029	84
553.242	83
553.455	96
553.667	102
553.88	101
554.093	115
554.306	96
554.519	99
554.732	98
554.944	85
555.157	74
555.37	96
555.583	90
555.795	93
556.008	95
556.221	85
556.433	93
556.646	101
556.859	75
557.071	87
557.284	92
557.496	96
557.709	93
557.921	99
558.134	96
558.346	95
558.559	94
558.771	88
558.984	88
559.196	80
559.409	81
559.621	84
559.833	87
560.046	95
560.258	84
560.47	83
560.683	95
560.895	73
561.107	77
561.32	92
561.532	89
561.744	103
561.956	90
562.168	93
562.381	89
562.593	85
562.805	97
563.017	99
563.229	91
563.441	89
563.653	81
563.865	102
564.077	87
564.289	81
564.501	83
564.713	102
564.925	99
565.137	97
565.349	97
565.561	77
565.773	97
565.985	82
566.197	84
566.408	94
566.62	87
566.832	89
567.044	79
567.255	90
567.467	105
567.679	91
567.891	72
568.102	83
568.314	88
568.526	81
568.737	83
568.949	96
569.161	82
569.372	76
569.584	93
569.795	94
570.007	127
570.218	207
570.43	128
570.641	74
570.853	97
571.064	90
571.276	95
571.487	89
571.698	94
571.91	83
572.121	90
572.333	78
572.544	84
572.755	82
572.966	88
573.178	83
573.389	89
573.6	84
573.811	83
574.023	78
574.234	91
574.445	96
574.656	84
574.867	91
575.078	83
575.289	90
575.501	90
575.712	91
575.923	94
576.134	110
576.345	75
576.556	97
576.767	99
576.978	89
577.188	79
577.399	77
577.61	99
577.821	103
578.032	122
578.243	244
578.454	648
578.665	210
578.875	93
579.086	78
579.297	91
579.508	85
579.718	95
579.929	96
580.14	81
580.35	83
580.561	101
580.772	77
580.982	82
581.193	81
581.403	89
581.614	76
581.825	81
582.035	78
582.246	85
582.456	76
582.667	102
582.877	79
583.087	92
583.298	91
583.508	89
583.719	89
583.929	84
584.139	101
584.35	74
584.56	83
584.77	82
584.981	96
585.191	88
585.401	89
585.611	78
585.821	99
586.032	89
586.242	79
