Data from Uncirc_1984_H10_HRD10591_00009.txt Node
Date: Wed Jan 03 12:21:39 EST 2024
User: Yrep
Spectrometer: HR+D1059
Trigger mode: 1
Integration Time (sec): 1.000000E-1
Scans to average: 1
Electric dark correction enabled: true
Nonlinearity correction enabled: false
Boxcar width: 0
XAxis mode: Wavelengths
Number of Pixels in Spectrum: 2048
>>>>>Begin Spectral Data<<<<<
223.165	-20.69
223.4	-20.69
223.635	-20.69
223.869	-21.69
224.104	-17.69
224.338	-6.69
224.573	1.31
224.808	-13.69
225.042	-22.69
225.277	-14.69
225.511	-3.69
225.746	17.31
225.98	8.31
226.215	8.31
226.449	11.31
226.683	26.31
226.918	18.31
227.152	30.31
227.387	31.31
227.621	29.31
227.856	33.31
228.09	35.31
228.324	62.31
228.559	66.31
228.793	52.31
229.027	69.31
229.262	72.31
229.496	80.31
229.73	79.31
229.964	82.31
230.199	54.31
230.433	68.31
230.667	79.31
230.901	79.31
231.136	86.31
231.37	89.31
231.604	61.31
231.838	75.31
232.072	81.31
232.306	89.31
232.541	58.31
232.775	73.31
233.009	101.31
233.243	91.31
233.477	87.31
233.711	84.31
233.945	73.31
234.179	72.31
234.413	75.31
234.647	75.31
234.881	77.31
235.115	74.31
235.349	77.31
235.583	84.31
235.817	81.31
236.051	70.31
236.285	85.31
236.519	75.31
236.753	72.31
236.987	87.31
237.221	70.31
237.455	89.31
237.689	79.31
237.922	82.31
238.156	72.31
238.39	79.31
238.624	89.31
238.858	69.31
239.091	79.31
239.325	89.31
239.559	70.31
239.793	67.31
240.027	70.31
240.26	84.31
240.494	65.31
240.728	60.31
240.961	83.31
241.195	70.31
241.429	72.31
241.662	73.31
241.896	73.31
242.13	85.31
242.363	84.31
242.597	77.31
242.83	86.31
243.064	79.31
243.298	73.31
243.531	79.31
243.765	81.31
243.998	67.31
244.232	70.31
244.465	79.31
244.699	71.31
244.932	72.31
245.166	72.31
245.399	84.31
245.633	79.31
245.866	81.31
246.099	82.31
246.333	75.31
246.566	70.31
246.8	84.31
247.033	70.31
247.266	100.31
247.5	80.31
247.733	91.31
247.966	82.31
248.2	78.31
248.433	79.31
248.666	86.31
248.899	67.31
249.133	80.31
249.366	89.31
249.599	80.31
249.832	91.31
250.066	85.31
250.299	83.31
250.532	83.31
250.765	71.31
250.998	87.31
251.231	82.31
251.465	74.31
251.698	73.31
251.931	75.31
252.164	80.31
252.397	75.31
252.63	74.31
252.863	75.31
253.096	86.31
253.329	68.31
253.562	81.31
253.795	71.31
254.028	91.31
254.261	81.31
254.494	77.31
254.727	70.31
254.96	95.31
255.193	84.31
255.426	91.31
255.659	80.31
255.892	80.31
256.124	83.31
256.357	83.31
256.59	70.31
256.823	71.31
257.056	84.31
257.289	79.31
257.521	75.31
257.754	81.31
257.987	82.31
258.22	74.31
258.452	75.31
258.685	84.31
258.918	83.31
259.151	82.31
259.383	75.31
259.616	81.31
259.849	81.31
260.081	88.31
260.314	79.31
260.547	74.31
260.779	73.31
261.012	85.31
261.244	89.31
261.477	95.31
261.71	99.31
261.942	121.31
262.175	117.31
262.407	80.31
262.64	81.31
262.872	88.31
263.105	83.31
263.337	98.31
263.57	79.31
263.802	86.31
264.035	77.31
264.267	85.31
264.499	83.31
264.732	86.31
264.964	74.31
265.197	80.31
265.429	101.31
265.661	89.31
265.894	77.31
266.126	79.31
266.358	79.31
266.591	94.31
266.823	72.31
267.055	83.31
267.287	79.31
267.52	74.31
267.752	82.31
267.984	73.31
268.216	66.31
268.448	99.31
268.681	80.31
268.913	87.31
269.145	82.31
269.377	83.31
269.609	76.31
269.841	90.31
270.073	76.31
270.306	81.31
270.538	93.31
270.77	73.31
271.002	71.31
271.234	97.31
271.466	74.31
271.698	84.31
271.93	94.31
272.162	87.31
272.394	75.31
272.626	80.31
272.858	91.31
273.09	91.31
273.322	84.31
273.553	84.31
273.785	91.31
274.017	71.31
274.249	89.31
274.481	91.31
274.713	76.31
274.945	83.31
275.176	73.31
275.408	84.31
275.64	99.31
275.872	79.31
276.104	99.31
276.335	90.31
276.567	104.31
276.799	106.31
277.031	89.31
277.262	90.31
277.494	83.31
277.726	75.31
277.957	92.31
278.189	83.31
278.421	91.31
278.652	84.31
278.884	100.31
279.115	86.31
279.347	87.31
279.579	82.31
279.81	90.31
280.042	76.31
280.273	85.31
280.505	93.31
280.736	82.31
280.968	83.31
281.199	87.31
281.431	92.31
281.662	74.31
281.894	81.31
282.125	90.31
282.356	108.31
282.588	107.31
282.819	108.31
283.051	81.31
283.282	92.31
283.513	101.31
283.745	92.31
283.976	76.31
284.207	87.31
284.439	87.31
284.67	88.31
284.901	76.31
285.132	89.31
285.364	89.31
285.595	96.31
285.826	85.31
286.057	93.31
286.288	92.31
286.52	92.31
286.751	95.31
286.982	79.31
287.213	89.31
287.444	97.31
287.675	82.31
287.906	89.31
288.138	97.31
288.369	99.31
288.6	76.31
288.831	91.31
289.062	86.31
289.293	87.31
289.524	90.31
289.755	89.31
289.986	81.31
290.217	80.31
290.448	86.31
290.679	87.31
290.91	91.31
291.141	100.31
291.371	86.31
291.602	84.31
291.833	86.31
292.064	83.31
292.295	81.31
292.526	95.31
292.757	94.31
292.987	93.31
293.218	93.31
293.449	83.31
293.68	99.31
293.91	75.31
294.141	95.31
294.372	87.31
294.603	94.31
294.833	102.31
295.064	91.31
295.295	91.31
295.525	96.31
295.756	81.31
295.987	105.31
296.217	127.31
296.448	111.31
296.679	91.31
296.909	98.31
297.14	96.31
297.37	83.31
297.601	67.31
297.831	96.31
298.062	81.31
298.292	79.31
298.523	85.31
298.753	98.31
298.984	93.31
299.214	90.31
299.445	97.31
299.675	86.31
299.905	96.31
300.136	84.31
300.366	72.31
300.597	95.31
300.827	85.31
301.057	99.31
301.288	83.31
301.518	104.31
301.748	90.31
301.979	97.31
302.209	78.31
302.439	97.31
302.669	96.31
302.9	101.31
303.13	98.31
303.36	108.31
303.59	100.31
303.82	99.31
304.051	99.31
304.281	104.31
304.511	97.31
304.741	95.31
304.971	92.31
305.201	100.31
305.431	74.31
305.661	87.31
305.891	96.31
306.121	80.31
306.352	87.31
306.582	100.31
306.812	81.31
307.042	91.31
307.272	93.31
307.502	90.31
307.731	87.31
307.961	89.31
308.191	87.31
308.421	113.31
308.651	90.31
308.881	92.31
309.111	91.31
309.341	91.31
309.571	91.31
309.8	79.31
310.03	97.31
310.26	103.31
310.49	104.31
310.72	95.31
310.949	107.31
311.179	115.31
311.409	100.31
311.639	94.31
311.868	95.31
312.098	97.31
312.328	88.31
312.557	108.31
312.787	104.31
313.017	103.31
313.246	94.31
313.476	87.31
313.706	85.31
313.935	86.31
314.165	98.31
314.394	103.31
314.624	115.31
314.853	97.31
315.083	95.31
315.312	102.31
315.542	101.31
315.771	93.31
316.001	87.31
316.23	83.31
316.46	105.31
316.689	91.31
316.919	91.31
317.148	103.31
317.377	89.31
317.607	107.31
317.836	98.31
318.065	104.31
318.295	87.31
318.524	84.31
318.753	91.31
318.983	97.31
319.212	104.31
319.441	107.31
319.67	97.31
319.9	93.31
320.129	98.31
320.358	100.31
320.587	103.31
320.816	104.31
321.046	97.31
321.275	99.31
321.504	97.31
321.733	108.31
321.962	91.31
322.191	93.31
322.42	98.31
322.649	100.31
322.878	112.31
323.108	118.31
323.337	119.31
323.566	119.31
323.795	131.31
324.024	180.31
324.253	331.31
324.482	685.31
324.71	1421.31
324.939	1847.31
325.168	701.31
325.397	222.31
325.626	142.31
325.855	124.31
326.084	116.31
326.313	119.31
326.542	147.31
326.77	211.31
326.999	398.31
327.228	819.31
327.457	1489.31
327.686	1170.31
327.914	316.31
328.143	171.31
328.372	118.31
328.6	125.31
328.829	124.31
329.058	109.31
329.287	124.31
329.515	107.31
329.744	105.31
329.972	95.31
330.201	95.31
330.43	108.31
330.658	113.31
330.887	127.31
331.115	111.31
331.344	107.31
331.572	89.31
331.801	91.31
332.03	89.31
332.258	91.31
332.486	91.31
332.715	92.31
332.943	87.31
333.172	87.31
333.4	85.31
333.629	94.31
333.857	108.31
334.085	111.31
334.314	91.31
334.542	90.31
334.771	98.31
334.999	101.31
335.227	96.31
335.455	102.31
335.684	89.31
335.912	93.31
336.14	91.31
336.369	102.31
336.597	100.31
336.825	113.31
337.053	98.31
337.281	98.31
337.51	92.31
337.738	95.31
337.966	82.31
338.194	90.31
338.422	89.31
338.65	83.31
338.878	96.31
339.106	88.31
339.334	98.31
339.562	90.31
339.79	100.31
340.018	99.31
340.246	93.31
340.474	92.31
340.702	82.31
340.93	92.31
341.158	75.31
341.386	105.31
341.614	88.31
341.842	87.31
342.07	83.31
342.298	101.31
342.526	87.31
342.754	101.31
342.981	79.31
343.209	83.31
343.437	104.31
343.665	104.31
343.893	91.31
344.12	105.31
344.348	86.31
344.576	94.31
344.804	85.31
345.031	91.31
345.259	97.31
345.487	87.31
345.714	100.31
345.942	82.31
346.17	89.31
346.397	90.31
346.625	75.31
346.853	76.31
347.08	94.31
347.308	103.31
347.535	91.31
347.763	89.31
347.99	100.31
348.218	85.31
348.445	106.31
348.673	97.31
348.9	109.31
349.128	90.31
349.355	102.31
349.583	103.31
349.81	84.31
350.037	96.31
350.265	86.31
350.492	94.31
350.72	100.31
350.947	117.31
351.174	98.31
351.402	112.31
351.629	88.31
351.856	102.31
352.083	97.31
352.311	100.31
352.538	102.31
352.765	102.31
352.992	122.31
353.22	92.31
353.447	90.31
353.674	96.31
353.901	95.31
354.128	92.31
354.355	92.31
354.583	89.31
354.81	100.31
355.037	93.31
355.264	104.31
355.491	101.31
355.718	88.31
355.945	99.31
356.172	97.31
356.399	77.31
356.626	100.31
356.853	97.31
357.08	89.31
357.307	102.31
357.534	108.31
357.761	98.31
357.988	92.31
358.215	98.31
358.441	97.31
358.668	71.31
358.895	102.31
359.122	99.31
359.349	99.31
359.576	99.31
359.802	90.31
360.029	110.31
360.256	105.31
360.483	93.31
360.709	99.31
360.936	94.31
361.163	95.31
361.39	102.31
361.616	81.31
361.843	88.31
362.07	96.31
362.296	89.31
362.523	83.31
362.749	105.31
362.976	90.31
363.203	96.31
363.429	98.31
363.656	102.31
363.882	94.31
364.109	80.31
364.335	90.31
364.562	85.31
364.788	82.31
365.015	102.31
365.241	89.31
365.468	106.31
365.694	97.31
365.92	97.31
366.147	81.31
366.373	76.31
366.599	69.31
366.826	88.31
367.052	83.31
367.278	75.31
367.505	97.31
367.731	97.31
367.957	93.31
368.184	81.31
368.41	95.31
368.636	114.31
368.862	114.31
369.089	97.31
369.315	86.31
369.541	81.31
369.767	83.31
369.993	93.31
370.219	89.31
370.445	91.31
370.672	91.31
370.898	96.31
371.124	94.31
371.35	84.31
371.576	91.31
371.802	77.31
372.028	83.31
372.254	96.31
372.48	84.31
372.706	102.31
372.932	87.31
373.158	93.31
373.384	85.31
373.61	84.31
373.835	96.31
374.061	80.31
374.287	94.31
374.513	84.31
374.739	104.31
374.965	74.31
375.191	88.31
375.416	105.31
375.642	96.31
375.868	91.31
376.094	100.31
376.319	87.31
376.545	81.31
376.771	92.31
376.997	100.31
377.222	89.31
377.448	95.31
377.674	89.31
377.899	87.31
378.125	99.31
378.35	93.31
378.576	97.31
378.802	96.31
379.027	92.31
379.253	81.31
379.478	99.31
379.704	96.31
379.929	101.31
380.155	94.31
380.38	90.31
380.606	93.31
380.831	94.31
381.057	105.31
381.282	87.31
381.507	102.31
381.733	91.31
381.958	85.31
382.184	100.31
382.409	72.31
382.634	92.31
382.86	108.31
383.085	116.31
383.31	106.31
383.535	113.31
383.761	108.31
383.986	101.31
384.211	93.31
384.436	107.31
384.662	99.31
384.887	76.31
385.112	109.31
385.337	111.31
385.562	108.31
385.787	91.31
386.013	116.31
386.238	107.31
386.463	107.31
386.688	120.31
386.913	107.31
387.138	113.31
387.363	104.31
387.588	109.31
387.813	108.31
388.038	116.31
388.263	123.31
388.488	120.31
388.713	101.31
388.938	99.31
389.163	91.31
389.387	100.31
389.612	107.31
389.837	103.31
390.062	96.31
390.287	77.31
390.512	87.31
390.736	84.31
390.961	91.31
391.186	96.31
391.411	92.31
391.636	83.31
391.86	79.31
392.085	89.31
392.31	84.31
392.534	97.31
392.759	85.31
392.984	92.31
393.208	101.31
393.433	83.31
393.658	90.31
393.882	82.31
394.107	89.31
394.331	82.31
394.556	81.31
394.78	88.31
395.005	91.31
395.229	93.31
395.454	80.31
395.678	91.31
395.903	83.31
396.127	85.31
396.352	92.31
396.576	96.31
396.801	94.31
397.025	99.31
397.249	97.31
397.474	97.31
397.698	78.31
397.922	82.31
398.147	72.31
398.371	90.31
398.595	65.31
398.82	89.31
399.044	96.31
399.268	95.31
399.492	96.31
399.717	84.31
399.941	71.31
400.165	83.31
400.389	76.31
400.613	93.31
400.837	83.31
401.062	92.31
401.286	91.31
401.51	97.31
401.734	81.31
401.958	89.31
402.182	113.31
402.406	140.31
402.63	104.31
402.854	70.31
403.078	101.31
403.302	94.31
403.526	93.31
403.75	74.31
403.974	93.31
404.198	89.31
404.422	87.31
404.645	87.31
404.869	103.31
405.093	80.31
405.317	93.31
405.541	101.31
405.765	88.31
405.988	112.31
406.212	143.31
406.436	187.31
406.66	120.31
406.883	98.31
407.107	89.31
407.331	92.31
407.555	99.31
407.778	82.31
408.002	105.31
408.226	100.31
408.449	88.31
408.673	88.31
408.896	89.31
409.12	101.31
409.344	111.31
409.567	97.31
409.791	95.31
410.014	83.31
410.238	81.31
410.461	92.31
410.685	90.31
410.908	92.31
411.132	104.31
411.355	83.31
411.578	101.31
411.802	89.31
412.025	85.31
412.249	92.31
412.472	84.31
412.695	84.31
412.919	76.31
413.142	81.31
413.365	87.31
413.589	88.31
413.812	94.31
414.035	99.31
414.258	85.31
414.482	92.31
414.705	79.31
414.928	95.31
415.151	75.31
415.374	86.31
415.597	94.31
415.821	82.31
416.044	85.31
416.267	85.31
416.49	84.31
416.713	97.31
416.936	96.31
417.159	76.31
417.382	83.31
417.605	93.31
417.828	99.31
418.051	92.31
418.274	75.31
418.497	90.31
418.72	91.31
418.943	89.31
419.166	83.31
419.389	81.31
419.611	86.31
419.834	89.31
420.057	84.31
420.28	86.31
420.503	89.31
420.726	92.31
420.948	114.31
421.171	85.31
421.394	90.31
421.617	95.31
421.839	97.31
422.062	88.31
422.285	112.31
422.507	90.31
422.73	105.31
422.953	92.31
423.175	83.31
423.398	82.31
423.621	94.31
423.843	92.31
424.066	85.31
424.288	83.31
424.511	91.31
424.733	87.31
424.956	106.31
425.178	98.31
425.401	91.31
425.623	118.31
425.846	91.31
426.068	99.31
426.291	102.31
426.513	85.31
426.735	91.31
426.958	79.31
427.18	111.31
427.402	136.31
427.625	147.31
427.847	109.31
428.069	109.31
428.292	82.31
428.514	92.31
428.736	82.31
428.958	84.31
429.181	85.31
429.403	77.31
429.625	75.31
429.847	82.31
430.069	91.31
430.292	106.31
430.514	101.31
430.736	81.31
430.958	92.31
431.18	81.31
431.402	81.31
431.624	81.31
431.846	89.31
432.068	107.31
432.29	80.31
432.512	99.31
432.734	91.31
432.956	105.31
433.178	104.31
433.4	93.31
433.622	84.31
433.844	83.31
434.066	91.31
434.287	81.31
434.509	84.31
434.731	93.31
434.953	97.31
435.175	94.31
435.397	90.31
435.618	104.31
435.84	96.31
436.062	114.31
436.284	104.31
436.505	97.31
436.727	111.31
436.949	93.31
437.17	83.31
437.392	81.31
437.614	86.31
437.835	87.31
438.057	104.31
438.278	106.31
438.5	109.31
438.721	109.31
438.943	91.31
439.165	89.31
439.386	96.31
439.608	100.31
439.829	100.31
440.05	108.31
440.272	126.31
440.493	103.31
440.715	93.31
440.936	91.31
441.158	80.31
441.379	80.31
441.6	83.31
441.822	96.31
442.043	96.31
442.264	108.31
442.486	103.31
442.707	93.31
442.928	99.31
443.149	116.31
443.371	117.31
443.592	104.31
443.813	100.31
444.034	111.31
444.255	94.31
444.476	80.31
444.698	81.31
444.919	89.31
445.14	135.31
445.361	126.31
445.582	123.31
445.803	114.31
446.024	124.31
446.245	112.31
446.466	100.31
446.687	86.31
446.908	73.31
447.129	79.31
447.35	87.31
447.571	83.31
447.792	100.31
448.013	85.31
448.234	96.31
448.455	110.31
448.675	114.31
448.896	120.31
449.117	94.31
449.338	110.31
449.559	112.31
449.779	114.31
450	85.31
450.221	86.31
450.442	98.31
450.662	108.31
450.883	83.31
451.104	97.31
451.324	87.31
451.545	75.31
451.766	78.31
451.986	95.31
452.207	75.31
452.428	96.31
452.648	96.31
452.869	98.31
453.089	106.31
453.31	108.31
453.53	82.31
453.751	72.31
453.971	83.31
454.192	94.31
454.412	91.31
454.633	81.31
454.853	85.31
455.073	97.31
455.294	86.31
455.514	100.31
455.734	83.31
455.955	81.31
456.175	90.31
456.395	64.31
456.616	85.31
456.836	87.31
457.056	87.31
457.276	91.31
457.497	87.31
457.717	83.31
457.937	82.31
458.157	94.31
458.377	87.31
458.598	95.31
458.818	132.31
459.038	134.31
459.258	106.31
459.478	87.31
459.698	90.31
459.918	85.31
460.138	87.31
460.358	85.31
460.578	84.31
460.798	81.31
461.018	88.31
461.238	97.31
461.458	81.31
461.678	86.31
461.898	76.31
462.118	81.31
462.338	88.31
462.558	87.31
462.777	87.31
462.997	77.31
463.217	98.31
463.437	91.31
463.657	87.31
463.876	85.31
464.096	74.31
464.316	95.31
464.536	99.31
464.755	100.31
464.975	99.31
465.195	129.31
465.414	162.31
465.634	101.31
465.854	81.31
466.073	88.31
466.293	81.31
466.512	89.31
466.732	84.31
466.951	80.31
467.171	93.31
467.391	95.31
467.61	97.31
467.829	101.31
468.049	91.31
468.268	80.31
468.488	90.31
468.707	89.31
468.927	89.31
469.146	84.31
469.365	88.31
469.585	101.31
469.804	99.31
470.023	91.31
470.243	101.31
470.462	83.31
470.681	119.31
470.901	90.31
471.12	88.31
471.339	87.31
471.558	97.31
471.777	84.31
471.997	81.31
472.216	88.31
472.435	76.31
472.654	92.31
472.873	86.31
473.092	84.31
473.311	95.31
473.53	96.31
473.749	87.31
473.968	95.31
474.187	89.31
474.406	88.31
474.625	77.31
474.844	83.31
475.063	89.31
475.282	87.31
475.501	74.31
475.72	97.31
475.939	92.31
476.158	88.31
476.377	67.31
476.596	80.31
476.814	93.31
477.033	91.31
477.252	89.31
477.471	84.31
477.69	101.31
477.908	91.31
478.127	92.31
478.346	93.31
478.564	87.31
478.783	89.31
479.002	83.31
479.22	99.31
479.439	99.31
479.658	106.31
479.876	87.31
480.095	87.31
480.313	87.31
480.532	96.31
480.751	91.31
480.969	86.31
481.188	105.31
481.406	83.31
481.624	78.31
481.843	82.31
482.061	79.31
482.28	70.31
482.498	86.31
482.717	83.31
482.935	91.31
483.153	91.31
483.372	89.31
483.59	92.31
483.808	80.31
484.027	89.31
484.245	89.31
484.463	89.31
484.681	95.31
484.9	92.31
485.118	102.31
485.336	96.31
485.554	101.31
485.772	87.31
485.99	114.31
486.209	102.31
486.427	106.31
486.645	107.31
486.863	110.31
487.081	100.31
487.299	99.31
487.517	89.31
487.735	94.31
487.953	89.31
488.171	83.31
488.389	91.31
488.607	83.31
488.825	85.31
489.043	107.31
489.261	98.31
489.479	88.31
489.696	75.31
489.914	93.31
490.132	79.31
490.35	87.31
490.568	97.31
490.786	91.31
491.003	81.31
491.221	89.31
491.439	90.31
491.657	80.31
491.874	85.31
492.092	81.31
492.31	70.31
492.527	83.31
492.745	91.31
492.963	85.31
493.18	86.31
493.398	98.31
493.615	102.31
493.833	91.31
494.05	88.31
494.268	91.31
494.485	88.31
494.703	77.31
494.92	87.31
495.138	97.31
495.355	99.31
495.573	87.31
495.79	84.31
496.008	88.31
496.225	103.31
496.442	94.31
496.66	95.31
496.877	100.31
497.094	102.31
497.312	82.31
497.529	102.31
497.746	81.31
497.963	102.31
498.181	78.31
498.398	91.31
498.615	101.31
498.832	98.31
499.049	83.31
499.267	85.31
499.484	87.31
499.701	95.31
499.918	85.31
500.135	81.31
500.352	83.31
500.569	103.31
500.786	109.31
501.003	101.31
501.22	82.31
501.437	63.31
501.654	102.31
501.871	95.31
502.088	111.31
502.305	94.31
502.522	80.31
502.739	100.31
502.956	90.31
503.172	90.31
503.389	87.31
503.606	94.31
503.823	100.31
504.04	88.31
504.256	90.31
504.473	75.31
504.69	80.31
504.907	102.31
505.123	98.31
505.34	88.31
505.557	82.31
505.773	103.31
505.99	85.31
506.207	81.31
506.423	99.31
506.64	70.31
506.856	92.31
507.073	103.31
507.289	97.31
507.506	93.31
507.722	100.31
507.939	99.31
508.155	100.31
508.372	88.31
508.588	90.31
508.805	91.31
509.021	99.31
509.238	111.31
509.454	103.31
509.67	116.31
509.887	112.31
510.103	126.31
510.319	207.31
510.536	617.31
510.752	1974.31
510.968	547.31
511.184	140.31
511.401	95.31
511.617	97.31
511.833	95.31
512.049	103.31
512.265	94.31
512.481	101.31
512.698	97.31
512.914	97.31
513.13	92.31
513.346	88.31
513.562	92.31
513.778	96.31
513.994	85.31
514.21	92.31
514.426	101.31
514.642	123.31
514.858	120.31
515.074	154.31
515.29	348.31
515.506	1147.31
515.721	438.31
515.937	130.31
