Data from Uncirc_1984_H10_HRD10591_00067.txt Node
Date: Wed Jan 03 12:21:50 EST 2024
User: Yrep
Spectrometer: HR+D1059
Trigger mode: 1
Integration Time (sec): 1.000000E-1
Scans to average: 1
Electric dark correction enabled: true
Nonlinearity correction enabled: false
Boxcar width: 0
XAxis mode: Wavelengths
Number of Pixels in Spectrum: 2048
>>>>>Begin Spectral Data<<<<<
223.165	-16.94
223.4	-16.94
223.635	-16.94
223.869	-11.94
224.104	-11.94
224.338	-16.94
224.573	-9.94
224.808	-18.94
225.042	-18.94
225.277	-12.94
225.511	2.06
225.746	6.06
225.98	4.06
226.215	13.06
226.449	9.06
226.683	23.06
226.918	25.06
227.152	36.06
227.387	31.06
227.621	34.06
227.856	47.06
228.09	28.06
228.324	47.06
228.559	54.06
228.793	49.06
229.027	56.06
229.262	62.06
229.496	72.06
229.73	57.06
229.964	66.06
230.199	79.06
230.433	82.06
230.667	75.06
230.901	80.06
231.136	74.06
231.37	76.06
231.604	79.06
231.838	93.06
232.072	81.06
232.306	75.06
232.541	70.06
232.775	85.06
233.009	86.06
233.243	80.06
233.477	85.06
233.711	85.06
233.945	70.06
234.179	68.06
234.413	78.06
234.647	87.06
234.881	85.06
235.115	62.06
235.349	83.06
235.583	81.06
235.817	72.06
236.051	85.06
236.285	87.06
236.519	72.06
236.753	86.06
236.987	85.06
237.221	81.06
237.455	79.06
237.689	71.06
237.922	94.06
238.156	74.06
238.39	66.06
238.624	80.06
238.858	73.06
239.091	79.06
239.325	74.06
239.559	93.06
239.793	70.06
240.027	77.06
240.26	66.06
240.494	55.06
240.728	78.06
240.961	69.06
241.195	63.06
241.429	71.06
241.662	70.06
241.896	70.06
242.13	73.06
242.363	73.06
242.597	65.06
242.83	61.06
243.064	77.06
243.298	80.06
243.531	67.06
243.765	75.06
243.998	76.06
244.232	86.06
244.465	70.06
244.699	90.06
244.932	78.06
245.166	75.06
245.399	93.06
245.633	81.06
245.866	72.06
246.099	77.06
246.333	66.06
246.566	72.06
246.8	71.06
247.033	68.06
247.266	71.06
247.5	78.06
247.733	85.06
247.966	85.06
248.2	59.06
248.433	84.06
248.666	75.06
248.899	88.06
249.133	78.06
249.366	85.06
249.599	87.06
249.832	75.06
250.066	84.06
250.299	73.06
250.532	71.06
250.765	81.06
250.998	77.06
251.231	79.06
251.465	71.06
251.698	78.06
251.931	73.06
252.164	71.06
252.397	79.06
252.63	80.06
252.863	93.06
253.096	68.06
253.329	86.06
253.562	77.06
253.795	78.06
254.028	81.06
254.261	85.06
254.494	82.06
254.727	71.06
254.96	81.06
255.193	84.06
255.426	69.06
255.659	75.06
255.892	73.06
256.124	83.06
256.357	79.06
256.59	82.06
256.823	82.06
257.056	73.06
257.289	89.06
257.521	73.06
257.754	77.06
257.987	82.06
258.22	81.06
258.452	79.06
258.685	94.06
258.918	70.06
259.151	81.06
259.383	81.06
259.616	73.06
259.849	83.06
260.081	81.06
260.314	94.06
260.547	79.06
260.779	89.06
261.012	61.06
261.244	82.06
261.477	77.06
261.71	88.06
261.942	85.06
262.175	100.06
262.407	90.06
262.64	69.06
262.872	81.06
263.105	66.06
263.337	87.06
263.57	85.06
263.802	81.06
264.035	66.06
264.267	91.06
264.499	93.06
264.732	79.06
264.964	84.06
265.197	75.06
265.429	67.06
265.661	78.06
265.894	85.06
266.126	93.06
266.358	81.06
266.591	78.06
266.823	78.06
267.055	85.06
267.287	81.06
267.52	75.06
267.752	75.06
267.984	67.06
268.216	81.06
268.448	91.06
268.681	67.06
268.913	77.06
269.145	88.06
269.377	77.06
269.609	91.06
269.841	86.06
270.073	94.06
270.306	80.06
270.538	68.06
270.77	87.06
271.002	100.06
271.234	92.06
271.466	85.06
271.698	87.06
271.93	84.06
272.162	91.06
272.394	87.06
272.626	82.06
272.858	91.06
273.09	91.06
273.322	87.06
273.553	63.06
273.785	72.06
274.017	95.06
274.249	79.06
274.481	91.06
274.713	81.06
274.945	84.06
275.176	98.06
275.408	92.06
275.64	82.06
275.872	77.06
276.104	88.06
276.335	99.06
276.567	91.06
276.799	97.06
277.031	95.06
277.262	80.06
277.494	94.06
277.726	82.06
277.957	77.06
278.189	79.06
278.421	87.06
278.652	83.06
278.884	91.06
279.115	97.06
279.347	67.06
279.579	74.06
279.81	78.06
280.042	88.06
280.273	87.06
280.505	80.06
280.736	88.06
280.968	80.06
281.199	77.06
281.431	86.06
281.662	82.06
281.894	84.06
282.125	81.06
282.356	103.06
282.588	131.06
282.819	109.06
283.051	88.06
283.282	83.06
283.513	79.06
283.745	85.06
283.976	85.06
284.207	82.06
284.439	72.06
284.67	83.06
284.901	81.06
285.132	87.06
285.364	98.06
285.595	81.06
285.826	81.06
286.057	93.06
286.288	86.06
286.52	83.06
286.751	88.06
286.982	83.06
287.213	85.06
287.444	82.06
287.675	91.06
287.906	87.06
288.138	88.06
288.369	87.06
288.6	112.06
288.831	91.06
289.062	99.06
289.293	82.06
289.524	84.06
289.755	98.06
289.986	97.06
290.217	87.06
290.448	73.06
290.679	81.06
290.91	83.06
291.141	81.06
291.371	73.06
291.602	96.06
291.833	72.06
292.064	88.06
292.295	89.06
292.526	94.06
292.757	82.06
292.987	75.06
293.218	83.06
293.449	90.06
293.68	92.06
293.91	90.06
294.141	104.06
294.372	91.06
294.603	87.06
294.833	82.06
295.064	97.06
295.295	90.06
295.525	105.06
295.756	91.06
295.987	92.06
296.217	114.06
296.448	107.06
296.679	97.06
296.909	91.06
297.14	93.06
297.37	88.06
297.601	82.06
297.831	78.06
298.062	79.06
298.292	93.06
298.523	84.06
298.753	90.06
298.984	91.06
299.214	93.06
299.445	95.06
299.675	86.06
299.905	90.06
300.136	82.06
300.366	86.06
300.597	94.06
300.827	97.06
301.057	94.06
301.288	103.06
301.518	73.06
301.748	86.06
301.979	103.06
302.209	96.06
302.439	82.06
302.669	98.06
302.9	75.06
303.13	72.06
303.36	98.06
303.59	73.06
303.82	91.06
304.051	86.06
304.281	88.06
304.511	81.06
304.741	94.06
304.971	95.06
305.201	94.06
305.431	100.06
305.661	92.06
305.891	89.06
306.121	96.06
306.352	85.06
306.582	101.06
306.812	85.06
307.042	97.06
307.272	89.06
307.502	87.06
307.731	95.06
307.961	86.06
308.191	90.06
308.421	79.06
308.651	83.06
308.881	98.06
309.111	91.06
309.341	87.06
309.571	84.06
309.8	99.06
310.03	95.06
310.26	101.06
310.49	85.06
310.72	94.06
310.949	101.06
311.179	98.06
311.409	94.06
311.639	84.06
311.868	108.06
312.098	81.06
312.328	84.06
312.557	90.06
312.787	100.06
313.017	117.06
313.246	93.06
313.476	81.06
313.706	87.06
313.935	99.06
314.165	96.06
314.394	94.06
314.624	87.06
314.853	91.06
315.083	97.06
315.312	89.06
315.542	81.06
315.771	90.06
316.001	84.06
316.23	74.06
316.46	96.06
316.689	93.06
316.919	87.06
317.148	87.06
317.377	86.06
317.607	99.06
317.836	97.06
318.065	105.06
318.295	93.06
318.524	93.06
318.753	97.06
318.983	86.06
319.212	91.06
319.441	97.06
319.67	101.06
319.9	93.06
320.129	82.06
320.358	103.06
320.587	101.06
320.816	103.06
321.046	103.06
321.275	103.06
321.504	89.06
321.733	95.06
321.962	96.06
322.191	87.06
322.42	95.06
322.649	105.06
322.878	102.06
323.108	101.06
323.337	118.06
323.566	126.06
323.795	135.06
324.024	183.06
324.253	347.06
324.482	712.06
324.71	1487.06
324.939	1926.06
325.168	690.06
325.397	205.06
325.626	145.06
325.855	115.06
326.084	114.06
326.313	121.06
326.542	154.06
326.77	205.06
326.999	401.06
327.228	819.06
327.457	1542.06
327.686	1241.06
327.914	342.06
328.143	176.06
328.372	130.06
328.6	109.06
328.829	112.06
329.058	121.06
329.287	116.06
329.515	98.06
329.744	100.06
329.972	105.06
330.201	95.06
330.43	102.06
330.658	103.06
330.887	125.06
331.115	119.06
331.344	88.06
331.572	98.06
331.801	108.06
332.03	98.06
332.258	83.06
332.486	80.06
332.715	86.06
332.943	92.06
333.172	96.06
333.4	88.06
333.629	104.06
333.857	104.06
334.085	87.06
334.314	92.06
334.542	94.06
334.771	101.06
334.999	84.06
335.227	85.06
335.455	97.06
335.684	95.06
335.912	101.06
336.14	86.06
336.369	101.06
336.597	83.06
336.825	95.06
337.053	86.06
337.281	93.06
337.51	89.06
337.738	86.06
337.966	93.06
338.194	92.06
338.422	94.06
338.65	103.06
338.878	89.06
339.106	93.06
339.334	77.06
339.562	89.06
339.79	101.06
340.018	84.06
340.246	90.06
340.474	76.06
340.702	83.06
340.93	75.06
341.158	102.06
341.386	102.06
341.614	86.06
341.842	90.06
342.07	99.06
342.298	98.06
342.526	77.06
342.754	73.06
342.981	82.06
343.209	87.06
343.437	94.06
343.665	98.06
343.893	80.06
344.12	98.06
344.348	102.06
344.576	84.06
344.804	85.06
345.031	82.06
345.259	97.06
345.487	94.06
345.714	98.06
345.942	100.06
346.17	85.06
346.397	88.06
346.625	81.06
346.853	105.06
347.08	112.06
347.308	96.06
347.535	79.06
347.763	103.06
347.99	89.06
348.218	105.06
348.445	95.06
348.673	73.06
348.9	95.06
349.128	77.06
349.355	82.06
349.583	97.06
349.81	84.06
350.037	81.06
350.265	83.06
350.492	100.06
350.72	94.06
350.947	110.06
351.174	96.06
351.402	90.06
351.629	88.06
351.856	94.06
352.083	106.06
352.311	94.06
352.538	101.06
352.765	114.06
352.992	113.06
353.22	104.06
353.447	117.06
353.674	93.06
353.901	105.06
354.128	89.06
354.355	86.06
354.583	89.06
354.81	105.06
355.037	104.06
355.264	90.06
355.491	101.06
355.718	97.06
355.945	87.06
356.172	101.06
356.399	92.06
356.626	96.06
356.853	86.06
357.08	86.06
357.307	101.06
357.534	103.06
357.761	97.06
357.988	91.06
358.215	93.06
358.441	85.06
358.668	89.06
358.895	83.06
359.122	98.06
359.349	87.06
359.576	107.06
359.802	93.06
360.029	111.06
360.256	94.06
360.483	89.06
360.709	93.06
360.936	85.06
361.163	94.06
361.39	81.06
361.616	75.06
361.843	91.06
362.07	85.06
362.296	88.06
362.523	85.06
362.749	96.06
362.976	91.06
363.203	103.06
363.429	84.06
363.656	79.06
363.882	79.06
364.109	81.06
364.335	85.06
364.562	89.06
364.788	91.06
365.015	98.06
365.241	95.06
365.468	90.06
365.694	93.06
365.92	78.06
366.147	105.06
366.373	92.06
366.599	81.06
366.826	87.06
367.052	83.06
367.278	94.06
367.505	71.06
367.731	90.06
367.957	87.06
368.184	83.06
368.41	87.06
368.636	106.06
368.862	112.06
369.089	107.06
369.315	83.06
369.541	103.06
369.767	90.06
369.993	86.06
370.219	92.06
370.445	98.06
370.672	89.06
370.898	90.06
371.124	73.06
371.35	90.06
371.576	77.06
371.802	75.06
372.028	82.06
372.254	86.06
372.48	95.06
372.706	82.06
372.932	67.06
373.158	86.06
373.384	72.06
373.61	85.06
373.835	86.06
374.061	98.06
374.287	87.06
374.513	97.06
374.739	87.06
374.965	95.06
375.191	89.06
375.416	86.06
375.642	98.06
375.868	78.06
376.094	85.06
376.319	90.06
376.545	79.06
376.771	93.06
376.997	75.06
377.222	95.06
377.448	85.06
377.674	82.06
377.899	108.06
378.125	88.06
378.35	82.06
378.576	86.06
378.802	94.06
379.027	81.06
379.253	76.06
379.478	89.06
379.704	75.06
379.929	90.06
380.155	101.06
380.38	85.06
380.606	86.06
380.831	93.06
381.057	105.06
381.282	95.06
381.507	81.06
381.733	85.06
381.958	104.06
382.184	97.06
382.409	80.06
382.634	105.06
382.86	99.06
383.085	90.06
383.31	102.06
383.535	97.06
383.761	88.06
383.986	96.06
384.211	87.06
384.436	95.06
384.662	98.06
384.887	92.06
385.112	83.06
385.337	95.06
385.562	85.06
385.787	107.06
386.013	106.06
386.238	111.06
386.463	95.06
386.688	111.06
386.913	94.06
387.138	77.06
387.363	85.06
387.588	92.06
387.813	96.06
388.038	93.06
388.263	110.06
388.488	86.06
388.713	89.06
388.938	90.06
389.163	90.06
389.387	108.06
389.612	102.06
389.837	83.06
390.062	67.06
390.287	88.06
390.512	80.06
390.736	84.06
390.961	91.06
391.186	100.06
391.411	84.06
391.636	89.06
391.86	80.06
392.085	70.06
392.31	90.06
392.534	83.06
392.759	87.06
392.984	88.06
393.208	85.06
393.433	83.06
393.658	90.06
393.882	87.06
394.107	80.06
394.331	83.06
394.556	68.06
394.78	80.06
395.005	90.06
395.229	72.06
395.454	81.06
395.678	86.06
395.903	81.06
396.127	98.06
396.352	87.06
396.576	87.06
396.801	83.06
397.025	79.06
397.249	92.06
397.474	84.06
397.698	94.06
397.922	91.06
398.147	69.06
398.371	73.06
398.595	72.06
398.82	77.06
399.044	86.06
399.268	91.06
399.492	74.06
399.717	95.06
399.941	94.06
400.165	83.06
400.389	84.06
400.613	89.06
400.837	79.06
401.062	81.06
401.286	94.06
401.51	83.06
401.734	79.06
401.958	84.06
402.182	107.06
402.406	132.06
402.63	118.06
402.854	101.06
403.078	97.06
403.302	113.06
403.526	90.06
403.75	85.06
403.974	81.06
404.198	80.06
404.422	82.06
404.645	95.06
404.869	89.06
405.093	85.06
405.317	92.06
405.541	81.06
405.765	101.06
405.988	90.06
406.212	146.06
406.436	184.06
406.66	128.06
406.883	98.06
407.107	110.06
407.331	89.06
407.555	77.06
407.778	84.06
408.002	79.06
408.226	94.06
408.449	88.06
408.673	104.06
408.896	91.06
409.12	83.06
409.344	88.06
409.567	74.06
409.791	89.06
410.014	79.06
410.238	81.06
410.461	79.06
410.685	92.06
410.908	93.06
411.132	98.06
411.355	103.06
411.578	86.06
411.802	100.06
412.025	96.06
412.249	82.06
412.472	85.06
412.695	85.06
412.919	95.06
413.142	93.06
413.365	88.06
413.589	84.06
413.812	99.06
414.035	90.06
414.258	93.06
414.482	98.06
414.705	104.06
414.928	96.06
415.151	96.06
415.374	102.06
415.597	79.06
415.821	77.06
416.044	79.06
416.267	86.06
416.49	85.06
416.713	67.06
416.936	92.06
417.159	75.06
417.382	90.06
417.605	94.06
417.828	101.06
418.051	88.06
418.274	102.06
418.497	79.06
418.72	98.06
418.943	90.06
419.166	80.06
419.389	86.06
419.611	94.06
419.834	83.06
420.057	75.06
420.28	81.06
420.503	90.06
420.726	85.06
420.948	96.06
421.171	81.06
421.394	94.06
421.617	97.06
421.839	79.06
422.062	87.06
422.285	88.06
422.507	106.06
422.73	97.06
422.953	98.06
423.175	79.06
423.398	78.06
423.621	101.06
423.843	85.06
424.066	70.06
424.288	83.06
424.511	83.06
424.733	82.06
424.956	97.06
425.178	94.06
425.401	94.06
425.623	105.06
425.846	79.06
426.068	76.06
426.291	70.06
426.513	86.06
426.735	79.06
426.958	88.06
427.18	107.06
427.402	122.06
427.625	143.06
427.847	113.06
428.069	89.06
428.292	85.06
428.514	70.06
428.736	85.06
428.958	86.06
429.181	79.06
429.403	92.06
429.625	89.06
429.847	90.06
430.069	109.06
430.292	88.06
430.514	78.06
430.736	91.06
430.958	93.06
431.18	87.06
431.402	86.06
431.624	77.06
431.846	74.06
432.068	81.06
432.29	94.06
432.512	102.06
432.734	80.06
432.956	84.06
433.178	83.06
433.4	95.06
433.622	101.06
433.844	78.06
434.066	85.06
434.287	87.06
434.509	90.06
434.731	89.06
434.953	85.06
435.175	105.06
435.397	97.06
435.618	101.06
435.84	91.06
436.062	122.06
436.284	117.06
436.505	97.06
436.727	87.06
436.949	93.06
437.17	88.06
437.392	82.06
437.614	79.06
437.835	97.06
438.057	95.06
438.278	101.06
438.5	104.06
438.721	119.06
438.943	97.06
439.165	90.06
439.386	86.06
439.608	88.06
439.829	85.06
440.05	115.06
440.272	121.06
440.493	86.06
440.715	74.06
440.936	85.06
441.158	81.06
441.379	72.06
441.6	85.06
441.822	83.06
442.043	90.06
442.264	98.06
442.486	102.06
442.707	78.06
442.928	101.06
443.149	114.06
443.371	125.06
443.592	103.06
443.813	103.06
444.034	111.06
444.255	88.06
444.476	85.06
444.698	90.06
444.919	74.06
445.14	128.06
445.361	106.06
445.582	87.06
445.803	111.06
446.024	115.06
446.245	121.06
446.466	102.06
446.687	71.06
446.908	91.06
447.129	80.06
447.35	90.06
447.571	91.06
447.792	84.06
448.013	94.06
448.234	101.06
448.455	93.06
448.675	104.06
448.896	103.06
449.117	88.06
449.338	94.06
449.559	108.06
449.779	106.06
450	92.06
450.221	69.06
450.442	77.06
450.662	93.06
450.883	91.06
451.104	113.06
451.324	89.06
451.545	96.06
451.766	90.06
451.986	80.06
452.207	91.06
452.428	83.06
452.648	75.06
452.869	102.06
453.089	109.06
453.31	98.06
453.53	83.06
453.751	94.06
453.971	88.06
454.192	97.06
454.412	101.06
454.633	98.06
454.853	74.06
455.073	66.06
455.294	86.06
455.514	93.06
455.734	86.06
455.955	81.06
456.175	89.06
456.395	79.06
456.616	72.06
456.836	83.06
457.056	79.06
457.276	74.06
457.497	72.06
457.717	71.06
457.937	81.06
458.157	89.06
458.377	78.06
458.598	99.06
458.818	105.06
459.038	144.06
459.258	109.06
459.478	98.06
459.698	76.06
459.918	79.06
460.138	83.06
460.358	102.06
460.578	97.06
460.798	85.06
461.018	81.06
461.238	94.06
461.458	87.06
461.678	81.06
461.898	83.06
462.118	90.06
462.338	74.06
462.558	73.06
462.777	85.06
462.997	72.06
463.217	83.06
463.437	83.06
463.657	76.06
463.876	88.06
464.096	86.06
464.316	88.06
464.536	85.06
464.755	90.06
464.975	114.06
465.195	118.06
465.414	141.06
465.634	96.06
465.854	78.06
466.073	84.06
466.293	87.06
466.512	80.06
466.732	90.06
466.951	87.06
467.171	78.06
467.391	96.06
467.61	102.06
467.829	107.06
468.049	85.06
468.268	93.06
468.488	87.06
468.707	85.06
468.927	82.06
469.146	97.06
469.365	81.06
469.585	77.06
469.804	102.06
470.023	85.06
470.243	86.06
470.462	78.06
470.681	97.06
470.901	87.06
471.12	89.06
471.339	93.06
471.558	87.06
471.777	98.06
471.997	74.06
472.216	80.06
472.435	97.06
472.654	100.06
472.873	87.06
473.092	89.06
473.311	93.06
473.53	85.06
473.749	82.06
473.968	93.06
474.187	95.06
474.406	100.06
474.625	88.06
474.844	81.06
475.063	85.06
475.282	78.06
475.501	79.06
475.72	92.06
475.939	82.06
476.158	89.06
476.377	91.06
476.596	84.06
476.814	94.06
477.033	81.06
477.252	83.06
477.471	77.06
477.69	96.06
477.908	95.06
478.127	81.06
478.346	90.06
478.564	98.06
478.783	78.06
479.002	92.06
479.22	95.06
479.439	102.06
479.658	94.06
479.876	95.06
480.095	82.06
480.313	83.06
480.532	95.06
480.751	86.06
480.969	95.06
481.188	105.06
481.406	90.06
481.624	82.06
481.843	91.06
482.061	99.06
482.28	83.06
482.498	78.06
482.717	86.06
482.935	81.06
483.153	86.06
483.372	96.06
483.59	92.06
483.808	93.06
484.027	79.06
484.245	89.06
484.463	81.06
484.681	94.06
484.9	88.06
485.118	94.06
485.336	92.06
485.554	84.06
485.772	81.06
485.99	105.06
486.209	95.06
486.427	94.06
486.645	100.06
486.863	77.06
487.081	86.06
487.299	108.06
487.517	85.06
487.735	107.06
487.953	81.06
488.171	91.06
488.389	83.06
488.607	99.06
488.825	78.06
489.043	80.06
489.261	87.06
489.479	78.06
489.696	85.06
489.914	81.06
490.132	100.06
490.35	89.06
490.568	74.06
490.786	95.06
491.003	83.06
491.221	78.06
491.439	85.06
491.657	91.06
491.874	97.06
492.092	91.06
492.31	92.06
492.527	83.06
492.745	81.06
492.963	86.06
493.18	88.06
493.398	77.06
493.615	87.06
493.833	88.06
494.05	98.06
494.268	92.06
494.485	91.06
494.703	92.06
494.92	89.06
495.138	78.06
495.355	87.06
495.573	95.06
495.79	95.06
496.008	79.06
496.225	95.06
496.442	86.06
496.66	90.06
496.877	82.06
497.094	93.06
497.312	89.06
497.529	87.06
497.746	88.06
497.963	99.06
498.181	89.06
498.398	87.06
498.615	107.06
498.832	89.06
499.049	82.06
499.267	87.06
499.484	91.06
499.701	86.06
499.918	98.06
500.135	97.06
500.352	85.06
500.569	98.06
500.786	89.06
501.003	79.06
501.22	82.06
501.437	90.06
501.654	90.06
501.871	99.06
502.088	81.06
502.305	84.06
502.522	88.06
502.739	91.06
502.956	84.06
503.172	89.06
503.389	81.06
503.606	69.06
503.823	111.06
504.04	83.06
504.256	97.06
504.473	80.06
504.69	95.06
504.907	90.06
505.123	82.06
505.34	100.06
505.557	85.06
505.773	99.06
505.99	91.06
506.207	93.06
506.423	77.06
506.64	86.06
506.856	81.06
507.073	95.06
507.289	82.06
507.506	96.06
507.722	94.06
507.939	111.06
508.155	102.06
508.372	99.06
508.588	91.06
508.805	90.06
509.021	84.06
509.238	101.06
509.454	87.06
509.67	94.06
509.887	108.06
510.103	135.06
510.319	188.06
510.536	675.06
510.752	2039.06
510.968	585.06
511.184	137.06
511.401	109.06
511.617	99.06
511.833	81.06
512.049	92.06
512.265	89.06
512.481	95.06
512.698	90.06
512.914	102.06
513.13	100.06
513.346	101.06
513.562	104.06
513.778	96.06
513.994	96.06
514.21	97.06
514.426	108.06
514.642	110.06
514.858	121.06
515.074	122.06
515.29	363.06
515.506	1205.06
515.721	443.06
515.937	144.06
516.153	106.06
516.369	101.06
516.585	99.06
516.801	103.06
517.016	95.06
