Data from Uncirc_1984_H10_HRD10591_00002.txt Node
Date: Wed Jan 03 12:21:37 EST 2024
User: Yrep
Spectrometer: HR+D1059
Trigger mode: 1
Integration Time (sec): 1.000000E-1
Scans to average: 1
Electric dark correction enabled: true
Nonlinearity correction enabled: false
Boxcar width: 0
XAxis mode: Wavelengths
Number of Pixels in Spectrum: 2048
>>>>>Begin Spectral Data<<<<<
223.165	-17.94
223.4	-17.94
223.635	-17.94
223.869	-24.94
224.104	-19.94
224.338	-25.94
224.573	-6.94
224.808	-19.94
225.042	-5.94
225.277	-2.94
225.511	-7.94
225.746	18.06
225.98	9.06
226.215	13.06
226.449	13.06
226.683	22.06
226.918	29.06
227.152	28.06
227.387	46.06
227.621	40.06
227.856	40.06
228.09	45.06
228.324	43.06
228.559	71.06
228.793	54.06
229.027	67.06
229.262	71.06
229.496	64.06
229.73	57.06
229.964	71.06
230.199	69.06
230.433	90.06
230.667	77.06
230.901	86.06
231.136	70.06
231.37	80.06
231.604	63.06
231.838	77.06
232.072	91.06
232.306	92.06
232.541	90.06
232.775	82.06
233.009	77.06
233.243	84.06
233.477	86.06
233.711	80.06
233.945	85.06
234.179	80.06
234.413	76.06
234.647	86.06
234.881	83.06
235.115	77.06
235.349	88.06
235.583	80.06
235.817	75.06
236.051	74.06
236.285	92.06
236.519	72.06
236.753	87.06
236.987	73.06
237.221	82.06
237.455	78.06
237.689	85.06
237.922	84.06
238.156	65.06
238.39	82.06
238.624	73.06
238.858	86.06
239.091	86.06
239.325	73.06
239.559	85.06
239.793	75.06
240.027	90.06
240.26	74.06
240.494	68.06
240.728	72.06
240.961	74.06
241.195	73.06
241.429	101.06
241.662	75.06
241.896	65.06
242.13	82.06
242.363	84.06
242.597	70.06
242.83	67.06
243.064	81.06
243.298	77.06
243.531	84.06
243.765	71.06
243.998	76.06
244.232	87.06
244.465	63.06
244.699	96.06
244.932	77.06
245.166	65.06
245.399	81.06
245.633	84.06
245.866	88.06
246.099	90.06
246.333	83.06
246.566	75.06
246.8	90.06
247.033	82.06
247.266	80.06
247.5	66.06
247.733	81.06
247.966	90.06
248.2	80.06
248.433	70.06
248.666	70.06
248.899	86.06
249.133	80.06
249.366	88.06
249.599	98.06
249.832	71.06
250.066	82.06
250.299	75.06
250.532	75.06
250.765	87.06
250.998	80.06
251.231	90.06
251.465	90.06
251.698	81.06
251.931	86.06
252.164	98.06
252.397	78.06
252.63	76.06
252.863	80.06
253.096	87.06
253.329	70.06
253.562	75.06
253.795	70.06
254.028	79.06
254.261	89.06
254.494	81.06
254.727	70.06
254.96	80.06
255.193	86.06
255.426	85.06
255.659	68.06
255.892	77.06
256.124	84.06
256.357	82.06
256.59	78.06
256.823	95.06
257.056	86.06
257.289	86.06
257.521	85.06
257.754	83.06
257.987	85.06
258.22	96.06
258.452	80.06
258.685	85.06
258.918	76.06
259.151	78.06
259.383	89.06
259.616	92.06
259.849	89.06
260.081	78.06
260.314	80.06
260.547	82.06
260.779	81.06
261.012	84.06
261.244	82.06
261.477	93.06
261.71	102.06
261.942	102.06
262.175	104.06
262.407	93.06
262.64	75.06
262.872	77.06
263.105	78.06
263.337	98.06
263.57	78.06
263.802	80.06
264.035	83.06
264.267	90.06
264.499	89.06
264.732	88.06
264.964	80.06
265.197	86.06
265.429	78.06
265.661	91.06
265.894	84.06
266.126	89.06
266.358	89.06
266.591	99.06
266.823	81.06
267.055	75.06
267.287	94.06
267.52	93.06
267.752	101.06
267.984	94.06
268.216	84.06
268.448	87.06
268.681	89.06
268.913	103.06
269.145	69.06
269.377	84.06
269.609	83.06
269.841	86.06
270.073	76.06
270.306	93.06
270.538	91.06
270.77	95.06
271.002	101.06
271.234	84.06
271.466	92.06
271.698	88.06
271.93	88.06
272.162	89.06
272.394	87.06
272.626	79.06
272.858	81.06
273.09	84.06
273.322	92.06
273.553	89.06
273.785	87.06
274.017	86.06
274.249	80.06
274.481	85.06
274.713	83.06
274.945	92.06
275.176	82.06
275.408	77.06
275.64	104.06
275.872	88.06
276.104	104.06
276.335	82.06
276.567	96.06
276.799	101.06
277.031	91.06
277.262	89.06
277.494	99.06
277.726	85.06
277.957	85.06
278.189	95.06
278.421	94.06
278.652	93.06
278.884	84.06
279.115	89.06
279.347	91.06
279.579	84.06
279.81	83.06
280.042	89.06
280.273	83.06
280.505	89.06
280.736	95.06
280.968	94.06
281.199	77.06
281.431	99.06
281.662	86.06
281.894	92.06
282.125	91.06
282.356	110.06
282.588	136.06
282.819	104.06
283.051	92.06
283.282	74.06
283.513	89.06
283.745	88.06
283.976	94.06
284.207	97.06
284.439	94.06
284.67	90.06
284.901	101.06
285.132	102.06
285.364	78.06
285.595	92.06
285.826	91.06
286.057	93.06
286.288	68.06
286.52	92.06
286.751	95.06
286.982	100.06
287.213	85.06
287.444	90.06
287.675	81.06
287.906	88.06
288.138	102.06
288.369	91.06
288.6	101.06
288.831	91.06
289.062	85.06
289.293	92.06
289.524	86.06
289.755	84.06
289.986	105.06
290.217	89.06
290.448	86.06
290.679	94.06
290.91	89.06
291.141	80.06
291.371	87.06
291.602	87.06
291.833	81.06
292.064	92.06
292.295	98.06
292.526	80.06
292.757	87.06
292.987	90.06
293.218	86.06
293.449	90.06
293.68	103.06
293.91	97.06
294.141	89.06
294.372	85.06
294.603	89.06
294.833	81.06
295.064	93.06
295.295	84.06
295.525	104.06
295.756	97.06
295.987	104.06
296.217	118.06
296.448	115.06
296.679	103.06
296.909	92.06
297.14	102.06
297.37	92.06
297.601	88.06
297.831	73.06
298.062	90.06
298.292	94.06
298.523	96.06
298.753	94.06
298.984	88.06
299.214	96.06
299.445	87.06
299.675	102.06
299.905	96.06
300.136	89.06
300.366	89.06
300.597	99.06
300.827	107.06
301.057	101.06
301.288	88.06
301.518	85.06
301.748	77.06
301.979	88.06
302.209	94.06
302.439	91.06
302.669	76.06
302.9	77.06
303.13	90.06
303.36	94.06
303.59	88.06
303.82	98.06
304.051	89.06
304.281	88.06
304.511	98.06
304.741	93.06
304.971	104.06
305.201	103.06
305.431	88.06
305.661	76.06
305.891	89.06
306.121	98.06
306.352	86.06
306.582	98.06
306.812	99.06
307.042	101.06
307.272	95.06
307.502	88.06
307.731	91.06
307.961	98.06
308.191	92.06
308.421	80.06
308.651	97.06
308.881	93.06
309.111	107.06
309.341	86.06
309.571	95.06
309.8	108.06
310.03	92.06
310.26	97.06
310.49	100.06
310.72	81.06
310.949	89.06
311.179	97.06
311.409	93.06
311.639	89.06
311.868	88.06
312.098	94.06
312.328	96.06
312.557	92.06
312.787	90.06
313.017	108.06
313.246	94.06
313.476	90.06
313.706	103.06
313.935	96.06
314.165	95.06
314.394	96.06
314.624	88.06
314.853	103.06
315.083	92.06
315.312	77.06
315.542	92.06
315.771	91.06
316.001	91.06
316.23	92.06
316.46	96.06
316.689	89.06
316.919	90.06
317.148	89.06
317.377	94.06
317.607	78.06
317.836	100.06
318.065	102.06
318.295	94.06
318.524	80.06
318.753	92.06
318.983	114.06
319.212	103.06
319.441	90.06
319.67	90.06
319.9	91.06
320.129	83.06
320.358	107.06
320.587	98.06
320.816	97.06
321.046	86.06
321.275	107.06
321.504	99.06
321.733	102.06
321.962	88.06
322.191	91.06
322.42	104.06
322.649	107.06
322.878	104.06
323.108	94.06
323.337	116.06
323.566	99.06
323.795	130.06
324.024	178.06
324.253	299.06
324.482	615.06
324.71	1256.06
324.939	1639.06
325.168	600.06
325.397	201.06
325.626	129.06
325.855	123.06
326.084	118.06
326.313	112.06
326.542	144.06
326.77	186.06
326.999	357.06
327.228	716.06
327.457	1318.06
327.686	1064.06
327.914	299.06
328.143	148.06
328.372	111.06
328.6	98.06
328.829	96.06
329.058	106.06
329.287	114.06
329.515	108.06
329.744	109.06
329.972	94.06
330.201	108.06
330.43	109.06
330.658	107.06
330.887	101.06
331.115	110.06
331.344	110.06
331.572	93.06
331.801	106.06
332.03	100.06
332.258	94.06
332.486	86.06
332.715	85.06
332.943	86.06
333.172	97.06
333.4	98.06
333.629	91.06
333.857	97.06
334.085	92.06
334.314	83.06
334.542	98.06
334.771	105.06
334.999	96.06
335.227	105.06
335.455	105.06
335.684	104.06
335.912	100.06
336.14	77.06
336.369	80.06
336.597	82.06
336.825	109.06
337.053	108.06
337.281	92.06
337.51	80.06
337.738	76.06
337.966	90.06
338.194	107.06
338.422	94.06
338.65	105.06
338.878	90.06
339.106	81.06
339.334	101.06
339.562	99.06
339.79	84.06
340.018	88.06
340.246	82.06
340.474	76.06
340.702	95.06
340.93	106.06
341.158	97.06
341.386	92.06
341.614	94.06
341.842	90.06
342.07	105.06
342.298	101.06
342.526	88.06
342.754	87.06
342.981	84.06
343.209	84.06
343.437	97.06
343.665	94.06
343.893	87.06
344.12	93.06
344.348	77.06
344.576	87.06
344.804	100.06
345.031	109.06
345.259	85.06
345.487	100.06
345.714	84.06
345.942	89.06
346.17	89.06
346.397	97.06
346.625	102.06
346.853	105.06
347.08	87.06
347.308	101.06
347.535	106.06
347.763	98.06
347.99	103.06
348.218	106.06
348.445	95.06
348.673	106.06
348.9	94.06
349.128	101.06
349.355	99.06
349.583	92.06
349.81	106.06
350.037	92.06
350.265	90.06
350.492	101.06
350.72	97.06
350.947	98.06
351.174	93.06
351.402	107.06
351.629	100.06
351.856	95.06
352.083	97.06
352.311	101.06
352.538	105.06
352.765	110.06
352.992	114.06
353.22	118.06
353.447	101.06
353.674	98.06
353.901	116.06
354.128	93.06
354.355	101.06
354.583	96.06
354.81	101.06
355.037	93.06
355.264	99.06
355.491	91.06
355.718	91.06
355.945	98.06
356.172	92.06
356.399	98.06
356.626	98.06
356.853	107.06
357.08	105.06
357.307	102.06
357.534	105.06
357.761	97.06
357.988	105.06
358.215	106.06
358.441	91.06
358.668	107.06
358.895	96.06
359.122	91.06
359.349	106.06
359.576	84.06
359.802	86.06
360.029	91.06
360.256	105.06
360.483	93.06
360.709	93.06
360.936	101.06
361.163	108.06
361.39	91.06
361.616	98.06
361.843	96.06
362.07	88.06
362.296	94.06
362.523	94.06
362.749	86.06
362.976	88.06
363.203	98.06
363.429	79.06
363.656	88.06
363.882	86.06
364.109	96.06
364.335	84.06
364.562	96.06
364.788	99.06
365.015	96.06
365.241	92.06
365.468	107.06
365.694	98.06
365.92	100.06
366.147	85.06
366.373	87.06
366.599	89.06
366.826	87.06
367.052	108.06
367.278	104.06
367.505	98.06
367.731	85.06
367.957	71.06
368.184	95.06
368.41	91.06
368.636	106.06
368.862	116.06
369.089	100.06
369.315	84.06
369.541	94.06
369.767	76.06
369.993	102.06
370.219	89.06
370.445	92.06
370.672	87.06
370.898	88.06
371.124	104.06
371.35	94.06
371.576	86.06
371.802	96.06
372.028	67.06
372.254	85.06
372.48	83.06
372.706	94.06
372.932	93.06
373.158	95.06
373.384	93.06
373.61	84.06
373.835	95.06
374.061	97.06
374.287	78.06
374.513	86.06
374.739	108.06
374.965	92.06
375.191	90.06
375.416	104.06
375.642	93.06
375.868	110.06
376.094	88.06
376.319	96.06
376.545	92.06
376.771	112.06
376.997	85.06
377.222	95.06
377.448	98.06
377.674	101.06
377.899	85.06
378.125	83.06
378.35	101.06
378.576	105.06
378.802	84.06
379.027	81.06
379.253	101.06
379.478	100.06
379.704	93.06
379.929	98.06
380.155	88.06
380.38	108.06
380.606	113.06
380.831	102.06
381.057	97.06
381.282	97.06
381.507	101.06
381.733	89.06
381.958	88.06
382.184	106.06
382.409	98.06
382.634	109.06
382.86	110.06
383.085	98.06
383.31	93.06
383.535	100.06
383.761	104.06
383.986	91.06
384.211	106.06
384.436	98.06
384.662	108.06
384.887	106.06
385.112	101.06
385.337	117.06
385.562	114.06
385.787	112.06
386.013	109.06
386.238	110.06
386.463	104.06
386.688	121.06
386.913	114.06
387.138	117.06
387.363	106.06
387.588	106.06
387.813	108.06
388.038	95.06
388.263	127.06
388.488	91.06
388.713	88.06
388.938	88.06
389.163	95.06
389.387	101.06
389.612	92.06
389.837	86.06
390.062	81.06
390.287	90.06
390.512	88.06
390.736	89.06
390.961	93.06
391.186	83.06
391.411	98.06
391.636	94.06
391.86	84.06
392.085	88.06
392.31	95.06
392.534	77.06
392.759	75.06
392.984	102.06
393.208	104.06
393.433	106.06
393.658	98.06
393.882	86.06
394.107	90.06
394.331	81.06
394.556	92.06
394.78	97.06
395.005	94.06
395.229	76.06
395.454	90.06
395.678	86.06
395.903	73.06
396.127	84.06
396.352	88.06
396.576	82.06
396.801	97.06
397.025	97.06
397.249	97.06
397.474	83.06
397.698	89.06
397.922	87.06
398.147	86.06
398.371	102.06
398.595	82.06
398.82	75.06
399.044	78.06
399.268	90.06
399.492	83.06
399.717	84.06
399.941	86.06
400.165	102.06
400.389	87.06
400.613	86.06
400.837	98.06
401.062	86.06
401.286	104.06
401.51	87.06
401.734	97.06
401.958	91.06
402.182	116.06
402.406	134.06
402.63	114.06
402.854	90.06
403.078	102.06
403.302	84.06
403.526	76.06
403.75	74.06
403.974	85.06
404.198	93.06
404.422	96.06
404.645	90.06
404.869	88.06
405.093	95.06
405.317	83.06
405.541	88.06
405.765	92.06
405.988	98.06
406.212	135.06
406.436	172.06
406.66	123.06
406.883	96.06
407.107	103.06
407.331	105.06
407.555	98.06
407.778	96.06
408.002	91.06
408.226	86.06
408.449	88.06
408.673	77.06
408.896	90.06
409.12	97.06
409.344	81.06
409.567	97.06
409.791	96.06
410.014	94.06
410.238	87.06
410.461	92.06
410.685	89.06
410.908	105.06
411.132	119.06
411.355	102.06
411.578	90.06
411.802	85.06
412.025	77.06
412.249	98.06
412.472	88.06
412.695	100.06
412.919	103.06
413.142	98.06
413.365	81.06
413.589	83.06
413.812	91.06
414.035	102.06
414.258	94.06
414.482	97.06
414.705	98.06
414.928	84.06
415.151	94.06
415.374	78.06
415.597	77.06
415.821	93.06
416.044	89.06
416.267	90.06
416.49	99.06
416.713	82.06
416.936	76.06
417.159	92.06
417.382	92.06
417.605	86.06
417.828	93.06
418.051	101.06
418.274	86.06
418.497	88.06
418.72	92.06
418.943	88.06
419.166	89.06
419.389	93.06
419.611	102.06
419.834	82.06
420.057	90.06
420.28	96.06
420.503	91.06
420.726	80.06
420.948	86.06
421.171	91.06
421.394	103.06
421.617	85.06
421.839	82.06
422.062	97.06
422.285	97.06
422.507	109.06
422.73	101.06
422.953	99.06
423.175	93.06
423.398	92.06
423.621	75.06
423.843	88.06
424.066	88.06
424.288	98.06
424.511	85.06
424.733	85.06
424.956	99.06
425.178	99.06
425.401	95.06
425.623	100.06
425.846	92.06
426.068	90.06
426.291	82.06
426.513	92.06
426.735	85.06
426.958	94.06
427.18	107.06
427.402	114.06
427.625	121.06
427.847	123.06
428.069	96.06
428.292	87.06
428.514	95.06
428.736	93.06
428.958	87.06
429.181	83.06
429.403	80.06
429.625	88.06
429.847	92.06
430.069	98.06
430.292	106.06
430.514	81.06
430.736	77.06
430.958	85.06
431.18	105.06
431.402	90.06
431.624	86.06
431.846	81.06
432.068	82.06
432.29	80.06
432.512	92.06
432.734	88.06
432.956	82.06
433.178	88.06
433.4	89.06
433.622	84.06
433.844	84.06
434.066	100.06
434.287	89.06
434.509	82.06
434.731	92.06
434.953	96.06
435.175	73.06
435.397	95.06
435.618	101.06
435.84	107.06
436.062	113.06
436.284	109.06
436.505	90.06
436.727	85.06
436.949	95.06
437.17	97.06
437.392	89.06
437.614	89.06
437.835	84.06
438.057	117.06
438.278	92.06
438.5	92.06
438.721	108.06
438.943	107.06
439.165	107.06
439.386	74.06
439.608	88.06
439.829	94.06
440.05	121.06
440.272	126.06
440.493	97.06
440.715	78.06
440.936	91.06
441.158	88.06
441.379	88.06
441.6	89.06
441.822	93.06
442.043	106.06
442.264	74.06
442.486	90.06
442.707	95.06
442.928	104.06
443.149	102.06
443.371	99.06
443.592	93.06
443.813	102.06
444.034	106.06
444.255	88.06
444.476	94.06
444.698	82.06
444.919	94.06
445.14	124.06
445.361	107.06
445.582	104.06
445.803	109.06
446.024	117.06
446.245	123.06
446.466	105.06
446.687	77.06
446.908	97.06
447.129	98.06
447.35	96.06
447.571	84.06
447.792	89.06
448.013	83.06
448.234	88.06
448.455	109.06
448.675	102.06
448.896	113.06
449.117	101.06
449.338	89.06
449.559	113.06
449.779	121.06
450	83.06
450.221	99.06
450.442	92.06
450.662	97.06
450.883	98.06
451.104	109.06
451.324	86.06
451.545	93.06
451.766	90.06
451.986	90.06
452.207	105.06
452.428	88.06
452.648	93.06
452.869	93.06
453.089	87.06
453.31	100.06
453.53	93.06
453.751	102.06
453.971	107.06
454.192	104.06
454.412	92.06
454.633	98.06
454.853	84.06
455.073	77.06
455.294	91.06
455.514	103.06
455.734	82.06
455.955	71.06
456.175	89.06
456.395	99.06
456.616	88.06
456.836	83.06
457.056	88.06
457.276	86.06
457.497	96.06
457.717	96.06
457.937	76.06
458.157	74.06
458.377	81.06
458.598	87.06
458.818	117.06
459.038	128.06
459.258	109.06
459.478	76.06
459.698	76.06
459.918	77.06
460.138	68.06
460.358	96.06
460.578	96.06
460.798	83.06
461.018	85.06
461.238	93.06
461.458	96.06
461.678	87.06
461.898	85.06
462.118	99.06
462.338	72.06
462.558	87.06
462.777	80.06
462.997	88.06
463.217	80.06
463.437	85.06
463.657	82.06
463.876	93.06
464.096	93.06
464.316	98.06
464.536	92.06
464.755	82.06
464.975	113.06
465.195	124.06
465.414	115.06
465.634	99.06
465.854	96.06
466.073	84.06
466.293	81.06
466.512	86.06
466.732	90.06
466.951	93.06
467.171	93.06
467.391	98.06
467.61	97.06
467.829	90.06
468.049	87.06
468.268	83.06
468.488	77.06
468.707	94.06
468.927	85.06
469.146	83.06
469.365	84.06
469.585	96.06
469.804	101.06
470.023	96.06
470.243	84.06
470.462	108.06
470.681	114.06
470.901	105.06
471.12	86.06
471.339	76.06
471.558	93.06
471.777	96.06
471.997	79.06
472.216	95.06
472.435	92.06
472.654	97.06
472.873	68.06
473.092	85.06
473.311	84.06
473.53	78.06
473.749	83.06
473.968	91.06
474.187	93.06
474.406	103.06
474.625	86.06
474.844	82.06
475.063	85.06
475.282	100.06
475.501	92.06
475.72	98.06
475.939	83.06
476.158	89.06
476.377	98.06
476.596	93.06
476.814	95.06
477.033	86.06
477.252	83.06
477.471	91.06
477.69	86.06
477.908	82.06
478.127	98.06
478.346	89.06
478.564	89.06
478.783	98.06
479.002	91.06
479.22	93.06
479.439	92.06
479.658	99.06
479.876	80.06
480.095	97.06
480.313	98.06
480.532	92.06
480.751	81.06
480.969	92.06
481.188	90.06
481.406	97.06
481.624	90.06
481.843	78.06
482.061	104.06
482.28	101.06
482.498	77.06
482.717	77.06
482.935	94.06
483.153	86.06
483.372	84.06
483.59	89.06
483.808	93.06
484.027	85.06
484.245	98.06
484.463	82.06
484.681	102.06
484.9	97.06
485.118	90.06
485.336	94.06
485.554	101.06
485.772	98.06
485.99	107.06
486.209	117.06
486.427	103.06
486.645	103.06
486.863	108.06
487.081	106.06
487.299	95.06
487.517	97.06
487.735	90.06
487.953	91.06
488.171	110.06
488.389	93.06
488.607	93.06
488.825	81.06
489.043	73.06
489.261	98.06
489.479	84.06
489.696	104.06
489.914	76.06
490.132	86.06
490.35	74.06
490.568	92.06
490.786	92.06
491.003	89.06
491.221	84.06
491.439	95.06
491.657	87.06
491.874	86.06
492.092	102.06
492.31	100.06
492.527	81.06
492.745	86.06
492.963	96.06
493.18	86.06
493.398	81.06
493.615	105.06
493.833	89.06
494.05	95.06
494.268	100.06
494.485	94.06
494.703	90.06
494.92	95.06
495.138	97.06
495.355	96.06
495.573	105.06
495.79	79.06
496.008	89.06
496.225	88.06
496.442	97.06
496.66	101.06
496.877	87.06
497.094	105.06
497.312	88.06
497.529	97.06
497.746	74.06
497.963	80.06
498.181	84.06
498.398	105.06
498.615	102.06
498.832	93.06
499.049	97.06
499.267	90.06
499.484	94.06
499.701	76.06
499.918	86.06
500.135	92.06
500.352	90.06
500.569	97.06
500.786	92.06
501.003	98.06
501.22	89.06
501.437	86.06
501.654	81.06
501.871	104.06
502.088	91.06
502.305	94.06
502.522	89.06
502.739	91.06
502.956	93.06
503.172	86.06
503.389	90.06
503.606	101.06
503.823	86.06
504.04	80.06
504.256	93.06
504.473	87.06
504.69	96.06
504.907	103.06
505.123	90.06
505.34	90.06
505.557	86.06
505.773	86.06
505.99	85.06
506.207	91.06
506.423	84.06
506.64	100.06
506.856	89.06
507.073	72.06
507.289	100.06
507.506	93.06
507.722	107.06
507.939	108.06
508.155	101.06
508.372	96.06
508.588	95.06
508.805	86.06
509.021	97.06
509.238	91.06
509.454	84.06
509.67	108.06
509.887	99.06
510.103	115.06
510.319	178.06
510.536	581.06
510.752	1688.06
510.968	488.06
511.184	151.06
511.401	96.06
511.617	90.06
511.833	94.06
512.049	86.06
512.265	82.06
512.481	92.06
512.698	103.06
512.914	86.06
513.13	91.06
513.346	91.06
513.562	87.06
513.778	86.06
513.994	98.06
514.21	109.06
514.426	109.06
514.642	125.06
514.858	117.06
515.074	129.06
515.29	337.06
515.506	925.06
515.721	353.06
