Data from Uncirc_1984_H10_HRD10591_00004.txt Node
Date: Wed Jan 03 12:21:38 EST 2024
User: Yrep
Spectrometer: HR+D1059
Trigger mode: 1
Integration Time (sec): 1.000000E-1
Scans to average: 1
Electric dark correction enabled: true
Nonlinearity correction enabled: false
Boxcar width: 0
XAxis mode: Wavelengths
Number of Pixels in Spectrum: 2048
>>>>>Begin Spectral Data<<<<<
223.165	-27.38
223.4	-27.38
223.635	-27.38
223.869	-23.38
224.104	-18.38
224.338	-17.38
224.573	-18.38
224.808	-9.38
225.042	4.62
225.277	-3.38
225.511	-8.38
225.746	-6.38
225.98	17.62
226.215	14.62
226.449	22.62
226.683	19.62
226.918	31.62
227.152	21.62
227.387	45.62
227.621	42.62
227.856	45.62
228.09	45.62
228.324	44.62
228.559	51.62
228.793	56.62
229.027	52.62
229.262	53.62
229.496	69.62
229.73	80.62
229.964	91.62
230.199	73.62
230.433	68.62
230.667	65.62
230.901	88.62
231.136	72.62
231.37	81.62
231.604	79.62
231.838	62.62
232.072	75.62
232.306	71.62
232.541	68.62
232.775	68.62
233.009	76.62
233.243	77.62
233.477	60.62
233.711	67.62
233.945	81.62
234.179	78.62
234.413	93.62
234.647	76.62
234.881	65.62
235.115	75.62
235.349	80.62
235.583	83.62
235.817	82.62
236.051	70.62
236.285	68.62
236.519	71.62
236.753	85.62
236.987	55.62
237.221	81.62
237.455	81.62
237.689	82.62
237.922	56.62
238.156	72.62
238.39	76.62
238.624	79.62
238.858	65.62
239.091	73.62
239.325	86.62
239.559	73.62
239.793	72.62
240.027	86.62
240.26	70.62
240.494	61.62
240.728	72.62
240.961	75.62
241.195	79.62
241.429	91.62
241.662	77.62
241.896	74.62
242.13	55.62
242.363	69.62
242.597	68.62
242.83	79.62
243.064	74.62
243.298	64.62
243.531	58.62
243.765	72.62
243.998	67.62
244.232	63.62
244.465	82.62
244.699	63.62
244.932	77.62
245.166	77.62
245.399	71.62
245.633	68.62
245.866	67.62
246.099	68.62
246.333	71.62
246.566	80.62
246.8	71.62
247.033	68.62
247.266	54.62
247.5	84.62
247.733	72.62
247.966	85.62
248.2	70.62
248.433	70.62
248.666	79.62
248.899	71.62
249.133	78.62
249.366	78.62
249.599	98.62
249.832	83.62
250.066	89.62
250.299	77.62
250.532	81.62
250.765	81.62
250.998	83.62
251.231	84.62
251.465	80.62
251.698	70.62
251.931	89.62
252.164	70.62
252.397	79.62
252.63	80.62
252.863	79.62
253.096	71.62
253.329	77.62
253.562	71.62
253.795	79.62
254.028	76.62
254.261	64.62
254.494	74.62
254.727	69.62
254.96	77.62
255.193	71.62
255.426	80.62
255.659	80.62
255.892	78.62
256.124	80.62
256.357	67.62
256.59	70.62
256.823	91.62
257.056	69.62
257.289	72.62
257.521	80.62
257.754	79.62
257.987	86.62
258.22	68.62
258.452	89.62
258.685	80.62
258.918	65.62
259.151	81.62
259.383	87.62
259.616	89.62
259.849	94.62
260.081	81.62
260.314	80.62
260.547	83.62
260.779	74.62
261.012	79.62
261.244	87.62
261.477	87.62
261.71	80.62
261.942	99.62
262.175	95.62
262.407	84.62
262.64	84.62
262.872	73.62
263.105	81.62
263.337	80.62
263.57	81.62
263.802	77.62
264.035	94.62
264.267	77.62
264.499	80.62
264.732	84.62
264.964	82.62
265.197	79.62
265.429	80.62
265.661	76.62
265.894	88.62
266.126	85.62
266.358	77.62
266.591	79.62
266.823	71.62
267.055	81.62
267.287	70.62
267.52	83.62
267.752	79.62
267.984	92.62
268.216	75.62
268.448	91.62
268.681	84.62
268.913	82.62
269.145	83.62
269.377	86.62
269.609	71.62
269.841	68.62
270.073	79.62
270.306	69.62
270.538	85.62
270.77	81.62
271.002	73.62
271.234	61.62
271.466	78.62
271.698	86.62
271.93	79.62
272.162	80.62
272.394	86.62
272.626	77.62
272.858	70.62
273.09	80.62
273.322	73.62
273.553	73.62
273.785	86.62
274.017	79.62
274.249	83.62
274.481	86.62
274.713	65.62
274.945	81.62
275.176	79.62
275.408	67.62
275.64	68.62
275.872	97.62
276.104	83.62
276.335	85.62
276.567	91.62
276.799	98.62
277.031	80.62
277.262	95.62
277.494	84.62
277.726	75.62
277.957	72.62
278.189	73.62
278.421	98.62
278.652	79.62
278.884	80.62
279.115	81.62
279.347	91.62
279.579	79.62
279.81	82.62
280.042	81.62
280.273	94.62
280.505	82.62
280.736	75.62
280.968	101.62
281.199	89.62
281.431	79.62
281.662	73.62
281.894	95.62
282.125	102.62
282.356	108.62
282.588	116.62
282.819	107.62
283.051	81.62
283.282	75.62
283.513	79.62
283.745	86.62
283.976	69.62
284.207	81.62
284.439	86.62
284.67	79.62
284.901	83.62
285.132	79.62
285.364	78.62
285.595	67.62
285.826	78.62
286.057	86.62
286.288	82.62
286.52	79.62
286.751	83.62
286.982	90.62
287.213	98.62
287.444	81.62
287.675	89.62
287.906	80.62
288.138	83.62
288.369	87.62
288.6	91.62
288.831	65.62
289.062	79.62
289.293	91.62
289.524	76.62
289.755	69.62
289.986	82.62
290.217	73.62
290.448	83.62
290.679	84.62
290.91	89.62
291.141	91.62
291.371	75.62
291.602	88.62
291.833	82.62
292.064	91.62
292.295	91.62
292.526	84.62
292.757	98.62
292.987	83.62
293.218	84.62
293.449	86.62
293.68	87.62
293.91	85.62
294.141	93.62
294.372	93.62
294.603	99.62
294.833	92.62
295.064	81.62
295.295	83.62
295.525	81.62
295.756	110.62
295.987	89.62
296.217	118.62
296.448	115.62
296.679	86.62
296.909	80.62
297.14	80.62
297.37	83.62
297.601	79.62
297.831	80.62
298.062	70.62
298.292	67.62
298.523	86.62
298.753	87.62
298.984	65.62
299.214	93.62
299.445	78.62
299.675	97.62
299.905	85.62
300.136	82.62
300.366	88.62
300.597	92.62
300.827	92.62
301.057	87.62
301.288	103.62
301.518	80.62
301.748	96.62
301.979	102.62
302.209	89.62
302.439	90.62
302.669	89.62
302.9	87.62
303.13	70.62
303.36	83.62
303.59	80.62
303.82	86.62
304.051	101.62
304.281	93.62
304.511	83.62
304.741	88.62
304.971	84.62
305.201	87.62
305.431	82.62
305.661	83.62
305.891	86.62
306.121	95.62
306.352	93.62
306.582	92.62
306.812	80.62
307.042	65.62
307.272	69.62
307.502	69.62
307.731	89.62
307.961	99.62
308.191	83.62
308.421	84.62
308.651	88.62
308.881	87.62
309.111	84.62
309.341	82.62
309.571	91.62
309.8	89.62
310.03	90.62
310.26	101.62
310.49	85.62
310.72	78.62
310.949	97.62
311.179	110.62
311.409	86.62
311.639	95.62
311.868	97.62
312.098	93.62
312.328	88.62
312.557	99.62
312.787	94.62
313.017	97.62
313.246	108.62
313.476	84.62
313.706	77.62
313.935	78.62
314.165	72.62
314.394	106.62
314.624	96.62
314.853	95.62
315.083	91.62
315.312	87.62
315.542	88.62
315.771	87.62
316.001	81.62
316.23	72.62
316.46	92.62
316.689	75.62
316.919	95.62
317.148	100.62
317.377	106.62
317.607	98.62
317.836	80.62
318.065	81.62
318.295	92.62
318.524	95.62
318.753	91.62
318.983	94.62
319.212	99.62
319.441	97.62
319.67	97.62
319.9	85.62
320.129	102.62
320.358	78.62
320.587	95.62
320.816	88.62
321.046	91.62
321.275	92.62
321.504	88.62
321.733	77.62
321.962	93.62
322.191	81.62
322.42	89.62
322.649	104.62
322.878	92.62
323.108	101.62
323.337	111.62
323.566	116.62
323.795	126.62
324.024	184.62
324.253	328.62
324.482	693.62
324.71	1413.62
324.939	1921.62
325.168	731.62
325.397	217.62
325.626	129.62
325.855	114.62
326.084	111.62
326.313	114.62
326.542	143.62
326.77	186.62
326.999	369.62
327.228	795.62
327.457	1485.62
327.686	1195.62
327.914	333.62
328.143	163.62
328.372	142.62
328.6	104.62
328.829	105.62
329.058	105.62
329.287	110.62
329.515	99.62
329.744	95.62
329.972	95.62
330.201	102.62
330.43	99.62
330.658	96.62
330.887	105.62
331.115	108.62
331.344	102.62
331.572	108.62
331.801	99.62
332.03	100.62
332.258	83.62
332.486	78.62
332.715	90.62
332.943	88.62
333.172	92.62
333.4	79.62
333.629	96.62
333.857	89.62
334.085	91.62
334.314	83.62
334.542	87.62
334.771	98.62
334.999	85.62
335.227	92.62
335.455	88.62
335.684	73.62
335.912	103.62
336.14	93.62
336.369	97.62
336.597	100.62
336.825	88.62
337.053	85.62
337.281	94.62
337.51	91.62
337.738	91.62
337.966	86.62
338.194	97.62
338.422	93.62
338.65	98.62
338.878	94.62
339.106	81.62
339.334	87.62
339.562	100.62
339.79	70.62
340.018	84.62
340.246	100.62
340.474	99.62
340.702	92.62
340.93	84.62
341.158	83.62
341.386	83.62
341.614	75.62
341.842	85.62
342.07	87.62
342.298	92.62
342.526	85.62
342.754	100.62
342.981	86.62
343.209	83.62
343.437	90.62
343.665	71.62
343.893	68.62
344.12	86.62
344.348	90.62
344.576	87.62
344.804	91.62
345.031	99.62
345.259	84.62
345.487	89.62
345.714	81.62
345.942	89.62
346.17	96.62
346.397	94.62
346.625	96.62
346.853	83.62
347.08	103.62
347.308	93.62
347.535	109.62
347.763	102.62
347.99	77.62
348.218	104.62
348.445	96.62
348.673	94.62
348.9	90.62
349.128	104.62
349.355	91.62
349.583	83.62
349.81	79.62
350.037	82.62
350.265	90.62
350.492	85.62
350.72	76.62
350.947	94.62
351.174	105.62
351.402	128.62
351.629	90.62
351.856	99.62
352.083	80.62
352.311	80.62
352.538	97.62
352.765	112.62
352.992	115.62
353.22	97.62
353.447	97.62
353.674	101.62
353.901	83.62
354.128	85.62
354.355	96.62
354.583	87.62
354.81	84.62
355.037	89.62
355.264	88.62
355.491	97.62
355.718	94.62
355.945	84.62
356.172	93.62
356.399	77.62
356.626	93.62
356.853	96.62
357.08	87.62
357.307	81.62
357.534	91.62
357.761	95.62
357.988	88.62
358.215	99.62
358.441	77.62
358.668	86.62
358.895	85.62
359.122	89.62
359.349	86.62
359.576	91.62
359.802	90.62
360.029	119.62
360.256	94.62
360.483	93.62
360.709	86.62
360.936	102.62
361.163	82.62
361.39	80.62
361.616	92.62
361.843	88.62
362.07	79.62
362.296	70.62
362.523	75.62
362.749	69.62
362.976	83.62
363.203	88.62
363.429	84.62
363.656	76.62
363.882	77.62
364.109	91.62
364.335	94.62
364.562	98.62
364.788	94.62
365.015	88.62
365.241	87.62
365.468	105.62
365.694	93.62
365.92	67.62
366.147	84.62
366.373	105.62
366.599	86.62
366.826	75.62
367.052	75.62
367.278	82.62
367.505	82.62
367.731	88.62
367.957	77.62
368.184	96.62
368.41	86.62
368.636	95.62
368.862	95.62
369.089	104.62
369.315	84.62
369.541	82.62
369.767	87.62
369.993	74.62
370.219	89.62
370.445	93.62
370.672	81.62
370.898	83.62
371.124	102.62
371.35	78.62
371.576	89.62
371.802	88.62
372.028	76.62
372.254	95.62
372.48	85.62
372.706	86.62
372.932	87.62
373.158	102.62
373.384	82.62
373.61	95.62
373.835	112.62
374.061	87.62
374.287	87.62
374.513	80.62
374.739	92.62
374.965	100.62
375.191	86.62
375.416	83.62
375.642	98.62
375.868	85.62
376.094	70.62
376.319	82.62
376.545	75.62
376.771	86.62
376.997	94.62
377.222	77.62
377.448	92.62
377.674	87.62
377.899	87.62
378.125	88.62
378.35	91.62
378.576	100.62
378.802	94.62
379.027	85.62
379.253	83.62
379.478	81.62
379.704	91.62
379.929	82.62
380.155	95.62
380.38	96.62
380.606	95.62
380.831	101.62
381.057	92.62
381.282	95.62
381.507	99.62
381.733	91.62
381.958	90.62
382.184	112.62
382.409	82.62
382.634	109.62
382.86	115.62
383.085	87.62
383.31	102.62
383.535	86.62
383.761	101.62
383.986	92.62
384.211	104.62
384.436	98.62
384.662	103.62
384.887	101.62
385.112	93.62
385.337	113.62
385.562	101.62
385.787	97.62
386.013	113.62
386.238	99.62
386.463	94.62
386.688	122.62
386.913	114.62
387.138	104.62
387.363	108.62
387.588	102.62
387.813	104.62
388.038	107.62
388.263	110.62
388.488	99.62
388.713	101.62
388.938	96.62
389.163	80.62
389.387	100.62
389.612	96.62
389.837	92.62
390.062	83.62
390.287	93.62
390.512	102.62
390.736	84.62
390.961	82.62
391.186	86.62
391.411	102.62
391.636	87.62
391.86	82.62
392.085	98.62
392.31	93.62
392.534	69.62
392.759	78.62
392.984	100.62
393.208	87.62
393.433	102.62
393.658	101.62
393.882	78.62
394.107	80.62
394.331	77.62
394.556	83.62
394.78	82.62
395.005	75.62
395.229	77.62
395.454	84.62
395.678	75.62
395.903	83.62
396.127	97.62
396.352	89.62
396.576	75.62
396.801	87.62
397.025	89.62
397.249	83.62
397.474	70.62
397.698	83.62
397.922	86.62
398.147	67.62
398.371	81.62
398.595	85.62
398.82	78.62
399.044	76.62
399.268	96.62
399.492	73.62
399.717	86.62
399.941	92.62
400.165	81.62
400.389	85.62
400.613	85.62
400.837	79.62
401.062	79.62
401.286	81.62
401.51	88.62
401.734	96.62
401.958	80.62
402.182	98.62
402.406	123.62
402.63	107.62
402.854	88.62
403.078	81.62
403.302	83.62
403.526	85.62
403.75	81.62
403.974	88.62
404.198	81.62
404.422	83.62
404.645	85.62
404.869	95.62
405.093	79.62
405.317	89.62
405.541	91.62
405.765	91.62
405.988	119.62
406.212	136.62
406.436	175.62
406.66	132.62
406.883	97.62
407.107	85.62
407.331	100.62
407.555	98.62
407.778	100.62
408.002	92.62
408.226	83.62
408.449	97.62
408.673	89.62
408.896	91.62
409.12	89.62
409.344	87.62
409.567	66.62
409.791	85.62
410.014	93.62
410.238	96.62
410.461	95.62
410.685	95.62
410.908	99.62
411.132	111.62
411.355	86.62
411.578	77.62
411.802	97.62
412.025	72.62
412.249	85.62
412.472	83.62
412.695	89.62
412.919	81.62
413.142	80.62
413.365	92.62
413.589	78.62
413.812	103.62
414.035	84.62
414.258	78.62
414.482	91.62
414.705	92.62
414.928	79.62
415.151	84.62
415.374	99.62
415.597	79.62
415.821	79.62
416.044	100.62
416.267	99.62
416.49	63.62
416.713	92.62
416.936	87.62
417.159	94.62
417.382	101.62
417.605	85.62
417.828	94.62
418.051	82.62
418.274	79.62
418.497	69.62
418.72	100.62
418.943	85.62
419.166	70.62
419.389	91.62
419.611	107.62
419.834	78.62
420.057	68.62
420.28	87.62
420.503	85.62
420.726	79.62
420.948	82.62
421.171	84.62
421.394	92.62
421.617	92.62
421.839	74.62
422.062	88.62
422.285	98.62
422.507	96.62
422.73	104.62
422.953	79.62
423.175	94.62
423.398	87.62
423.621	78.62
423.843	88.62
424.066	89.62
424.288	82.62
424.511	83.62
424.733	101.62
424.956	96.62
425.178	97.62
425.401	94.62
425.623	88.62
425.846	85.62
426.068	97.62
426.291	84.62
426.513	93.62
426.735	100.62
426.958	84.62
427.18	95.62
427.402	132.62
427.625	151.62
427.847	110.62
428.069	98.62
428.292	81.62
428.514	93.62
428.736	79.62
428.958	86.62
429.181	83.62
429.403	93.62
429.625	79.62
429.847	99.62
430.069	102.62
430.292	80.62
430.514	72.62
430.736	102.62
430.958	95.62
431.18	80.62
431.402	88.62
431.624	81.62
431.846	85.62
432.068	69.62
432.29	83.62
432.512	79.62
432.734	83.62
432.956	93.62
433.178	83.62
433.4	93.62
433.622	86.62
433.844	87.62
434.066	95.62
434.287	83.62
434.509	97.62
434.731	84.62
434.953	80.62
435.175	75.62
435.397	86.62
435.618	92.62
435.84	92.62
436.062	106.62
436.284	111.62
436.505	101.62
436.727	100.62
436.949	76.62
437.17	88.62
437.392	97.62
437.614	89.62
437.835	87.62
438.057	100.62
438.278	109.62
438.5	99.62
438.721	114.62
438.943	89.62
439.165	95.62
439.386	83.62
439.608	83.62
439.829	92.62
440.05	124.62
440.272	131.62
440.493	90.62
440.715	78.62
440.936	85.62
441.158	81.62
441.379	86.62
441.6	86.62
441.822	88.62
442.043	88.62
442.264	105.62
442.486	97.62
442.707	79.62
442.928	113.62
443.149	109.62
443.371	119.62
443.592	114.62
443.813	110.62
444.034	99.62
444.255	80.62
444.476	89.62
444.698	92.62
444.919	77.62
445.14	116.62
445.361	129.62
445.582	114.62
445.803	123.62
446.024	114.62
446.245	111.62
446.466	99.62
446.687	95.62
446.908	79.62
447.129	78.62
447.35	84.62
447.571	87.62
447.792	95.62
448.013	110.62
448.234	93.62
448.455	104.62
448.675	109.62
448.896	107.62
449.117	96.62
449.338	103.62
449.559	123.62
449.779	125.62
450	89.62
450.221	94.62
450.442	82.62
450.662	95.62
450.883	97.62
451.104	102.62
451.324	98.62
451.545	88.62
451.766	92.62
451.986	81.62
452.207	88.62
452.428	87.62
452.648	73.62
452.869	109.62
453.089	99.62
453.31	105.62
453.53	95.62
453.751	83.62
453.971	91.62
454.192	105.62
454.412	93.62
454.633	79.62
454.853	91.62
455.073	100.62
455.294	76.62
455.514	85.62
455.734	81.62
455.955	91.62
456.175	91.62
456.395	91.62
456.616	77.62
456.836	88.62
457.056	71.62
457.276	91.62
457.497	75.62
457.717	91.62
457.937	94.62
458.157	102.62
458.377	97.62
458.598	103.62
458.818	106.62
459.038	145.62
459.258	108.62
459.478	96.62
459.698	92.62
459.918	80.62
460.138	95.62
460.358	77.62
460.578	78.62
460.798	89.62
461.018	82.62
461.238	79.62
461.458	83.62
461.678	99.62
461.898	81.62
462.118	91.62
462.338	91.62
462.558	79.62
462.777	87.62
462.997	91.62
463.217	88.62
463.437	80.62
463.657	98.62
463.876	80.62
464.096	97.62
464.316	88.62
464.536	93.62
464.755	103.62
464.975	89.62
465.195	121.62
465.414	127.62
465.634	97.62
465.854	97.62
466.073	76.62
466.293	77.62
466.512	73.62
466.732	87.62
466.951	84.62
467.171	88.62
467.391	87.62
467.61	100.62
467.829	86.62
468.049	68.62
468.268	92.62
468.488	87.62
468.707	65.62
468.927	84.62
469.146	76.62
469.365	91.62
469.585	91.62
469.804	92.62
470.023	83.62
470.243	92.62
470.462	93.62
470.681	96.62
470.901	82.62
471.12	79.62
471.339	72.62
471.558	96.62
471.777	87.62
471.997	83.62
472.216	96.62
472.435	91.62
472.654	89.62
472.873	80.62
473.092	81.62
473.311	91.62
473.53	82.62
473.749	81.62
473.968	90.62
474.187	97.62
474.406	80.62
474.625	83.62
474.844	81.62
475.063	83.62
475.282	85.62
475.501	77.62
475.72	81.62
475.939	83.62
476.158	79.62
476.377	76.62
476.596	96.62
476.814	87.62
477.033	80.62
477.252	82.62
477.471	90.62
477.69	87.62
477.908	86.62
478.127	79.62
478.346	81.62
478.564	80.62
478.783	93.62
479.002	98.62
479.22	94.62
479.439	96.62
479.658	87.62
479.876	93.62
480.095	91.62
480.313	85.62
480.532	82.62
480.751	89.62
480.969	80.62
481.188	88.62
481.406	89.62
481.624	82.62
481.843	75.62
482.061	80.62
482.28	89.62
482.498	95.62
482.717	80.62
482.935	86.62
483.153	78.62
483.372	87.62
483.59	77.62
483.808	86.62
484.027	76.62
484.245	88.62
484.463	96.62
484.681	80.62
484.9	88.62
485.118	95.62
485.336	115.62
485.554	81.62
485.772	90.62
485.99	95.62
486.209	112.62
486.427	101.62
486.645	115.62
486.863	105.62
487.081	109.62
487.299	88.62
487.517	88.62
487.735	96.62
487.953	96.62
488.171	83.62
488.389	95.62
488.607	104.62
488.825	90.62
489.043	95.62
489.261	93.62
489.479	91.62
489.696	87.62
489.914	81.62
490.132	89.62
490.35	86.62
490.568	87.62
490.786	77.62
491.003	92.62
491.221	93.62
491.439	92.62
491.657	90.62
491.874	77.62
492.092	80.62
492.31	97.62
492.527	85.62
492.745	82.62
492.963	80.62
493.18	87.62
493.398	100.62
493.615	108.62
493.833	94.62
494.05	94.62
494.268	96.62
494.485	80.62
494.703	91.62
494.92	94.62
495.138	72.62
495.355	81.62
495.573	90.62
495.79	96.62
496.008	102.62
496.225	93.62
496.442	70.62
496.66	78.62
496.877	87.62
497.094	90.62
497.312	79.62
497.529	87.62
497.746	94.62
497.963	94.62
498.181	95.62
498.398	85.62
498.615	102.62
498.832	85.62
499.049	91.62
499.267	80.62
499.484	84.62
499.701	81.62
499.918	101.62
500.135	103.62
500.352	90.62
500.569	82.62
500.786	93.62
501.003	80.62
501.22	88.62
501.437	97.62
501.654	86.62
501.871	102.62
502.088	98.62
502.305	75.62
502.522	81.62
502.739	86.62
502.956	89.62
503.172	78.62
503.389	93.62
503.606	93.62
503.823	97.62
504.04	91.62
504.256	82.62
504.473	80.62
504.69	93.62
504.907	86.62
505.123	91.62
505.34	81.62
505.557	85.62
505.773	70.62
505.99	83.62
506.207	94.62
506.423	90.62
506.64	82.62
506.856	92.62
507.073	94.62
507.289	91.62
507.506	100.62
507.722	109.62
507.939	125.62
508.155	84.62
508.372	84.62
508.588	112.62
508.805	93.62
509.021	87.62
509.238	84.62
509.454	85.62
509.67	89.62
509.887	99.62
510.103	111.62
510.319	181.62
510.536	643.62
510.752	1985.62
510.968	536.62
511.184	145.62
511.401	115.62
511.617	111.62
511.833	96.62
512.049	96.62
512.265	98.62
512.481	96.62
512.698	87.62
512.914	88.62
513.13	101.62
513.346	87.62
513.562	83.62
513.778	87.62
513.994	105.62
514.21	103.62
514.426	117.62
514.642	124.62
514.858	102.62
515.074	145.62
515.29	368.62
515.506	1149.62
515.721	439.62
515.937	132.62
516.153	97.62
516.369	97.62
516.585	78.62
516.801	93.62
517.016	79.62
