Data from Uncirc_1984_H10_HRD10591_00071.txt Node
Date: Wed Jan 03 12:21:51 EST 2024
User: Yrep
Spectrometer: HR+D1059
Trigger mode: 1
Integration Time (sec): 1.000000E-1
Scans to average: 1
Electric dark correction enabled: true
Nonlinearity correction enabled: false
Boxcar width: 0
XAxis mode: Wavelengths
Number of Pixels in Spectrum: 2048
>>>>>Begin Spectral Data<<<<<
223.165	-8.38
223.4	-8.38
223.635	-8.38
223.869	-7.38
224.104	-24.38
224.338	1.62
224.573	-17.38
224.808	-16.38
225.042	-8.38
225.277	-13.38
225.511	-4.38
225.746	2.62
225.98	5.62
226.215	4.62
226.449	23.62
226.683	16.62
226.918	22.62
227.152	22.62
227.387	33.62
227.621	41.62
227.856	37.62
228.09	51.62
228.324	51.62
228.559	52.62
228.793	45.62
229.027	55.62
229.262	68.62
229.496	54.62
229.73	87.62
229.964	82.62
230.199	66.62
230.433	69.62
230.667	81.62
230.901	92.62
231.136	88.62
231.37	76.62
231.604	66.62
231.838	90.62
232.072	89.62
232.306	84.62
232.541	85.62
232.775	98.62
233.009	82.62
233.243	85.62
233.477	82.62
233.711	75.62
233.945	96.62
234.179	92.62
234.413	97.62
234.647	88.62
234.881	93.62
235.115	74.62
235.349	96.62
235.583	76.62
235.817	73.62
236.051	93.62
236.285	90.62
236.519	82.62
236.753	93.62
236.987	84.62
237.221	80.62
237.455	73.62
237.689	73.62
237.922	74.62
238.156	74.62
238.39	62.62
238.624	73.62
238.858	80.62
239.091	70.62
239.325	68.62
239.559	91.62
239.793	82.62
240.027	80.62
240.26	91.62
240.494	87.62
240.728	73.62
240.961	69.62
241.195	83.62
241.429	80.62
241.662	66.62
241.896	68.62
242.13	82.62
242.363	72.62
242.597	77.62
242.83	83.62
243.064	77.62
243.298	76.62
243.531	75.62
243.765	72.62
243.998	73.62
244.232	93.62
244.465	84.62
244.699	78.62
244.932	67.62
245.166	72.62
245.399	83.62
245.633	84.62
245.866	76.62
246.099	82.62
246.333	77.62
246.566	88.62
246.8	93.62
247.033	86.62
247.266	97.62
247.5	88.62
247.733	77.62
247.966	94.62
248.2	75.62
248.433	69.62
248.666	78.62
248.899	67.62
249.133	84.62
249.366	86.62
249.599	85.62
249.832	70.62
250.066	82.62
250.299	73.62
250.532	78.62
250.765	88.62
250.998	74.62
251.231	91.62
251.465	62.62
251.698	75.62
251.931	85.62
252.164	74.62
252.397	84.62
252.63	87.62
252.863	81.62
253.096	76.62
253.329	68.62
253.562	94.62
253.795	96.62
254.028	82.62
254.261	86.62
254.494	81.62
254.727	73.62
254.96	84.62
255.193	84.62
255.426	92.62
255.659	80.62
255.892	80.62
256.124	77.62
256.357	81.62
256.59	90.62
256.823	85.62
257.056	79.62
257.289	86.62
257.521	89.62
257.754	72.62
257.987	86.62
258.22	68.62
258.452	79.62
258.685	75.62
258.918	86.62
259.151	79.62
259.383	86.62
259.616	78.62
259.849	87.62
260.081	78.62
260.314	85.62
260.547	75.62
260.779	64.62
261.012	81.62
261.244	69.62
261.477	84.62
261.71	101.62
261.942	96.62
262.175	117.62
262.407	100.62
262.64	88.62
262.872	86.62
263.105	89.62
263.337	95.62
263.57	89.62
263.802	82.62
264.035	83.62
264.267	80.62
264.499	93.62
264.732	81.62
264.964	86.62
265.197	92.62
265.429	100.62
265.661	94.62
265.894	94.62
266.126	84.62
266.358	76.62
266.591	86.62
266.823	95.62
267.055	75.62
267.287	78.62
267.52	99.62
267.752	75.62
267.984	74.62
268.216	68.62
268.448	86.62
268.681	77.62
268.913	86.62
269.145	75.62
269.377	83.62
269.609	93.62
269.841	91.62
270.073	96.62
270.306	84.62
270.538	98.62
270.77	83.62
271.002	83.62
271.234	83.62
271.466	75.62
271.698	82.62
271.93	94.62
272.162	71.62
272.394	109.62
272.626	84.62
272.858	78.62
273.09	80.62
273.322	93.62
273.553	84.62
273.785	94.62
274.017	85.62
274.249	81.62
274.481	89.62
274.713	85.62
274.945	93.62
275.176	86.62
275.408	94.62
275.64	86.62
275.872	83.62
276.104	86.62
276.335	99.62
276.567	88.62
276.799	107.62
277.031	90.62
277.262	90.62
277.494	98.62
277.726	88.62
277.957	91.62
278.189	95.62
278.421	81.62
278.652	90.62
278.884	88.62
279.115	96.62
279.347	93.62
279.579	84.62
279.81	93.62
280.042	86.62
280.273	85.62
280.505	101.62
280.736	82.62
280.968	76.62
281.199	78.62
281.431	76.62
281.662	87.62
281.894	94.62
282.125	102.62
282.356	109.62
282.588	142.62
282.819	106.62
283.051	96.62
283.282	85.62
283.513	110.62
283.745	83.62
283.976	86.62
284.207	69.62
284.439	85.62
284.67	90.62
284.901	92.62
285.132	98.62
285.364	89.62
285.595	88.62
285.826	80.62
286.057	90.62
286.288	84.62
286.52	76.62
286.751	99.62
286.982	84.62
287.213	82.62
287.444	73.62
287.675	96.62
287.906	80.62
288.138	83.62
288.369	98.62
288.6	102.62
288.831	97.62
289.062	85.62
289.293	83.62
289.524	77.62
289.755	87.62
289.986	77.62
290.217	90.62
290.448	72.62
290.679	95.62
290.91	96.62
291.141	82.62
291.371	88.62
291.602	93.62
291.833	86.62
292.064	90.62
292.295	93.62
292.526	91.62
292.757	85.62
292.987	88.62
293.218	74.62
293.449	96.62
293.68	87.62
293.91	92.62
294.141	89.62
294.372	83.62
294.603	82.62
294.833	101.62
295.064	96.62
295.295	78.62
295.525	90.62
295.756	109.62
295.987	105.62
296.217	125.62
296.448	106.62
296.679	98.62
296.909	96.62
297.14	90.62
297.37	85.62
297.601	82.62
297.831	91.62
298.062	84.62
298.292	90.62
298.523	101.62
298.753	86.62
298.984	102.62
299.214	77.62
299.445	98.62
299.675	86.62
299.905	99.62
300.136	94.62
300.366	95.62
300.597	86.62
300.827	92.62
301.057	94.62
301.288	90.62
301.518	92.62
301.748	90.62
301.979	108.62
302.209	94.62
302.439	84.62
302.669	102.62
302.9	98.62
303.13	98.62
303.36	89.62
303.59	100.62
303.82	103.62
304.051	95.62
304.281	99.62
304.511	92.62
304.741	86.62
304.971	78.62
305.201	82.62
305.431	84.62
305.661	84.62
305.891	97.62
306.121	94.62
306.352	106.62
306.582	113.62
306.812	97.62
307.042	97.62
307.272	90.62
307.502	93.62
307.731	77.62
307.961	82.62
308.191	88.62
308.421	104.62
308.651	100.62
308.881	90.62
309.111	91.62
309.341	105.62
309.571	104.62
309.8	85.62
310.03	84.62
310.26	105.62
310.49	91.62
310.72	90.62
310.949	107.62
311.179	82.62
311.409	104.62
311.639	102.62
311.868	94.62
312.098	85.62
312.328	86.62
312.557	98.62
312.787	113.62
313.017	90.62
313.246	102.62
313.476	96.62
313.706	94.62
313.935	90.62
314.165	93.62
314.394	107.62
314.624	103.62
314.853	98.62
315.083	82.62
315.312	84.62
315.542	89.62
315.771	98.62
316.001	82.62
316.23	84.62
316.46	100.62
316.689	104.62
316.919	84.62
317.148	98.62
317.377	84.62
317.607	94.62
317.836	109.62
318.065	109.62
318.295	89.62
318.524	85.62
318.753	96.62
318.983	82.62
319.212	107.62
319.441	103.62
319.67	98.62
319.9	101.62
320.129	99.62
320.358	94.62
320.587	91.62
320.816	97.62
321.046	109.62
321.275	110.62
321.504	102.62
321.733	96.62
321.962	105.62
322.191	92.62
322.42	98.62
322.649	98.62
322.878	99.62
323.108	120.62
323.337	115.62
323.566	126.62
323.795	136.62
324.024	186.62
324.253	316.62
324.482	693.62
324.71	1449.62
324.939	1872.62
325.168	695.62
325.397	225.62
325.626	132.62
325.855	121.62
326.084	122.62
326.313	135.62
326.542	158.62
326.77	197.62
326.999	393.62
327.228	818.62
327.457	1444.62
327.686	1187.62
327.914	331.62
328.143	178.62
328.372	133.62
328.6	118.62
328.829	106.62
329.058	122.62
329.287	116.62
329.515	98.62
329.744	91.62
329.972	103.62
330.201	108.62
330.43	82.62
330.658	116.62
330.887	113.62
331.115	123.62
331.344	109.62
331.572	106.62
331.801	100.62
332.03	89.62
332.258	98.62
332.486	87.62
332.715	109.62
332.943	96.62
333.172	88.62
333.4	80.62
333.629	98.62
333.857	99.62
334.085	97.62
334.314	101.62
334.542	93.62
334.771	113.62
334.999	86.62
335.227	110.62
335.455	97.62
335.684	109.62
335.912	93.62
336.14	99.62
336.369	102.62
336.597	106.62
336.825	87.62
337.053	96.62
337.281	77.62
337.51	75.62
337.738	88.62
337.966	85.62
338.194	103.62
338.422	93.62
338.65	86.62
338.878	97.62
339.106	104.62
339.334	77.62
339.562	91.62
339.79	95.62
340.018	81.62
340.246	86.62
340.474	87.62
340.702	87.62
340.93	88.62
341.158	92.62
341.386	91.62
341.614	90.62
341.842	90.62
342.07	89.62
342.298	97.62
342.526	95.62
342.754	84.62
342.981	93.62
343.209	82.62
343.437	98.62
343.665	101.62
343.893	94.62
344.12	105.62
344.348	102.62
344.576	95.62
344.804	100.62
345.031	100.62
345.259	99.62
345.487	95.62
345.714	89.62
345.942	90.62
346.17	89.62
346.397	83.62
346.625	80.62
346.853	100.62
347.08	104.62
347.308	106.62
347.535	94.62
347.763	100.62
347.99	88.62
348.218	109.62
348.445	99.62
348.673	86.62
348.9	88.62
349.128	98.62
349.355	85.62
349.583	119.62
349.81	91.62
350.037	96.62
350.265	80.62
350.492	85.62
350.72	100.62
350.947	98.62
351.174	95.62
351.402	107.62
351.629	101.62
351.856	118.62
352.083	95.62
352.311	98.62
352.538	114.62
352.765	109.62
352.992	116.62
353.22	110.62
353.447	100.62
353.674	107.62
353.901	92.62
354.128	100.62
354.355	108.62
354.583	90.62
354.81	88.62
355.037	91.62
355.264	88.62
355.491	95.62
355.718	84.62
355.945	89.62
356.172	96.62
356.399	94.62
356.626	98.62
356.853	100.62
357.08	94.62
357.307	91.62
357.534	88.62
357.761	104.62
357.988	99.62
358.215	89.62
358.441	90.62
358.668	97.62
358.895	81.62
359.122	86.62
359.349	81.62
359.576	99.62
359.802	93.62
360.029	93.62
360.256	100.62
360.483	95.62
360.709	85.62
360.936	88.62
361.163	90.62
361.39	101.62
361.616	68.62
361.843	86.62
362.07	93.62
362.296	96.62
362.523	92.62
362.749	92.62
362.976	81.62
363.203	99.62
363.429	93.62
363.656	97.62
363.882	98.62
364.109	77.62
364.335	87.62
364.562	98.62
364.788	97.62
365.015	100.62
365.241	105.62
365.468	96.62
365.694	94.62
365.92	80.62
366.147	84.62
366.373	100.62
366.599	88.62
366.826	96.62
367.052	93.62
367.278	104.62
367.505	98.62
367.731	102.62
367.957	86.62
368.184	87.62
368.41	108.62
368.636	109.62
368.862	118.62
369.089	105.62
369.315	84.62
369.541	90.62
369.767	87.62
369.993	102.62
370.219	92.62
370.445	81.62
370.672	88.62
370.898	90.62
371.124	93.62
371.35	83.62
371.576	92.62
371.802	88.62
372.028	83.62
372.254	94.62
372.48	96.62
372.706	87.62
372.932	96.62
373.158	85.62
373.384	97.62
373.61	91.62
373.835	95.62
374.061	74.62
374.287	88.62
374.513	101.62
374.739	91.62
374.965	84.62
375.191	84.62
375.416	81.62
375.642	96.62
375.868	93.62
376.094	86.62
376.319	90.62
376.545	93.62
376.771	90.62
376.997	96.62
377.222	107.62
377.448	94.62
377.674	85.62
377.899	91.62
378.125	85.62
378.35	92.62
378.576	87.62
378.802	82.62
379.027	106.62
379.253	109.62
379.478	76.62
379.704	94.62
379.929	94.62
380.155	96.62
380.38	102.62
380.606	88.62
380.831	91.62
381.057	94.62
381.282	104.62
381.507	98.62
381.733	114.62
381.958	97.62
382.184	98.62
382.409	76.62
382.634	102.62
382.86	102.62
383.085	96.62
383.31	92.62
383.535	93.62
383.761	88.62
383.986	91.62
384.211	96.62
384.436	97.62
384.662	99.62
384.887	108.62
385.112	84.62
385.337	81.62
385.562	97.62
385.787	89.62
386.013	109.62
386.238	103.62
386.463	106.62
386.688	110.62
386.913	100.62
387.138	87.62
387.363	109.62
387.588	88.62
387.813	87.62
388.038	106.62
388.263	105.62
388.488	100.62
388.713	95.62
388.938	92.62
389.163	98.62
389.387	101.62
389.612	81.62
389.837	82.62
390.062	82.62
390.287	98.62
390.512	94.62
390.736	87.62
390.961	88.62
391.186	85.62
391.411	102.62
391.636	91.62
391.86	84.62
392.085	87.62
392.31	89.62
392.534	98.62
392.759	96.62
392.984	83.62
393.208	68.62
393.433	77.62
393.658	91.62
393.882	96.62
394.107	73.62
394.331	83.62
394.556	88.62
394.78	100.62
395.005	87.62
395.229	91.62
395.454	90.62
395.678	92.62
395.903	92.62
396.127	91.62
396.352	89.62
396.576	74.62
396.801	84.62
397.025	84.62
397.249	83.62
397.474	86.62
397.698	98.62
397.922	105.62
398.147	100.62
398.371	100.62
398.595	87.62
398.82	78.62
399.044	88.62
399.268	80.62
399.492	84.62
399.717	80.62
399.941	95.62
400.165	103.62
400.389	95.62
400.613	87.62
400.837	92.62
401.062	93.62
401.286	90.62
401.51	81.62
401.734	85.62
401.958	97.62
402.182	123.62
402.406	154.62
402.63	97.62
402.854	92.62
403.078	88.62
403.302	77.62
403.526	81.62
403.75	101.62
403.974	80.62
404.198	85.62
404.422	85.62
404.645	92.62
404.869	93.62
405.093	97.62
405.317	98.62
405.541	86.62
405.765	93.62
405.988	114.62
406.212	150.62
406.436	204.62
406.66	131.62
406.883	100.62
407.107	97.62
407.331	102.62
407.555	80.62
407.778	104.62
408.002	102.62
408.226	87.62
408.449	94.62
408.673	88.62
408.896	85.62
409.12	102.62
409.344	85.62
409.567	76.62
409.791	96.62
410.014	97.62
410.238	96.62
410.461	102.62
410.685	76.62
410.908	85.62
411.132	108.62
411.355	101.62
411.578	106.62
411.802	97.62
412.025	84.62
412.249	89.62
412.472	101.62
412.695	93.62
412.919	84.62
413.142	83.62
413.365	97.62
413.589	84.62
413.812	98.62
414.035	80.62
414.258	88.62
414.482	101.62
414.705	91.62
414.928	72.62
415.151	96.62
415.374	96.62
415.597	86.62
415.821	86.62
416.044	102.62
416.267	94.62
416.49	92.62
416.713	102.62
416.936	88.62
417.159	94.62
417.382	98.62
417.605	90.62
417.828	96.62
418.051	88.62
418.274	85.62
418.497	88.62
418.72	86.62
418.943	80.62
419.166	86.62
419.389	83.62
419.611	89.62
419.834	94.62
420.057	77.62
420.28	90.62
420.503	89.62
420.726	69.62
420.948	97.62
421.171	92.62
421.394	85.62
421.617	93.62
421.839	81.62
422.062	101.62
422.285	93.62
422.507	109.62
422.73	108.62
422.953	90.62
423.175	84.62
423.398	90.62
423.621	82.62
423.843	98.62
424.066	83.62
424.288	91.62
424.511	82.62
424.733	98.62
424.956	113.62
425.178	98.62
425.401	95.62
425.623	109.62
425.846	76.62
426.068	97.62
426.291	86.62
426.513	87.62
426.735	93.62
426.958	97.62
427.18	115.62
427.402	118.62
427.625	139.62
427.847	122.62
428.069	114.62
428.292	95.62
428.514	91.62
428.736	77.62
428.958	84.62
429.181	89.62
429.403	95.62
429.625	77.62
429.847	80.62
430.069	93.62
430.292	98.62
430.514	78.62
430.736	98.62
430.958	81.62
431.18	95.62
431.402	98.62
431.624	100.62
431.846	92.62
432.068	93.62
432.29	93.62
432.512	82.62
432.734	86.62
432.956	81.62
433.178	85.62
433.4	92.62
433.622	91.62
433.844	101.62
434.066	92.62
434.287	83.62
434.509	103.62
434.731	94.62
434.953	90.62
435.175	79.62
435.397	100.62
435.618	84.62
435.84	96.62
436.062	117.62
436.284	97.62
436.505	85.62
436.727	108.62
436.949	90.62
437.17	88.62
437.392	97.62
437.614	97.62
437.835	98.62
438.057	124.62
438.278	105.62
438.5	94.62
438.721	122.62
438.943	101.62
439.165	101.62
439.386	91.62
439.608	105.62
439.829	92.62
440.05	106.62
440.272	133.62
440.493	82.62
440.715	102.62
440.936	96.62
441.158	99.62
441.379	91.62
441.6	103.62
441.822	94.62
442.043	83.62
442.264	98.62
442.486	99.62
442.707	89.62
442.928	86.62
443.149	116.62
443.371	116.62
443.592	112.62
443.813	114.62
444.034	103.62
444.255	88.62
444.476	85.62
444.698	88.62
444.919	89.62
445.14	136.62
445.361	123.62
445.582	119.62
445.803	130.62
446.024	123.62
446.245	130.62
446.466	119.62
446.687	87.62
446.908	93.62
447.129	73.62
447.35	82.62
447.571	81.62
447.792	75.62
448.013	85.62
448.234	92.62
448.455	92.62
448.675	112.62
448.896	108.62
449.117	101.62
449.338	107.62
449.559	115.62
449.779	142.62
450	101.62
450.221	89.62
450.442	82.62
450.662	92.62
450.883	98.62
451.104	109.62
451.324	91.62
451.545	90.62
451.766	88.62
451.986	102.62
452.207	104.62
452.428	98.62
452.648	90.62
452.869	97.62
453.089	110.62
453.31	110.62
453.53	88.62
453.751	93.62
453.971	98.62
454.192	98.62
454.412	83.62
454.633	96.62
454.853	89.62
455.073	80.62
455.294	76.62
455.514	113.62
455.734	88.62
455.955	77.62
456.175	97.62
456.395	74.62
456.616	83.62
456.836	95.62
457.056	92.62
457.276	89.62
457.497	90.62
457.717	87.62
457.937	82.62
458.157	93.62
458.377	100.62
458.598	100.62
458.818	134.62
459.038	128.62
459.258	109.62
459.478	98.62
459.698	88.62
459.918	100.62
460.138	71.62
460.358	77.62
460.578	86.62
460.798	81.62
461.018	87.62
461.238	91.62
461.458	91.62
461.678	85.62
461.898	78.62
462.118	88.62
462.338	86.62
462.558	96.62
462.777	96.62
462.997	91.62
463.217	85.62
463.437	77.62
463.657	76.62
463.876	89.62
464.096	91.62
464.316	96.62
464.536	102.62
464.755	100.62
464.975	102.62
465.195	144.62
465.414	148.62
465.634	102.62
465.854	76.62
466.073	86.62
466.293	76.62
466.512	82.62
466.732	90.62
466.951	86.62
467.171	80.62
467.391	94.62
467.61	94.62
467.829	94.62
468.049	99.62
468.268	97.62
468.488	88.62
468.707	74.62
468.927	98.62
469.146	85.62
469.365	80.62
469.585	87.62
469.804	100.62
470.023	98.62
470.243	90.62
470.462	87.62
470.681	98.62
470.901	98.62
471.12	77.62
471.339	85.62
471.558	80.62
471.777	73.62
471.997	88.62
472.216	101.62
472.435	96.62
472.654	90.62
472.873	78.62
473.092	97.62
473.311	81.62
473.53	92.62
473.749	89.62
473.968	94.62
474.187	106.62
474.406	90.62
474.625	91.62
474.844	95.62
475.063	89.62
475.282	88.62
475.501	84.62
475.72	75.62
475.939	90.62
476.158	102.62
476.377	88.62
476.596	91.62
476.814	98.62
477.033	81.62
477.252	92.62
477.471	82.62
477.69	99.62
477.908	89.62
478.127	78.62
478.346	83.62
478.564	85.62
478.783	100.62
479.002	93.62
479.22	80.62
479.439	95.62
479.658	108.62
479.876	92.62
480.095	90.62
480.313	89.62
480.532	94.62
480.751	92.62
480.969	93.62
481.188	97.62
481.406	92.62
481.624	105.62
481.843	80.62
482.061	78.62
482.28	97.62
482.498	86.62
482.717	92.62
482.935	88.62
483.153	73.62
483.372	86.62
483.59	76.62
483.808	88.62
484.027	91.62
484.245	103.62
484.463	90.62
484.681	86.62
484.9	86.62
485.118	72.62
485.336	82.62
485.554	85.62
485.772	104.62
485.99	110.62
486.209	108.62
486.427	104.62
486.645	109.62
486.863	94.62
487.081	87.62
487.299	98.62
487.517	83.62
487.735	114.62
487.953	84.62
488.171	93.62
488.389	91.62
488.607	108.62
488.825	74.62
489.043	80.62
489.261	90.62
489.479	93.62
489.696	82.62
489.914	78.62
490.132	90.62
490.35	79.62
490.568	83.62
490.786	76.62
491.003	83.62
491.221	81.62
491.439	99.62
491.657	99.62
491.874	89.62
492.092	106.62
492.31	82.62
492.527	92.62
492.745	101.62
492.963	89.62
493.18	94.62
493.398	86.62
493.615	114.62
493.833	93.62
494.05	86.62
494.268	78.62
494.485	91.62
494.703	85.62
494.92	97.62
495.138	96.62
495.355	99.62
495.573	80.62
495.79	96.62
496.008	102.62
496.225	87.62
496.442	96.62
496.66	87.62
496.877	89.62
497.094	94.62
497.312	95.62
497.529	85.62
497.746	92.62
497.963	96.62
498.181	78.62
498.398	86.62
498.615	96.62
498.832	106.62
499.049	91.62
499.267	89.62
499.484	88.62
499.701	85.62
499.918	92.62
500.135	82.62
500.352	91.62
500.569	89.62
500.786	84.62
501.003	97.62
501.22	84.62
501.437	81.62
501.654	88.62
501.871	107.62
502.088	90.62
502.305	109.62
502.522	93.62
502.739	96.62
502.956	87.62
503.172	91.62
503.389	87.62
503.606	91.62
503.823	108.62
504.04	88.62
504.256	90.62
504.473	84.62
504.69	97.62
504.907	80.62
505.123	90.62
505.34	97.62
505.557	84.62
505.773	86.62
505.99	77.62
506.207	102.62
506.423	98.62
506.64	85.62
506.856	93.62
507.073	82.62
507.289	90.62
507.506	91.62
507.722	101.62
507.939	101.62
508.155	85.62
508.372	106.62
508.588	108.62
508.805	85.62
509.021	108.62
509.238	100.62
509.454	89.62
509.67	104.62
509.887	106.62
510.103	127.62
510.319	211.62
510.536	646.62
510.752	2036.62
510.968	570.62
511.184	147.62
511.401	114.62
511.617	102.62
511.833	93.62
512.049	92.62
512.265	85.62
512.481	79.62
512.698	91.62
512.914	84.62
513.13	92.62
513.346	97.62
513.562	107.62
513.778	85.62
513.994	95.62
514.21	104.62
514.426	126.62
514.642	114.62
514.858	126.62
515.074	154.62
515.29	383.62
515.506	1203.62
515.721	434.62
515.937	144.62
