Data from Uncirc_1984_H10_HRD10591_00021.txt Node
Date: Wed Jan 03 12:21:41 EST 2024
User: Yrep
Spectrometer: HR+D1059
Trigger mode: 1
Integration Time (sec): 1.000000E-1
Scans to average: 1
Electric dark correction enabled: true
Nonlinearity correction enabled: false
Boxcar width: 0
XAxis mode: Wavelengths
Number of Pixels in Spectrum: 2048
>>>>>Begin Spectral Data<<<<<
223.165	-17
223.4	-17
223.635	-17
223.869	-19
224.104	-28
224.338	-10
224.573	-14
224.808	-10
225.042	-6
225.277	4
225.511	-13
225.746	0
225.98	6
226.215	18
226.449	13
226.683	34
226.918	13
227.152	29
227.387	34
227.621	55
227.856	56
228.09	34
228.324	43
228.559	49
228.793	50
229.027	57
229.262	70
229.496	77
229.73	79
229.964	82
230.199	76
230.433	70
230.667	82
230.901	85
231.136	92
231.37	85
231.604	81
231.838	78
232.072	80
232.306	91
232.541	93
232.775	83
233.009	74
233.243	80
233.477	74
233.711	72
233.945	88
234.179	77
234.413	86
234.647	84
234.881	88
235.115	83
235.349	84
235.583	82
235.817	84
236.051	77
236.285	74
236.519	74
236.753	87
236.987	84
237.221	91
237.455	85
237.689	81
237.922	74
238.156	75
238.39	94
238.624	67
238.858	91
239.091	73
239.325	68
239.559	85
239.793	77
240.027	84
240.26	57
240.494	84
240.728	75
240.961	84
241.195	74
241.429	78
241.662	75
241.896	53
242.13	84
242.363	80
242.597	62
242.83	80
243.064	66
243.298	73
243.531	74
243.765	70
243.998	74
244.232	73
244.465	93
244.699	90
244.932	81
245.166	90
245.399	66
245.633	87
245.866	101
246.099	66
246.333	74
246.566	84
246.8	75
247.033	68
247.266	73
247.5	87
247.733	84
247.966	76
248.2	74
248.433	81
248.666	94
248.899	67
249.133	80
249.366	91
249.599	96
249.832	105
250.066	82
250.299	84
250.532	86
250.765	89
250.998	92
251.231	77
251.465	83
251.698	72
251.931	77
252.164	92
252.397	86
252.63	82
252.863	87
253.096	74
253.329	82
253.562	86
253.795	91
254.028	89
254.261	98
254.494	82
254.727	93
254.96	81
255.193	70
255.426	74
255.659	89
255.892	92
256.124	88
256.357	70
256.59	75
256.823	69
257.056	81
257.289	76
257.521	88
257.754	77
257.987	84
258.22	80
258.452	83
258.685	82
258.918	86
259.151	73
259.383	92
259.616	89
259.849	75
260.081	91
260.314	82
260.547	82
260.779	70
261.012	71
261.244	87
261.477	94
261.71	91
261.942	106
262.175	110
262.407	95
262.64	86
262.872	74
263.105	78
263.337	98
263.57	83
263.802	92
264.035	85
264.267	82
264.499	77
264.732	89
264.964	72
265.197	70
265.429	105
265.661	87
265.894	97
266.126	91
266.358	88
266.591	82
266.823	93
267.055	68
267.287	66
267.52	83
267.752	92
267.984	72
268.216	92
268.448	75
268.681	86
268.913	82
269.145	93
269.377	93
269.609	68
269.841	74
270.073	82
270.306	85
270.538	103
270.77	82
271.002	85
271.234	83
271.466	93
271.698	76
271.93	76
272.162	86
272.394	87
272.626	88
272.858	100
273.09	72
273.322	79
273.553	81
273.785	86
274.017	99
274.249	84
274.481	75
274.713	92
274.945	84
275.176	86
275.408	77
275.64	71
275.872	85
276.104	93
276.335	84
276.567	90
276.799	110
277.031	92
277.262	86
277.494	89
277.726	77
277.957	89
278.189	88
278.421	96
278.652	98
278.884	85
279.115	97
279.347	78
279.579	96
279.81	86
280.042	83
280.273	84
280.505	92
280.736	88
280.968	88
281.199	93
281.431	75
281.662	81
281.894	98
282.125	97
282.356	115
282.588	132
282.819	107
283.051	98
283.282	86
283.513	86
283.745	82
283.976	94
284.207	85
284.439	77
284.67	113
284.901	85
285.132	89
285.364	80
285.595	89
285.826	83
286.057	96
286.288	84
286.52	88
286.751	96
286.982	78
287.213	101
287.444	96
287.675	75
287.906	81
288.138	95
288.369	89
288.6	94
288.831	90
289.062	82
289.293	83
289.524	103
289.755	90
289.986	93
290.217	100
290.448	78
290.679	84
290.91	89
291.141	98
291.371	98
291.602	83
291.833	80
292.064	75
292.295	80
292.526	90
292.757	100
292.987	96
293.218	92
293.449	80
293.68	81
293.91	83
294.141	99
294.372	94
294.603	95
294.833	82
295.064	91
295.295	108
295.525	94
295.756	85
295.987	124
296.217	133
296.448	102
296.679	104
296.909	87
297.14	98
297.37	81
297.601	80
297.831	97
298.062	94
298.292	84
298.523	91
298.753	77
298.984	92
299.214	81
299.445	98
299.675	104
299.905	90
300.136	92
300.366	82
300.597	98
300.827	88
301.057	94
301.288	97
301.518	100
301.748	93
301.979	91
302.209	104
302.439	84
302.669	89
302.9	89
303.13	87
303.36	113
303.59	97
303.82	105
304.051	96
304.281	90
304.511	96
304.741	98
304.971	96
305.201	102
305.431	93
305.661	92
305.891	98
306.121	98
306.352	96
306.582	90
306.812	91
307.042	91
307.272	84
307.502	89
307.731	88
307.961	94
308.191	76
308.421	80
308.651	84
308.881	102
309.111	89
309.341	90
309.571	93
309.8	97
310.03	98
310.26	91
310.49	85
310.72	107
310.949	100
311.179	104
311.409	85
311.639	88
311.868	93
312.098	89
312.328	88
312.557	92
312.787	102
313.017	89
313.246	109
313.476	90
313.706	96
313.935	96
314.165	86
314.394	98
314.624	92
314.853	96
315.083	80
315.312	84
315.542	77
315.771	93
316.001	89
316.23	89
316.46	84
316.689	96
316.919	88
317.148	78
317.377	82
317.607	82
317.836	88
318.065	102
318.295	81
318.524	98
318.753	72
318.983	80
319.212	92
319.441	102
319.67	103
319.9	91
320.129	96
320.358	92
320.587	104
320.816	93
321.046	100
321.275	107
321.504	78
321.733	98
321.962	114
322.191	113
322.42	93
322.649	97
322.878	100
323.108	109
323.337	123
323.566	140
323.795	135
324.024	161
324.253	324
324.482	681
324.71	1407
324.939	1832
325.168	701
325.397	213
325.626	144
325.855	124
326.084	113
326.313	125
326.542	142
326.77	203
326.999	396
327.228	776
327.457	1422
327.686	1104
327.914	315
328.143	150
328.372	138
328.6	118
328.829	110
329.058	120
329.287	106
329.515	93
329.744	100
329.972	100
330.201	85
330.43	110
330.658	106
330.887	117
331.115	116
331.344	107
331.572	101
331.801	96
332.03	86
332.258	100
332.486	94
332.715	106
332.943	93
333.172	81
333.4	91
333.629	97
333.857	109
334.085	98
334.314	86
334.542	96
334.771	94
334.999	87
335.227	92
335.455	85
335.684	91
335.912	98
336.14	102
336.369	84
336.597	85
336.825	102
337.053	73
337.281	86
337.51	95
337.738	98
337.966	95
338.194	103
338.422	93
338.65	93
338.878	100
339.106	80
339.334	91
339.562	87
339.79	84
340.018	82
340.246	74
340.474	81
340.702	88
340.93	80
341.158	96
341.386	102
341.614	100
341.842	101
342.07	104
342.298	96
342.526	93
342.754	96
342.981	108
343.209	97
343.437	113
343.665	84
343.893	82
344.12	99
344.348	102
344.576	78
344.804	98
345.031	104
345.259	103
345.487	101
345.714	103
345.942	90
346.17	90
346.397	96
346.625	82
346.853	109
347.08	98
347.308	100
347.535	95
347.763	100
347.99	96
348.218	82
348.445	104
348.673	105
348.9	94
349.128	105
349.355	87
349.583	83
349.81	108
350.037	93
350.265	78
350.492	95
350.72	106
350.947	89
351.174	83
351.402	102
351.629	120
351.856	101
352.083	106
352.311	97
352.538	95
352.765	113
352.992	110
353.22	108
353.447	103
353.674	95
353.901	84
354.128	90
354.355	97
354.583	107
354.81	91
355.037	100
355.264	103
355.491	94
355.718	96
355.945	87
356.172	94
356.399	90
356.626	89
356.853	94
357.08	89
357.307	107
357.534	82
357.761	100
357.988	98
358.215	93
358.441	90
358.668	71
358.895	96
359.122	92
359.349	89
359.576	114
359.802	100
360.029	89
360.256	113
360.483	79
360.709	90
360.936	93
361.163	86
361.39	82
361.616	89
361.843	81
362.07	103
362.296	102
362.523	92
362.749	102
362.976	96
363.203	90
363.429	96
363.656	97
363.882	90
364.109	80
364.335	83
364.562	97
364.788	88
365.015	103
365.241	101
365.468	100
365.694	100
365.92	87
366.147	85
366.373	82
366.599	90
366.826	89
367.052	80
367.278	100
367.505	88
367.731	94
367.957	82
368.184	99
368.41	106
368.636	90
368.862	116
369.089	112
369.315	86
369.541	89
369.767	92
369.993	84
370.219	89
370.445	86
370.672	102
370.898	83
371.124	91
371.35	81
371.576	99
371.802	89
372.028	91
372.254	78
372.48	108
372.706	96
372.932	98
373.158	109
373.384	103
373.61	77
373.835	93
374.061	93
374.287	88
374.513	78
374.739	99
374.965	81
375.191	87
375.416	97
375.642	85
375.868	84
376.094	95
376.319	85
376.545	84
376.771	98
376.997	92
377.222	89
377.448	96
377.674	70
377.899	98
378.125	91
378.35	100
378.576	93
378.802	90
379.027	101
379.253	109
379.478	105
379.704	105
379.929	96
380.155	98
380.38	84
380.606	104
380.831	91
381.057	93
381.282	97
381.507	100
381.733	97
381.958	105
382.184	101
382.409	91
382.634	103
382.86	91
383.085	105
383.31	99
383.535	103
383.761	105
383.986	93
384.211	80
384.436	99
384.662	91
384.887	106
385.112	106
385.337	110
385.562	109
385.787	100
386.013	102
386.238	114
386.463	101
386.688	116
386.913	113
387.138	97
387.363	92
387.588	85
387.813	105
388.038	106
388.263	119
388.488	108
388.713	98
388.938	114
389.163	104
389.387	99
389.612	101
389.837	97
390.062	97
390.287	94
390.512	105
390.736	89
390.961	103
391.186	90
391.411	104
391.636	88
391.86	108
392.085	89
392.31	85
392.534	89
392.759	96
392.984	90
393.208	105
393.433	108
393.658	100
393.882	84
394.107	85
394.331	82
394.556	85
394.78	84
395.005	103
395.229	84
395.454	77
395.678	86
395.903	88
396.127	95
396.352	88
396.576	95
396.801	78
397.025	108
397.249	84
397.474	100
397.698	85
397.922	85
398.147	83
398.371	84
398.595	93
398.82	90
399.044	94
399.268	106
399.492	83
399.717	87
399.941	109
400.165	106
400.389	76
400.613	86
400.837	85
401.062	99
401.286	87
401.51	90
401.734	87
401.958	94
402.182	100
402.406	151
402.63	112
402.854	96
403.078	96
403.302	95
403.526	92
403.75	81
403.974	83
404.198	96
404.422	89
404.645	101
404.869	91
405.093	90
405.317	86
405.541	91
405.765	98
405.988	114
406.212	150
406.436	179
406.66	121
406.883	92
407.107	93
407.331	107
407.555	92
407.778	97
408.002	88
408.226	75
408.449	81
408.673	77
408.896	91
409.12	92
409.344	98
409.567	100
409.791	100
410.014	105
410.238	91
410.461	93
410.685	99
410.908	97
411.132	114
411.355	94
411.578	97
411.802	95
412.025	92
412.249	84
412.472	102
412.695	91
412.919	83
413.142	81
413.365	87
413.589	96
413.812	92
414.035	90
414.258	78
414.482	98
414.705	91
414.928	84
415.151	106
415.374	84
415.597	97
415.821	73
416.044	81
416.267	79
416.49	80
416.713	91
416.936	98
417.159	81
417.382	73
417.605	94
417.828	88
418.051	98
418.274	83
418.497	88
418.72	98
418.943	90
419.166	101
419.389	88
419.611	93
419.834	64
420.057	82
420.28	88
420.503	72
420.726	82
420.948	89
421.171	94
421.394	101
421.617	88
421.839	83
422.062	80
422.285	88
422.507	86
422.73	102
422.953	105
423.175	96
423.398	94
423.621	86
423.843	83
424.066	75
424.288	93
424.511	94
424.733	97
424.956	105
425.178	92
425.401	99
425.623	98
425.846	92
426.068	109
426.291	91
426.513	100
426.735	77
426.958	84
427.18	112
427.402	121
427.625	145
427.847	101
428.069	107
428.292	92
428.514	89
428.736	85
428.958	98
429.181	91
429.403	80
429.625	96
429.847	99
430.069	97
430.292	98
430.514	89
430.736	77
430.958	87
431.18	90
431.402	81
431.624	82
431.846	79
432.068	73
432.29	89
432.512	74
432.734	72
432.956	80
433.178	114
433.4	88
433.622	80
433.844	85
434.066	83
434.287	85
434.509	82
434.731	81
434.953	86
435.175	87
435.397	89
435.618	95
435.84	94
436.062	111
436.284	100
436.505	96
436.727	106
436.949	90
437.17	86
437.392	83
437.614	93
437.835	94
438.057	121
438.278	98
438.5	91
438.721	109
438.943	105
439.165	83
439.386	90
439.608	94
439.829	99
440.05	110
440.272	133
440.493	94
440.715	99
440.936	84
441.158	89
441.379	81
441.6	110
441.822	95
442.043	98
442.264	101
442.486	101
442.707	90
442.928	98
443.149	114
443.371	115
443.592	99
443.813	107
444.034	94
444.255	82
444.476	79
444.698	110
444.919	89
445.14	136
445.361	115
445.582	121
445.803	125
446.024	126
446.245	121
446.466	118
446.687	84
446.908	88
447.129	90
447.35	98
447.571	92
447.792	88
448.013	86
448.234	92
448.455	106
448.675	112
448.896	110
449.117	103
449.338	107
449.559	128
449.779	124
450	95
450.221	94
450.442	80
450.662	95
450.883	116
451.104	115
451.324	98
451.545	83
451.766	83
451.986	78
452.207	77
452.428	91
452.648	85
452.869	115
453.089	117
453.31	118
453.53	84
453.751	82
453.971	89
454.192	105
454.412	90
454.633	81
454.853	82
455.073	89
455.294	77
455.514	83
455.734	101
455.955	95
456.175	82
456.395	98
456.616	98
456.836	85
457.056	101
457.276	77
457.497	81
457.717	83
457.937	101
458.157	80
458.377	90
458.598	101
458.818	129
459.038	132
459.258	99
459.478	97
459.698	88
459.918	85
460.138	70
460.358	92
460.578	82
460.798	75
461.018	94
461.238	73
461.458	84
461.678	86
461.898	84
462.118	82
462.338	82
462.558	96
462.777	81
462.997	75
463.217	76
463.437	105
463.657	95
463.876	86
464.096	89
464.316	84
464.536	92
464.755	99
464.975	99
465.195	139
465.414	134
465.634	85
465.854	96
466.073	95
466.293	105
466.512	86
466.732	80
466.951	70
467.171	98
467.391	94
467.61	102
467.829	94
468.049	83
468.268	89
468.488	84
468.707	82
468.927	94
469.146	88
469.365	90
469.585	86
469.804	93
470.023	95
470.243	102
470.462	90
470.681	90
470.901	92
471.12	97
471.339	89
471.558	89
471.777	93
471.997	90
472.216	93
472.435	88
472.654	86
472.873	80
473.092	84
473.311	70
473.53	88
473.749	94
473.968	97
474.187	90
474.406	96
474.625	100
474.844	77
475.063	73
475.282	97
475.501	89
475.72	83
475.939	74
476.158	82
476.377	89
476.596	80
476.814	96
477.033	94
477.252	91
477.471	81
477.69	76
477.908	87
478.127	86
478.346	87
478.564	88
478.783	97
479.002	104
479.22	97
479.439	99
479.658	118
479.876	82
480.095	89
480.313	86
480.532	85
480.751	89
480.969	93
481.188	96
481.406	92
481.624	95
481.843	94
482.061	75
482.28	86
482.498	67
482.717	86
482.935	85
483.153	98
483.372	92
483.59	85
483.808	78
484.027	80
484.245	96
484.463	107
484.681	92
484.9	83
485.118	89
485.336	74
485.554	106
485.772	99
485.99	111
486.209	122
486.427	100
486.645	110
486.863	110
487.081	103
487.299	88
487.517	88
487.735	85
487.953	93
488.171	100
488.389	104
488.607	85
488.825	100
489.043	87
489.261	85
489.479	75
489.696	97
489.914	86
490.132	84
490.35	79
490.568	100
490.786	81
491.003	89
491.221	84
491.439	95
491.657	93
491.874	101
492.092	90
492.31	85
492.527	98
492.745	93
492.963	90
493.18	81
493.398	91
493.615	93
493.833	96
494.05	101
494.268	95
494.485	95
494.703	77
494.92	88
495.138	100
495.355	84
495.573	85
495.79	94
496.008	86
496.225	98
496.442	84
496.66	90
496.877	91
497.094	106
497.312	95
497.529	82
497.746	95
497.963	98
498.181	105
498.398	80
498.615	83
498.832	91
499.049	86
499.267	77
499.484	101
499.701	96
499.918	92
500.135	84
500.352	89
500.569	92
500.786	101
501.003	87
501.22	91
501.437	107
501.654	96
501.871	86
502.088	104
502.305	101
502.522	94
502.739	104
502.956	83
503.172	98
503.389	91
503.606	97
503.823	97
504.04	89
504.256	98
504.473	96
504.69	91
504.907	107
505.123	94
505.34	84
505.557	93
505.773	95
505.99	98
506.207	107
506.423	90
506.64	83
506.856	99
507.073	94
507.289	90
507.506	99
507.722	116
507.939	102
508.155	92
508.372	94
508.588	73
508.805	90
509.021	84
509.238	101
509.454	79
509.67	84
509.887	107
510.103	137
510.319	194
510.536	635
510.752	1966
510.968	532
511.184	134
511.401	101
511.617	99
511.833	93
512.049	96
512.265	93
512.481	86
512.698	88
512.914	100
513.13	98
513.346	85
513.562	100
513.778	93
513.994	97
514.21	84
514.426	124
514.642	116
514.858	116
515.074	148
515.29	351
515.506	1144
515.721	436
515.937	128
516.153	104
516.369	100
516.585	92
516.801	76
517.016	103
517.232	101
517.448	98
517.664	92
517.879	81
518.095	86
518.311	89
518.527	88
518.742	88
518.958	95
519.173	85
519.389	92
519.605	86
519.82	92
520.036	104
520.251	121
520.467	104
520.682	101
520.898	99
521.113	118
521.329	143
521.544	175
521.76	436
521.975	1842
522.19	1124
522.406	272
522.621	110
522.836	98
523.052	98
523.267	97
523.482	102
523.698	104
523.913	108
524.128	96
524.343	93
524.559	102
524.774	84
524.989	99
525.204	93
525.419	92
525.634	99
525.849	91
526.064	75
526.28	97
526.495	87
526.71	103
526.925	87
527.14	94
527.355	99
527.57	98
527.785	84
527.999	100
528.214	87
528.429	96
528.644	98
528.859	88
529.074	96
529.289	121
529.503	151
529.718	115
529.933	94
530.148	89
530.363	99
530.577	99
530.792	78
531.007	95
531.221	109
531.436	90
531.651	84
531.865	90
532.08	86
532.295	81
532.509	104
532.724	82
532.938	95
533.153	92
533.367	102
533.582	107
533.796	119
534.011	97
534.225	88
534.44	82
534.654	90
534.868	89
535.083	93
535.297	85
535.511	100
535.726	104
535.94	87
536.154	104
536.369	96
536.583	87
536.797	107
537.011	102
537.225	91
537.44	88
537.654	92
537.868	91
538.082	92
538.296	96
538.51	91
538.724	102
538.938	97
539.153	98
539.367	89
539.581	99
539.795	96
540.009	91
540.222	92
540.436	87
540.65	91
540.864	97
541.078	76
541.292	101
541.506	99
541.72	86
541.934	98
542.147	91
542.361	92
542.575	100
542.789	82
543.002	80
543.216	89
543.43	74
543.644	85
543.857	92
544.071	90
544.285	90
544.498	82
544.712	90
544.925	103
545.139	98
545.352	104
545.566	85
545.779	81
545.993	85
546.206	97
546.42	76
546.633	86
546.847	77
547.06	96
547.274	92
547.487	99
547.7	84
547.914	101
548.127	92
548.34	95
548.554	83
548.767	99
548.98	103
549.193	97
549.407	77
549.62	74
549.833	81
550.046	84
550.259	101
550.473	91
550.686	90
550.899	77
551.112	84
551.325	88
551.538	88
551.751	93
551.964	106
552.177	97
552.39	89
552.603	102
552.816	97
553.029	89
553.242	87
553.455	107
553.667	108
553.88	92
554.093	93
554.306	89
554.519	90
554.732	90
554.944	85
555.157	88
555.37	89
555.583	87
555.795	97
556.008	86
556.221	88
556.433	94
556.646	88
556.859	90
557.071	88
557.284	76
557.496	82
557.709	86
557.921	94
558.134	93
558.346	94
558.559	76
558.771	96
558.984	85
559.196	78
559.409	94
559.621	98
559.833	81
560.046	85
560.258	90
560.47	78
560.683	82
560.895	89
561.107	84
561.32	97
561.532	82
561.744	90
561.956	89
562.168	84
562.381	88
562.593	92
562.805	97
563.017	82
563.229	93
563.441	76
563.653	72
563.865	85
564.077	93
564.289	101
564.501	85
564.713	82
564.925	96
565.137	108
565.349	104
565.561	116
565.773	90
565.985	97
566.197	86
566.408	85
566.62	87
566.832	101
567.044	97
567.255	90
567.467	71
567.679	102
567.891	84
568.102	86
568.314	88
568.526	84
568.737	88
568.949	84
569.161	88
569.372	94
569.584	106
569.795	91
570.007	104
570.218	212
570.43	128
570.641	93
570.853	78
571.064	87
571.276	82
571.487	82
571.698	81
571.91	93
572.121	87
572.333	88
572.544	80
572.755	90
572.966	87
573.178	86
573.389	86
573.6	94
573.811	103
574.023	90
574.234	102
574.445	94
574.656	87
574.867	90
575.078	101
575.289	93
575.501	78
575.712	86
575.923	93
576.134	87
576.345	89
576.556	97
576.767	100
576.978	96
577.188	85
577.399	91
577.61	107
577.821	97
578.032	117
578.243	246
578.454	654
578.665	201
578.875	97
579.086	93
579.297	75
579.508	78
579.718	103
579.929	99
580.14	95
580.35	85
580.561	80
580.772	91
580.982	85
581.193	82
581.403	84
581.614	84
581.825	93
582.035	86
582.246	86
582.456	81
582.667	89
582.877	78
583.087	88
583.298	88
583.508	91
583.719	95
583.929	98
584.139	78
584.35	74
