Data from Uncirc_1984_H10_HRD10591_00003.txt Node
Date: Wed Jan 03 12:21:37 EST 2024
User: Yrep
Spectrometer: HR+D1059
Trigger mode: 1
Integration Time (sec): 1.000000E-1
Scans to average: 1
Electric dark correction enabled: true
Nonlinearity correction enabled: false
Boxcar width: 0
XAxis mode: Wavelengths
Number of Pixels in Spectrum: 2048
>>>>>Begin Spectral Data<<<<<
223.165	-11.06
223.4	-11.06
223.635	-11.06
223.869	-23.06
224.104	-23.06
224.338	-17.06
224.573	-10.06
224.808	-13.06
225.042	-0.06
225.277	-3.06
225.511	-9.06
225.746	1.94
225.98	12.94
226.215	3.94
226.449	7.94
226.683	21.94
226.918	34.94
227.152	25.94
227.387	37.94
227.621	44.94
227.856	40.94
228.09	46.94
228.324	42.94
228.559	62.94
228.793	61.94
229.027	73.94
229.262	65.94
229.496	54.94
229.73	77.94
229.964	74.94
230.199	72.94
230.433	95.94
230.667	79.94
230.901	74.94
231.136	78.94
231.37	84.94
231.604	86.94
231.838	66.94
232.072	84.94
232.306	78.94
232.541	90.94
232.775	84.94
233.009	80.94
233.243	90.94
233.477	86.94
233.711	93.94
233.945	80.94
234.179	93.94
234.413	88.94
234.647	77.94
234.881	78.94
235.115	81.94
235.349	94.94
235.583	80.94
235.817	68.94
236.051	80.94
236.285	77.94
236.519	75.94
236.753	88.94
236.987	72.94
237.221	80.94
237.455	82.94
237.689	80.94
237.922	77.94
238.156	69.94
238.39	80.94
238.624	82.94
238.858	88.94
239.091	82.94
239.325	85.94
239.559	90.94
239.793	66.94
240.027	84.94
240.26	73.94
240.494	73.94
240.728	77.94
240.961	75.94
241.195	82.94
241.429	86.94
241.662	67.94
241.896	76.94
242.13	75.94
242.363	76.94
242.597	70.94
242.83	86.94
243.064	86.94
243.298	78.94
243.531	74.94
243.765	74.94
243.998	83.94
244.232	76.94
244.465	74.94
244.699	82.94
244.932	91.94
245.166	81.94
245.399	72.94
245.633	78.94
245.866	76.94
246.099	75.94
246.333	72.94
246.566	70.94
246.8	78.94
247.033	73.94
247.266	86.94
247.5	92.94
247.733	89.94
247.966	77.94
248.2	89.94
248.433	78.94
248.666	77.94
248.899	77.94
249.133	88.94
249.366	92.94
249.599	92.94
249.832	72.94
250.066	72.94
250.299	83.94
250.532	85.94
250.765	83.94
250.998	74.94
251.231	86.94
251.465	88.94
251.698	72.94
251.931	74.94
252.164	93.94
252.397	70.94
252.63	80.94
252.863	76.94
253.096	81.94
253.329	83.94
253.562	85.94
253.795	73.94
254.028	80.94
254.261	75.94
254.494	84.94
254.727	88.94
254.96	92.94
255.193	88.94
255.426	77.94
255.659	70.94
255.892	78.94
256.124	89.94
256.357	77.94
256.59	76.94
256.823	76.94
257.056	75.94
257.289	89.94
257.521	96.94
257.754	82.94
257.987	84.94
258.22	69.94
258.452	84.94
258.685	90.94
258.918	82.94
259.151	85.94
259.383	76.94
259.616	83.94
259.849	84.94
260.081	101.94
260.314	76.94
260.547	84.94
260.779	82.94
261.012	90.94
261.244	93.94
261.477	89.94
261.71	99.94
261.942	98.94
262.175	125.94
262.407	68.94
262.64	93.94
262.872	70.94
263.105	82.94
263.337	84.94
263.57	88.94
263.802	91.94
264.035	78.94
264.267	95.94
264.499	83.94
264.732	83.94
264.964	86.94
265.197	94.94
265.429	93.94
265.661	81.94
265.894	88.94
266.126	81.94
266.358	74.94
266.591	91.94
266.823	89.94
267.055	84.94
267.287	89.94
267.52	88.94
267.752	77.94
267.984	78.94
268.216	90.94
268.448	89.94
268.681	80.94
268.913	91.94
269.145	85.94
269.377	78.94
269.609	74.94
269.841	85.94
270.073	102.94
270.306	81.94
270.538	83.94
270.77	87.94
271.002	84.94
271.234	94.94
271.466	84.94
271.698	83.94
271.93	83.94
272.162	84.94
272.394	84.94
272.626	89.94
272.858	82.94
273.09	102.94
273.322	91.94
273.553	84.94
273.785	94.94
274.017	90.94
274.249	96.94
274.481	82.94
274.713	79.94
274.945	79.94
275.176	78.94
275.408	77.94
275.64	75.94
275.872	81.94
276.104	78.94
276.335	101.94
276.567	89.94
276.799	82.94
277.031	98.94
277.262	91.94
277.494	82.94
277.726	85.94
277.957	91.94
278.189	88.94
278.421	82.94
278.652	90.94
278.884	99.94
279.115	86.94
279.347	82.94
279.579	93.94
279.81	98.94
280.042	84.94
280.273	98.94
280.505	75.94
280.736	84.94
280.968	97.94
281.199	94.94
281.431	88.94
281.662	96.94
281.894	82.94
282.125	96.94
282.356	99.94
282.588	110.94
282.819	88.94
283.051	82.94
283.282	83.94
283.513	86.94
283.745	84.94
283.976	84.94
284.207	85.94
284.439	91.94
284.67	83.94
284.901	94.94
285.132	70.94
285.364	103.94
285.595	101.94
285.826	95.94
286.057	100.94
286.288	83.94
286.52	75.94
286.751	90.94
286.982	82.94
287.213	91.94
287.444	89.94
287.675	88.94
287.906	80.94
288.138	101.94
288.369	93.94
288.6	94.94
288.831	86.94
289.062	80.94
289.293	92.94
289.524	97.94
289.755	86.94
289.986	74.94
290.217	78.94
290.448	77.94
290.679	84.94
290.91	93.94
291.141	84.94
291.371	82.94
291.602	87.94
291.833	85.94
292.064	91.94
292.295	109.94
292.526	98.94
292.757	99.94
292.987	97.94
293.218	93.94
293.449	80.94
293.68	82.94
293.91	94.94
294.141	99.94
294.372	100.94
294.603	82.94
294.833	100.94
295.064	92.94
295.295	88.94
295.525	99.94
295.756	101.94
295.987	106.94
296.217	118.94
296.448	113.94
296.679	71.94
296.909	82.94
297.14	95.94
297.37	85.94
297.601	92.94
297.831	101.94
298.062	90.94
298.292	88.94
298.523	99.94
298.753	104.94
298.984	76.94
299.214	92.94
299.445	95.94
299.675	106.94
299.905	104.94
300.136	76.94
300.366	92.94
300.597	90.94
300.827	92.94
301.057	102.94
301.288	101.94
301.518	81.94
301.748	90.94
301.979	107.94
302.209	108.94
302.439	86.94
302.669	100.94
302.9	98.94
303.13	86.94
303.36	87.94
303.59	118.94
303.82	108.94
304.051	93.94
304.281	95.94
304.511	94.94
304.741	91.94
304.971	100.94
305.201	81.94
305.431	86.94
305.661	92.94
305.891	95.94
306.121	108.94
306.352	106.94
306.582	113.94
306.812	101.94
307.042	90.94
307.272	88.94
307.502	91.94
307.731	96.94
307.961	90.94
308.191	97.94
308.421	96.94
308.651	87.94
308.881	104.94
309.111	92.94
309.341	93.94
309.571	100.94
309.8	109.94
310.03	94.94
310.26	95.94
310.49	96.94
310.72	101.94
310.949	87.94
311.179	93.94
311.409	83.94
311.639	94.94
311.868	88.94
312.098	106.94
312.328	96.94
312.557	113.94
312.787	96.94
313.017	101.94
313.246	80.94
313.476	93.94
313.706	91.94
313.935	97.94
314.165	90.94
314.394	99.94
314.624	94.94
314.853	104.94
315.083	95.94
315.312	92.94
315.542	90.94
315.771	97.94
316.001	86.94
316.23	96.94
316.46	96.94
316.689	104.94
316.919	92.94
317.148	83.94
317.377	106.94
317.607	99.94
317.836	92.94
318.065	104.94
318.295	97.94
318.524	100.94
318.753	95.94
318.983	105.94
319.212	90.94
319.441	112.94
319.67	103.94
319.9	86.94
320.129	101.94
320.358	93.94
320.587	96.94
320.816	97.94
321.046	92.94
321.275	94.94
321.504	110.94
321.733	79.94
321.962	84.94
322.191	112.94
322.42	106.94
322.649	104.94
322.878	100.94
323.108	108.94
323.337	113.94
323.566	126.94
323.795	137.94
324.024	192.94
324.253	306.94
324.482	627.94
324.71	1212.94
324.939	1645.94
325.168	611.94
325.397	207.94
325.626	121.94
325.855	101.94
326.084	116.94
326.313	114.94
326.542	146.94
326.77	178.94
326.999	372.94
327.228	744.94
327.457	1322.94
327.686	1050.94
327.914	289.94
328.143	175.94
328.372	151.94
328.6	126.94
328.829	101.94
329.058	114.94
329.287	123.94
329.515	85.94
329.744	98.94
329.972	84.94
330.201	96.94
330.43	113.94
330.658	104.94
330.887	111.94
331.115	106.94
331.344	90.94
331.572	100.94
331.801	118.94
332.03	101.94
332.258	98.94
332.486	96.94
332.715	92.94
332.943	103.94
333.172	96.94
333.4	97.94
333.629	95.94
333.857	114.94
334.085	97.94
334.314	72.94
334.542	104.94
334.771	93.94
334.999	96.94
335.227	77.94
335.455	80.94
335.684	91.94
335.912	97.94
336.14	103.94
336.369	101.94
336.597	94.94
336.825	97.94
337.053	107.94
337.281	86.94
337.51	101.94
337.738	99.94
337.966	101.94
338.194	98.94
338.422	112.94
338.65	94.94
338.878	100.94
339.106	91.94
339.334	106.94
339.562	100.94
339.79	87.94
340.018	89.94
340.246	87.94
340.474	114.94
340.702	84.94
340.93	92.94
341.158	78.94
341.386	93.94
341.614	96.94
341.842	82.94
342.07	99.94
342.298	96.94
342.526	99.94
342.754	90.94
342.981	93.94
343.209	86.94
343.437	96.94
343.665	91.94
343.893	80.94
344.12	106.94
344.348	96.94
344.576	100.94
344.804	92.94
345.031	105.94
345.259	110.94
345.487	94.94
345.714	86.94
345.942	91.94
346.17	91.94
346.397	91.94
346.625	108.94
346.853	102.94
347.08	102.94
347.308	82.94
347.535	84.94
347.763	99.94
347.99	102.94
348.218	102.94
348.445	106.94
348.673	101.94
348.9	92.94
349.128	106.94
349.355	97.94
349.583	94.94
349.81	117.94
350.037	108.94
350.265	86.94
350.492	107.94
350.72	95.94
350.947	99.94
351.174	100.94
351.402	114.94
351.629	95.94
351.856	98.94
352.083	104.94
352.311	102.94
352.538	113.94
352.765	105.94
352.992	111.94
353.22	112.94
353.447	97.94
353.674	108.94
353.901	98.94
354.128	108.94
354.355	96.94
354.583	96.94
354.81	97.94
355.037	110.94
355.264	102.94
355.491	104.94
355.718	89.94
355.945	91.94
356.172	108.94
356.399	97.94
356.626	100.94
356.853	95.94
357.08	114.94
357.307	89.94
357.534	98.94
357.761	105.94
357.988	105.94
358.215	93.94
358.441	106.94
358.668	100.94
358.895	96.94
359.122	89.94
359.349	92.94
359.576	93.94
359.802	98.94
360.029	105.94
360.256	114.94
360.483	96.94
360.709	103.94
360.936	90.94
361.163	100.94
361.39	91.94
361.616	92.94
361.843	80.94
362.07	82.94
362.296	97.94
362.523	101.94
362.749	89.94
362.976	88.94
363.203	101.94
363.429	96.94
363.656	93.94
363.882	86.94
364.109	93.94
364.335	94.94
364.562	80.94
364.788	103.94
365.015	81.94
365.241	101.94
365.468	105.94
365.694	100.94
365.92	101.94
366.147	94.94
366.373	86.94
366.599	107.94
366.826	100.94
367.052	87.94
367.278	86.94
367.505	97.94
367.731	92.94
367.957	91.94
368.184	105.94
368.41	87.94
368.636	118.94
368.862	113.94
369.089	99.94
369.315	86.94
369.541	102.94
369.767	91.94
369.993	94.94
370.219	83.94
370.445	102.94
370.672	88.94
370.898	83.94
371.124	80.94
371.35	102.94
371.576	94.94
371.802	96.94
372.028	96.94
372.254	89.94
372.48	91.94
372.706	94.94
372.932	82.94
373.158	72.94
373.384	81.94
373.61	83.94
373.835	98.94
374.061	94.94
374.287	108.94
374.513	90.94
374.739	78.94
374.965	85.94
375.191	85.94
375.416	98.94
375.642	94.94
375.868	90.94
376.094	99.94
376.319	88.94
376.545	95.94
376.771	105.94
376.997	93.94
377.222	86.94
377.448	91.94
377.674	91.94
377.899	94.94
378.125	80.94
378.35	92.94
378.576	91.94
378.802	101.94
379.027	92.94
379.253	86.94
379.478	91.94
379.704	103.94
379.929	97.94
380.155	95.94
380.38	88.94
380.606	96.94
380.831	87.94
381.057	84.94
381.282	95.94
381.507	101.94
381.733	100.94
381.958	98.94
382.184	109.94
382.409	109.94
382.634	112.94
382.86	106.94
383.085	97.94
383.31	95.94
383.535	104.94
383.761	101.94
383.986	107.94
384.211	105.94
384.436	94.94
384.662	96.94
384.887	108.94
385.112	115.94
385.337	108.94
385.562	106.94
385.787	101.94
386.013	105.94
386.238	116.94
386.463	120.94
386.688	109.94
386.913	107.94
387.138	118.94
387.363	111.94
387.588	103.94
387.813	112.94
388.038	117.94
388.263	100.94
388.488	112.94
388.713	102.94
388.938	104.94
389.163	110.94
389.387	98.94
389.612	100.94
389.837	91.94
390.062	96.94
390.287	104.94
390.512	101.94
390.736	89.94
390.961	96.94
391.186	94.94
391.411	108.94
391.636	98.94
391.86	90.94
392.085	95.94
392.31	93.94
392.534	85.94
392.759	90.94
392.984	89.94
393.208	100.94
393.433	109.94
393.658	106.94
393.882	86.94
394.107	104.94
394.331	83.94
394.556	84.94
394.78	81.94
395.005	92.94
395.229	72.94
395.454	91.94
395.678	70.94
395.903	104.94
396.127	100.94
396.352	93.94
396.576	98.94
396.801	87.94
397.025	94.94
397.249	84.94
397.474	97.94
397.698	104.94
397.922	92.94
398.147	86.94
398.371	94.94
398.595	93.94
398.82	94.94
399.044	80.94
399.268	79.94
399.492	84.94
399.717	80.94
399.941	84.94
400.165	108.94
400.389	86.94
400.613	93.94
400.837	89.94
401.062	82.94
401.286	94.94
401.51	84.94
401.734	84.94
401.958	88.94
402.182	131.94
402.406	123.94
402.63	107.94
402.854	92.94
403.078	96.94
403.302	84.94
403.526	90.94
403.75	88.94
403.974	96.94
404.198	80.94
404.422	88.94
404.645	101.94
404.869	90.94
405.093	94.94
405.317	101.94
405.541	98.94
405.765	100.94
405.988	102.94
406.212	152.94
406.436	180.94
406.66	131.94
406.883	101.94
407.107	85.94
407.331	76.94
407.555	109.94
407.778	105.94
408.002	103.94
408.226	102.94
408.449	103.94
408.673	97.94
408.896	88.94
409.12	81.94
409.344	88.94
409.567	96.94
409.791	97.94
410.014	99.94
410.238	96.94
410.461	95.94
410.685	85.94
410.908	97.94
411.132	116.94
411.355	89.94
411.578	102.94
411.802	80.94
412.025	92.94
412.249	103.94
412.472	82.94
412.695	103.94
412.919	83.94
413.142	87.94
413.365	86.94
413.589	94.94
413.812	87.94
414.035	83.94
414.258	90.94
414.482	80.94
414.705	90.94
414.928	84.94
415.151	104.94
415.374	106.94
415.597	108.94
415.821	88.94
416.044	98.94
416.267	91.94
416.49	96.94
416.713	96.94
416.936	101.94
417.159	80.94
417.382	84.94
417.605	83.94
417.828	106.94
418.051	89.94
418.274	102.94
418.497	78.94
418.72	97.94
418.943	85.94
419.166	93.94
419.389	86.94
419.611	94.94
419.834	83.94
420.057	94.94
420.28	107.94
420.503	97.94
420.726	86.94
420.948	92.94
421.171	88.94
421.394	99.94
421.617	99.94
421.839	78.94
422.062	90.94
422.285	97.94
422.507	119.94
422.73	105.94
422.953	90.94
423.175	92.94
423.398	97.94
423.621	98.94
423.843	88.94
424.066	58.94
424.288	88.94
424.511	89.94
424.733	101.94
424.956	90.94
425.178	104.94
425.401	92.94
425.623	104.94
425.846	71.94
426.068	91.94
426.291	88.94
426.513	92.94
426.735	77.94
426.958	94.94
427.18	100.94
427.402	110.94
427.625	138.94
427.847	96.94
428.069	98.94
428.292	78.94
428.514	80.94
428.736	82.94
428.958	76.94
429.181	88.94
429.403	89.94
429.625	72.94
429.847	96.94
430.069	101.94
430.292	91.94
430.514	77.94
430.736	87.94
430.958	90.94
431.18	93.94
431.402	90.94
431.624	73.94
431.846	88.94
432.068	84.94
432.29	89.94
432.512	92.94
432.734	89.94
432.956	90.94
433.178	96.94
433.4	96.94
433.622	85.94
433.844	99.94
434.066	81.94
434.287	92.94
434.509	94.94
434.731	79.94
434.953	80.94
435.175	79.94
435.397	101.94
435.618	93.94
435.84	100.94
436.062	103.94
436.284	114.94
436.505	108.94
436.727	93.94
436.949	99.94
437.17	92.94
437.392	90.94
437.614	89.94
437.835	91.94
438.057	100.94
438.278	115.94
438.5	108.94
438.721	98.94
438.943	108.94
439.165	94.94
439.386	88.94
439.608	93.94
439.829	99.94
440.05	112.94
440.272	120.94
440.493	102.94
440.715	90.94
440.936	84.94
441.158	93.94
441.379	93.94
441.6	89.94
441.822	91.94
442.043	81.94
442.264	92.94
442.486	89.94
442.707	90.94
442.928	102.94
443.149	109.94
443.371	111.94
443.592	100.94
443.813	109.94
444.034	103.94
444.255	82.94
444.476	88.94
444.698	80.94
444.919	95.94
445.14	130.94
445.361	113.94
445.582	107.94
445.803	125.94
446.024	100.94
446.245	125.94
446.466	96.94
446.687	92.94
446.908	84.94
447.129	92.94
447.35	89.94
447.571	91.94
447.792	86.94
448.013	92.94
448.234	90.94
448.455	81.94
448.675	116.94
448.896	111.94
449.117	94.94
449.338	106.94
449.559	109.94
449.779	112.94
450	104.94
450.221	91.94
450.442	81.94
450.662	93.94
450.883	89.94
451.104	102.94
451.324	88.94
451.545	78.94
451.766	88.94
451.986	78.94
452.207	74.94
452.428	93.94
452.648	93.94
452.869	97.94
453.089	94.94
453.31	112.94
453.53	86.94
453.751	81.94
453.971	97.94
454.192	94.94
454.412	94.94
454.633	81.94
454.853	81.94
455.073	102.94
455.294	91.94
455.514	88.94
455.734	85.94
455.955	79.94
456.175	76.94
456.395	86.94
456.616	81.94
456.836	82.94
457.056	82.94
457.276	83.94
457.497	74.94
457.717	98.94
457.937	97.94
458.157	88.94
458.377	94.94
458.598	81.94
458.818	124.94
459.038	130.94
459.258	97.94
459.478	87.94
459.698	83.94
459.918	93.94
460.138	81.94
460.358	91.94
460.578	77.94
460.798	94.94
461.018	88.94
461.238	81.94
461.458	91.94
461.678	87.94
461.898	86.94
462.118	88.94
462.338	78.94
462.558	83.94
462.777	82.94
462.997	84.94
463.217	96.94
463.437	98.94
463.657	86.94
463.876	93.94
464.096	95.94
464.316	97.94
464.536	86.94
464.755	109.94
464.975	105.94
465.195	120.94
465.414	146.94
465.634	96.94
465.854	90.94
466.073	100.94
466.293	96.94
466.512	90.94
466.732	91.94
466.951	90.94
467.171	94.94
467.391	104.94
467.61	104.94
467.829	87.94
468.049	92.94
468.268	75.94
468.488	84.94
468.707	84.94
468.927	94.94
469.146	99.94
469.365	92.94
469.585	103.94
469.804	90.94
470.023	87.94
470.243	94.94
470.462	91.94
470.681	85.94
470.901	82.94
471.12	97.94
471.339	93.94
471.558	82.94
471.777	85.94
471.997	91.94
472.216	82.94
472.435	96.94
472.654	89.94
472.873	101.94
473.092	108.94
473.311	84.94
473.53	100.94
473.749	88.94
473.968	94.94
474.187	91.94
474.406	87.94
474.625	82.94
474.844	89.94
475.063	81.94
475.282	98.94
475.501	93.94
475.72	76.94
475.939	90.94
476.158	78.94
476.377	84.94
476.596	86.94
476.814	88.94
477.033	91.94
477.252	82.94
477.471	78.94
477.69	104.94
477.908	84.94
478.127	88.94
478.346	89.94
478.564	96.94
478.783	103.94
479.002	95.94
479.22	84.94
479.439	86.94
479.658	115.94
479.876	90.94
480.095	73.94
480.313	107.94
480.532	90.94
480.751	84.94
480.969	92.94
481.188	106.94
481.406	99.94
481.624	91.94
481.843	89.94
482.061	87.94
482.28	98.94
482.498	91.94
482.717	89.94
482.935	86.94
483.153	93.94
483.372	83.94
483.59	93.94
483.808	87.94
484.027	91.94
484.245	86.94
484.463	92.94
484.681	91.94
484.9	74.94
485.118	90.94
485.336	91.94
485.554	97.94
485.772	92.94
485.99	100.94
486.209	114.94
486.427	117.94
486.645	97.94
486.863	99.94
487.081	106.94
487.299	103.94
487.517	100.94
487.735	87.94
487.953	93.94
488.171	88.94
488.389	99.94
488.607	107.94
488.825	91.94
489.043	100.94
489.261	84.94
489.479	87.94
489.696	93.94
489.914	89.94
490.132	92.94
490.35	98.94
490.568	77.94
490.786	77.94
491.003	83.94
491.221	90.94
491.439	92.94
491.657	93.94
491.874	103.94
492.092	92.94
492.31	108.94
492.527	85.94
492.745	84.94
492.963	90.94
493.18	89.94
493.398	73.94
493.615	99.94
493.833	98.94
494.05	76.94
494.268	93.94
494.485	92.94
494.703	89.94
494.92	88.94
495.138	85.94
495.355	98.94
495.573	74.94
495.79	83.94
496.008	98.94
496.225	91.94
496.442	86.94
496.66	99.94
496.877	97.94
497.094	106.94
497.312	91.94
497.529	77.94
497.746	78.94
497.963	87.94
498.181	82.94
498.398	93.94
498.615	97.94
498.832	105.94
499.049	80.94
499.267	92.94
499.484	92.94
499.701	96.94
499.918	104.94
500.135	93.94
500.352	103.94
500.569	96.94
500.786	75.94
501.003	94.94
501.22	94.94
501.437	99.94
501.654	90.94
501.871	105.94
502.088	82.94
502.305	85.94
502.522	91.94
502.739	82.94
502.956	78.94
503.172	82.94
503.389	96.94
503.606	91.94
503.823	94.94
504.04	100.94
504.256	98.94
504.473	86.94
504.69	86.94
504.907	96.94
505.123	72.94
505.34	92.94
505.557	75.94
505.773	76.94
505.99	75.94
506.207	93.94
506.423	92.94
506.64	84.94
506.856	86.94
507.073	89.94
507.289	100.94
507.506	92.94
507.722	86.94
507.939	93.94
508.155	102.94
508.372	97.94
508.588	88.94
508.805	106.94
509.021	89.94
509.238	99.94
509.454	94.94
509.67	84.94
509.887	100.94
510.103	122.94
510.319	185.94
510.536	590.94
510.752	1784.94
510.968	510.94
511.184	139.94
511.401	118.94
511.617	102.94
511.833	87.94
512.049	98.94
512.265	98.94
512.481	89.94
512.698	84.94
512.914	85.94
513.13	86.94
513.346	97.94
513.562	119.94
513.778	90.94
513.994	97.94
514.21	95.94
514.426	104.94
514.642	121.94
514.858	109.94
515.074	141.94
515.29	348.94
515.506	1023.94
