Data from Uncirc_1984_H10_HRD10591_00029.txt Node
Date: Wed Jan 03 12:21:43 EST 2024
User: Yrep
Spectrometer: HR+D1059
Trigger mode: 1
Integration Time (sec): 1.000000E-1
Scans to average: 1
Electric dark correction enabled: true
Nonlinearity correction enabled: false
Boxcar width: 0
XAxis mode: Wavelengths
Number of Pixels in Spectrum: 2048
>>>>>Begin Spectral Data<<<<<
223.165	-13.94
223.4	-13.94
223.635	-13.94
223.869	-9.94
224.104	-18.94
224.338	-13.94
224.573	-22.94
224.808	-16.94
225.042	-4.94
225.277	-9.94
225.511	-0.94
225.746	2.06
225.98	3.06
226.215	24.06
226.449	20.06
226.683	3.06
226.918	34.06
227.152	26.06
227.387	30.06
227.621	33.06
227.856	52.06
228.09	50.06
228.324	50.06
228.559	64.06
228.793	58.06
229.027	62.06
229.262	67.06
229.496	70.06
229.73	89.06
229.964	82.06
230.199	68.06
230.433	73.06
230.667	84.06
230.901	84.06
231.136	80.06
231.37	93.06
231.604	91.06
231.838	86.06
232.072	77.06
232.306	83.06
232.541	87.06
232.775	87.06
233.009	75.06
233.243	69.06
233.477	80.06
233.711	84.06
233.945	69.06
234.179	72.06
234.413	89.06
234.647	73.06
234.881	84.06
235.115	67.06
235.349	80.06
235.583	77.06
235.817	82.06
236.051	74.06
236.285	82.06
236.519	88.06
236.753	87.06
236.987	72.06
237.221	86.06
237.455	75.06
237.689	84.06
237.922	85.06
238.156	90.06
238.39	78.06
238.624	76.06
238.858	85.06
239.091	77.06
239.325	86.06
239.559	80.06
239.793	87.06
240.027	82.06
240.26	88.06
240.494	87.06
240.728	86.06
240.961	97.06
241.195	85.06
241.429	80.06
241.662	67.06
241.896	82.06
242.13	80.06
242.363	86.06
242.597	82.06
242.83	74.06
243.064	83.06
243.298	77.06
243.531	82.06
243.765	77.06
243.998	84.06
244.232	74.06
244.465	83.06
244.699	81.06
244.932	92.06
245.166	73.06
245.399	86.06
245.633	77.06
245.866	81.06
246.099	74.06
246.333	83.06
246.566	74.06
246.8	85.06
247.033	75.06
247.266	87.06
247.5	81.06
247.733	70.06
247.966	86.06
248.2	86.06
248.433	72.06
248.666	77.06
248.899	74.06
249.133	81.06
249.366	104.06
249.599	97.06
249.832	75.06
250.066	72.06
250.299	79.06
250.532	73.06
250.765	80.06
250.998	84.06
251.231	66.06
251.465	77.06
251.698	82.06
251.931	74.06
252.164	86.06
252.397	82.06
252.63	81.06
252.863	83.06
253.096	98.06
253.329	87.06
253.562	77.06
253.795	82.06
254.028	76.06
254.261	80.06
254.494	85.06
254.727	83.06
254.96	87.06
255.193	84.06
255.426	85.06
255.659	72.06
255.892	81.06
256.124	91.06
256.357	91.06
256.59	81.06
256.823	93.06
257.056	69.06
257.289	86.06
257.521	76.06
257.754	84.06
257.987	70.06
258.22	93.06
258.452	85.06
258.685	92.06
258.918	88.06
259.151	89.06
259.383	94.06
259.616	88.06
259.849	69.06
260.081	84.06
260.314	99.06
260.547	85.06
260.779	82.06
261.012	81.06
261.244	98.06
261.477	91.06
261.71	94.06
261.942	93.06
262.175	102.06
262.407	91.06
262.64	72.06
262.872	97.06
263.105	88.06
263.337	80.06
263.57	74.06
263.802	86.06
264.035	84.06
264.267	80.06
264.499	89.06
264.732	81.06
264.964	86.06
265.197	67.06
265.429	74.06
265.661	78.06
265.894	92.06
266.126	90.06
266.358	82.06
266.591	90.06
266.823	82.06
267.055	83.06
267.287	77.06
267.52	92.06
267.752	86.06
267.984	88.06
268.216	82.06
268.448	73.06
268.681	78.06
268.913	89.06
269.145	91.06
269.377	80.06
269.609	84.06
269.841	93.06
270.073	89.06
270.306	74.06
270.538	69.06
270.77	86.06
271.002	84.06
271.234	82.06
271.466	93.06
271.698	78.06
271.93	92.06
272.162	85.06
272.394	85.06
272.626	78.06
272.858	80.06
273.09	96.06
273.322	95.06
273.553	90.06
273.785	92.06
274.017	79.06
274.249	89.06
274.481	83.06
274.713	90.06
274.945	96.06
275.176	85.06
275.408	88.06
275.64	93.06
275.872	73.06
276.104	91.06
276.335	100.06
276.567	86.06
276.799	96.06
277.031	98.06
277.262	91.06
277.494	98.06
277.726	96.06
277.957	95.06
278.189	85.06
278.421	94.06
278.652	84.06
278.884	91.06
279.115	92.06
279.347	90.06
279.579	65.06
279.81	83.06
280.042	90.06
280.273	93.06
280.505	90.06
280.736	79.06
280.968	92.06
281.199	81.06
281.431	102.06
281.662	92.06
281.894	111.06
282.125	96.06
282.356	100.06
282.588	145.06
282.819	97.06
283.051	86.06
283.282	69.06
283.513	104.06
283.745	88.06
283.976	85.06
284.207	107.06
284.439	86.06
284.67	90.06
284.901	100.06
285.132	88.06
285.364	90.06
285.595	84.06
285.826	93.06
286.057	98.06
286.288	94.06
286.52	85.06
286.751	97.06
286.982	93.06
287.213	86.06
287.444	86.06
287.675	96.06
287.906	101.06
288.138	81.06
288.369	96.06
288.6	93.06
288.831	91.06
289.062	76.06
289.293	94.06
289.524	89.06
289.755	95.06
289.986	94.06
290.217	80.06
290.448	93.06
290.679	84.06
290.91	93.06
291.141	93.06
291.371	94.06
291.602	96.06
291.833	91.06
292.064	84.06
292.295	82.06
292.526	89.06
292.757	101.06
292.987	89.06
293.218	96.06
293.449	101.06
293.68	80.06
293.91	95.06
294.141	90.06
294.372	90.06
294.603	88.06
294.833	84.06
295.064	93.06
295.295	98.06
295.525	86.06
295.756	101.06
295.987	113.06
296.217	135.06
296.448	116.06
296.679	84.06
296.909	94.06
297.14	102.06
297.37	84.06
297.601	90.06
297.831	82.06
298.062	103.06
298.292	84.06
298.523	97.06
298.753	94.06
298.984	92.06
299.214	82.06
299.445	94.06
299.675	98.06
299.905	95.06
300.136	84.06
300.366	94.06
300.597	87.06
300.827	86.06
301.057	90.06
301.288	101.06
301.518	106.06
301.748	80.06
301.979	97.06
302.209	91.06
302.439	104.06
302.669	89.06
302.9	89.06
303.13	112.06
303.36	110.06
303.59	105.06
303.82	101.06
304.051	93.06
304.281	96.06
304.511	93.06
304.741	97.06
304.971	89.06
305.201	88.06
305.431	86.06
305.661	94.06
305.891	74.06
306.121	97.06
306.352	100.06
306.582	106.06
306.812	90.06
307.042	82.06
307.272	104.06
307.502	95.06
307.731	106.06
307.961	92.06
308.191	82.06
308.421	82.06
308.651	100.06
308.881	97.06
309.111	100.06
309.341	90.06
309.571	97.06
309.8	99.06
310.03	102.06
310.26	96.06
310.49	89.06
310.72	98.06
310.949	100.06
311.179	105.06
311.409	91.06
311.639	85.06
311.868	97.06
312.098	87.06
312.328	106.06
312.557	110.06
312.787	94.06
313.017	111.06
313.246	108.06
313.476	100.06
313.706	87.06
313.935	85.06
314.165	99.06
314.394	109.06
314.624	99.06
314.853	96.06
315.083	102.06
315.312	88.06
315.542	88.06
315.771	101.06
316.001	96.06
316.23	103.06
316.46	76.06
316.689	90.06
316.919	92.06
317.148	85.06
317.377	99.06
317.607	103.06
317.836	100.06
318.065	88.06
318.295	105.06
318.524	84.06
318.753	99.06
318.983	94.06
319.212	102.06
319.441	102.06
319.67	97.06
319.9	105.06
320.129	102.06
320.358	99.06
320.587	97.06
320.816	92.06
321.046	106.06
321.275	93.06
321.504	100.06
321.733	106.06
321.962	88.06
322.191	101.06
322.42	101.06
322.649	99.06
322.878	116.06
323.108	122.06
323.337	128.06
323.566	134.06
323.795	145.06
324.024	184.06
324.253	368.06
324.482	724.06
324.71	1472.06
324.939	1961.06
325.168	740.06
325.397	222.06
325.626	144.06
325.855	137.06
326.084	130.06
326.313	132.06
326.542	141.06
326.77	189.06
326.999	403.06
327.228	836.06
327.457	1511.06
327.686	1190.06
327.914	348.06
328.143	162.06
328.372	141.06
328.6	116.06
328.829	104.06
329.058	118.06
329.287	116.06
329.515	105.06
329.744	97.06
329.972	115.06
330.201	103.06
330.43	105.06
330.658	118.06
330.887	137.06
331.115	109.06
331.344	101.06
331.572	88.06
331.801	110.06
332.03	103.06
332.258	96.06
332.486	85.06
332.715	91.06
332.943	100.06
333.172	98.06
333.4	88.06
333.629	111.06
333.857	102.06
334.085	94.06
334.314	89.06
334.542	100.06
334.771	102.06
334.999	96.06
335.227	100.06
335.455	98.06
335.684	114.06
335.912	110.06
336.14	104.06
336.369	103.06
336.597	100.06
336.825	85.06
337.053	104.06
337.281	80.06
337.51	97.06
337.738	96.06
337.966	104.06
338.194	95.06
338.422	99.06
338.65	101.06
338.878	86.06
339.106	77.06
339.334	89.06
339.562	72.06
339.79	89.06
340.018	90.06
340.246	91.06
340.474	99.06
340.702	86.06
340.93	92.06
341.158	99.06
341.386	96.06
341.614	94.06
341.842	88.06
342.07	84.06
342.298	112.06
342.526	104.06
342.754	97.06
342.981	88.06
343.209	101.06
343.437	99.06
343.665	98.06
343.893	100.06
344.12	98.06
344.348	86.06
344.576	92.06
344.804	90.06
345.031	101.06
345.259	89.06
345.487	101.06
345.714	93.06
345.942	108.06
346.17	93.06
346.397	74.06
346.625	104.06
346.853	82.06
347.08	98.06
347.308	98.06
347.535	104.06
347.763	97.06
347.99	93.06
348.218	108.06
348.445	91.06
348.673	102.06
348.9	101.06
349.128	105.06
349.355	78.06
349.583	98.06
349.81	93.06
350.037	91.06
350.265	97.06
350.492	105.06
350.72	108.06
350.947	114.06
351.174	96.06
351.402	110.06
351.629	106.06
351.856	106.06
352.083	113.06
352.311	108.06
352.538	104.06
352.765	100.06
352.992	124.06
353.22	99.06
353.447	88.06
353.674	97.06
353.901	93.06
354.128	102.06
354.355	103.06
354.583	101.06
354.81	85.06
355.037	100.06
355.264	98.06
355.491	108.06
355.718	101.06
355.945	88.06
356.172	86.06
356.399	91.06
356.626	90.06
356.853	101.06
357.08	92.06
357.307	90.06
357.534	93.06
357.761	102.06
357.988	93.06
358.215	100.06
358.441	100.06
358.668	95.06
358.895	97.06
359.122	101.06
359.349	100.06
359.576	94.06
359.802	107.06
360.029	111.06
360.256	98.06
360.483	112.06
360.709	87.06
360.936	101.06
361.163	84.06
361.39	91.06
361.616	94.06
361.843	93.06
362.07	96.06
362.296	97.06
362.523	108.06
362.749	99.06
362.976	104.06
363.203	85.06
363.429	91.06
363.656	91.06
363.882	99.06
364.109	99.06
364.335	96.06
364.562	95.06
364.788	97.06
365.015	101.06
365.241	96.06
365.468	105.06
365.694	90.06
365.92	97.06
366.147	90.06
366.373	97.06
366.599	109.06
366.826	86.06
367.052	97.06
367.278	102.06
367.505	100.06
367.731	85.06
367.957	96.06
368.184	104.06
368.41	104.06
368.636	115.06
368.862	122.06
369.089	105.06
369.315	86.06
369.541	84.06
369.767	88.06
369.993	99.06
370.219	98.06
370.445	94.06
370.672	92.06
370.898	94.06
371.124	90.06
371.35	92.06
371.576	80.06
371.802	90.06
372.028	93.06
372.254	100.06
372.48	78.06
372.706	99.06
372.932	84.06
373.158	95.06
373.384	115.06
373.61	104.06
373.835	101.06
374.061	97.06
374.287	91.06
374.513	94.06
374.739	101.06
374.965	102.06
375.191	75.06
375.416	95.06
375.642	88.06
375.868	98.06
376.094	91.06
376.319	81.06
376.545	89.06
376.771	92.06
376.997	100.06
377.222	82.06
377.448	86.06
377.674	95.06
377.899	98.06
378.125	85.06
378.35	84.06
378.576	105.06
378.802	79.06
379.027	94.06
379.253	84.06
379.478	81.06
379.704	103.06
379.929	84.06
380.155	85.06
380.38	109.06
380.606	93.06
380.831	101.06
381.057	102.06
381.282	98.06
381.507	93.06
381.733	87.06
381.958	95.06
382.184	84.06
382.409	107.06
382.634	110.06
382.86	100.06
383.085	109.06
383.31	108.06
383.535	102.06
383.761	93.06
383.986	97.06
384.211	94.06
384.436	107.06
384.662	92.06
384.887	123.06
385.112	109.06
385.337	89.06
385.562	91.06
385.787	109.06
386.013	110.06
386.238	109.06
386.463	106.06
386.688	107.06
386.913	93.06
387.138	96.06
387.363	98.06
387.588	105.06
387.813	103.06
388.038	102.06
388.263	113.06
388.488	110.06
388.713	106.06
388.938	88.06
389.163	101.06
389.387	82.06
389.612	99.06
389.837	95.06
390.062	91.06
390.287	96.06
390.512	84.06
390.736	99.06
390.961	96.06
391.186	91.06
391.411	100.06
391.636	106.06
391.86	85.06
392.085	97.06
392.31	75.06
392.534	84.06
392.759	92.06
392.984	89.06
393.208	97.06
393.433	101.06
393.658	92.06
393.882	67.06
394.107	81.06
394.331	82.06
394.556	98.06
394.78	83.06
395.005	77.06
395.229	97.06
395.454	82.06
395.678	76.06
395.903	114.06
396.127	97.06
396.352	96.06
396.576	77.06
396.801	98.06
397.025	106.06
397.249	78.06
397.474	80.06
397.698	91.06
397.922	95.06
398.147	98.06
398.371	101.06
398.595	93.06
398.82	77.06
399.044	91.06
399.268	93.06
399.492	99.06
399.717	90.06
399.941	72.06
400.165	101.06
400.389	96.06
400.613	73.06
400.837	81.06
401.062	91.06
401.286	90.06
401.51	94.06
401.734	87.06
401.958	107.06
402.182	122.06
402.406	147.06
402.63	115.06
402.854	87.06
403.078	68.06
403.302	103.06
403.526	111.06
403.75	93.06
403.974	84.06
404.198	90.06
404.422	86.06
404.645	81.06
404.869	91.06
405.093	92.06
405.317	96.06
405.541	86.06
405.765	101.06
405.988	108.06
406.212	152.06
406.436	198.06
406.66	132.06
406.883	91.06
407.107	101.06
407.331	98.06
407.555	117.06
407.778	101.06
408.002	95.06
408.226	113.06
408.449	94.06
408.673	84.06
408.896	98.06
409.12	98.06
409.344	94.06
409.567	97.06
409.791	104.06
410.014	92.06
410.238	106.06
410.461	94.06
410.685	89.06
410.908	101.06
411.132	92.06
411.355	95.06
411.578	93.06
411.802	107.06
412.025	103.06
412.249	93.06
412.472	86.06
412.695	92.06
412.919	90.06
413.142	103.06
413.365	84.06
413.589	84.06
413.812	101.06
414.035	102.06
414.258	92.06
414.482	76.06
414.705	87.06
414.928	96.06
415.151	84.06
415.374	108.06
415.597	87.06
415.821	102.06
416.044	89.06
416.267	88.06
416.49	93.06
416.713	100.06
416.936	86.06
417.159	93.06
417.382	90.06
417.605	81.06
417.828	103.06
418.051	110.06
418.274	81.06
418.497	88.06
418.72	88.06
418.943	99.06
419.166	94.06
419.389	97.06
419.611	96.06
419.834	88.06
420.057	103.06
420.28	81.06
420.503	89.06
420.726	98.06
420.948	101.06
421.171	92.06
421.394	88.06
421.617	99.06
421.839	90.06
422.062	91.06
422.285	94.06
422.507	105.06
422.73	109.06
422.953	98.06
423.175	91.06
423.398	104.06
423.621	104.06
423.843	90.06
424.066	84.06
424.288	82.06
424.511	94.06
424.733	92.06
424.956	89.06
425.178	102.06
425.401	102.06
425.623	114.06
425.846	103.06
426.068	91.06
426.291	99.06
426.513	89.06
426.735	97.06
426.958	98.06
427.18	103.06
427.402	142.06
427.625	144.06
427.847	118.06
428.069	103.06
428.292	92.06
428.514	88.06
428.736	96.06
428.958	76.06
429.181	86.06
429.403	96.06
429.625	69.06
429.847	87.06
430.069	98.06
430.292	90.06
430.514	86.06
430.736	84.06
430.958	101.06
431.18	89.06
431.402	94.06
431.624	88.06
431.846	90.06
432.068	75.06
432.29	80.06
432.512	89.06
432.734	92.06
432.956	104.06
433.178	105.06
433.4	108.06
433.622	95.06
433.844	98.06
434.066	103.06
434.287	91.06
434.509	104.06
434.731	85.06
434.953	88.06
435.175	92.06
435.397	85.06
435.618	90.06
435.84	107.06
436.062	123.06
436.284	104.06
436.505	107.06
436.727	98.06
436.949	94.06
437.17	92.06
437.392	92.06
437.614	97.06
437.835	104.06
438.057	115.06
438.278	105.06
438.5	102.06
438.721	115.06
438.943	99.06
439.165	86.06
439.386	94.06
439.608	93.06
439.829	101.06
440.05	120.06
440.272	132.06
440.493	101.06
440.715	90.06
440.936	91.06
441.158	82.06
441.379	89.06
441.6	86.06
441.822	105.06
442.043	88.06
442.264	101.06
442.486	110.06
442.707	89.06
442.928	101.06
443.149	124.06
443.371	114.06
443.592	103.06
443.813	98.06
444.034	103.06
444.255	82.06
444.476	86.06
444.698	72.06
444.919	82.06
445.14	134.06
445.361	120.06
445.582	105.06
445.803	125.06
446.024	106.06
446.245	127.06
446.466	96.06
446.687	92.06
446.908	104.06
447.129	89.06
447.35	85.06
447.571	91.06
447.792	107.06
448.013	106.06
448.234	105.06
448.455	93.06
448.675	125.06
448.896	122.06
449.117	95.06
449.338	103.06
449.559	117.06
449.779	114.06
450	87.06
450.221	93.06
450.442	89.06
450.662	97.06
450.883	106.06
451.104	107.06
451.324	96.06
451.545	95.06
451.766	100.06
451.986	83.06
452.207	94.06
452.428	96.06
452.648	105.06
452.869	113.06
453.089	118.06
453.31	114.06
453.53	85.06
453.751	92.06
453.971	84.06
454.192	104.06
454.412	100.06
454.633	98.06
454.853	104.06
455.073	89.06
455.294	84.06
455.514	90.06
455.734	71.06
455.955	72.06
456.175	92.06
456.395	84.06
456.616	98.06
456.836	80.06
457.056	94.06
457.276	93.06
457.497	77.06
457.717	73.06
457.937	86.06
458.157	84.06
458.377	97.06
458.598	106.06
458.818	131.06
459.038	147.06
459.258	101.06
459.478	97.06
459.698	82.06
459.918	86.06
460.138	87.06
460.358	75.06
460.578	69.06
460.798	89.06
461.018	101.06
461.238	86.06
461.458	88.06
461.678	88.06
461.898	78.06
462.118	87.06
462.338	83.06
462.558	82.06
462.777	100.06
462.997	91.06
463.217	91.06
463.437	86.06
463.657	95.06
463.876	86.06
464.096	76.06
464.316	90.06
464.536	103.06
464.755	103.06
464.975	104.06
465.195	140.06
465.414	140.06
465.634	106.06
465.854	87.06
466.073	82.06
466.293	90.06
466.512	90.06
466.732	103.06
466.951	80.06
467.171	88.06
467.391	104.06
467.61	103.06
467.829	99.06
468.049	92.06
468.268	98.06
468.488	86.06
468.707	80.06
468.927	75.06
469.146	82.06
469.365	86.06
469.585	101.06
469.804	93.06
470.023	110.06
470.243	95.06
470.462	93.06
470.681	111.06
470.901	81.06
471.12	102.06
471.339	87.06
471.558	94.06
471.777	93.06
471.997	86.06
472.216	98.06
472.435	97.06
472.654	88.06
472.873	101.06
473.092	80.06
473.311	88.06
473.53	94.06
473.749	92.06
473.968	92.06
474.187	98.06
474.406	89.06
474.625	100.06
474.844	92.06
475.063	82.06
475.282	78.06
475.501	90.06
475.72	88.06
475.939	92.06
476.158	96.06
476.377	93.06
476.596	89.06
476.814	91.06
477.033	84.06
477.252	97.06
477.471	82.06
477.69	77.06
477.908	90.06
478.127	104.06
478.346	92.06
478.564	86.06
478.783	90.06
479.002	88.06
479.22	85.06
479.439	94.06
479.658	88.06
479.876	98.06
480.095	90.06
480.313	89.06
480.532	88.06
480.751	88.06
480.969	85.06
481.188	90.06
481.406	104.06
481.624	102.06
481.843	91.06
482.061	94.06
482.28	86.06
482.498	84.06
482.717	94.06
482.935	71.06
483.153	102.06
483.372	86.06
483.59	88.06
483.808	96.06
484.027	84.06
484.245	104.06
484.463	83.06
484.681	89.06
484.9	100.06
485.118	88.06
485.336	104.06
485.554	99.06
485.772	96.06
485.99	106.06
486.209	100.06
486.427	101.06
486.645	122.06
486.863	110.06
487.081	104.06
487.299	87.06
487.517	97.06
487.735	94.06
487.953	95.06
488.171	103.06
488.389	101.06
488.607	114.06
488.825	123.06
489.043	84.06
489.261	80.06
489.479	81.06
489.696	74.06
489.914	104.06
490.132	96.06
490.35	91.06
490.568	90.06
490.786	89.06
491.003	110.06
491.221	96.06
491.439	92.06
491.657	97.06
491.874	107.06
492.092	104.06
492.31	89.06
492.527	89.06
492.745	86.06
492.963	103.06
493.18	114.06
493.398	95.06
493.615	94.06
493.833	110.06
494.05	95.06
494.268	93.06
494.485	92.06
494.703	98.06
494.92	87.06
495.138	85.06
495.355	103.06
495.573	96.06
495.79	84.06
496.008	90.06
496.225	98.06
496.442	102.06
496.66	81.06
496.877	91.06
497.094	101.06
497.312	93.06
497.529	104.06
497.746	110.06
497.963	79.06
498.181	88.06
498.398	88.06
498.615	103.06
498.832	91.06
499.049	91.06
499.267	93.06
499.484	100.06
499.701	90.06
499.918	98.06
500.135	79.06
500.352	89.06
500.569	89.06
500.786	90.06
501.003	86.06
501.22	93.06
501.437	82.06
501.654	90.06
501.871	97.06
502.088	88.06
502.305	93.06
502.522	99.06
502.739	98.06
502.956	93.06
503.172	104.06
503.389	94.06
503.606	95.06
503.823	97.06
504.04	83.06
504.256	89.06
504.473	106.06
504.69	90.06
504.907	98.06
505.123	92.06
505.34	85.06
505.557	101.06
505.773	83.06
505.99	81.06
506.207	86.06
506.423	92.06
506.64	80.06
506.856	102.06
507.073	94.06
507.289	97.06
507.506	102.06
507.722	122.06
507.939	103.06
508.155	109.06
508.372	88.06
508.588	104.06
508.805	102.06
509.021	107.06
509.238	97.06
509.454	104.06
509.67	110.06
509.887	120.06
510.103	125.06
510.319	200.06
510.536	708.06
510.752	2249.06
510.968	616.06
511.184	150.06
511.401	109.06
511.617	104.06
511.833	86.06
512.049	83.06
512.265	92.06
512.481	90.06
512.698	94.06
512.914	90.06
513.13	86.06
513.346	90.06
513.562	98.06
513.778	80.06
513.994	110.06
514.21	114.06
514.426	116.06
514.642	133.06
