Data from Uncirc_1984_H10_HRD10591_00033.txt Node
Date: Wed Jan 03 12:21:43 EST 2024
User: Yrep
Spectrometer: HR+D1059
Trigger mode: 1
Integration Time (sec): 1.000000E-1
Scans to average: 1
Electric dark correction enabled: true
Nonlinearity correction enabled: false
Boxcar width: 0
XAxis mode: Wavelengths
Number of Pixels in Spectrum: 2048
>>>>>Begin Spectral Data<<<<<
223.165	-9.69
223.4	-9.69
223.635	-9.69
223.869	-7.69
224.104	-15.69
224.338	-12.69
224.573	-31.69
224.808	-11.69
225.042	-11.69
225.277	-8.69
225.511	-5.69
225.746	-6.69
225.98	0.31
226.215	21.31
226.449	25.31
226.683	15.31
226.918	39.31
227.152	20.31
227.387	30.31
227.621	43.31
227.856	58.31
228.09	44.31
228.324	45.31
228.559	50.31
228.793	53.31
229.027	72.31
229.262	59.31
229.496	71.31
229.73	88.31
229.964	71.31
230.199	76.31
230.433	89.31
230.667	80.31
230.901	84.31
231.136	74.31
231.37	90.31
231.604	70.31
231.838	87.31
232.072	76.31
232.306	70.31
232.541	78.31
232.775	82.31
233.009	84.31
233.243	95.31
233.477	75.31
233.711	85.31
233.945	73.31
234.179	78.31
234.413	86.31
234.647	79.31
234.881	74.31
235.115	76.31
235.349	74.31
235.583	79.31
235.817	80.31
236.051	82.31
236.285	69.31
236.519	84.31
236.753	74.31
236.987	78.31
237.221	82.31
237.455	80.31
237.689	70.31
237.922	67.31
238.156	73.31
238.39	81.31
238.624	65.31
238.858	79.31
239.091	73.31
239.325	82.31
239.559	67.31
239.793	80.31
240.027	81.31
240.26	86.31
240.494	71.31
240.728	69.31
240.961	82.31
241.195	71.31
241.429	92.31
241.662	66.31
241.896	72.31
242.13	83.31
242.363	67.31
242.597	70.31
242.83	88.31
243.064	75.31
243.298	74.31
243.531	68.31
243.765	74.31
243.998	90.31
244.232	81.31
244.465	91.31
244.699	72.31
244.932	74.31
245.166	67.31
245.399	82.31
245.633	86.31
245.866	86.31
246.099	83.31
246.333	76.31
246.566	85.31
246.8	67.31
247.033	68.31
247.266	83.31
247.5	95.31
247.733	79.31
247.966	81.31
248.2	74.31
248.433	86.31
248.666	67.31
248.899	86.31
249.133	97.31
249.366	90.31
249.599	95.31
249.832	91.31
250.066	98.31
250.299	76.31
250.532	84.31
250.765	86.31
250.998	78.31
251.231	67.31
251.465	73.31
251.698	76.31
251.931	71.31
252.164	85.31
252.397	83.31
252.63	79.31
252.863	95.31
253.096	85.31
253.329	82.31
253.562	81.31
253.795	66.31
254.028	80.31
254.261	71.31
254.494	93.31
254.727	88.31
254.96	74.31
255.193	81.31
255.426	86.31
255.659	73.31
255.892	86.31
256.124	78.31
256.357	89.31
256.59	82.31
256.823	83.31
257.056	78.31
257.289	86.31
257.521	89.31
257.754	90.31
257.987	83.31
258.22	90.31
258.452	84.31
258.685	80.31
258.918	74.31
259.151	72.31
259.383	74.31
259.616	74.31
259.849	83.31
260.081	80.31
260.314	83.31
260.547	83.31
260.779	82.31
261.012	95.31
261.244	86.31
261.477	96.31
261.71	86.31
261.942	108.31
262.175	113.31
262.407	96.31
262.64	84.31
262.872	65.31
263.105	73.31
263.337	83.31
263.57	74.31
263.802	84.31
264.035	84.31
264.267	82.31
264.499	77.31
264.732	75.31
264.964	73.31
265.197	72.31
265.429	76.31
265.661	89.31
265.894	86.31
266.126	85.31
266.358	79.31
266.591	82.31
266.823	75.31
267.055	83.31
267.287	78.31
267.52	85.31
267.752	84.31
267.984	84.31
268.216	98.31
268.448	94.31
268.681	92.31
268.913	91.31
269.145	80.31
269.377	91.31
269.609	86.31
269.841	94.31
270.073	96.31
270.306	103.31
270.538	106.31
270.77	88.31
271.002	96.31
271.234	75.31
271.466	84.31
271.698	80.31
271.93	81.31
272.162	94.31
272.394	80.31
272.626	78.31
272.858	89.31
273.09	90.31
273.322	85.31
273.553	92.31
273.785	90.31
274.017	72.31
274.249	86.31
274.481	88.31
274.713	84.31
274.945	82.31
275.176	81.31
275.408	93.31
275.64	73.31
275.872	89.31
276.104	90.31
276.335	82.31
276.567	101.31
276.799	100.31
277.031	100.31
277.262	96.31
277.494	83.31
277.726	81.31
277.957	90.31
278.189	71.31
278.421	98.31
278.652	98.31
278.884	83.31
279.115	90.31
279.347	87.31
279.579	95.31
279.81	82.31
280.042	90.31
280.273	96.31
280.505	100.31
280.736	97.31
280.968	97.31
281.199	107.31
281.431	75.31
281.662	85.31
281.894	82.31
282.125	92.31
282.356	109.31
282.588	137.31
282.819	108.31
283.051	98.31
283.282	68.31
283.513	81.31
283.745	92.31
283.976	112.31
284.207	90.31
284.439	82.31
284.67	82.31
284.901	87.31
285.132	83.31
285.364	81.31
285.595	58.31
285.826	95.31
286.057	84.31
286.288	86.31
286.52	90.31
286.751	78.31
286.982	78.31
287.213	80.31
287.444	87.31
287.675	88.31
287.906	83.31
288.138	74.31
288.369	92.31
288.6	87.31
288.831	81.31
289.062	102.31
289.293	73.31
289.524	100.31
289.755	85.31
289.986	86.31
290.217	89.31
290.448	72.31
290.679	94.31
290.91	92.31
291.141	92.31
291.371	88.31
291.602	88.31
291.833	89.31
292.064	75.31
292.295	93.31
292.526	92.31
292.757	86.31
292.987	98.31
293.218	94.31
293.449	82.31
293.68	86.31
293.91	83.31
294.141	84.31
294.372	99.31
294.603	83.31
294.833	98.31
295.064	92.31
295.295	84.31
295.525	90.31
295.756	100.31
295.987	121.31
296.217	125.31
296.448	116.31
296.679	93.31
296.909	89.31
297.14	90.31
297.37	102.31
297.601	75.31
297.831	81.31
298.062	98.31
298.292	79.31
298.523	92.31
298.753	80.31
298.984	91.31
299.214	78.31
299.445	84.31
299.675	107.31
299.905	87.31
300.136	76.31
300.366	82.31
300.597	89.31
300.827	83.31
301.057	102.31
301.288	107.31
301.518	84.31
301.748	83.31
301.979	91.31
302.209	83.31
302.439	99.31
302.669	86.31
302.9	106.31
303.13	91.31
303.36	103.31
303.59	97.31
303.82	98.31
304.051	88.31
304.281	84.31
304.511	84.31
304.741	86.31
304.971	86.31
305.201	88.31
305.431	95.31
305.661	102.31
305.891	101.31
306.121	100.31
306.352	91.31
306.582	98.31
306.812	82.31
307.042	95.31
307.272	97.31
307.502	90.31
307.731	92.31
307.961	76.31
308.191	92.31
308.421	80.31
308.651	80.31
308.881	87.31
309.111	98.31
309.341	90.31
309.571	88.31
309.8	88.31
310.03	84.31
310.26	105.31
310.49	98.31
310.72	103.31
310.949	105.31
311.179	99.31
311.409	84.31
311.639	94.31
311.868	99.31
312.098	92.31
312.328	100.31
312.557	91.31
312.787	116.31
313.017	104.31
313.246	93.31
313.476	88.31
313.706	94.31
313.935	89.31
314.165	103.31
314.394	94.31
314.624	86.31
314.853	98.31
315.083	106.31
315.312	91.31
315.542	89.31
315.771	88.31
316.001	86.31
316.23	81.31
316.46	88.31
316.689	84.31
316.919	94.31
317.148	97.31
317.377	110.31
317.607	100.31
317.836	86.31
318.065	83.31
318.295	82.31
318.524	86.31
318.753	111.31
318.983	100.31
319.212	105.31
319.441	99.31
319.67	108.31
319.9	95.31
320.129	87.31
320.358	86.31
320.587	86.31
320.816	94.31
321.046	89.31
321.275	103.31
321.504	97.31
321.733	90.31
321.962	90.31
322.191	102.31
322.42	108.31
322.649	103.31
322.878	122.31
323.108	98.31
323.337	112.31
323.566	128.31
323.795	151.31
324.024	200.31
324.253	336.31
324.482	740.31
324.71	1548.31
324.939	2081.31
325.168	762.31
325.397	221.31
325.626	142.31
325.855	110.31
326.084	133.31
326.313	130.31
326.542	134.31
326.77	223.31
326.999	422.31
327.228	886.31
327.457	1603.31
327.686	1264.31
327.914	360.31
328.143	186.31
328.372	128.31
328.6	127.31
328.829	104.31
329.058	122.31
329.287	110.31
329.515	102.31
329.744	112.31
329.972	100.31
330.201	91.31
330.43	93.31
330.658	104.31
330.887	122.31
331.115	127.31
331.344	94.31
331.572	88.31
331.801	94.31
332.03	104.31
332.258	88.31
332.486	96.31
332.715	92.31
332.943	88.31
333.172	94.31
333.4	86.31
333.629	88.31
333.857	105.31
334.085	95.31
334.314	90.31
334.542	92.31
334.771	84.31
334.999	97.31
335.227	97.31
335.455	102.31
335.684	89.31
335.912	101.31
336.14	96.31
336.369	104.31
336.597	91.31
336.825	94.31
337.053	96.31
337.281	84.31
337.51	103.31
337.738	90.31
337.966	85.31
338.194	88.31
338.422	107.31
338.65	88.31
338.878	85.31
339.106	90.31
339.334	83.31
339.562	72.31
339.79	83.31
340.018	95.31
340.246	91.31
340.474	83.31
340.702	91.31
340.93	78.31
341.158	89.31
341.386	86.31
341.614	92.31
341.842	84.31
342.07	88.31
342.298	103.31
342.526	90.31
342.754	90.31
342.981	97.31
343.209	89.31
343.437	103.31
343.665	94.31
343.893	87.31
344.12	94.31
344.348	92.31
344.576	94.31
344.804	90.31
345.031	84.31
345.259	92.31
345.487	90.31
345.714	104.31
345.942	89.31
346.17	97.31
346.397	95.31
346.625	91.31
346.853	98.31
347.08	106.31
347.308	104.31
347.535	103.31
347.763	108.31
347.99	86.31
348.218	102.31
348.445	91.31
348.673	102.31
348.9	98.31
349.128	85.31
349.355	91.31
349.583	104.31
349.81	92.31
350.037	104.31
350.265	95.31
350.492	92.31
350.72	102.31
350.947	106.31
351.174	106.31
351.402	106.31
351.629	114.31
351.856	98.31
352.083	120.31
352.311	88.31
352.538	103.31
352.765	94.31
352.992	110.31
353.22	101.31
353.447	112.31
353.674	108.31
353.901	106.31
354.128	96.31
354.355	80.31
354.583	108.31
354.81	94.31
355.037	90.31
355.264	105.31
355.491	96.31
355.718	99.31
355.945	84.31
356.172	108.31
356.399	96.31
356.626	97.31
356.853	83.31
357.08	96.31
357.307	100.31
357.534	85.31
357.761	100.31
357.988	83.31
358.215	102.31
358.441	111.31
358.668	94.31
358.895	92.31
359.122	85.31
359.349	86.31
359.576	95.31
359.802	93.31
360.029	92.31
360.256	99.31
360.483	92.31
360.709	90.31
360.936	97.31
361.163	99.31
361.39	100.31
361.616	95.31
361.843	86.31
362.07	100.31
362.296	97.31
362.523	96.31
362.749	87.31
362.976	82.31
363.203	104.31
363.429	76.31
363.656	90.31
363.882	102.31
364.109	80.31
364.335	104.31
364.562	86.31
364.788	87.31
365.015	89.31
365.241	102.31
365.468	97.31
365.694	98.31
365.92	89.31
366.147	88.31
366.373	89.31
366.599	85.31
366.826	82.31
367.052	90.31
367.278	87.31
367.505	84.31
367.731	95.31
367.957	79.31
368.184	92.31
368.41	90.31
368.636	104.31
368.862	96.31
369.089	100.31
369.315	108.31
369.541	77.31
369.767	85.31
369.993	94.31
370.219	74.31
370.445	76.31
370.672	86.31
370.898	67.31
371.124	69.31
371.35	89.31
371.576	94.31
371.802	88.31
372.028	87.31
372.254	72.31
372.48	89.31
372.706	92.31
372.932	74.31
373.158	86.31
373.384	86.31
373.61	99.31
373.835	93.31
374.061	90.31
374.287	86.31
374.513	92.31
374.739	80.31
374.965	88.31
375.191	84.31
375.416	81.31
375.642	87.31
375.868	87.31
376.094	89.31
376.319	86.31
376.545	83.31
376.771	95.31
376.997	92.31
377.222	95.31
377.448	93.31
377.674	88.31
377.899	85.31
378.125	84.31
378.35	82.31
378.576	89.31
378.802	82.31
379.027	74.31
379.253	87.31
379.478	84.31
379.704	75.31
379.929	90.31
380.155	95.31
380.38	86.31
380.606	86.31
380.831	99.31
381.057	107.31
381.282	95.31
381.507	105.31
381.733	104.31
381.958	83.31
382.184	85.31
382.409	94.31
382.634	93.31
382.86	103.31
383.085	103.31
383.31	105.31
383.535	111.31
383.761	106.31
383.986	91.31
384.211	92.31
384.436	89.31
384.662	96.31
384.887	99.31
385.112	107.31
385.337	109.31
385.562	102.31
385.787	93.31
386.013	113.31
386.238	100.31
386.463	80.31
386.688	112.31
386.913	98.31
387.138	92.31
387.363	93.31
387.588	91.31
387.813	96.31
388.038	103.31
388.263	106.31
388.488	100.31
388.713	107.31
388.938	119.31
389.163	97.31
389.387	78.31
389.612	94.31
389.837	89.31
390.062	96.31
390.287	88.31
390.512	91.31
390.736	98.31
390.961	97.31
391.186	105.31
391.411	81.31
391.636	90.31
391.86	79.31
392.085	81.31
392.31	92.31
392.534	94.31
392.759	94.31
392.984	98.31
393.208	84.31
393.433	102.31
393.658	94.31
393.882	94.31
394.107	87.31
394.331	80.31
394.556	91.31
394.78	91.31
395.005	95.31
395.229	89.31
395.454	85.31
395.678	73.31
395.903	96.31
396.127	67.31
396.352	85.31
396.576	78.31
396.801	99.31
397.025	95.31
397.249	83.31
397.474	87.31
397.698	75.31
397.922	92.31
398.147	98.31
398.371	86.31
398.595	73.31
398.82	83.31
399.044	80.31
399.268	83.31
399.492	92.31
399.717	96.31
399.941	108.31
400.165	83.31
400.389	97.31
400.613	105.31
400.837	83.31
401.062	80.31
401.286	88.31
401.51	90.31
401.734	92.31
401.958	93.31
402.182	126.31
402.406	157.31
402.63	119.31
402.854	92.31
403.078	92.31
403.302	101.31
403.526	76.31
403.75	82.31
403.974	71.31
404.198	73.31
404.422	80.31
404.645	91.31
404.869	84.31
405.093	98.31
405.317	98.31
405.541	90.31
405.765	89.31
405.988	106.31
406.212	156.31
406.436	192.31
406.66	129.31
406.883	96.31
407.107	84.31
407.331	112.31
407.555	94.31
407.778	72.31
408.002	100.31
408.226	96.31
408.449	99.31
408.673	94.31
408.896	96.31
409.12	92.31
409.344	78.31
409.567	74.31
409.791	88.31
410.014	96.31
410.238	92.31
410.461	86.31
410.685	94.31
410.908	91.31
411.132	104.31
411.355	79.31
411.578	104.31
411.802	86.31
412.025	103.31
412.249	95.31
412.472	86.31
412.695	93.31
412.919	88.31
413.142	87.31
413.365	81.31
413.589	97.31
413.812	76.31
414.035	94.31
414.258	87.31
414.482	83.31
414.705	90.31
414.928	84.31
415.151	87.31
415.374	97.31
415.597	92.31
415.821	84.31
416.044	99.31
416.267	96.31
416.49	91.31
416.713	100.31
416.936	73.31
417.159	102.31
417.382	89.31
417.605	75.31
417.828	94.31
418.051	75.31
418.274	89.31
418.497	78.31
418.72	85.31
418.943	87.31
419.166	85.31
419.389	88.31
419.611	89.31
419.834	89.31
420.057	80.31
420.28	89.31
420.503	80.31
420.726	83.31
420.948	87.31
421.171	92.31
421.394	80.31
421.617	88.31
421.839	61.31
422.062	68.31
422.285	91.31
422.507	90.31
422.73	108.31
422.953	95.31
423.175	89.31
423.398	91.31
423.621	80.31
423.843	96.31
424.066	88.31
424.288	83.31
424.511	94.31
424.733	91.31
424.956	104.31
425.178	102.31
425.401	94.31
425.623	92.31
425.846	91.31
426.068	84.31
426.291	94.31
426.513	92.31
426.735	85.31
426.958	94.31
427.18	102.31
427.402	131.31
427.625	137.31
427.847	119.31
428.069	84.31
428.292	87.31
428.514	85.31
428.736	84.31
428.958	88.31
429.181	87.31
429.403	87.31
429.625	83.31
429.847	87.31
430.069	90.31
430.292	81.31
430.514	97.31
430.736	103.31
430.958	105.31
431.18	86.31
431.402	78.31
431.624	104.31
431.846	70.31
432.068	84.31
432.29	80.31
432.512	86.31
432.734	80.31
432.956	82.31
433.178	100.31
433.4	103.31
433.622	87.31
433.844	86.31
434.066	95.31
434.287	91.31
434.509	76.31
434.731	89.31
434.953	88.31
435.175	78.31
435.397	78.31
435.618	85.31
435.84	96.31
436.062	127.31
436.284	112.31
436.505	100.31
436.727	98.31
436.949	100.31
437.17	83.31
437.392	86.31
437.614	91.31
437.835	106.31
438.057	105.31
438.278	116.31
438.5	93.31
438.721	108.31
438.943	100.31
439.165	88.31
439.386	72.31
439.608	78.31
439.829	85.31
440.05	117.31
440.272	130.31
440.493	104.31
440.715	74.31
440.936	85.31
441.158	96.31
441.379	88.31
441.6	92.31
441.822	92.31
442.043	92.31
442.264	105.31
442.486	108.31
442.707	82.31
442.928	104.31
443.149	123.31
443.371	116.31
443.592	101.31
443.813	110.31
444.034	107.31
444.255	89.31
444.476	73.31
444.698	81.31
444.919	92.31
445.14	149.31
445.361	115.31
445.582	120.31
445.803	122.31
446.024	133.31
446.245	109.31
446.466	114.31
446.687	94.31
446.908	94.31
447.129	88.31
447.35	88.31
447.571	83.31
447.792	98.31
448.013	91.31
448.234	84.31
448.455	95.31
448.675	113.31
448.896	118.31
449.117	108.31
449.338	91.31
449.559	135.31
449.779	118.31
450	98.31
450.221	84.31
450.442	89.31
450.662	105.31
450.883	91.31
451.104	88.31
451.324	89.31
451.545	87.31
451.766	74.31
451.986	91.31
452.207	86.31
452.428	87.31
452.648	93.31
452.869	100.31
453.089	116.31
453.31	111.31
453.53	109.31
453.751	82.31
453.971	93.31
454.192	108.31
454.412	96.31
454.633	92.31
454.853	89.31
455.073	81.31
455.294	77.31
455.514	81.31
455.734	92.31
455.955	83.31
456.175	91.31
456.395	98.31
456.616	91.31
456.836	86.31
457.056	87.31
457.276	80.31
457.497	81.31
457.717	85.31
457.937	81.31
458.157	84.31
458.377	87.31
458.598	96.31
458.818	120.31
459.038	129.31
459.258	106.31
459.478	81.31
459.698	92.31
459.918	92.31
460.138	83.31
460.358	60.31
460.578	82.31
460.798	99.31
461.018	98.31
461.238	95.31
461.458	76.31
461.678	92.31
461.898	82.31
462.118	82.31
462.338	84.31
462.558	91.31
462.777	81.31
462.997	82.31
463.217	88.31
463.437	98.31
463.657	88.31
463.876	90.31
464.096	95.31
464.316	84.31
464.536	78.31
464.755	96.31
464.975	96.31
465.195	132.31
465.414	127.31
465.634	85.31
465.854	78.31
466.073	93.31
466.293	92.31
466.512	100.31
466.732	89.31
466.951	88.31
467.171	90.31
467.391	73.31
467.61	90.31
467.829	92.31
468.049	96.31
468.268	92.31
468.488	96.31
468.707	94.31
468.927	94.31
469.146	81.31
469.365	80.31
469.585	82.31
469.804	97.31
470.023	89.31
470.243	90.31
470.462	95.31
470.681	97.31
470.901	88.31
471.12	105.31
471.339	84.31
471.558	83.31
471.777	88.31
471.997	84.31
472.216	94.31
472.435	93.31
472.654	88.31
472.873	78.31
473.092	78.31
473.311	91.31
473.53	84.31
473.749	86.31
473.968	104.31
474.187	106.31
474.406	99.31
474.625	84.31
474.844	80.31
475.063	73.31
475.282	71.31
475.501	83.31
475.72	83.31
475.939	89.31
476.158	76.31
476.377	86.31
476.596	86.31
476.814	92.31
477.033	103.31
477.252	92.31
477.471	91.31
477.69	87.31
477.908	97.31
478.127	95.31
478.346	74.31
478.564	98.31
478.783	94.31
479.002	94.31
479.22	98.31
479.439	85.31
479.658	119.31
479.876	89.31
480.095	85.31
480.313	93.31
480.532	74.31
480.751	90.31
480.969	94.31
481.188	103.31
481.406	100.31
481.624	97.31
481.843	97.31
482.061	80.31
482.28	80.31
482.498	94.31
482.717	65.31
482.935	80.31
483.153	86.31
483.372	102.31
483.59	94.31
483.808	86.31
484.027	84.31
484.245	100.31
484.463	102.31
484.681	95.31
484.9	87.31
485.118	87.31
485.336	90.31
485.554	103.31
485.772	93.31
485.99	89.31
486.209	102.31
486.427	94.31
486.645	110.31
486.863	107.31
487.081	100.31
487.299	85.31
487.517	99.31
487.735	93.31
487.953	83.31
488.171	76.31
488.389	84.31
488.607	90.31
488.825	93.31
489.043	79.31
489.261	84.31
489.479	92.31
489.696	87.31
489.914	78.31
490.132	80.31
490.35	91.31
490.568	84.31
490.786	85.31
491.003	94.31
491.221	86.31
491.439	97.31
491.657	99.31
491.874	86.31
492.092	86.31
492.31	83.31
492.527	92.31
492.745	83.31
492.963	91.31
493.18	101.31
493.398	92.31
493.615	99.31
493.833	95.31
494.05	88.31
494.268	73.31
494.485	87.31
494.703	84.31
494.92	90.31
495.138	88.31
495.355	86.31
495.573	90.31
495.79	90.31
496.008	87.31
496.225	95.31
496.442	82.31
496.66	89.31
496.877	106.31
497.094	98.31
497.312	97.31
497.529	105.31
497.746	90.31
497.963	84.31
498.181	91.31
498.398	87.31
498.615	110.31
498.832	96.31
499.049	82.31
499.267	89.31
499.484	98.31
499.701	89.31
499.918	75.31
500.135	90.31
500.352	88.31
500.569	87.31
500.786	74.31
501.003	94.31
501.22	78.31
501.437	99.31
501.654	92.31
501.871	113.31
502.088	96.31
502.305	82.31
502.522	85.31
502.739	74.31
502.956	97.31
503.172	74.31
503.389	88.31
503.606	110.31
503.823	104.31
504.04	86.31
504.256	99.31
504.473	101.31
504.69	78.31
504.907	86.31
505.123	84.31
505.34	91.31
505.557	102.31
505.773	97.31
505.99	90.31
506.207	97.31
506.423	94.31
506.64	84.31
506.856	92.31
507.073	80.31
507.289	89.31
507.506	82.31
507.722	115.31
507.939	98.31
508.155	90.31
508.372	99.31
508.588	88.31
508.805	114.31
509.021	82.31
509.238	113.31
509.454	105.31
509.67	107.31
509.887	99.31
510.103	115.31
510.319	202.31
510.536	703.31
510.752	2180.31
510.968	596.31
511.184	139.31
511.401	114.31
511.617	97.31
511.833	83.31
512.049	90.31
512.265	83.31
512.481	92.31
512.698	96.31
512.914	84.31
513.13	91.31
513.346	97.31
513.562	99.31
513.778	103.31
513.994	97.31
514.21	110.31
514.426	115.31
514.642	124.31
514.858	108.31
515.074	135.31
515.29	412.31
515.506	1284.31
515.721	462.31
515.937	142.31
516.153	105.31
516.369	86.31
