Data from Uncirc_1984_H10_HRD10591_00044.txt Node
Date: Wed Jan 03 12:21:46 EST 2024
User: Yrep
Spectrometer: HR+D1059
Trigger mode: 1
Integration Time (sec): 1.000000E-1
Scans to average: 1
Electric dark correction enabled: true
Nonlinearity correction enabled: false
Boxcar width: 0
XAxis mode: Wavelengths
Number of Pixels in Spectrum: 2048
>>>>>Begin Spectral Data<<<<<
223.165	-15.38
223.4	-15.38
223.635	-15.38
223.869	-25.38
224.104	-30.38
224.338	-15.38
224.573	-3.38
224.808	2.62
225.042	-3.38
225.277	-15.38
225.511	4.62
225.746	2.62
225.98	12.62
226.215	-1.38
226.449	16.62
226.683	10.62
226.918	19.62
227.152	40.62
227.387	34.62
227.621	26.62
227.856	48.62
228.09	54.62
228.324	47.62
228.559	62.62
228.793	52.62
229.027	66.62
229.262	66.62
229.496	78.62
229.73	63.62
229.964	90.62
230.199	68.62
230.433	60.62
230.667	74.62
230.901	87.62
231.136	78.62
231.37	71.62
231.604	66.62
231.838	81.62
232.072	81.62
232.306	88.62
232.541	95.62
232.775	70.62
233.009	75.62
233.243	73.62
233.477	84.62
233.711	85.62
233.945	71.62
234.179	86.62
234.413	78.62
234.647	74.62
234.881	85.62
235.115	71.62
235.349	76.62
235.583	67.62
235.817	74.62
236.051	79.62
236.285	70.62
236.519	74.62
236.753	80.62
236.987	67.62
237.221	76.62
237.455	90.62
237.689	60.62
237.922	73.62
238.156	96.62
238.39	69.62
238.624	77.62
238.858	71.62
239.091	74.62
239.325	73.62
239.559	85.62
239.793	74.62
240.027	80.62
240.26	87.62
240.494	83.62
240.728	91.62
240.961	70.62
241.195	73.62
241.429	78.62
241.662	80.62
241.896	70.62
242.13	79.62
242.363	80.62
242.597	83.62
242.83	66.62
243.064	75.62
243.298	86.62
243.531	75.62
243.765	75.62
243.998	88.62
244.232	70.62
244.465	73.62
244.699	66.62
244.932	70.62
245.166	81.62
245.399	80.62
245.633	61.62
245.866	76.62
246.099	75.62
246.333	73.62
246.566	72.62
246.8	85.62
247.033	74.62
247.266	76.62
247.5	93.62
247.733	95.62
247.966	71.62
248.2	85.62
248.433	94.62
248.666	78.62
248.899	85.62
249.133	90.62
249.366	97.62
249.599	98.62
249.832	86.62
250.066	81.62
250.299	77.62
250.532	87.62
250.765	66.62
250.998	70.62
251.231	90.62
251.465	90.62
251.698	70.62
251.931	95.62
252.164	91.62
252.397	91.62
252.63	85.62
252.863	78.62
253.096	80.62
253.329	94.62
253.562	81.62
253.795	74.62
254.028	96.62
254.261	86.62
254.494	76.62
254.727	80.62
254.96	85.62
255.193	85.62
255.426	68.62
255.659	85.62
255.892	73.62
256.124	82.62
256.357	90.62
256.59	78.62
256.823	75.62
257.056	62.62
257.289	48.62
257.521	80.62
257.754	85.62
257.987	93.62
258.22	89.62
258.452	86.62
258.685	66.62
258.918	84.62
259.151	72.62
259.383	78.62
259.616	88.62
259.849	82.62
260.081	76.62
260.314	87.62
260.547	85.62
260.779	85.62
261.012	87.62
261.244	83.62
261.477	88.62
261.71	80.62
261.942	102.62
262.175	97.62
262.407	80.62
262.64	88.62
262.872	81.62
263.105	74.62
263.337	72.62
263.57	99.62
263.802	71.62
264.035	90.62
264.267	67.62
264.499	71.62
264.732	96.62
264.964	82.62
265.197	74.62
265.429	87.62
265.661	82.62
265.894	62.62
266.126	76.62
266.358	85.62
266.591	70.62
266.823	82.62
267.055	79.62
267.287	90.62
267.52	87.62
267.752	78.62
267.984	84.62
268.216	78.62
268.448	87.62
268.681	83.62
268.913	98.62
269.145	78.62
269.377	75.62
269.609	88.62
269.841	72.62
270.073	69.62
270.306	84.62
270.538	91.62
270.77	84.62
271.002	85.62
271.234	98.62
271.466	78.62
271.698	85.62
271.93	83.62
272.162	93.62
272.394	76.62
272.626	81.62
272.858	89.62
273.09	86.62
273.322	86.62
273.553	88.62
273.785	88.62
274.017	89.62
274.249	69.62
274.481	75.62
274.713	82.62
274.945	98.62
275.176	73.62
275.408	83.62
275.64	68.62
275.872	81.62
276.104	96.62
276.335	89.62
276.567	87.62
276.799	110.62
277.031	90.62
277.262	90.62
277.494	86.62
277.726	85.62
277.957	80.62
278.189	84.62
278.421	82.62
278.652	84.62
278.884	84.62
279.115	91.62
279.347	88.62
279.579	75.62
279.81	73.62
280.042	80.62
280.273	69.62
280.505	72.62
280.736	85.62
280.968	87.62
281.199	74.62
281.431	89.62
281.662	94.62
281.894	90.62
282.125	101.62
282.356	120.62
282.588	134.62
282.819	120.62
283.051	91.62
283.282	83.62
283.513	85.62
283.745	81.62
283.976	80.62
284.207	79.62
284.439	94.62
284.67	93.62
284.901	92.62
285.132	82.62
285.364	79.62
285.595	73.62
285.826	84.62
286.057	73.62
286.288	68.62
286.52	93.62
286.751	82.62
286.982	87.62
287.213	78.62
287.444	99.62
287.675	90.62
287.906	89.62
288.138	95.62
288.369	93.62
288.6	86.62
288.831	88.62
289.062	84.62
289.293	82.62
289.524	81.62
289.755	84.62
289.986	95.62
290.217	80.62
290.448	80.62
290.679	74.62
290.91	80.62
291.141	78.62
291.371	91.62
291.602	69.62
291.833	87.62
292.064	98.62
292.295	96.62
292.526	77.62
292.757	99.62
292.987	88.62
293.218	75.62
293.449	86.62
293.68	81.62
293.91	82.62
294.141	96.62
294.372	85.62
294.603	86.62
294.833	84.62
295.064	69.62
295.295	91.62
295.525	95.62
295.756	89.62
295.987	125.62
296.217	145.62
296.448	107.62
296.679	92.62
296.909	87.62
297.14	79.62
297.37	83.62
297.601	90.62
297.831	75.62
298.062	76.62
298.292	83.62
298.523	89.62
298.753	71.62
298.984	86.62
299.214	75.62
299.445	86.62
299.675	91.62
299.905	98.62
300.136	86.62
300.366	84.62
300.597	82.62
300.827	92.62
301.057	102.62
301.288	101.62
301.518	88.62
301.748	80.62
301.979	120.62
302.209	96.62
302.439	70.62
302.669	67.62
302.9	88.62
303.13	93.62
303.36	103.62
303.59	98.62
303.82	99.62
304.051	90.62
304.281	84.62
304.511	96.62
304.741	98.62
304.971	83.62
305.201	95.62
305.431	98.62
305.661	85.62
305.891	80.62
306.121	80.62
306.352	99.62
306.582	91.62
306.812	90.62
307.042	86.62
307.272	98.62
307.502	99.62
307.731	80.62
307.961	90.62
308.191	106.62
308.421	90.62
308.651	88.62
308.881	97.62
309.111	109.62
309.341	82.62
309.571	87.62
309.8	93.62
310.03	111.62
310.26	99.62
310.49	94.62
310.72	99.62
310.949	110.62
311.179	106.62
311.409	88.62
311.639	92.62
311.868	87.62
312.098	87.62
312.328	114.62
312.557	99.62
312.787	102.62
313.017	101.62
313.246	90.62
313.476	98.62
313.706	94.62
313.935	87.62
314.165	90.62
314.394	87.62
314.624	84.62
314.853	94.62
315.083	103.62
315.312	109.62
315.542	108.62
315.771	86.62
316.001	89.62
316.23	83.62
316.46	94.62
316.689	85.62
316.919	93.62
317.148	87.62
317.377	106.62
317.607	102.62
317.836	91.62
318.065	80.62
318.295	84.62
318.524	101.62
318.753	92.62
318.983	92.62
319.212	83.62
319.441	104.62
319.67	102.62
319.9	90.62
320.129	79.62
320.358	96.62
320.587	87.62
320.816	88.62
321.046	110.62
321.275	91.62
321.504	73.62
321.733	88.62
321.962	108.62
322.191	102.62
322.42	99.62
322.649	109.62
322.878	100.62
323.108	108.62
323.337	129.62
323.566	121.62
323.795	143.62
324.024	190.62
324.253	391.62
324.482	766.62
324.71	1586.62
324.939	2140.62
325.168	810.62
325.397	247.62
325.626	144.62
325.855	131.62
326.084	130.62
326.313	106.62
326.542	150.62
326.77	223.62
326.999	441.62
327.228	891.62
327.457	1645.62
327.686	1342.62
327.914	350.62
328.143	193.62
328.372	147.62
328.6	110.62
328.829	108.62
329.058	103.62
329.287	114.62
329.515	82.62
329.744	94.62
329.972	89.62
330.201	94.62
330.43	99.62
330.658	105.62
330.887	139.62
331.115	123.62
331.344	98.62
331.572	97.62
331.801	107.62
332.03	103.62
332.258	94.62
332.486	94.62
332.715	95.62
332.943	85.62
333.172	92.62
333.4	108.62
333.629	103.62
333.857	104.62
334.085	100.62
334.314	87.62
334.542	115.62
334.771	94.62
334.999	111.62
335.227	108.62
335.455	106.62
335.684	96.62
335.912	92.62
336.14	90.62
336.369	94.62
336.597	100.62
336.825	86.62
337.053	82.62
337.281	101.62
337.51	98.62
337.738	94.62
337.966	106.62
338.194	96.62
338.422	95.62
338.65	92.62
338.878	90.62
339.106	89.62
339.334	98.62
339.562	88.62
339.79	84.62
340.018	85.62
340.246	82.62
340.474	86.62
340.702	70.62
340.93	97.62
341.158	101.62
341.386	98.62
341.614	93.62
341.842	88.62
342.07	78.62
342.298	84.62
342.526	96.62
342.754	91.62
342.981	90.62
343.209	92.62
343.437	98.62
343.665	93.62
343.893	90.62
344.12	94.62
344.348	86.62
344.576	100.62
344.804	100.62
345.031	102.62
345.259	108.62
345.487	96.62
345.714	97.62
345.942	86.62
346.17	92.62
346.397	102.62
346.625	82.62
346.853	85.62
347.08	83.62
347.308	75.62
347.535	97.62
347.763	108.62
347.99	100.62
348.218	99.62
348.445	103.62
348.673	89.62
348.9	93.62
349.128	95.62
349.355	94.62
349.583	94.62
349.81	96.62
350.037	91.62
350.265	94.62
350.492	99.62
350.72	92.62
350.947	105.62
351.174	95.62
351.402	105.62
351.629	99.62
351.856	106.62
352.083	111.62
352.311	117.62
352.538	107.62
352.765	91.62
352.992	106.62
353.22	109.62
353.447	104.62
353.674	96.62
353.901	101.62
354.128	90.62
354.355	102.62
354.583	92.62
354.81	106.62
355.037	89.62
355.264	90.62
355.491	92.62
355.718	97.62
355.945	102.62
356.172	96.62
356.399	95.62
356.626	98.62
356.853	84.62
357.08	82.62
357.307	98.62
357.534	96.62
357.761	98.62
357.988	90.62
358.215	91.62
358.441	84.62
358.668	91.62
358.895	90.62
359.122	85.62
359.349	103.62
359.576	99.62
359.802	89.62
360.029	116.62
360.256	104.62
360.483	89.62
360.709	95.62
360.936	88.62
361.163	95.62
361.39	102.62
361.616	90.62
361.843	96.62
362.07	110.62
362.296	102.62
362.523	79.62
362.749	96.62
362.976	75.62
363.203	98.62
363.429	92.62
363.656	82.62
363.882	98.62
364.109	103.62
364.335	86.62
364.562	102.62
364.788	99.62
365.015	86.62
365.241	90.62
365.468	106.62
365.694	106.62
365.92	94.62
366.147	88.62
366.373	90.62
366.599	83.62
366.826	84.62
367.052	82.62
367.278	94.62
367.505	94.62
367.731	89.62
367.957	84.62
368.184	90.62
368.41	98.62
368.636	90.62
368.862	116.62
369.089	113.62
369.315	95.62
369.541	88.62
369.767	75.62
369.993	82.62
370.219	94.62
370.445	88.62
370.672	77.62
370.898	84.62
371.124	101.62
371.35	88.62
371.576	73.62
371.802	78.62
372.028	96.62
372.254	95.62
372.48	91.62
372.706	78.62
372.932	92.62
373.158	86.62
373.384	101.62
373.61	80.62
373.835	91.62
374.061	89.62
374.287	90.62
374.513	89.62
374.739	83.62
374.965	94.62
375.191	76.62
375.416	88.62
375.642	96.62
375.868	96.62
376.094	85.62
376.319	97.62
376.545	96.62
376.771	95.62
376.997	93.62
377.222	102.62
377.448	88.62
377.674	72.62
377.899	96.62
378.125	86.62
378.35	99.62
378.576	95.62
378.802	87.62
379.027	86.62
379.253	92.62
379.478	95.62
379.704	78.62
379.929	99.62
380.155	97.62
380.38	92.62
380.606	81.62
380.831	88.62
381.057	103.62
381.282	106.62
381.507	90.62
381.733	99.62
381.958	91.62
382.184	102.62
382.409	97.62
382.634	99.62
382.86	101.62
383.085	96.62
383.31	87.62
383.535	99.62
383.761	93.62
383.986	89.62
384.211	105.62
384.436	95.62
384.662	92.62
384.887	87.62
385.112	91.62
385.337	98.62
385.562	110.62
385.787	95.62
386.013	92.62
386.238	103.62
386.463	81.62
386.688	108.62
386.913	106.62
387.138	107.62
387.363	94.62
387.588	95.62
387.813	98.62
388.038	102.62
388.263	110.62
388.488	104.62
388.713	87.62
388.938	98.62
389.163	84.62
389.387	92.62
389.612	87.62
389.837	102.62
390.062	93.62
390.287	86.62
390.512	82.62
390.736	90.62
390.961	90.62
391.186	90.62
391.411	86.62
391.636	107.62
391.86	97.62
392.085	85.62
392.31	86.62
392.534	88.62
392.759	88.62
392.984	98.62
393.208	94.62
393.433	80.62
393.658	83.62
393.882	82.62
394.107	80.62
394.331	88.62
394.556	96.62
394.78	86.62
395.005	99.62
395.229	80.62
395.454	84.62
395.678	103.62
395.903	99.62
396.127	91.62
396.352	103.62
396.576	82.62
396.801	84.62
397.025	76.62
397.249	84.62
397.474	102.62
397.698	94.62
397.922	78.62
398.147	94.62
398.371	83.62
398.595	94.62
398.82	85.62
399.044	84.62
399.268	98.62
399.492	91.62
399.717	96.62
399.941	78.62
400.165	85.62
400.389	89.62
400.613	82.62
400.837	104.62
401.062	87.62
401.286	89.62
401.51	68.62
401.734	94.62
401.958	87.62
402.182	106.62
402.406	159.62
402.63	123.62
402.854	96.62
403.078	96.62
403.302	76.62
403.526	92.62
403.75	99.62
403.974	81.62
404.198	86.62
404.422	86.62
404.645	86.62
404.869	80.62
405.093	87.62
405.317	91.62
405.541	94.62
405.765	91.62
405.988	118.62
406.212	148.62
406.436	210.62
406.66	130.62
406.883	107.62
407.107	108.62
407.331	85.62
407.555	91.62
407.778	89.62
408.002	86.62
408.226	90.62
408.449	93.62
408.673	77.62
408.896	90.62
409.12	85.62
409.344	107.62
409.567	93.62
409.791	86.62
410.014	102.62
410.238	72.62
410.461	85.62
410.685	92.62
410.908	83.62
411.132	106.62
411.355	100.62
411.578	84.62
411.802	94.62
412.025	89.62
412.249	81.62
412.472	88.62
412.695	80.62
412.919	88.62
413.142	84.62
413.365	87.62
413.589	88.62
413.812	95.62
414.035	80.62
414.258	83.62
414.482	93.62
414.705	95.62
414.928	80.62
415.151	104.62
415.374	97.62
415.597	84.62
415.821	78.62
416.044	91.62
416.267	74.62
416.49	88.62
416.713	83.62
416.936	86.62
417.159	76.62
417.382	80.62
417.605	88.62
417.828	91.62
418.051	95.62
418.274	89.62
418.497	84.62
418.72	88.62
418.943	76.62
419.166	87.62
419.389	73.62
419.611	85.62
419.834	86.62
420.057	101.62
420.28	86.62
420.503	84.62
420.726	80.62
420.948	89.62
421.171	96.62
421.394	89.62
421.617	80.62
421.839	74.62
422.062	74.62
422.285	88.62
422.507	95.62
422.73	104.62
422.953	102.62
423.175	82.62
423.398	89.62
423.621	108.62
423.843	79.62
424.066	86.62
424.288	80.62
424.511	98.62
424.733	90.62
424.956	107.62
425.178	98.62
425.401	103.62
425.623	99.62
425.846	76.62
426.068	88.62
426.291	74.62
426.513	101.62
426.735	83.62
426.958	82.62
427.18	95.62
427.402	136.62
427.625	145.62
427.847	121.62
428.069	100.62
428.292	92.62
428.514	97.62
428.736	82.62
428.958	96.62
429.181	80.62
429.403	88.62
429.625	90.62
429.847	75.62
430.069	120.62
430.292	89.62
430.514	86.62
430.736	96.62
430.958	91.62
431.18	87.62
431.402	88.62
431.624	94.62
431.846	91.62
432.068	92.62
432.29	103.62
432.512	85.62
432.734	91.62
432.956	86.62
433.178	98.62
433.4	104.62
433.622	72.62
433.844	81.62
434.066	84.62
434.287	85.62
434.509	90.62
434.731	93.62
434.953	78.62
435.175	98.62
435.397	96.62
435.618	89.62
435.84	114.62
436.062	116.62
436.284	116.62
436.505	97.62
436.727	92.62
436.949	95.62
437.17	72.62
437.392	82.62
437.614	91.62
437.835	99.62
438.057	104.62
438.278	96.62
438.5	107.62
438.721	122.62
438.943	108.62
439.165	83.62
439.386	86.62
439.608	91.62
439.829	99.62
440.05	123.62
440.272	135.62
440.493	90.62
440.715	80.62
440.936	87.62
441.158	72.62
441.379	74.62
441.6	90.62
441.822	85.62
442.043	73.62
442.264	100.62
442.486	98.62
442.707	90.62
442.928	106.62
443.149	115.62
443.371	113.62
443.592	112.62
443.813	93.62
444.034	112.62
444.255	94.62
444.476	96.62
444.698	75.62
444.919	87.62
445.14	121.62
445.361	119.62
445.582	104.62
445.803	146.62
446.024	126.62
446.245	118.62
446.466	112.62
446.687	94.62
446.908	95.62
447.129	82.62
447.35	97.62
447.571	94.62
447.792	93.62
448.013	91.62
448.234	108.62
448.455	113.62
448.675	105.62
448.896	115.62
449.117	90.62
449.338	99.62
449.559	120.62
449.779	121.62
450	88.62
450.221	88.62
450.442	78.62
450.662	81.62
450.883	104.62
451.104	94.62
451.324	87.62
451.545	91.62
451.766	94.62
451.986	70.62
452.207	80.62
452.428	109.62
452.648	93.62
452.869	119.62
453.089	119.62
453.31	107.62
453.53	86.62
453.751	93.62
453.971	75.62
454.192	97.62
454.412	93.62
454.633	82.62
454.853	78.62
455.073	86.62
455.294	89.62
455.514	84.62
455.734	108.62
455.955	89.62
456.175	83.62
456.395	91.62
456.616	85.62
456.836	81.62
457.056	92.62
457.276	79.62
457.497	100.62
457.717	92.62
457.937	87.62
458.157	70.62
458.377	85.62
458.598	108.62
458.818	134.62
459.038	134.62
459.258	91.62
459.478	88.62
459.698	75.62
459.918	89.62
460.138	99.62
460.358	84.62
460.578	69.62
460.798	98.62
461.018	94.62
461.238	84.62
461.458	79.62
461.678	86.62
461.898	100.62
462.118	89.62
462.338	91.62
462.558	84.62
462.777	85.62
462.997	82.62
463.217	71.62
463.437	87.62
463.657	82.62
463.876	84.62
464.096	98.62
464.316	89.62
464.536	100.62
464.755	95.62
464.975	101.62
465.195	138.62
465.414	147.62
465.634	94.62
465.854	88.62
466.073	91.62
466.293	76.62
466.512	79.62
466.732	85.62
466.951	86.62
467.171	91.62
467.391	84.62
467.61	97.62
467.829	92.62
468.049	95.62
468.268	84.62
468.488	82.62
468.707	82.62
468.927	102.62
469.146	75.62
469.365	85.62
469.585	75.62
469.804	96.62
470.023	103.62
470.243	108.62
470.462	102.62
470.681	99.62
470.901	103.62
471.12	88.62
471.339	82.62
471.558	98.62
471.777	97.62
471.997	79.62
472.216	95.62
472.435	89.62
472.654	92.62
472.873	105.62
473.092	79.62
473.311	81.62
473.53	81.62
473.749	86.62
473.968	104.62
474.187	105.62
474.406	99.62
474.625	95.62
474.844	90.62
475.063	79.62
475.282	90.62
475.501	89.62
475.72	98.62
475.939	82.62
476.158	77.62
476.377	86.62
476.596	79.62
476.814	82.62
477.033	99.62
477.252	95.62
477.471	86.62
477.69	100.62
477.908	94.62
478.127	103.62
478.346	88.62
478.564	68.62
478.783	102.62
479.002	88.62
479.22	82.62
479.439	99.62
479.658	92.62
479.876	84.62
480.095	92.62
480.313	84.62
480.532	96.62
480.751	107.62
480.969	95.62
481.188	106.62
481.406	90.62
481.624	87.62
481.843	85.62
482.061	81.62
482.28	67.62
482.498	90.62
482.717	86.62
482.935	72.62
483.153	73.62
483.372	91.62
483.59	90.62
483.808	91.62
484.027	89.62
484.245	99.62
484.463	79.62
484.681	96.62
484.9	88.62
485.118	93.62
485.336	101.62
485.554	107.62
485.772	85.62
485.99	99.62
486.209	102.62
486.427	101.62
486.645	106.62
486.863	114.62
487.081	92.62
487.299	90.62
487.517	99.62
487.735	80.62
487.953	100.62
488.171	99.62
488.389	87.62
488.607	94.62
488.825	86.62
489.043	85.62
489.261	91.62
489.479	98.62
489.696	97.62
489.914	82.62
490.132	91.62
490.35	90.62
490.568	73.62
490.786	98.62
491.003	94.62
491.221	99.62
491.439	88.62
491.657	97.62
491.874	98.62
492.092	99.62
492.31	95.62
492.527	70.62
492.745	103.62
492.963	90.62
493.18	85.62
493.398	99.62
493.615	83.62
493.833	107.62
494.05	75.62
494.268	95.62
494.485	97.62
494.703	81.62
494.92	89.62
495.138	80.62
495.355	97.62
495.573	95.62
495.79	90.62
496.008	91.62
496.225	98.62
496.442	99.62
496.66	97.62
496.877	88.62
497.094	84.62
497.312	92.62
497.529	90.62
497.746	86.62
497.963	97.62
498.181	78.62
498.398	96.62
498.615	100.62
498.832	104.62
499.049	93.62
499.267	91.62
499.484	86.62
499.701	90.62
499.918	85.62
500.135	107.62
500.352	101.62
500.569	92.62
500.786	98.62
501.003	98.62
501.22	103.62
501.437	92.62
501.654	78.62
501.871	108.62
502.088	91.62
502.305	94.62
502.522	89.62
502.739	89.62
502.956	89.62
503.172	83.62
503.389	86.62
503.606	102.62
503.823	101.62
504.04	103.62
504.256	96.62
504.473	83.62
504.69	82.62
504.907	89.62
505.123	86.62
505.34	79.62
505.557	96.62
505.773	91.62
505.99	88.62
506.207	99.62
506.423	88.62
506.64	100.62
506.856	73.62
507.073	84.62
507.289	98.62
507.506	92.62
507.722	113.62
507.939	106.62
508.155	86.62
508.372	87.62
508.588	85.62
508.805	106.62
509.021	83.62
509.238	91.62
509.454	96.62
509.67	94.62
509.887	105.62
510.103	118.62
510.319	198.62
510.536	714.62
510.752	2264.62
510.968	613.62
511.184	144.62
511.401	104.62
511.617	116.62
511.833	78.62
512.049	84.62
512.265	102.62
512.481	97.62
512.698	88.62
512.914	96.62
513.13	97.62
513.346	94.62
513.562	106.62
513.778	91.62
513.994	94.62
514.21	106.62
514.426	113.62
514.642	116.62
514.858	113.62
515.074	148.62
515.29	398.62
515.506	1335.62
515.721	492.62
515.937	142.62
516.153	100.62
516.369	95.62
