Data from Uncirc_1984_H10_HRD10591_00040.txt Node
Date: Wed Jan 03 12:21:45 EST 2024
User: Yrep
Spectrometer: HR+D1059
Trigger mode: 1
Integration Time (sec): 1.000000E-1
Scans to average: 1
Electric dark correction enabled: true
Nonlinearity correction enabled: false
Boxcar width: 0
XAxis mode: Wavelengths
Number of Pixels in Spectrum: 2048
>>>>>Begin Spectral Data<<<<<
223.165	-22.81
223.4	-22.81
223.635	-22.81
223.869	-28.81
224.104	-25.81
224.338	-12.81
224.573	-21.81
224.808	-7.81
225.042	-17.81
225.277	-11.81
225.511	-1.81
225.746	-0.81
225.98	13.19
226.215	25.19
226.449	26.19
226.683	20.19
226.918	32.19
227.152	35.19
227.387	52.19
227.621	36.19
227.856	45.19
228.09	45.19
228.324	52.19
228.559	56.19
228.793	72.19
229.027	54.19
229.262	67.19
229.496	90.19
229.73	74.19
229.964	74.19
230.199	84.19
230.433	73.19
230.667	68.19
230.901	91.19
231.136	74.19
231.37	70.19
231.604	87.19
231.838	83.19
232.072	90.19
232.306	84.19
232.541	96.19
232.775	84.19
233.009	96.19
233.243	79.19
233.477	81.19
233.711	85.19
233.945	88.19
234.179	90.19
234.413	82.19
234.647	85.19
234.881	85.19
235.115	90.19
235.349	67.19
235.583	82.19
235.817	80.19
236.051	76.19
236.285	77.19
236.519	73.19
236.753	70.19
236.987	64.19
237.221	91.19
237.455	82.19
237.689	67.19
237.922	73.19
238.156	74.19
238.39	83.19
238.624	85.19
238.858	85.19
239.091	73.19
239.325	98.19
239.559	86.19
239.793	65.19
240.027	72.19
240.26	80.19
240.494	70.19
240.728	75.19
240.961	72.19
241.195	72.19
241.429	90.19
241.662	73.19
241.896	70.19
242.13	90.19
242.363	72.19
242.597	70.19
242.83	74.19
243.064	78.19
243.298	81.19
243.531	95.19
243.765	82.19
243.998	74.19
244.232	72.19
244.465	89.19
244.699	73.19
244.932	70.19
245.166	83.19
245.399	70.19
245.633	74.19
245.866	73.19
246.099	80.19
246.333	73.19
246.566	84.19
246.8	68.19
247.033	65.19
247.266	90.19
247.5	76.19
247.733	77.19
247.966	86.19
248.2	75.19
248.433	96.19
248.666	84.19
248.899	80.19
249.133	93.19
249.366	87.19
249.599	98.19
249.832	74.19
250.066	64.19
250.299	81.19
250.532	69.19
250.765	80.19
250.998	85.19
251.231	70.19
251.465	82.19
251.698	66.19
251.931	76.19
252.164	86.19
252.397	80.19
252.63	93.19
252.863	80.19
253.096	69.19
253.329	84.19
253.562	80.19
253.795	88.19
254.028	93.19
254.261	94.19
254.494	86.19
254.727	85.19
254.96	80.19
255.193	83.19
255.426	65.19
255.659	89.19
255.892	96.19
256.124	85.19
256.357	93.19
256.59	85.19
256.823	65.19
257.056	89.19
257.289	87.19
257.521	89.19
257.754	85.19
257.987	83.19
258.22	63.19
258.452	81.19
258.685	78.19
258.918	83.19
259.151	76.19
259.383	88.19
259.616	64.19
259.849	101.19
260.081	89.19
260.314	93.19
260.547	91.19
260.779	86.19
261.012	65.19
261.244	90.19
261.477	104.19
261.71	83.19
261.942	99.19
262.175	95.19
262.407	89.19
262.64	77.19
262.872	86.19
263.105	93.19
263.337	84.19
263.57	95.19
263.802	80.19
264.035	88.19
264.267	91.19
264.499	88.19
264.732	73.19
264.964	88.19
265.197	70.19
265.429	91.19
265.661	84.19
265.894	88.19
266.126	78.19
266.358	96.19
266.591	71.19
266.823	82.19
267.055	73.19
267.287	86.19
267.52	77.19
267.752	87.19
267.984	97.19
268.216	90.19
268.448	68.19
268.681	81.19
268.913	90.19
269.145	72.19
269.377	77.19
269.609	80.19
269.841	84.19
270.073	87.19
270.306	98.19
270.538	83.19
270.77	92.19
271.002	88.19
271.234	82.19
271.466	83.19
271.698	93.19
271.93	92.19
272.162	87.19
272.394	83.19
272.626	86.19
272.858	103.19
273.09	88.19
273.322	82.19
273.553	75.19
273.785	88.19
274.017	110.19
274.249	90.19
274.481	90.19
274.713	82.19
274.945	66.19
275.176	75.19
275.408	69.19
275.64	97.19
275.872	88.19
276.104	85.19
276.335	82.19
276.567	98.19
276.799	97.19
277.031	85.19
277.262	85.19
277.494	92.19
277.726	85.19
277.957	90.19
278.189	97.19
278.421	91.19
278.652	84.19
278.884	96.19
279.115	89.19
279.347	78.19
279.579	86.19
279.81	79.19
280.042	102.19
280.273	82.19
280.505	80.19
280.736	78.19
280.968	88.19
281.199	86.19
281.431	87.19
281.662	93.19
281.894	78.19
282.125	86.19
282.356	99.19
282.588	124.19
282.819	100.19
283.051	107.19
283.282	102.19
283.513	86.19
283.745	97.19
283.976	91.19
284.207	88.19
284.439	86.19
284.67	89.19
284.901	81.19
285.132	95.19
285.364	92.19
285.595	87.19
285.826	111.19
286.057	94.19
286.288	95.19
286.52	108.19
286.751	85.19
286.982	110.19
287.213	97.19
287.444	77.19
287.675	81.19
287.906	88.19
288.138	93.19
288.369	89.19
288.6	86.19
288.831	83.19
289.062	88.19
289.293	93.19
289.524	87.19
289.755	85.19
289.986	87.19
290.217	83.19
290.448	73.19
290.679	91.19
290.91	72.19
291.141	89.19
291.371	93.19
291.602	91.19
291.833	100.19
292.064	93.19
292.295	100.19
292.526	97.19
292.757	97.19
292.987	88.19
293.218	86.19
293.449	86.19
293.68	79.19
293.91	93.19
294.141	84.19
294.372	84.19
294.603	86.19
294.833	90.19
295.064	65.19
295.295	103.19
295.525	108.19
295.756	108.19
295.987	103.19
296.217	121.19
296.448	123.19
296.679	100.19
296.909	85.19
297.14	84.19
297.37	93.19
297.601	93.19
297.831	83.19
298.062	91.19
298.292	89.19
298.523	97.19
298.753	97.19
298.984	80.19
299.214	102.19
299.445	81.19
299.675	76.19
299.905	82.19
300.136	89.19
300.366	91.19
300.597	103.19
300.827	108.19
301.057	94.19
301.288	111.19
301.518	92.19
301.748	92.19
301.979	114.19
302.209	93.19
302.439	98.19
302.669	85.19
302.9	90.19
303.13	89.19
303.36	89.19
303.59	84.19
303.82	92.19
304.051	92.19
304.281	94.19
304.511	91.19
304.741	84.19
304.971	94.19
305.201	80.19
305.431	100.19
305.661	85.19
305.891	85.19
306.121	97.19
306.352	87.19
306.582	116.19
306.812	88.19
307.042	97.19
307.272	84.19
307.502	96.19
307.731	74.19
307.961	83.19
308.191	99.19
308.421	95.19
308.651	93.19
308.881	106.19
309.111	91.19
309.341	95.19
309.571	94.19
309.8	99.19
310.03	84.19
310.26	97.19
310.49	101.19
310.72	104.19
310.949	100.19
311.179	102.19
311.409	81.19
311.639	101.19
311.868	99.19
312.098	99.19
312.328	93.19
312.557	93.19
312.787	110.19
313.017	109.19
313.246	97.19
313.476	80.19
313.706	100.19
313.935	98.19
314.165	105.19
314.394	106.19
314.624	85.19
314.853	89.19
315.083	90.19
315.312	93.19
315.542	88.19
315.771	94.19
316.001	96.19
316.23	97.19
316.46	82.19
316.689	83.19
316.919	88.19
317.148	101.19
317.377	105.19
317.607	86.19
317.836	107.19
318.065	93.19
318.295	88.19
318.524	72.19
318.753	82.19
318.983	85.19
319.212	94.19
319.441	107.19
319.67	89.19
319.9	88.19
320.129	98.19
320.358	93.19
320.587	102.19
320.816	92.19
321.046	98.19
321.275	93.19
321.504	96.19
321.733	90.19
321.962	97.19
322.191	106.19
322.42	105.19
322.649	112.19
322.878	117.19
323.108	115.19
323.337	116.19
323.566	130.19
323.795	139.19
324.024	177.19
324.253	328.19
324.482	695.19
324.71	1419.19
324.939	1836.19
325.168	680.19
325.397	213.19
325.626	140.19
325.855	108.19
326.084	110.19
326.313	143.19
326.542	134.19
326.77	216.19
326.999	388.19
327.228	805.19
327.457	1429.19
327.686	1161.19
327.914	309.19
328.143	180.19
328.372	134.19
328.6	129.19
328.829	114.19
329.058	132.19
329.287	118.19
329.515	115.19
329.744	94.19
329.972	96.19
330.201	100.19
330.43	103.19
330.658	106.19
330.887	107.19
331.115	115.19
331.344	80.19
331.572	89.19
331.801	110.19
332.03	104.19
332.258	100.19
332.486	98.19
332.715	108.19
332.943	97.19
333.172	106.19
333.4	95.19
333.629	101.19
333.857	108.19
334.085	106.19
334.314	93.19
334.542	103.19
334.771	86.19
334.999	93.19
335.227	101.19
335.455	104.19
335.684	112.19
335.912	98.19
336.14	104.19
336.369	106.19
336.597	108.19
336.825	106.19
337.053	92.19
337.281	113.19
337.51	85.19
337.738	83.19
337.966	98.19
338.194	85.19
338.422	90.19
338.65	86.19
338.878	100.19
339.106	98.19
339.334	87.19
339.562	99.19
339.79	94.19
340.018	80.19
340.246	89.19
340.474	102.19
340.702	102.19
340.93	99.19
341.158	94.19
341.386	84.19
341.614	117.19
341.842	94.19
342.07	87.19
342.298	91.19
342.526	83.19
342.754	93.19
342.981	88.19
343.209	93.19
343.437	105.19
343.665	102.19
343.893	98.19
344.12	104.19
344.348	109.19
344.576	99.19
344.804	90.19
345.031	92.19
345.259	102.19
345.487	88.19
345.714	101.19
345.942	99.19
346.17	81.19
346.397	99.19
346.625	106.19
346.853	98.19
347.08	90.19
347.308	107.19
347.535	106.19
347.763	94.19
347.99	92.19
348.218	102.19
348.445	89.19
348.673	96.19
348.9	88.19
349.128	102.19
349.355	101.19
349.583	111.19
349.81	106.19
350.037	104.19
350.265	92.19
350.492	121.19
350.72	99.19
350.947	96.19
351.174	98.19
351.402	97.19
351.629	107.19
351.856	103.19
352.083	99.19
352.311	97.19
352.538	106.19
352.765	99.19
352.992	109.19
353.22	107.19
353.447	101.19
353.674	99.19
353.901	101.19
354.128	92.19
354.355	104.19
354.583	86.19
354.81	110.19
355.037	85.19
355.264	94.19
355.491	108.19
355.718	87.19
355.945	90.19
356.172	104.19
356.399	100.19
356.626	80.19
356.853	95.19
357.08	100.19
357.307	88.19
357.534	91.19
357.761	81.19
357.988	89.19
358.215	103.19
358.441	104.19
358.668	74.19
358.895	109.19
359.122	89.19
359.349	81.19
359.576	96.19
359.802	99.19
360.029	97.19
360.256	107.19
360.483	115.19
360.709	92.19
360.936	106.19
361.163	91.19
361.39	91.19
361.616	93.19
361.843	82.19
362.07	92.19
362.296	90.19
362.523	81.19
362.749	94.19
362.976	92.19
363.203	97.19
363.429	84.19
363.656	75.19
363.882	100.19
364.109	98.19
364.335	99.19
364.562	96.19
364.788	89.19
365.015	95.19
365.241	98.19
365.468	100.19
365.694	92.19
365.92	71.19
366.147	85.19
366.373	90.19
366.599	96.19
366.826	97.19
367.052	93.19
367.278	92.19
367.505	93.19
367.731	91.19
367.957	89.19
368.184	93.19
368.41	114.19
368.636	109.19
368.862	98.19
369.089	101.19
369.315	102.19
369.541	89.19
369.767	83.19
369.993	91.19
370.219	76.19
370.445	85.19
370.672	88.19
370.898	85.19
371.124	92.19
371.35	89.19
371.576	91.19
371.802	84.19
372.028	93.19
372.254	83.19
372.48	81.19
372.706	82.19
372.932	90.19
373.158	90.19
373.384	91.19
373.61	88.19
373.835	81.19
374.061	86.19
374.287	89.19
374.513	94.19
374.739	97.19
374.965	80.19
375.191	94.19
375.416	98.19
375.642	96.19
375.868	101.19
376.094	103.19
376.319	90.19
376.545	88.19
376.771	100.19
376.997	91.19
377.222	91.19
377.448	106.19
377.674	85.19
377.899	86.19
378.125	90.19
378.35	94.19
378.576	101.19
378.802	83.19
379.027	84.19
379.253	93.19
379.478	106.19
379.704	117.19
379.929	87.19
380.155	103.19
380.38	99.19
380.606	98.19
380.831	101.19
381.057	92.19
381.282	86.19
381.507	111.19
381.733	84.19
381.958	99.19
382.184	93.19
382.409	90.19
382.634	107.19
382.86	95.19
383.085	90.19
383.31	96.19
383.535	102.19
383.761	102.19
383.986	100.19
384.211	104.19
384.436	100.19
384.662	96.19
384.887	88.19
385.112	100.19
385.337	100.19
385.562	116.19
385.787	110.19
386.013	95.19
386.238	94.19
386.463	103.19
386.688	111.19
386.913	114.19
387.138	105.19
387.363	107.19
387.588	105.19
387.813	99.19
388.038	114.19
388.263	102.19
388.488	114.19
388.713	98.19
388.938	92.19
389.163	108.19
389.387	85.19
389.612	83.19
389.837	94.19
390.062	95.19
390.287	106.19
390.512	79.19
390.736	100.19
390.961	90.19
391.186	105.19
391.411	93.19
391.636	103.19
391.86	75.19
392.085	88.19
392.31	74.19
392.534	88.19
392.759	100.19
392.984	75.19
393.208	98.19
393.433	95.19
393.658	103.19
393.882	85.19
394.107	98.19
394.331	86.19
394.556	104.19
394.78	93.19
395.005	86.19
395.229	82.19
395.454	101.19
395.678	83.19
395.903	79.19
396.127	84.19
396.352	87.19
396.576	82.19
396.801	98.19
397.025	87.19
397.249	76.19
397.474	96.19
397.698	82.19
397.922	88.19
398.147	92.19
398.371	112.19
398.595	84.19
398.82	99.19
399.044	82.19
399.268	82.19
399.492	83.19
399.717	86.19
399.941	91.19
400.165	96.19
400.389	85.19
400.613	88.19
400.837	87.19
401.062	102.19
401.286	89.19
401.51	96.19
401.734	96.19
401.958	103.19
402.182	113.19
402.406	119.19
402.63	104.19
402.854	92.19
403.078	91.19
403.302	99.19
403.526	90.19
403.75	86.19
403.974	89.19
404.198	96.19
404.422	97.19
404.645	81.19
404.869	93.19
405.093	97.19
405.317	104.19
405.541	104.19
405.765	90.19
405.988	106.19
406.212	148.19
406.436	188.19
406.66	134.19
406.883	105.19
407.107	90.19
407.331	107.19
407.555	94.19
407.778	89.19
408.002	107.19
408.226	100.19
408.449	85.19
408.673	88.19
408.896	95.19
409.12	88.19
409.344	77.19
409.567	84.19
409.791	82.19
410.014	96.19
410.238	99.19
410.461	82.19
410.685	101.19
410.908	106.19
411.132	113.19
411.355	88.19
411.578	102.19
411.802	80.19
412.025	102.19
412.249	84.19
412.472	91.19
412.695	100.19
412.919	100.19
413.142	92.19
413.365	93.19
413.589	88.19
413.812	87.19
414.035	89.19
414.258	103.19
414.482	91.19
414.705	86.19
414.928	85.19
415.151	92.19
415.374	92.19
415.597	96.19
415.821	102.19
416.044	83.19
416.267	80.19
416.49	91.19
416.713	90.19
416.936	105.19
417.159	78.19
417.382	77.19
417.605	98.19
417.828	101.19
418.051	93.19
418.274	103.19
418.497	96.19
418.72	86.19
418.943	110.19
419.166	79.19
419.389	91.19
419.611	93.19
419.834	88.19
420.057	79.19
420.28	77.19
420.503	103.19
420.726	90.19
420.948	83.19
421.171	84.19
421.394	91.19
421.617	93.19
421.839	89.19
422.062	84.19
422.285	101.19
422.507	110.19
422.73	100.19
422.953	90.19
423.175	84.19
423.398	80.19
423.621	91.19
423.843	96.19
424.066	77.19
424.288	90.19
424.511	90.19
424.733	98.19
424.956	107.19
425.178	105.19
425.401	114.19
425.623	97.19
425.846	75.19
426.068	82.19
426.291	97.19
426.513	95.19
426.735	92.19
426.958	101.19
427.18	94.19
427.402	131.19
427.625	146.19
427.847	121.19
428.069	89.19
428.292	97.19
428.514	95.19
428.736	72.19
428.958	81.19
429.181	84.19
429.403	92.19
429.625	94.19
429.847	84.19
430.069	98.19
430.292	98.19
430.514	79.19
430.736	80.19
430.958	80.19
431.18	88.19
431.402	90.19
431.624	76.19
431.846	96.19
432.068	98.19
432.29	105.19
432.512	94.19
432.734	90.19
432.956	88.19
433.178	93.19
433.4	91.19
433.622	104.19
433.844	89.19
434.066	90.19
434.287	89.19
434.509	91.19
434.731	75.19
434.953	98.19
435.175	76.19
435.397	89.19
435.618	93.19
435.84	108.19
436.062	132.19
436.284	102.19
436.505	105.19
436.727	111.19
436.949	82.19
437.17	81.19
437.392	78.19
437.614	102.19
437.835	104.19
438.057	116.19
438.278	110.19
438.5	103.19
438.721	113.19
438.943	108.19
439.165	84.19
439.386	77.19
439.608	101.19
439.829	86.19
440.05	119.19
440.272	130.19
440.493	95.19
440.715	97.19
440.936	75.19
441.158	89.19
441.379	86.19
441.6	105.19
441.822	92.19
442.043	93.19
442.264	105.19
442.486	113.19
442.707	95.19
442.928	118.19
443.149	115.19
443.371	109.19
443.592	99.19
443.813	110.19
444.034	107.19
444.255	96.19
444.476	88.19
444.698	87.19
444.919	91.19
445.14	125.19
445.361	116.19
445.582	109.19
445.803	126.19
446.024	113.19
446.245	118.19
446.466	105.19
446.687	96.19
446.908	90.19
447.129	85.19
447.35	82.19
447.571	105.19
447.792	114.19
448.013	86.19
448.234	98.19
448.455	88.19
448.675	114.19
448.896	113.19
449.117	95.19
449.338	106.19
449.559	115.19
449.779	109.19
450	101.19
450.221	92.19
450.442	91.19
450.662	92.19
450.883	102.19
451.104	113.19
451.324	99.19
451.545	100.19
451.766	89.19
451.986	108.19
452.207	93.19
452.428	90.19
452.648	98.19
452.869	98.19
453.089	110.19
453.31	114.19
453.53	91.19
453.751	85.19
453.971	98.19
454.192	107.19
454.412	101.19
454.633	82.19
454.853	104.19
455.073	93.19
455.294	104.19
455.514	98.19
455.734	75.19
455.955	84.19
456.175	80.19
456.395	74.19
456.616	76.19
456.836	87.19
457.056	115.19
457.276	89.19
457.497	73.19
457.717	88.19
457.937	84.19
458.157	82.19
458.377	75.19
458.598	89.19
458.818	128.19
459.038	124.19
459.258	105.19
459.478	74.19
459.698	98.19
459.918	90.19
460.138	100.19
460.358	88.19
460.578	97.19
460.798	79.19
461.018	98.19
461.238	91.19
461.458	84.19
461.678	83.19
461.898	98.19
462.118	100.19
462.338	83.19
462.558	87.19
462.777	78.19
462.997	78.19
463.217	87.19
463.437	103.19
463.657	92.19
463.876	91.19
464.096	95.19
464.316	91.19
464.536	101.19
464.755	88.19
464.975	86.19
465.195	137.19
465.414	138.19
465.634	92.19
465.854	91.19
466.073	81.19
466.293	87.19
466.512	90.19
466.732	100.19
466.951	86.19
467.171	94.19
467.391	93.19
467.61	99.19
467.829	105.19
468.049	92.19
468.268	89.19
468.488	88.19
468.707	97.19
468.927	88.19
469.146	84.19
469.365	82.19
469.585	89.19
469.804	73.19
470.023	105.19
470.243	97.19
470.462	112.19
470.681	110.19
470.901	92.19
471.12	94.19
471.339	98.19
471.558	89.19
471.777	83.19
471.997	76.19
472.216	86.19
472.435	89.19
472.654	69.19
472.873	101.19
473.092	87.19
473.311	93.19
473.53	85.19
473.749	98.19
473.968	92.19
474.187	93.19
474.406	94.19
474.625	99.19
474.844	74.19
475.063	75.19
475.282	94.19
475.501	87.19
475.72	96.19
475.939	98.19
476.158	99.19
476.377	99.19
476.596	99.19
476.814	89.19
477.033	86.19
477.252	71.19
477.471	92.19
477.69	84.19
477.908	87.19
478.127	85.19
478.346	101.19
478.564	107.19
478.783	90.19
479.002	86.19
479.22	72.19
479.439	93.19
479.658	91.19
479.876	85.19
480.095	68.19
480.313	100.19
480.532	84.19
480.751	87.19
480.969	84.19
481.188	100.19
481.406	82.19
481.624	85.19
481.843	90.19
482.061	74.19
482.28	90.19
482.498	84.19
482.717	91.19
482.935	99.19
483.153	85.19
483.372	99.19
483.59	89.19
483.808	92.19
484.027	100.19
484.245	98.19
484.463	110.19
484.681	104.19
484.9	94.19
485.118	91.19
485.336	84.19
485.554	94.19
485.772	110.19
485.99	101.19
486.209	105.19
486.427	118.19
486.645	108.19
486.863	99.19
487.081	108.19
487.299	91.19
487.517	85.19
487.735	97.19
487.953	89.19
488.171	109.19
488.389	101.19
488.607	97.19
488.825	67.19
489.043	96.19
489.261	92.19
489.479	88.19
489.696	91.19
489.914	78.19
490.132	90.19
490.35	101.19
490.568	74.19
490.786	91.19
491.003	91.19
491.221	88.19
491.439	91.19
491.657	105.19
491.874	88.19
492.092	80.19
492.31	91.19
492.527	89.19
492.745	91.19
492.963	86.19
493.18	92.19
493.398	90.19
493.615	72.19
493.833	106.19
494.05	84.19
494.268	89.19
494.485	80.19
494.703	91.19
494.92	79.19
495.138	92.19
495.355	90.19
495.573	87.19
495.79	92.19
496.008	94.19
496.225	98.19
496.442	92.19
496.66	102.19
496.877	99.19
497.094	109.19
497.312	84.19
497.529	104.19
497.746	81.19
497.963	100.19
498.181	98.19
498.398	87.19
498.615	96.19
498.832	109.19
499.049	101.19
499.267	91.19
499.484	84.19
499.701	91.19
499.918	87.19
500.135	91.19
500.352	88.19
500.569	83.19
500.786	96.19
501.003	92.19
501.22	80.19
501.437	101.19
501.654	93.19
501.871	106.19
502.088	103.19
502.305	98.19
502.522	90.19
502.739	84.19
502.956	78.19
503.172	91.19
503.389	86.19
503.606	98.19
503.823	98.19
504.04	92.19
504.256	89.19
504.473	79.19
504.69	94.19
504.907	103.19
505.123	86.19
505.34	85.19
505.557	91.19
505.773	90.19
505.99	87.19
506.207	93.19
506.423	92.19
506.64	95.19
506.856	85.19
507.073	98.19
507.289	97.19
507.506	87.19
507.722	117.19
507.939	106.19
508.155	90.19
508.372	92.19
508.588	90.19
508.805	90.19
509.021	95.19
509.238	90.19
509.454	101.19
509.67	118.19
509.887	95.19
510.103	130.19
510.319	213.19
510.536	674.19
510.752	2057.19
510.968	578.19
511.184	144.19
511.401	96.19
511.617	105.19
511.833	94.19
512.049	94.19
512.265	92.19
512.481	85.19
512.698	87.19
512.914	88.19
513.13	91.19
513.346	86.19
513.562	101.19
513.778	90.19
513.994	88.19
514.21	98.19
514.426	98.19
514.642	130.19
514.858	121.19
515.074	147.19
515.29	372.19
