Data from Uncirc_1984_H10_HRD10591_00050.txt Node
Date: Wed Jan 03 12:21:47 EST 2024
User: Yrep
Spectrometer: HR+D1059
Trigger mode: 1
Integration Time (sec): 1.000000E-1
Scans to average: 1
Electric dark correction enabled: true
Nonlinearity correction enabled: false
Boxcar width: 0
XAxis mode: Wavelengths
Number of Pixels in Spectrum: 2048
>>>>>Begin Spectral Data<<<<<
223.165	-19
223.4	-19
223.635	-19
223.869	-21
224.104	-30
224.338	-10
224.573	-13
224.808	-3
225.042	-1
225.277	-9
225.511	-5
225.746	7
225.98	8
226.215	4
226.449	16
226.683	12
226.918	30
227.152	34
227.387	33
227.621	39
227.856	38
228.09	42
228.324	46
228.559	58
228.793	135
229.027	420
229.262	515
229.496	588
229.73	773
229.964	770
230.199	545
230.433	478
230.667	460
230.901	446
231.136	426
231.37	433
231.604	447
231.838	457
232.072	449
232.306	463
232.541	458
232.775	465
233.009	462
233.243	467
233.477	499
233.711	469
233.945	496
234.179	494
234.413	496
234.647	516
234.881	518
235.115	513
235.349	535
235.583	557
235.817	588
236.051	601
236.285	592
236.519	601
236.753	698
236.987	910
237.221	1299
237.455	1444
237.689	878
237.922	734
238.156	716
238.39	654
238.624	641
238.858	639
239.091	652
239.325	644
239.559	684
239.793	687
240.027	753
240.26	879
240.494	952
240.728	925
240.961	888
241.195	801
241.429	766
241.662	777
241.896	750
242.13	785
242.363	768
242.597	802
242.83	808
243.064	801
243.298	820
243.531	806
243.765	827
243.998	812
244.232	825
244.465	894
244.699	907
244.932	911
245.166	899
245.399	904
245.633	890
245.866	905
246.099	913
246.333	922
246.566	949
246.8	948
247.033	1012
247.266	1022
247.5	1100
247.733	1156
247.966	1152
248.2	1100
248.433	1161
248.666	1171
248.899	1321
249.133	1379
249.366	1388
249.599	1273
249.832	1228
250.066	1181
250.299	1219
250.532	1324
250.765	1451
250.998	1694
251.231	1617
251.465	1500
251.698	1412
251.931	1383
252.164	1407
252.397	1356
252.63	1456
252.863	1531
253.096	1640
253.329	1727
253.562	1628
253.795	1573
254.028	1566
254.261	1638
254.494	1832
254.727	2074
254.96	2129
255.193	1928
255.426	1705
255.659	1620
255.892	1557
256.124	1539
256.357	1522
256.59	1491
256.823	1494
257.056	1472
257.289	1539
257.521	1536
257.754	1528
257.987	1489
258.22	1520
258.452	1530
258.685	1520
258.918	1619
259.151	1635
259.383	1673
259.616	1700
259.849	1739
260.081	1913
260.314	2089
260.547	2016
260.779	1842
261.012	1788
261.244	1711
261.477	1676
261.71	1673
261.942	1710
262.175	1742
262.407	1679
262.64	1600
262.872	1630
263.105	1617
263.337	1625
263.57	1658
263.802	1665
264.035	1650
264.267	1644
264.499	1680
264.732	1733
264.964	1648
265.197	1679
265.429	1696
265.661	1686
265.894	1730
266.126	1736
266.358	1675
266.591	1803
266.823	1824
267.055	1853
267.287	1872
267.52	1828
267.752	1853
267.984	1857
268.216	1879
268.448	1959
268.681	1933
268.913	2108
269.145	2314
269.377	2406
269.609	2272
269.841	2254
270.073	2319
270.306	2594
270.538	2763
270.77	2614
271.002	2500
271.234	2441
271.466	2604
271.698	2694
271.93	2672
272.162	2715
272.394	2600
272.626	2507
272.858	2376
273.09	2315
273.322	2241
273.553	2198
273.785	2212
274.017	2206
274.249	2284
274.481	2224
274.713	2255
274.945	2280
275.176	2313
275.408	2237
275.64	2229
275.872	2243
276.104	2290
276.335	2278
276.567	2372
276.799	2507
277.031	2759
277.262	2799
277.494	2702
277.726	2576
277.957	2498
278.189	2407
278.421	2398
278.652	2369
278.884	2362
279.115	2317
279.347	2354
279.579	2352
279.81	2374
280.042	2371
280.273	2359
280.505	2350
280.736	2407
280.968	2391
281.199	2424
281.431	2425
281.662	2413
281.894	2458
282.125	2497
282.356	2629
282.588	2776
282.819	2620
283.051	2527
283.282	2480
283.513	2545
283.745	2594
283.976	2641
284.207	2634
284.439	2610
284.67	2574
284.901	2604
285.132	2581
285.364	2604
285.595	2619
285.826	2587
286.057	2659
286.288	2670
286.52	2623
286.751	2645
286.982	2685
287.213	2736
287.444	2734
287.675	2764
287.906	2842
288.138	2939
288.369	2875
288.6	2862
288.831	2806
289.062	2812
289.293	2830
289.524	2757
289.755	2782
289.986	2783
290.217	2782
290.448	2805
290.679	2801
290.91	2811
291.141	2800
291.371	2778
291.602	2781
291.833	2840
292.064	2790
292.295	2788
292.526	2826
292.757	2816
292.987	2806
293.218	2799
293.449	2852
293.68	2828
293.91	2864
294.141	2787
294.372	2791
294.603	2837
294.833	2880
295.064	2910
295.295	2913
295.525	2871
295.756	2933
295.987	2967
296.217	3150
296.448	3077
296.679	2980
296.909	2914
297.14	2997
297.37	2978
297.601	3002
297.831	2995
298.062	3052
298.292	3081
298.523	3116
298.753	3093
298.984	2992
299.214	3086
299.445	3119
299.675	3109
299.905	3119
300.136	3050
300.366	3144
300.597	3147
300.827	3237
301.057	3302
301.288	3311
301.518	3291
301.748	3328
301.979	3359
302.209	3362
302.439	3401
302.669	3300
302.9	3298
303.13	3262
303.36	3308
303.59	3305
303.82	3389
304.051	3260
304.281	3337
304.511	3246
304.741	3290
304.971	3259
305.201	3222
305.431	3269
305.661	3264
305.891	3167
306.121	3242
306.352	3276
306.582	3226
306.812	3149
307.042	3273
307.272	3245
307.502	3214
307.731	3248
307.961	3257
308.191	3236
308.421	3271
308.651	3323
308.881	3264
309.111	3365
309.341	3294
309.571	3421
309.8	3432
310.03	3518
310.26	3514
310.49	3547
310.72	3684
310.949	3690
311.179	3680
311.409	3600
311.639	3622
311.868	3608
312.098	3644
312.328	3712
312.557	3881
312.787	3845
313.017	3795
313.246	3768
313.476	3722
313.706	3779
313.935	3806
314.165	3909
314.394	3878
314.624	3871
314.853	3767
315.083	3741
315.312	3734
315.542	3688
315.771	3658
316.001	3608
316.23	3634
316.46	3699
316.689	3716
316.919	3695
317.148	3721
317.377	3703
317.607	3686
317.836	3710
318.065	3607
318.295	3646
318.524	3646
318.753	3590
318.983	3625
319.212	3670
319.441	3657
319.67	3644
319.9	3598
320.129	3648
320.358	3655
320.587	3691
320.816	3739
321.046	3785
321.275	3818
321.504	3792
321.733	3821
321.962	3882
322.191	3970
322.42	3970
322.649	4109
322.878	4152
323.108	4183
323.337	4494
323.566	4590
323.795	4856
324.024	5425
324.253	6933
324.482	10359
324.71	14803
324.939	15622
325.168	12332
325.397	6428
325.626	5182
325.855	4789
326.084	4748
326.313	4697
326.542	4841
326.77	5387
326.999	6694
327.228	9772
327.457	13789
327.686	12996
327.914	7107
328.143	5642
328.372	5254
328.6	5086
328.829	5103
329.058	5217
329.287	5117
329.515	4843
329.744	4661
329.972	4657
330.201	4736
330.43	4933
330.658	5267
330.887	5483
331.115	5142
331.344	4889
331.572	4840
331.801	4879
332.03	4906
332.258	4823
332.486	4839
332.715	4924
332.943	5157
333.172	5218
333.4	5347
333.629	5412
333.857	5502
334.085	5393
334.314	5350
334.542	5283
334.771	5352
334.999	5157
335.227	5104
335.455	5112
335.684	4986
335.912	4927
336.14	4911
336.369	4907
336.597	4928
336.825	4842
337.053	4841
337.281	4722
337.51	4694
337.738	4655
337.966	4683
338.194	4635
338.422	4514
338.65	4508
338.878	4534
339.106	4501
339.334	4458
339.562	4436
339.79	4363
340.018	4306
340.246	4374
340.474	4372
340.702	4406
340.93	4385
341.158	4373
341.386	4333
341.614	4360
341.842	4359
342.07	4261
342.298	4258
342.526	4279
342.754	4253
342.981	4299
343.209	4424
343.437	4626
343.665	4827
343.893	5101
344.12	5137
344.348	4837
344.576	4729
344.804	4673
345.031	4590
345.259	4476
345.487	4399
345.714	4317
345.942	4229
346.17	4170
346.397	4091
346.625	4156
346.853	4146
347.08	4067
347.308	4150
347.535	4244
347.763	4203
347.99	4192
348.218	4277
348.445	4284
348.673	4142
348.9	4136
349.128	4089
349.355	4000
349.583	4005
349.81	4057
350.037	3964
350.265	4000
350.492	4083
350.72	4058
350.947	4046
351.174	4149
351.402	4205
351.629	4127
351.856	4116
352.083	4181
352.311	4229
352.538	4183
352.765	4188
352.992	4071
353.22	4010
353.447	4005
353.674	3941
353.901	3926
354.128	3951
354.355	3905
354.583	3956
354.81	3941
355.037	3942
355.264	3894
355.491	3952
355.718	3984
355.945	3936
356.172	3945
356.399	3943
356.626	3901
356.853	3900
357.08	3868
357.307	3861
357.534	3913
357.761	3934
357.988	3925
358.215	3946
358.441	3984
358.668	3904
358.895	4025
359.122	4033
359.349	4152
359.576	4179
359.802	4361
360.029	4544
360.256	4448
360.483	4364
360.709	4237
360.936	4179
361.163	4144
361.39	4114
361.616	4148
361.843	4127
362.07	4135
362.296	4159
362.523	4080
362.749	4142
362.976	4048
363.203	4052
363.429	3964
363.656	4037
363.882	4020
364.109	3968
364.335	4013
364.562	3966
364.788	4033
365.015	3996
365.241	4032
365.468	4033
365.694	4039
365.92	4010
366.147	3966
366.373	4013
366.599	3938
366.826	3928
367.052	3948
367.278	3964
367.505	3980
367.731	4083
367.957	4034
368.184	4085
368.41	4145
368.636	4165
368.862	4194
369.089	4122
369.315	4083
369.541	4066
369.767	4098
369.993	4098
370.219	4134
370.445	4099
370.672	4121
370.898	4144
371.124	4261
371.35	4268
371.576	4235
371.802	4221
372.028	4197
372.254	4224
372.48	4238
372.706	4393
372.932	4464
373.158	4427
373.384	4316
373.61	4280
373.835	4288
374.061	4344
374.287	4421
374.513	4485
374.739	4558
374.965	4714
375.191	4708
375.416	4610
375.642	4504
375.868	4426
376.094	4382
376.319	4336
376.545	4344
376.771	4302
376.997	4274
377.222	4219
377.448	4215
377.674	4301
377.899	4213
378.125	4200
378.35	4134
378.576	4246
378.802	4284
379.027	4241
379.253	4197
379.478	4231
379.704	4211
379.929	4272
380.155	4272
380.38	4253
380.606	4297
380.831	4245
381.057	4363
381.282	4298
381.507	4328
381.733	4356
381.958	4368
382.184	4395
382.409	4458
382.634	4504
382.86	4532
383.085	4557
383.31	4568
383.535	4696
383.761	4783
383.986	4771
384.211	4890
384.436	5007
384.662	4957
384.887	5077
385.112	5049
385.337	5132
385.562	5166
385.787	5141
386.013	5188
386.238	5226
386.463	5192
386.688	5217
386.913	5151
387.138	5131
387.363	5058
387.588	5085
387.813	5094
388.038	5049
388.263	5093
388.488	5135
388.713	5109
388.938	5107
389.163	5081
389.387	5087
389.612	4936
389.837	5033
390.062	4976
390.287	5061
390.512	5069
390.736	5122
390.961	5156
391.186	5300
391.411	5389
391.636	5529
391.86	5676
392.085	5780
392.31	5664
392.534	5563
392.759	5445
392.984	5368
393.208	5336
393.433	5283
393.658	5331
393.882	5250
394.107	5253
394.331	5384
394.556	5416
394.78	5399
395.005	5491
395.229	5485
395.454	5630
395.678	5680
395.903	5764
396.127	5790
396.352	5637
396.576	5445
396.801	5482
397.025	5452
397.249	5645
397.474	5722
397.698	5755
397.922	5890
398.147	5990
398.371	6038
398.595	6219
398.82	6478
399.044	7011
399.268	7838
399.492	8833
399.717	9473
399.941	9221
400.165	8686
400.389	7985
400.613	7152
400.837	6777
401.062	6546
401.286	6529
401.51	6355
401.734	6409
401.958	6520
402.182	6598
402.406	6704
402.63	6762
402.854	6879
403.078	6940
403.302	7091
403.526	7258
403.75	7194
403.974	7317
404.198	7219
404.422	7397
404.645	7218
404.869	7209
405.093	7404
405.317	7408
405.541	7328
405.765	7130
405.988	7075
406.212	7256
406.436	7392
406.66	7541
406.883	7552
407.107	8179
407.331	8862
407.555	9255
407.778	8832
408.002	8193
408.226	7762
408.449	7735
408.673	7509
408.896	7758
409.12	7876
409.344	7490
409.567	7056
409.791	7096
410.014	6898
410.238	6917
410.461	6956
410.685	7005
410.908	7074
411.132	7309
411.355	7333
411.578	6790
411.802	6662
412.025	6674
412.249	6712
412.472	6712
412.695	6574
412.919	6420
413.142	6399
413.365	6335
413.589	6355
413.812	6308
414.035	6238
414.258	6299
414.482	6324
414.705	6369
414.928	6347
415.151	6363
415.374	6356
415.597	6236
415.821	6188
416.044	6257
416.267	6242
416.49	6263
416.713	6157
416.936	6252
417.159	6107
417.382	6312
417.605	6240
417.828	6426
418.051	6550
418.274	6430
418.497	6310
418.72	6455
418.943	6371
419.166	6899
419.389	7251
419.611	7018
419.834	6874
420.057	6679
420.28	6458
420.503	6304
420.726	6409
420.948	6604
421.171	6970
421.394	7004
421.617	6418
421.839	6435
422.062	6466
422.285	6819
422.507	7342
422.73	7794
422.953	7324
423.175	6860
423.398	6981
423.621	6863
423.843	7219
424.066	7069
424.288	6993
424.511	7274
424.733	7732
424.956	8175
425.178	7618
425.401	7835
425.623	7647
425.846	6821
426.068	6558
426.291	6468
426.513	6429
426.735	6572
426.958	6985
427.18	7813
427.402	8874
427.625	8877
427.847	7461
428.069	6654
428.292	6305
428.514	6047
428.736	5940
428.958	5925
429.181	5767
429.403	5738
429.625	5960
429.847	6257
430.069	6812
430.292	6280
430.514	5745
430.736	5812
430.958	5664
431.18	5607
431.402	5601
431.624	5564
431.846	5625
432.068	5652
432.29	5821
432.512	5630
432.734	5817
432.956	5720
433.178	5784
433.4	5706
433.622	5664
433.844	5728
434.066	5777
434.287	5845
434.509	6147
434.731	6288
434.953	6359
435.175	6537
435.397	6689
435.618	6520
435.84	7006
436.062	7713
436.284	7666
436.505	6488
436.727	6154
436.949	5968
437.17	5806
437.392	5777
437.614	5997
437.835	6270
438.057	7204
438.278	7910
438.5	7830
438.721	8590
438.943	7493
439.165	6390
439.386	6127
439.608	6110
439.829	6250
440.05	6625
440.272	6852
440.493	6333
440.715	6042
440.936	6104
441.158	6106
441.379	6165
441.6	6490
441.822	6774
442.043	7125
442.264	7977
442.486	7647
442.707	6824
442.928	6663
443.149	6879
443.371	7090
443.592	7646
443.813	8537
444.034	8517
444.255	7456
444.476	7245
444.698	7452
444.919	7466
445.14	7296
445.361	7173
445.582	7264
445.803	7840
446.024	8466
446.245	8073
446.466	7333
446.687	6414
446.908	6107
447.129	5817
447.35	5645
447.571	5640
447.792	5469
448.013	5514
448.234	5797
448.455	6485
448.675	7628
448.896	8036
449.117	6626
449.338	6906
449.559	8107
449.779	8279
450	6405
450.221	5702
450.442	5529
450.662	5422
450.883	5464
451.104	5572
451.324	5442
451.545	5227
451.766	5250
451.986	5130
452.207	5020
452.428	4980
452.648	5014
452.869	5027
453.089	5076
453.31	5181
453.53	5098
453.751	4977
453.971	4964
454.192	5162
454.412	4881
454.633	4871
454.853	4905
455.073	4975
455.294	5300
455.514	5735
455.734	5272
455.955	4766
456.175	4709
456.395	4596
456.616	4616
456.836	4561
457.056	4518
457.276	4603
457.497	4700
457.717	4643
457.937	4745
458.157	4834
458.377	4942
458.598	5205
458.818	5834
459.038	6628
459.258	6530
459.478	5855
459.698	5733
459.918	5836
460.138	6010
460.358	6171
460.578	6227
460.798	6360
461.018	6262
461.238	6167
461.458	6220
461.678	6114
461.898	6283
462.118	6332
462.338	6585
462.558	6804
462.777	7020
462.997	7684
463.217	8048
463.437	7826
463.657	7210
463.876	7069
464.096	7085
464.316	7067
464.536	7145
464.755	6901
464.975	6772
465.195	6880
465.414	6795
465.634	6089
465.854	5840
466.073	5542
466.293	5368
466.512	5281
466.732	5198
466.951	5146
467.171	5170
467.391	5211
467.61	5244
467.829	5248
468.049	5140
468.268	4935
468.488	4918
468.707	4874
468.927	4941
469.146	4918
469.365	4984
469.585	4960
469.804	5245
470.023	5302
470.243	5303
470.462	5486
470.681	5530
470.901	5400
471.12	5320
471.339	5345
471.558	5200
471.777	5091
471.997	5008
472.216	4972
472.435	4949
472.654	4906
472.873	4907
473.092	4873
473.311	4927
473.53	4972
473.749	5077
473.968	5534
474.187	6538
474.406	6092
474.625	5307
474.844	5018
475.063	4938
475.282	5000
475.501	5053
475.72	5059
475.939	5073
476.158	5146
476.377	5092
476.596	5144
476.814	5278
477.033	5296
477.252	5388
477.471	5442
477.69	5563
477.908	5663
478.127	5784
478.346	5866
478.564	6021
478.783	6060
479.002	6227
479.22	6211
479.439	6230
479.658	6399
479.876	6506
480.095	6633
480.313	7006
480.532	6942
480.751	6780
480.969	6715
481.188	6469
481.406	6293
481.624	6090
481.843	6093
482.061	5926
482.28	5860
482.498	5819
482.717	5799
482.935	5806
483.153	5770
483.372	5812
483.59	5746
483.808	5822
484.027	5808
484.245	5915
484.463	5857
484.681	5900
484.9	5971
485.118	6107
485.336	6036
485.554	6114
485.772	6160
485.99	6259
486.209	6236
486.427	6127
486.645	6229
486.863	6294
487.081	6318
487.299	6221
487.517	6231
487.735	6291
487.953	6232
488.171	6242
488.389	6260
488.607	6180
488.825	6189
489.043	6234
489.261	6256
489.479	6315
489.696	6346
489.914	6434
490.132	6432
490.35	6518
490.568	6512
490.786	6639
491.003	6649
491.221	6784
491.439	6878
491.657	6904
491.874	7007
492.092	7016
492.31	7012
492.527	7021
492.745	7006
492.963	7149
493.18	7181
493.398	7307
493.615	7284
493.833	7400
494.05	7345
494.268	7375
494.485	7371
494.703	7306
494.92	7394
495.138	7433
495.355	7400
495.573	7445
495.79	7383
496.008	7423
496.225	7421
496.442	7500
496.66	7504
496.877	7572
497.094	7625
497.312	7735
497.529	7860
497.746	8174
497.963	8312
498.181	8807
498.398	8928
498.615	9334
498.832	9841
499.049	10377
499.267	10968
499.484	11686
499.701	12570
499.918	13282
500.135	14110
500.352	14712
500.569	14809
500.786	14694
501.003	14222
501.22	13691
501.437	12735
501.654	11986
501.871	11381
502.088	10663
502.305	10173
502.522	9650
502.739	9293
502.956	8830
503.172	8488
503.389	8205
503.606	8136
503.823	8000
504.04	7981
504.256	8032
504.473	8150
504.69	8276
504.907	8024
505.123	7518
505.34	7369
505.557	7186
505.773	7134
505.99	7042
506.207	6990
506.423	6925
506.64	6718
506.856	6724
507.073	6677
507.289	6648
507.506	6576
507.722	6668
507.939	6597
508.155	6438
508.372	6296
508.588	6307
508.805	6269
509.021	6322
509.238	6401
509.454	6530
509.67	6428
509.887	6228
510.103	6205
510.319	6349
510.536	7446
510.752	10522
510.968	7260
511.184	6045
511.401	6028
511.617	5847
511.833	5910
512.049	5844
512.265	5789
512.481	5815
512.698	5794
512.914	5825
513.13	5723
513.346	5712
513.562	5837
513.778	5865
513.994	5853
514.21	5921
514.426	6106
514.642	6412
514.858	6548
515.074	6793
515.29	7986
515.506	10257
515.721	7775
515.937	6721
516.153	6576
516.369	6608
516.585	6608
516.801	6700
517.016	6893
517.232	7145
517.448	7330
517.664	7484
517.879	7540
518.095	7399
518.311	7345
518.527	7021
518.742	6793
518.958	6537
519.173	6404
519.389	6309
519.605	6136
519.82	6109
520.036	6143
520.251	6255
520.467	6264
520.682	6317
520.898	6208
521.113	6338
521.329	6520
521.544	7011
521.76	8699
521.975	12760
522.19	9934
522.406	6766
522.621	5890
522.836	5654
523.052	5413
523.267	5284
523.482	5219
523.698	5173
523.913	5158
524.128	5117
524.343	5047
524.559	5002
524.774	4907
524.989	4979
525.204	4996
525.419	4981
525.634	4890
525.849	4881
526.064	4805
526.28	4764
526.495	4792
526.71	4738
526.925	4700
527.14	4701
527.355	4608
527.57	4721
527.785	4647
527.999	4636
528.214	4705
528.429	4642
528.644	4677
528.859	4618
529.074	4671
529.289	4882
529.503	5261
529.718	5093
529.933	4864
530.148	4798
530.363	4722
530.577	4733
530.792	4711
531.007	4678
531.221	4675
531.436	4674
531.651	4650
531.865	4580
532.08	4589
532.295	4620
532.509	4586
532.724	4517
532.938	4620
533.153	4625
533.367	4506
533.582	4586
533.796	4501
534.011	4568
534.225	4485
534.44	4456
534.654	4526
534.868	4442
535.083	4518
535.297	4470
535.511	4455
535.726	4515
535.94	4481
536.154	4431
536.369	4370
536.583	4242
536.797	4258
537.011	4280
537.225	4266
537.44	4292
537.654	4241
537.868	4264
538.082	4291
538.296	4298
538.51	4252
538.724	4352
538.938	4224
539.153	4204
539.367	4277
539.581	4217
539.795	4104
540.009	4155
540.222	4109
540.436	4154
540.65	4242
540.864	4256
541.078	4212
541.292	4236
541.506	4076
541.72	4083
541.934	4071
542.147	4058
