Data from Uncirc_1984_H10_HRD10591_00031.txt Node
Date: Wed Jan 03 12:21:43 EST 2024
User: Yrep
Spectrometer: HR+D1059
Trigger mode: 1
Integration Time (sec): 1.000000E-1
Scans to average: 1
Electric dark correction enabled: true
Nonlinearity correction enabled: false
Boxcar width: 0
XAxis mode: Wavelengths
Number of Pixels in Spectrum: 2048
>>>>>Begin Spectral Data<<<<<
223.165	-14.19
223.4	-14.19
223.635	-14.19
223.869	-29.19
224.104	-32.19
224.338	-6.19
224.573	-11.19
224.808	-16.19
225.042	-18.19
225.277	-4.19
225.511	-0.19
225.746	7.81
225.98	14.81
226.215	14.81
226.449	21.81
226.683	16.81
226.918	22.81
227.152	32.81
227.387	30.81
227.621	52.81
227.856	46.81
228.09	59.81
228.324	43.81
228.559	54.81
228.793	60.81
229.027	77.81
229.262	63.81
229.496	72.81
229.73	76.81
229.964	81.81
230.199	69.81
230.433	76.81
230.667	91.81
230.901	82.81
231.136	81.81
231.37	81.81
231.604	80.81
231.838	71.81
232.072	93.81
232.306	86.81
232.541	77.81
232.775	90.81
233.009	82.81
233.243	87.81
233.477	86.81
233.711	83.81
233.945	82.81
234.179	83.81
234.413	82.81
234.647	80.81
234.881	75.81
235.115	74.81
235.349	85.81
235.583	65.81
235.817	78.81
236.051	85.81
236.285	80.81
236.519	74.81
236.753	78.81
236.987	70.81
237.221	83.81
237.455	85.81
237.689	93.81
237.922	69.81
238.156	78.81
238.39	74.81
238.624	80.81
238.858	76.81
239.091	82.81
239.325	86.81
239.559	74.81
239.793	66.81
240.027	76.81
240.26	80.81
240.494	84.81
240.728	81.81
240.961	78.81
241.195	84.81
241.429	76.81
241.662	67.81
241.896	76.81
242.13	76.81
242.363	72.81
242.597	77.81
242.83	75.81
243.064	80.81
243.298	80.81
243.531	78.81
243.765	70.81
243.998	85.81
244.232	76.81
244.465	79.81
244.699	74.81
244.932	76.81
245.166	75.81
245.399	89.81
245.633	80.81
245.866	84.81
246.099	76.81
246.333	89.81
246.566	80.81
246.8	88.81
247.033	77.81
247.266	88.81
247.5	75.81
247.733	84.81
247.966	90.81
248.2	75.81
248.433	80.81
248.666	102.81
248.899	86.81
249.133	92.81
249.366	98.81
249.599	100.81
249.832	75.81
250.066	88.81
250.299	89.81
250.532	82.81
250.765	86.81
250.998	72.81
251.231	76.81
251.465	87.81
251.698	80.81
251.931	71.81
252.164	76.81
252.397	78.81
252.63	75.81
252.863	81.81
253.096	77.81
253.329	93.81
253.562	96.81
253.795	75.81
254.028	84.81
254.261	82.81
254.494	65.81
254.727	83.81
254.96	74.81
255.193	80.81
255.426	80.81
255.659	84.81
255.892	93.81
256.124	71.81
256.357	68.81
256.59	97.81
256.823	76.81
257.056	77.81
257.289	89.81
257.521	84.81
257.754	94.81
257.987	81.81
258.22	84.81
258.452	85.81
258.685	105.81
258.918	88.81
259.151	91.81
259.383	89.81
259.616	83.81
259.849	92.81
260.081	90.81
260.314	78.81
260.547	88.81
260.779	88.81
261.012	71.81
261.244	77.81
261.477	85.81
261.71	80.81
261.942	112.81
262.175	113.81
262.407	85.81
262.64	86.81
262.872	87.81
263.105	89.81
263.337	92.81
263.57	90.81
263.802	77.81
264.035	80.81
264.267	84.81
264.499	88.81
264.732	91.81
264.964	92.81
265.197	85.81
265.429	97.81
265.661	86.81
265.894	88.81
266.126	93.81
266.358	83.81
266.591	84.81
266.823	72.81
267.055	77.81
267.287	98.81
267.52	76.81
267.752	88.81
267.984	85.81
268.216	84.81
268.448	86.81
268.681	93.81
268.913	88.81
269.145	91.81
269.377	97.81
269.609	74.81
269.841	94.81
270.073	84.81
270.306	95.81
270.538	82.81
270.77	93.81
271.002	71.81
271.234	94.81
271.466	99.81
271.698	84.81
271.93	91.81
272.162	77.81
272.394	87.81
272.626	82.81
272.858	88.81
273.09	90.81
273.322	90.81
273.553	94.81
273.785	84.81
274.017	99.81
274.249	94.81
274.481	95.81
274.713	77.81
274.945	100.81
275.176	109.81
275.408	85.81
275.64	74.81
275.872	80.81
276.104	92.81
276.335	101.81
276.567	99.81
276.799	115.81
277.031	94.81
277.262	94.81
277.494	92.81
277.726	86.81
277.957	93.81
278.189	85.81
278.421	78.81
278.652	73.81
278.884	84.81
279.115	80.81
279.347	82.81
279.579	80.81
279.81	91.81
280.042	78.81
280.273	82.81
280.505	90.81
280.736	78.81
280.968	84.81
281.199	88.81
281.431	88.81
281.662	97.81
281.894	90.81
282.125	102.81
282.356	112.81
282.588	132.81
282.819	102.81
283.051	97.81
283.282	82.81
283.513	100.81
283.745	98.81
283.976	94.81
284.207	88.81
284.439	88.81
284.67	88.81
284.901	92.81
285.132	99.81
285.364	108.81
285.595	77.81
285.826	103.81
286.057	95.81
286.288	97.81
286.52	94.81
286.751	73.81
286.982	99.81
287.213	82.81
287.444	88.81
287.675	104.81
287.906	90.81
288.138	93.81
288.369	89.81
288.6	89.81
288.831	88.81
289.062	87.81
289.293	86.81
289.524	95.81
289.755	84.81
289.986	100.81
290.217	103.81
290.448	83.81
290.679	79.81
290.91	95.81
291.141	90.81
291.371	83.81
291.602	96.81
291.833	90.81
292.064	96.81
292.295	91.81
292.526	99.81
292.757	90.81
292.987	96.81
293.218	95.81
293.449	93.81
293.68	84.81
293.91	88.81
294.141	97.81
294.372	78.81
294.603	91.81
294.833	84.81
295.064	91.81
295.295	88.81
295.525	92.81
295.756	85.81
295.987	103.81
296.217	137.81
296.448	126.81
296.679	84.81
296.909	92.81
297.14	84.81
297.37	91.81
297.601	86.81
297.831	88.81
298.062	94.81
298.292	100.81
298.523	90.81
298.753	87.81
298.984	86.81
299.214	93.81
299.445	86.81
299.675	104.81
299.905	94.81
300.136	87.81
300.366	81.81
300.597	75.81
300.827	92.81
301.057	88.81
301.288	98.81
301.518	92.81
301.748	94.81
301.979	85.81
302.209	95.81
302.439	96.81
302.669	99.81
302.9	84.81
303.13	90.81
303.36	87.81
303.59	91.81
303.82	94.81
304.051	92.81
304.281	96.81
304.511	104.81
304.741	97.81
304.971	70.81
305.201	71.81
305.431	90.81
305.661	94.81
305.891	100.81
306.121	96.81
306.352	114.81
306.582	102.81
306.812	94.81
307.042	84.81
307.272	97.81
307.502	90.81
307.731	98.81
307.961	87.81
308.191	92.81
308.421	91.81
308.651	90.81
308.881	97.81
309.111	99.81
309.341	102.81
309.571	93.81
309.8	87.81
310.03	107.81
310.26	86.81
310.49	84.81
310.72	102.81
310.949	102.81
311.179	104.81
311.409	83.81
311.639	92.81
311.868	96.81
312.098	88.81
312.328	96.81
312.557	102.81
312.787	102.81
313.017	96.81
313.246	96.81
313.476	96.81
313.706	99.81
313.935	101.81
314.165	94.81
314.394	97.81
314.624	101.81
314.853	105.81
315.083	104.81
315.312	98.81
315.542	84.81
315.771	90.81
316.001	95.81
316.23	107.81
316.46	98.81
316.689	76.81
316.919	96.81
317.148	100.81
317.377	99.81
317.607	88.81
317.836	93.81
318.065	96.81
318.295	101.81
318.524	94.81
318.753	87.81
318.983	84.81
319.212	97.81
319.441	100.81
319.67	110.81
319.9	98.81
320.129	86.81
320.358	99.81
320.587	89.81
320.816	110.81
321.046	94.81
321.275	92.81
321.504	100.81
321.733	85.81
321.962	99.81
322.191	105.81
322.42	112.81
322.649	113.81
322.878	100.81
323.108	110.81
323.337	121.81
323.566	107.81
323.795	153.81
324.024	208.81
324.253	397.81
324.482	826.81
324.71	1717.81
324.939	2298.81
325.168	828.81
325.397	241.81
325.626	153.81
325.855	133.81
326.084	123.81
326.313	125.81
326.542	160.81
326.77	219.81
326.999	453.81
327.228	954.81
327.457	1739.81
327.686	1378.81
327.914	373.81
328.143	173.81
328.372	137.81
328.6	118.81
328.829	114.81
329.058	129.81
329.287	125.81
329.515	123.81
329.744	102.81
329.972	105.81
330.201	104.81
330.43	110.81
330.658	113.81
330.887	144.81
331.115	119.81
331.344	93.81
331.572	107.81
331.801	95.81
332.03	96.81
332.258	95.81
332.486	103.81
332.715	99.81
332.943	95.81
333.172	101.81
333.4	107.81
333.629	107.81
333.857	108.81
334.085	115.81
334.314	104.81
334.542	93.81
334.771	98.81
334.999	115.81
335.227	94.81
335.455	106.81
335.684	97.81
335.912	98.81
336.14	90.81
336.369	96.81
336.597	96.81
336.825	103.81
337.053	99.81
337.281	96.81
337.51	92.81
337.738	106.81
337.966	88.81
338.194	86.81
338.422	108.81
338.65	112.81
338.878	92.81
339.106	93.81
339.334	96.81
339.562	92.81
339.79	84.81
340.018	97.81
340.246	90.81
340.474	94.81
340.702	84.81
340.93	76.81
341.158	89.81
341.386	100.81
341.614	94.81
341.842	90.81
342.07	92.81
342.298	90.81
342.526	97.81
342.754	92.81
342.981	81.81
343.209	92.81
343.437	106.81
343.665	96.81
343.893	81.81
344.12	103.81
344.348	94.81
344.576	106.81
344.804	96.81
345.031	92.81
345.259	100.81
345.487	92.81
345.714	99.81
345.942	98.81
346.17	95.81
346.397	84.81
346.625	94.81
346.853	108.81
347.08	87.81
347.308	84.81
347.535	90.81
347.763	108.81
347.99	90.81
348.218	99.81
348.445	102.81
348.673	93.81
348.9	94.81
349.128	97.81
349.355	104.81
349.583	84.81
349.81	93.81
350.037	92.81
350.265	105.81
350.492	93.81
350.72	93.81
350.947	91.81
351.174	100.81
351.402	113.81
351.629	107.81
351.856	97.81
352.083	97.81
352.311	99.81
352.538	92.81
352.765	101.81
352.992	101.81
353.22	104.81
353.447	97.81
353.674	108.81
353.901	82.81
354.128	96.81
354.355	90.81
354.583	96.81
354.81	107.81
355.037	86.81
355.264	97.81
355.491	86.81
355.718	104.81
355.945	102.81
356.172	89.81
356.399	86.81
356.626	91.81
356.853	94.81
357.08	84.81
357.307	76.81
357.534	96.81
357.761	86.81
357.988	109.81
358.215	95.81
358.441	94.81
358.668	91.81
358.895	90.81
359.122	83.81
359.349	90.81
359.576	82.81
359.802	97.81
360.029	108.81
360.256	99.81
360.483	92.81
360.709	93.81
360.936	90.81
361.163	93.81
361.39	94.81
361.616	93.81
361.843	88.81
362.07	102.81
362.296	100.81
362.523	89.81
362.749	89.81
362.976	92.81
363.203	98.81
363.429	100.81
363.656	90.81
363.882	91.81
364.109	86.81
364.335	82.81
364.562	101.81
364.788	99.81
365.015	105.81
365.241	87.81
365.468	105.81
365.694	104.81
365.92	98.81
366.147	102.81
366.373	98.81
366.599	96.81
366.826	97.81
367.052	89.81
367.278	90.81
367.505	91.81
367.731	95.81
367.957	88.81
368.184	84.81
368.41	107.81
368.636	106.81
368.862	116.81
369.089	92.81
369.315	87.81
369.541	98.81
369.767	89.81
369.993	109.81
370.219	87.81
370.445	99.81
370.672	88.81
370.898	89.81
371.124	87.81
371.35	80.81
371.576	83.81
371.802	89.81
372.028	88.81
372.254	84.81
372.48	88.81
372.706	86.81
372.932	98.81
373.158	82.81
373.384	88.81
373.61	101.81
373.835	96.81
374.061	90.81
374.287	94.81
374.513	95.81
374.739	86.81
374.965	99.81
375.191	88.81
375.416	96.81
375.642	95.81
375.868	89.81
376.094	84.81
376.319	85.81
376.545	91.81
376.771	89.81
376.997	102.81
377.222	78.81
377.448	85.81
377.674	96.81
377.899	86.81
378.125	94.81
378.35	93.81
378.576	89.81
378.802	90.81
379.027	94.81
379.253	92.81
379.478	97.81
379.704	102.81
379.929	88.81
380.155	96.81
380.38	84.81
380.606	84.81
380.831	94.81
381.057	105.81
381.282	96.81
381.507	102.81
381.733	88.81
381.958	107.81
382.184	100.81
382.409	92.81
382.634	115.81
382.86	103.81
383.085	95.81
383.31	104.81
383.535	111.81
383.761	93.81
383.986	94.81
384.211	102.81
384.436	103.81
384.662	91.81
384.887	99.81
385.112	113.81
385.337	100.81
385.562	105.81
385.787	90.81
386.013	107.81
386.238	98.81
386.463	90.81
386.688	98.81
386.913	97.81
387.138	107.81
387.363	103.81
387.588	104.81
387.813	104.81
388.038	108.81
388.263	115.81
388.488	93.81
388.713	97.81
388.938	93.81
389.163	85.81
389.387	93.81
389.612	88.81
389.837	84.81
390.062	106.81
390.287	93.81
390.512	98.81
390.736	100.81
390.961	87.81
391.186	94.81
391.411	109.81
391.636	93.81
391.86	94.81
392.085	84.81
392.31	80.81
392.534	73.81
392.759	83.81
392.984	92.81
393.208	103.81
393.433	96.81
393.658	93.81
393.882	94.81
394.107	79.81
394.331	79.81
394.556	95.81
394.78	93.81
395.005	90.81
395.229	84.81
395.454	91.81
395.678	86.81
395.903	90.81
396.127	102.81
396.352	109.81
396.576	84.81
396.801	108.81
397.025	111.81
397.249	93.81
397.474	90.81
397.698	79.81
397.922	85.81
398.147	93.81
398.371	66.81
398.595	83.81
398.82	94.81
399.044	95.81
399.268	88.81
399.492	100.81
399.717	90.81
399.941	91.81
400.165	99.81
400.389	93.81
400.613	88.81
400.837	80.81
401.062	86.81
401.286	96.81
401.51	94.81
401.734	88.81
401.958	102.81
402.182	120.81
402.406	157.81
402.63	129.81
402.854	82.81
403.078	97.81
403.302	100.81
403.526	89.81
403.75	98.81
403.974	85.81
404.198	80.81
404.422	92.81
404.645	75.81
404.869	96.81
405.093	97.81
405.317	103.81
405.541	87.81
405.765	98.81
405.988	119.81
406.212	155.81
406.436	198.81
406.66	135.81
406.883	91.81
407.107	101.81
407.331	85.81
407.555	125.81
407.778	105.81
408.002	97.81
408.226	94.81
408.449	86.81
408.673	91.81
408.896	95.81
409.12	91.81
409.344	100.81
409.567	104.81
409.791	101.81
410.014	105.81
410.238	97.81
410.461	100.81
410.685	96.81
410.908	89.81
411.132	109.81
411.355	116.81
411.578	83.81
411.802	96.81
412.025	83.81
412.249	88.81
412.472	86.81
412.695	91.81
412.919	87.81
413.142	95.81
413.365	80.81
413.589	87.81
413.812	105.81
414.035	91.81
414.258	102.81
414.482	86.81
414.705	88.81
414.928	90.81
415.151	100.81
415.374	92.81
415.597	89.81
415.821	75.81
416.044	95.81
416.267	104.81
416.49	95.81
416.713	80.81
416.936	84.81
417.159	98.81
417.382	91.81
417.605	88.81
417.828	90.81
418.051	100.81
418.274	94.81
418.497	89.81
418.72	85.81
418.943	97.81
419.166	100.81
419.389	93.81
419.611	86.81
419.834	83.81
420.057	85.81
420.28	96.81
420.503	100.81
420.726	83.81
420.948	101.81
421.171	100.81
421.394	90.81
421.617	97.81
421.839	92.81
422.062	103.81
422.285	94.81
422.507	88.81
422.73	102.81
422.953	101.81
423.175	101.81
423.398	84.81
423.621	110.81
423.843	86.81
424.066	86.81
424.288	97.81
424.511	92.81
424.733	102.81
424.956	88.81
425.178	92.81
425.401	102.81
425.623	97.81
425.846	88.81
426.068	96.81
426.291	80.81
426.513	76.81
426.735	78.81
426.958	93.81
427.18	106.81
427.402	141.81
427.625	160.81
427.847	128.81
428.069	107.81
428.292	92.81
428.514	92.81
428.736	93.81
428.958	76.81
429.181	89.81
429.403	80.81
429.625	88.81
429.847	90.81
430.069	96.81
430.292	94.81
430.514	103.81
430.736	90.81
430.958	93.81
431.18	86.81
431.402	89.81
431.624	83.81
431.846	84.81
432.068	86.81
432.29	99.81
432.512	88.81
432.734	99.81
432.956	90.81
433.178	109.81
433.4	112.81
433.622	84.81
433.844	93.81
434.066	104.81
434.287	100.81
434.509	72.81
434.731	96.81
434.953	82.81
435.175	88.81
435.397	90.81
435.618	89.81
435.84	110.81
436.062	115.81
436.284	109.81
436.505	94.81
436.727	113.81
436.949	92.81
437.17	90.81
437.392	97.81
437.614	88.81
437.835	106.81
438.057	123.81
438.278	118.81
438.5	118.81
438.721	118.81
438.943	109.81
439.165	101.81
439.386	84.81
439.608	95.81
439.829	109.81
440.05	108.81
440.272	117.81
440.493	80.81
440.715	88.81
440.936	85.81
441.158	82.81
441.379	94.81
441.6	96.81
441.822	98.81
442.043	99.81
442.264	116.81
442.486	116.81
442.707	92.81
442.928	112.81
443.149	117.81
443.371	109.81
443.592	110.81
443.813	121.81
444.034	109.81
444.255	85.81
444.476	89.81
444.698	81.81
444.919	86.81
445.14	118.81
445.361	129.81
445.582	108.81
445.803	141.81
446.024	117.81
446.245	139.81
446.466	117.81
446.687	90.81
446.908	79.81
447.129	78.81
447.35	96.81
447.571	90.81
447.792	90.81
448.013	106.81
448.234	94.81
448.455	101.81
448.675	118.81
448.896	134.81
449.117	112.81
449.338	114.81
449.559	132.81
449.779	125.81
450	101.81
450.221	78.81
450.442	102.81
450.662	85.81
450.883	95.81
451.104	106.81
451.324	90.81
451.545	88.81
451.766	81.81
451.986	75.81
452.207	76.81
452.428	94.81
452.648	105.81
452.869	113.81
453.089	99.81
453.31	108.81
453.53	86.81
453.751	95.81
453.971	97.81
454.192	107.81
454.412	92.81
454.633	93.81
454.853	98.81
455.073	73.81
455.294	103.81
455.514	114.81
455.734	91.81
455.955	91.81
456.175	88.81
456.395	97.81
456.616	100.81
456.836	95.81
457.056	98.81
457.276	94.81
457.497	87.81
457.717	88.81
457.937	77.81
458.157	75.81
458.377	84.81
458.598	102.81
458.818	138.81
459.038	154.81
459.258	105.81
459.478	96.81
459.698	92.81
459.918	84.81
460.138	91.81
460.358	86.81
460.578	90.81
460.798	88.81
461.018	86.81
461.238	88.81
461.458	84.81
461.678	74.81
461.898	97.81
462.118	88.81
462.338	90.81
462.558	81.81
462.777	86.81
462.997	80.81
463.217	87.81
463.437	107.81
463.657	93.81
463.876	87.81
464.096	77.81
464.316	75.81
464.536	99.81
464.755	115.81
464.975	105.81
465.195	141.81
465.414	147.81
465.634	88.81
465.854	80.81
466.073	84.81
466.293	100.81
466.512	82.81
466.732	92.81
466.951	95.81
467.171	95.81
467.391	100.81
467.61	107.81
467.829	90.81
468.049	86.81
468.268	86.81
468.488	85.81
468.707	88.81
468.927	88.81
469.146	92.81
469.365	87.81
469.585	87.81
469.804	99.81
470.023	85.81
470.243	94.81
470.462	105.81
470.681	99.81
470.901	91.81
471.12	85.81
471.339	82.81
471.558	90.81
471.777	82.81
471.997	84.81
472.216	87.81
472.435	101.81
472.654	85.81
472.873	98.81
473.092	92.81
473.311	80.81
473.53	85.81
473.749	92.81
473.968	92.81
474.187	122.81
474.406	98.81
474.625	94.81
474.844	82.81
475.063	88.81
475.282	88.81
475.501	88.81
475.72	91.81
475.939	75.81
476.158	94.81
476.377	86.81
476.596	82.81
476.814	87.81
477.033	90.81
477.252	101.81
477.471	77.81
477.69	84.81
477.908	99.81
478.127	86.81
478.346	84.81
478.564	98.81
478.783	86.81
479.002	74.81
479.22	91.81
479.439	100.81
479.658	88.81
479.876	72.81
480.095	84.81
480.313	91.81
480.532	86.81
480.751	91.81
480.969	90.81
481.188	90.81
481.406	98.81
481.624	87.81
481.843	85.81
482.061	94.81
482.28	73.81
482.498	83.81
482.717	92.81
482.935	84.81
483.153	94.81
483.372	88.81
483.59	88.81
483.808	98.81
484.027	84.81
484.245	85.81
484.463	103.81
484.681	84.81
484.9	101.81
485.118	93.81
485.336	101.81
485.554	101.81
485.772	101.81
485.99	109.81
486.209	105.81
486.427	96.81
486.645	111.81
486.863	92.81
487.081	72.81
487.299	86.81
487.517	95.81
487.735	110.81
487.953	104.81
488.171	87.81
488.389	91.81
488.607	108.81
488.825	93.81
489.043	102.81
489.261	90.81
489.479	86.81
489.696	95.81
489.914	70.81
490.132	82.81
490.35	99.81
490.568	89.81
490.786	85.81
491.003	86.81
491.221	85.81
491.439	84.81
491.657	93.81
491.874	103.81
492.092	97.81
492.31	77.81
492.527	83.81
492.745	77.81
492.963	88.81
493.18	90.81
493.398	104.81
493.615	93.81
493.833	97.81
494.05	86.81
494.268	81.81
494.485	85.81
494.703	106.81
494.92	87.81
495.138	100.81
495.355	73.81
495.573	81.81
495.79	84.81
496.008	94.81
496.225	87.81
496.442	83.81
496.66	90.81
496.877	78.81
497.094	84.81
497.312	88.81
497.529	99.81
497.746	107.81
497.963	92.81
498.181	104.81
498.398	86.81
498.615	113.81
498.832	88.81
499.049	100.81
499.267	92.81
499.484	88.81
499.701	83.81
499.918	98.81
500.135	81.81
500.352	94.81
500.569	88.81
500.786	107.81
501.003	88.81
501.22	94.81
501.437	96.81
501.654	104.81
501.871	115.81
502.088	88.81
502.305	94.81
502.522	100.81
502.739	98.81
502.956	91.81
503.172	100.81
503.389	103.81
503.606	110.81
503.823	101.81
504.04	75.81
504.256	101.81
504.473	96.81
504.69	91.81
504.907	104.81
505.123	102.81
505.34	92.81
505.557	93.81
505.773	104.81
505.99	85.81
506.207	90.81
506.423	84.81
506.64	85.81
506.856	88.81
507.073	93.81
507.289	96.81
507.506	96.81
507.722	98.81
507.939	115.81
508.155	94.81
508.372	85.81
508.588	80.81
508.805	92.81
509.021	91.81
509.238	90.81
509.454	89.81
509.67	107.81
509.887	112.81
510.103	124.81
510.319	203.81
510.536	731.81
510.752	2272.81
510.968	646.81
511.184	153.81
511.401	114.81
511.617	95.81
511.833	93.81
512.049	96.81
512.265	96.81
512.481	98.81
512.698	90.81
512.914	85.81
513.13	93.81
513.346	98.81
513.562	99.81
513.778	83.81
513.994	88.81
514.21	99.81
514.426	116.81
514.642	130.81
514.858	119.81
515.074	150.81
515.29	414.81
515.506	1325.81
