Data from Uncirc_1984_H10_HRD10591_00052.txt Node
Date: Wed Jan 03 12:21:47 EST 2024
User: Yrep
Spectrometer: HR+D1059
Trigger mode: 1
Integration Time (sec): 1.000000E-1
Scans to average: 1
Electric dark correction enabled: true
Nonlinearity correction enabled: false
Boxcar width: 0
XAxis mode: Wavelengths
Number of Pixels in Spectrum: 2048
>>>>>Begin Spectral Data<<<<<
223.165	-11.56
223.4	-11.56
223.635	-11.56
223.869	-10.56
224.104	-16.56
224.338	-31.56
224.573	-15.56
224.808	-6.56
225.042	-19.56
225.277	1.44
225.511	-0.56
225.746	-13.56
225.98	17.44
226.215	12.44
226.449	16.44
226.683	13.44
226.918	38.44
227.152	26.44
227.387	27.44
227.621	35.44
227.856	26.44
228.09	40.44
228.324	50.44
228.559	58.44
228.793	61.44
229.027	65.44
229.262	57.44
229.496	72.44
229.73	92.44
229.964	83.44
230.199	75.44
230.433	72.44
230.667	74.44
230.901	81.44
231.136	71.44
231.37	78.44
231.604	74.44
231.838	87.44
232.072	77.44
232.306	78.44
232.541	77.44
232.775	86.44
233.009	84.44
233.243	82.44
233.477	69.44
233.711	73.44
233.945	72.44
234.179	74.44
234.413	68.44
234.647	80.44
234.881	78.44
235.115	78.44
235.349	74.44
235.583	68.44
235.817	62.44
236.051	87.44
236.285	72.44
236.519	71.44
236.753	77.44
236.987	76.44
237.221	88.44
237.455	89.44
237.689	85.44
237.922	69.44
238.156	72.44
238.39	77.44
238.624	73.44
238.858	71.44
239.091	83.44
239.325	88.44
239.559	71.44
239.793	84.44
240.027	79.44
240.26	65.44
240.494	63.44
240.728	59.44
240.961	58.44
241.195	72.44
241.429	76.44
241.662	80.44
241.896	75.44
242.13	84.44
242.363	84.44
242.597	78.44
242.83	86.44
243.064	65.44
243.298	74.44
243.531	91.44
243.765	70.44
243.998	73.44
244.232	78.44
244.465	77.44
244.699	72.44
244.932	83.44
245.166	84.44
245.399	81.44
245.633	76.44
245.866	83.44
246.099	78.44
246.333	83.44
246.566	73.44
246.8	79.44
247.033	82.44
247.266	77.44
247.5	67.44
247.733	87.44
247.966	84.44
248.2	75.44
248.433	74.44
248.666	74.44
248.899	87.44
249.133	71.44
249.366	102.44
249.599	96.44
249.832	80.44
250.066	86.44
250.299	79.44
250.532	80.44
250.765	77.44
250.998	74.44
251.231	79.44
251.465	82.44
251.698	83.44
251.931	81.44
252.164	87.44
252.397	72.44
252.63	72.44
252.863	65.44
253.096	61.44
253.329	81.44
253.562	80.44
253.795	98.44
254.028	73.44
254.261	78.44
254.494	66.44
254.727	85.44
254.96	86.44
255.193	81.44
255.426	93.44
255.659	90.44
255.892	78.44
256.124	74.44
256.357	71.44
256.59	82.44
256.823	87.44
257.056	87.44
257.289	76.44
257.521	84.44
257.754	75.44
257.987	62.44
258.22	67.44
258.452	92.44
258.685	81.44
258.918	67.44
259.151	81.44
259.383	81.44
259.616	84.44
259.849	76.44
260.081	78.44
260.314	70.44
260.547	84.44
260.779	72.44
261.012	66.44
261.244	77.44
261.477	87.44
261.71	101.44
261.942	106.44
262.175	97.44
262.407	82.44
262.64	84.44
262.872	74.44
263.105	72.44
263.337	93.44
263.57	79.44
263.802	82.44
264.035	84.44
264.267	82.44
264.499	78.44
264.732	92.44
264.964	87.44
265.197	65.44
265.429	74.44
265.661	69.44
265.894	80.44
266.126	84.44
266.358	88.44
266.591	77.44
266.823	86.44
267.055	74.44
267.287	95.44
267.52	81.44
267.752	81.44
267.984	74.44
268.216	80.44
268.448	78.44
268.681	88.44
268.913	71.44
269.145	82.44
269.377	88.44
269.609	85.44
269.841	71.44
270.073	77.44
270.306	89.44
270.538	92.44
270.77	79.44
271.002	63.44
271.234	92.44
271.466	70.44
271.698	77.44
271.93	85.44
272.162	80.44
272.394	78.44
272.626	88.44
272.858	86.44
273.09	84.44
273.322	82.44
273.553	86.44
273.785	83.44
274.017	61.44
274.249	86.44
274.481	93.44
274.713	97.44
274.945	85.44
275.176	78.44
275.408	85.44
275.64	69.44
275.872	73.44
276.104	84.44
276.335	101.44
276.567	96.44
276.799	92.44
277.031	90.44
277.262	89.44
277.494	84.44
277.726	79.44
277.957	88.44
278.189	98.44
278.421	86.44
278.652	78.44
278.884	85.44
279.115	79.44
279.347	83.44
279.579	80.44
279.81	80.44
280.042	82.44
280.273	86.44
280.505	88.44
280.736	80.44
280.968	72.44
281.199	96.44
281.431	87.44
281.662	83.44
281.894	87.44
282.125	87.44
282.356	115.44
282.588	119.44
282.819	115.44
283.051	82.44
283.282	92.44
283.513	64.44
283.745	90.44
283.976	88.44
284.207	78.44
284.439	86.44
284.67	96.44
284.901	89.44
285.132	85.44
285.364	81.44
285.595	82.44
285.826	80.44
286.057	82.44
286.288	77.44
286.52	88.44
286.751	74.44
286.982	88.44
287.213	69.44
287.444	100.44
287.675	73.44
287.906	89.44
288.138	78.44
288.369	100.44
288.6	89.44
288.831	79.44
289.062	89.44
289.293	81.44
289.524	87.44
289.755	72.44
289.986	81.44
290.217	81.44
290.448	85.44
290.679	100.44
290.91	92.44
291.141	86.44
291.371	72.44
291.602	91.44
291.833	83.44
292.064	91.44
292.295	92.44
292.526	87.44
292.757	83.44
292.987	84.44
293.218	86.44
293.449	80.44
293.68	81.44
293.91	86.44
294.141	92.44
294.372	72.44
294.603	85.44
294.833	86.44
295.064	92.44
295.295	82.44
295.525	91.44
295.756	90.44
295.987	107.44
296.217	124.44
296.448	113.44
296.679	94.44
296.909	79.44
297.14	94.44
297.37	92.44
297.601	92.44
297.831	70.44
298.062	83.44
298.292	86.44
298.523	87.44
298.753	96.44
298.984	94.44
299.214	96.44
299.445	76.44
299.675	80.44
299.905	89.44
300.136	79.44
300.366	90.44
300.597	94.44
300.827	81.44
301.057	104.44
301.288	96.44
301.518	101.44
301.748	85.44
301.979	94.44
302.209	81.44
302.439	93.44
302.669	82.44
302.9	76.44
303.13	99.44
303.36	86.44
303.59	83.44
303.82	83.44
304.051	96.44
304.281	98.44
304.511	93.44
304.741	77.44
304.971	73.44
305.201	99.44
305.431	86.44
305.661	82.44
305.891	77.44
306.121	89.44
306.352	96.44
306.582	87.44
306.812	97.44
307.042	72.44
307.272	80.44
307.502	80.44
307.731	93.44
307.961	84.44
308.191	86.44
308.421	96.44
308.651	87.44
308.881	92.44
309.111	95.44
309.341	105.44
309.571	105.44
309.8	89.44
310.03	86.44
310.26	90.44
310.49	101.44
310.72	95.44
310.949	92.44
311.179	106.44
311.409	85.44
311.639	94.44
311.868	82.44
312.098	79.44
312.328	81.44
312.557	90.44
312.787	96.44
313.017	107.44
313.246	97.44
313.476	84.44
313.706	86.44
313.935	80.44
314.165	88.44
314.394	81.44
314.624	96.44
314.853	102.44
315.083	96.44
315.312	94.44
315.542	85.44
315.771	81.44
316.001	98.44
316.23	86.44
316.46	101.44
316.689	81.44
316.919	99.44
317.148	92.44
317.377	92.44
317.607	85.44
317.836	80.44
318.065	78.44
318.295	93.44
318.524	90.44
318.753	89.44
318.983	88.44
319.212	101.44
319.441	97.44
319.67	113.44
319.9	76.44
320.129	92.44
320.358	94.44
320.587	104.44
320.816	104.44
321.046	91.44
321.275	85.44
321.504	87.44
321.733	104.44
321.962	81.44
322.191	84.44
322.42	91.44
322.649	91.44
322.878	112.44
323.108	117.44
323.337	118.44
323.566	118.44
323.795	134.44
324.024	153.44
324.253	351.44
324.482	711.44
324.71	1479.44
324.939	2002.44
325.168	738.44
325.397	224.44
325.626	148.44
325.855	125.44
326.084	120.44
326.313	116.44
326.542	135.44
326.77	209.44
326.999	414.44
327.228	862.44
327.457	1553.44
327.686	1258.44
327.914	338.44
328.143	179.44
328.372	126.44
328.6	103.44
328.829	101.44
329.058	122.44
329.287	105.44
329.515	108.44
329.744	92.44
329.972	100.44
330.201	104.44
330.43	112.44
330.658	105.44
330.887	111.44
331.115	109.44
331.344	85.44
331.572	110.44
331.801	98.44
332.03	97.44
332.258	83.44
332.486	81.44
332.715	87.44
332.943	94.44
333.172	93.44
333.4	106.44
333.629	110.44
333.857	102.44
334.085	101.44
334.314	87.44
334.542	92.44
334.771	82.44
334.999	92.44
335.227	80.44
335.455	92.44
335.684	103.44
335.912	95.44
336.14	94.44
336.369	72.44
336.597	101.44
336.825	78.44
337.053	88.44
337.281	95.44
337.51	102.44
337.738	87.44
337.966	84.44
338.194	88.44
338.422	88.44
338.65	92.44
338.878	93.44
339.106	86.44
339.334	89.44
339.562	103.44
339.79	77.44
340.018	87.44
340.246	90.44
340.474	98.44
340.702	105.44
340.93	88.44
341.158	92.44
341.386	99.44
341.614	88.44
341.842	85.44
342.07	85.44
342.298	68.44
342.526	77.44
342.754	88.44
342.981	90.44
343.209	86.44
343.437	97.44
343.665	89.44
343.893	76.44
344.12	87.44
344.348	91.44
344.576	85.44
344.804	98.44
345.031	86.44
345.259	87.44
345.487	90.44
345.714	85.44
345.942	81.44
346.17	103.44
346.397	100.44
346.625	85.44
346.853	89.44
347.08	89.44
347.308	96.44
347.535	97.44
347.763	105.44
347.99	96.44
348.218	92.44
348.445	100.44
348.673	85.44
348.9	90.44
349.128	110.44
349.355	85.44
349.583	102.44
349.81	85.44
350.037	100.44
350.265	80.44
350.492	92.44
350.72	99.44
350.947	107.44
351.174	89.44
351.402	99.44
351.629	103.44
351.856	89.44
352.083	107.44
352.311	112.44
352.538	98.44
352.765	111.44
352.992	117.44
353.22	110.44
353.447	106.44
353.674	117.44
353.901	105.44
354.128	81.44
354.355	94.44
354.583	71.44
354.81	86.44
355.037	81.44
355.264	83.44
355.491	85.44
355.718	92.44
355.945	94.44
356.172	83.44
356.399	94.44
356.626	100.44
356.853	89.44
357.08	90.44
357.307	98.44
357.534	95.44
357.761	86.44
357.988	101.44
358.215	84.44
358.441	86.44
358.668	89.44
358.895	95.44
359.122	91.44
359.349	86.44
359.576	91.44
359.802	87.44
360.029	97.44
360.256	95.44
360.483	102.44
360.709	88.44
360.936	88.44
361.163	85.44
361.39	97.44
361.616	98.44
361.843	85.44
362.07	95.44
362.296	81.44
362.523	101.44
362.749	88.44
362.976	98.44
363.203	72.44
363.429	79.44
363.656	88.44
363.882	89.44
364.109	77.44
364.335	81.44
364.562	102.44
364.788	77.44
365.015	96.44
365.241	92.44
365.468	101.44
365.694	89.44
365.92	90.44
366.147	89.44
366.373	78.44
366.599	89.44
366.826	95.44
367.052	78.44
367.278	78.44
367.505	80.44
367.731	73.44
367.957	84.44
368.184	87.44
368.41	96.44
368.636	92.44
368.862	104.44
369.089	103.44
369.315	92.44
369.541	94.44
369.767	88.44
369.993	82.44
370.219	84.44
370.445	97.44
370.672	91.44
370.898	101.44
371.124	90.44
371.35	78.44
371.576	87.44
371.802	87.44
372.028	87.44
372.254	73.44
372.48	88.44
372.706	97.44
372.932	94.44
373.158	83.44
373.384	99.44
373.61	79.44
373.835	89.44
374.061	83.44
374.287	88.44
374.513	93.44
374.739	94.44
374.965	80.44
375.191	86.44
375.416	98.44
375.642	77.44
375.868	84.44
376.094	70.44
376.319	82.44
376.545	66.44
376.771	78.44
376.997	94.44
377.222	87.44
377.448	97.44
377.674	94.44
377.899	91.44
378.125	75.44
378.35	77.44
378.576	82.44
378.802	91.44
379.027	91.44
379.253	77.44
379.478	90.44
379.704	81.44
379.929	91.44
380.155	89.44
380.38	103.44
380.606	76.44
380.831	101.44
381.057	110.44
381.282	84.44
381.507	87.44
381.733	97.44
381.958	90.44
382.184	97.44
382.409	103.44
382.634	84.44
382.86	104.44
383.085	94.44
383.31	106.44
383.535	87.44
383.761	109.44
383.986	89.44
384.211	88.44
384.436	92.44
384.662	88.44
384.887	116.44
385.112	100.44
385.337	99.44
385.562	103.44
385.787	104.44
386.013	112.44
386.238	92.44
386.463	92.44
386.688	102.44
386.913	93.44
387.138	82.44
387.363	92.44
387.588	73.44
387.813	97.44
388.038	106.44
388.263	99.44
388.488	95.44
388.713	98.44
388.938	102.44
389.163	82.44
389.387	96.44
389.612	100.44
389.837	91.44
390.062	96.44
390.287	100.44
390.512	85.44
390.736	88.44
390.961	95.44
391.186	99.44
391.411	81.44
391.636	100.44
391.86	78.44
392.085	84.44
392.31	70.44
392.534	79.44
392.759	90.44
392.984	90.44
393.208	87.44
393.433	98.44
393.658	98.44
393.882	81.44
394.107	67.44
394.331	102.44
394.556	73.44
394.78	97.44
395.005	78.44
395.229	92.44
395.454	94.44
395.678	92.44
395.903	80.44
396.127	84.44
396.352	99.44
396.576	84.44
396.801	81.44
397.025	84.44
397.249	79.44
397.474	78.44
397.698	82.44
397.922	88.44
398.147	67.44
398.371	86.44
398.595	86.44
398.82	85.44
399.044	83.44
399.268	74.44
399.492	80.44
399.717	84.44
399.941	86.44
400.165	84.44
400.389	96.44
400.613	93.44
400.837	93.44
401.062	83.44
401.286	87.44
401.51	90.44
401.734	95.44
401.958	87.44
402.182	119.44
402.406	141.44
402.63	106.44
402.854	98.44
403.078	92.44
403.302	87.44
403.526	86.44
403.75	81.44
403.974	84.44
404.198	79.44
404.422	101.44
404.645	86.44
404.869	86.44
405.093	84.44
405.317	94.44
405.541	108.44
405.765	91.44
405.988	99.44
406.212	158.44
406.436	214.44
406.66	128.44
406.883	98.44
407.107	77.44
407.331	94.44
407.555	90.44
407.778	102.44
408.002	85.44
408.226	75.44
408.449	87.44
408.673	96.44
408.896	86.44
409.12	92.44
409.344	82.44
409.567	81.44
409.791	89.44
410.014	99.44
410.238	96.44
410.461	94.44
410.685	95.44
410.908	104.44
411.132	95.44
411.355	96.44
411.578	80.44
411.802	85.44
412.025	89.44
412.249	92.44
412.472	78.44
412.695	98.44
412.919	91.44
413.142	86.44
413.365	94.44
413.589	88.44
413.812	94.44
414.035	92.44
414.258	90.44
414.482	93.44
414.705	95.44
414.928	96.44
415.151	105.44
415.374	92.44
415.597	86.44
415.821	73.44
416.044	82.44
416.267	74.44
416.49	85.44
416.713	96.44
416.936	90.44
417.159	94.44
417.382	94.44
417.605	91.44
417.828	90.44
418.051	103.44
418.274	84.44
418.497	92.44
418.72	104.44
418.943	98.44
419.166	87.44
419.389	84.44
419.611	95.44
419.834	73.44
420.057	82.44
420.28	78.44
420.503	77.44
420.726	83.44
420.948	96.44
421.171	87.44
421.394	98.44
421.617	88.44
421.839	83.44
422.062	94.44
422.285	90.44
422.507	102.44
422.73	94.44
422.953	91.44
423.175	92.44
423.398	75.44
423.621	92.44
423.843	65.44
424.066	79.44
424.288	84.44
424.511	85.44
424.733	88.44
424.956	104.44
425.178	98.44
425.401	100.44
425.623	93.44
425.846	79.44
426.068	98.44
426.291	93.44
426.513	83.44
426.735	92.44
426.958	98.44
427.18	92.44
427.402	129.44
427.625	140.44
427.847	120.44
428.069	101.44
428.292	80.44
428.514	82.44
428.736	95.44
428.958	93.44
429.181	85.44
429.403	85.44
429.625	84.44
429.847	83.44
430.069	92.44
430.292	89.44
430.514	94.44
430.736	88.44
430.958	86.44
431.18	69.44
431.402	77.44
431.624	82.44
431.846	97.44
432.068	65.44
432.29	92.44
432.512	86.44
432.734	85.44
432.956	88.44
433.178	94.44
433.4	94.44
433.622	87.44
433.844	92.44
434.066	86.44
434.287	98.44
434.509	87.44
434.731	86.44
434.953	96.44
435.175	89.44
435.397	100.44
435.618	96.44
435.84	94.44
436.062	97.44
436.284	129.44
436.505	101.44
436.727	93.44
436.949	104.44
437.17	85.44
437.392	80.44
437.614	76.44
437.835	98.44
438.057	104.44
438.278	99.44
438.5	94.44
438.721	114.44
438.943	100.44
439.165	103.44
439.386	84.44
439.608	93.44
439.829	98.44
440.05	107.44
440.272	119.44
440.493	90.44
440.715	78.44
440.936	76.44
441.158	91.44
441.379	80.44
441.6	100.44
441.822	85.44
442.043	94.44
442.264	104.44
442.486	97.44
442.707	79.44
442.928	110.44
443.149	113.44
443.371	128.44
443.592	97.44
443.813	109.44
444.034	99.44
444.255	89.44
444.476	88.44
444.698	86.44
444.919	87.44
445.14	120.44
445.361	106.44
445.582	105.44
445.803	134.44
446.024	109.44
446.245	122.44
446.466	102.44
446.687	93.44
446.908	78.44
447.129	90.44
447.35	88.44
447.571	83.44
447.792	89.44
448.013	81.44
448.234	106.44
448.455	105.44
448.675	120.44
448.896	120.44
449.117	88.44
449.338	104.44
449.559	126.44
449.779	126.44
450	102.44
450.221	90.44
450.442	84.44
450.662	82.44
450.883	108.44
451.104	95.44
451.324	100.44
451.545	87.44
451.766	96.44
451.986	93.44
452.207	85.44
452.428	86.44
452.648	90.44
452.869	93.44
453.089	83.44
453.31	115.44
453.53	80.44
453.751	90.44
453.971	106.44
454.192	89.44
454.412	77.44
454.633	88.44
454.853	70.44
455.073	76.44
455.294	81.44
455.514	80.44
455.734	84.44
455.955	97.44
456.175	78.44
456.395	77.44
456.616	99.44
456.836	68.44
457.056	73.44
457.276	85.44
457.497	79.44
457.717	74.44
457.937	91.44
458.157	91.44
458.377	76.44
458.598	93.44
458.818	134.44
459.038	156.44
459.258	105.44
459.478	83.44
459.698	88.44
459.918	82.44
460.138	82.44
460.358	78.44
460.578	77.44
460.798	77.44
461.018	77.44
461.238	98.44
461.458	94.44
461.678	82.44
461.898	70.44
462.118	76.44
462.338	84.44
462.558	89.44
462.777	69.44
462.997	78.44
463.217	78.44
463.437	102.44
463.657	86.44
463.876	89.44
464.096	83.44
464.316	81.44
464.536	76.44
464.755	103.44
464.975	87.44
465.195	136.44
465.414	137.44
465.634	92.44
465.854	95.44
466.073	86.44
466.293	87.44
466.512	82.44
466.732	70.44
466.951	70.44
467.171	88.44
467.391	81.44
467.61	92.44
467.829	95.44
468.049	103.44
468.268	87.44
468.488	87.44
468.707	69.44
468.927	73.44
469.146	85.44
469.365	81.44
469.585	87.44
469.804	112.44
470.023	97.44
470.243	83.44
470.462	99.44
470.681	97.44
470.901	82.44
471.12	67.44
471.339	90.44
471.558	93.44
471.777	76.44
471.997	84.44
472.216	87.44
472.435	73.44
472.654	83.44
472.873	88.44
473.092	95.44
473.311	94.44
473.53	88.44
473.749	77.44
473.968	92.44
474.187	95.44
474.406	91.44
474.625	90.44
474.844	86.44
475.063	74.44
475.282	82.44
475.501	82.44
475.72	87.44
475.939	87.44
476.158	94.44
476.377	80.44
476.596	83.44
476.814	73.44
477.033	86.44
477.252	92.44
477.471	78.44
477.69	76.44
477.908	78.44
478.127	79.44
478.346	84.44
478.564	80.44
478.783	93.44
479.002	94.44
479.22	89.44
479.439	96.44
479.658	105.44
479.876	81.44
480.095	82.44
480.313	97.44
480.532	83.44
480.751	88.44
480.969	101.44
481.188	109.44
481.406	99.44
481.624	94.44
481.843	90.44
482.061	89.44
482.28	89.44
482.498	82.44
482.717	96.44
482.935	87.44
483.153	84.44
483.372	102.44
483.59	100.44
483.808	105.44
484.027	88.44
484.245	76.44
484.463	80.44
484.681	106.44
484.9	85.44
485.118	102.44
485.336	95.44
485.554	102.44
485.772	95.44
485.99	94.44
486.209	98.44
486.427	101.44
486.645	105.44
486.863	108.44
487.081	72.44
487.299	102.44
487.517	94.44
487.735	83.44
487.953	101.44
488.171	90.44
488.389	95.44
488.607	98.44
488.825	87.44
489.043	85.44
489.261	81.44
489.479	89.44
489.696	78.44
489.914	90.44
490.132	97.44
490.35	78.44
490.568	95.44
490.786	90.44
491.003	94.44
491.221	85.44
491.439	97.44
491.657	94.44
491.874	86.44
492.092	87.44
492.31	88.44
492.527	80.44
492.745	89.44
492.963	90.44
493.18	84.44
493.398	102.44
493.615	82.44
493.833	86.44
494.05	81.44
494.268	104.44
494.485	90.44
494.703	84.44
494.92	106.44
495.138	103.44
495.355	90.44
495.573	89.44
495.79	93.44
496.008	95.44
496.225	81.44
496.442	98.44
496.66	86.44
496.877	78.44
497.094	93.44
497.312	78.44
497.529	94.44
497.746	83.44
497.963	87.44
498.181	94.44
498.398	95.44
498.615	100.44
498.832	102.44
499.049	87.44
499.267	89.44
499.484	84.44
499.701	94.44
499.918	80.44
500.135	96.44
500.352	76.44
500.569	107.44
500.786	80.44
501.003	82.44
501.22	86.44
501.437	79.44
501.654	91.44
501.871	98.44
502.088	83.44
502.305	97.44
502.522	85.44
502.739	81.44
502.956	91.44
503.172	89.44
503.389	89.44
503.606	93.44
503.823	90.44
504.04	89.44
504.256	82.44
504.473	93.44
504.69	97.44
504.907	86.44
505.123	74.44
505.34	91.44
505.557	77.44
505.773	80.44
505.99	92.44
506.207	82.44
506.423	83.44
506.64	88.44
506.856	84.44
507.073	84.44
507.289	98.44
507.506	100.44
507.722	101.44
507.939	102.44
508.155	102.44
508.372	90.44
508.588	89.44
508.805	96.44
509.021	86.44
509.238	90.44
509.454	100.44
509.67	100.44
509.887	105.44
510.103	122.44
510.319	192.44
510.536	674.44
510.752	2101.44
510.968	577.44
511.184	137.44
511.401	116.44
511.617	98.44
511.833	96.44
512.049	80.44
512.265	95.44
512.481	104.44
512.698	93.44
512.914	96.44
513.13	81.44
513.346	94.44
513.562	87.44
513.778	80.44
513.994	99.44
514.21	94.44
514.426	118.44
514.642	122.44
514.858	120.44
515.074	155.44
515.29	389.44
515.506	1204.44
515.721	459.44
515.937	140.44
516.153	116.44
516.369	96.44
516.585	86.44
516.801	88.44
