Data from Uncirc_1984_H10_HRD10591_00064.txt Node
Date: Wed Jan 03 12:21:50 EST 2024
User: Yrep
Spectrometer: HR+D1059
Trigger mode: 1
Integration Time (sec): 1.000000E-1
Scans to average: 1
Electric dark correction enabled: true
Nonlinearity correction enabled: false
Boxcar width: 0
XAxis mode: Wavelengths
Number of Pixels in Spectrum: 2048
>>>>>Begin Spectral Data<<<<<
223.165	-12.44
223.4	-12.44
223.635	-12.44
223.869	-29.44
224.104	-14.44
224.338	-24.44
224.573	-22.44
224.808	-16.44
225.042	-3.44
225.277	5.56
225.511	9.56
225.746	9.56
225.98	12.56
226.215	-3.44
226.449	21.56
226.683	23.56
226.918	21.56
227.152	22.56
227.387	26.56
227.621	39.56
227.856	55.56
228.09	46.56
228.324	52.56
228.559	56.56
228.793	43.56
229.027	70.56
229.262	67.56
229.496	66.56
229.73	86.56
229.964	99.56
230.199	86.56
230.433	89.56
230.667	69.56
230.901	96.56
231.136	71.56
231.37	77.56
231.604	89.56
231.838	97.56
232.072	78.56
232.306	95.56
232.541	83.56
232.775	71.56
233.009	61.56
233.243	83.56
233.477	85.56
233.711	68.56
233.945	87.56
234.179	76.56
234.413	68.56
234.647	83.56
234.881	83.56
235.115	74.56
235.349	74.56
235.583	81.56
235.817	85.56
236.051	66.56
236.285	77.56
236.519	82.56
236.753	77.56
236.987	82.56
237.221	77.56
237.455	85.56
237.689	81.56
237.922	70.56
238.156	73.56
238.39	79.56
238.624	76.56
238.858	64.56
239.091	72.56
239.325	77.56
239.559	76.56
239.793	73.56
240.027	71.56
240.26	77.56
240.494	84.56
240.728	71.56
240.961	77.56
241.195	74.56
241.429	89.56
241.662	85.56
241.896	64.56
242.13	83.56
242.363	65.56
242.597	77.56
242.83	81.56
243.064	77.56
243.298	87.56
243.531	74.56
243.765	87.56
243.998	77.56
244.232	79.56
244.465	79.56
244.699	91.56
244.932	74.56
245.166	70.56
245.399	65.56
245.633	95.56
245.866	84.56
246.099	89.56
246.333	89.56
246.566	78.56
246.8	77.56
247.033	71.56
247.266	91.56
247.5	72.56
247.733	72.56
247.966	74.56
248.2	84.56
248.433	79.56
248.666	87.56
248.899	70.56
249.133	84.56
249.366	103.56
249.599	94.56
249.832	81.56
250.066	79.56
250.299	78.56
250.532	75.56
250.765	70.56
250.998	75.56
251.231	87.56
251.465	84.56
251.698	70.56
251.931	87.56
252.164	74.56
252.397	81.56
252.63	83.56
252.863	86.56
253.096	75.56
253.329	89.56
253.562	71.56
253.795	82.56
254.028	79.56
254.261	79.56
254.494	95.56
254.727	73.56
254.96	72.56
255.193	73.56
255.426	77.56
255.659	82.56
255.892	95.56
256.124	79.56
256.357	78.56
256.59	81.56
256.823	67.56
257.056	88.56
257.289	81.56
257.521	92.56
257.754	68.56
257.987	88.56
258.22	86.56
258.452	76.56
258.685	68.56
258.918	79.56
259.151	81.56
259.383	85.56
259.616	75.56
259.849	85.56
260.081	79.56
260.314	89.56
260.547	86.56
260.779	74.56
261.012	77.56
261.244	73.56
261.477	83.56
261.71	88.56
261.942	99.56
262.175	105.56
262.407	104.56
262.64	69.56
262.872	70.56
263.105	73.56
263.337	84.56
263.57	88.56
263.802	78.56
264.035	82.56
264.267	89.56
264.499	92.56
264.732	73.56
264.964	77.56
265.197	86.56
265.429	70.56
265.661	76.56
265.894	75.56
266.126	74.56
266.358	86.56
266.591	87.56
266.823	72.56
267.055	88.56
267.287	82.56
267.52	97.56
267.752	80.56
267.984	85.56
268.216	67.56
268.448	88.56
268.681	79.56
268.913	79.56
269.145	95.56
269.377	86.56
269.609	70.56
269.841	79.56
270.073	93.56
270.306	70.56
270.538	87.56
270.77	92.56
271.002	89.56
271.234	91.56
271.466	97.56
271.698	92.56
271.93	97.56
272.162	95.56
272.394	95.56
272.626	83.56
272.858	95.56
273.09	88.56
273.322	79.56
273.553	88.56
273.785	81.56
274.017	93.56
274.249	88.56
274.481	83.56
274.713	85.56
274.945	82.56
275.176	71.56
275.408	87.56
275.64	81.56
275.872	85.56
276.104	86.56
276.335	98.56
276.567	95.56
276.799	86.56
277.031	95.56
277.262	93.56
277.494	84.56
277.726	89.56
277.957	73.56
278.189	85.56
278.421	79.56
278.652	86.56
278.884	89.56
279.115	75.56
279.347	91.56
279.579	83.56
279.81	84.56
280.042	81.56
280.273	89.56
280.505	72.56
280.736	80.56
280.968	81.56
281.199	75.56
281.431	81.56
281.662	84.56
281.894	80.56
282.125	90.56
282.356	105.56
282.588	114.56
282.819	125.56
283.051	81.56
283.282	100.56
283.513	94.56
283.745	88.56
283.976	78.56
284.207	87.56
284.439	87.56
284.67	81.56
284.901	87.56
285.132	86.56
285.364	79.56
285.595	89.56
285.826	90.56
286.057	99.56
286.288	77.56
286.52	93.56
286.751	56.56
286.982	82.56
287.213	82.56
287.444	91.56
287.675	79.56
287.906	97.56
288.138	84.56
288.369	86.56
288.6	84.56
288.831	80.56
289.062	89.56
289.293	85.56
289.524	90.56
289.755	86.56
289.986	88.56
290.217	100.56
290.448	86.56
290.679	106.56
290.91	92.56
291.141	85.56
291.371	90.56
291.602	84.56
291.833	84.56
292.064	91.56
292.295	82.56
292.526	90.56
292.757	86.56
292.987	89.56
293.218	79.56
293.449	91.56
293.68	98.56
293.91	97.56
294.141	102.56
294.372	92.56
294.603	73.56
294.833	72.56
295.064	84.56
295.295	86.56
295.525	98.56
295.756	105.56
295.987	116.56
296.217	125.56
296.448	124.56
296.679	86.56
296.909	74.56
297.14	82.56
297.37	93.56
297.601	86.56
297.831	87.56
298.062	103.56
298.292	101.56
298.523	91.56
298.753	99.56
298.984	85.56
299.214	85.56
299.445	100.56
299.675	102.56
299.905	72.56
300.136	95.56
300.366	93.56
300.597	92.56
300.827	86.56
301.057	104.56
301.288	106.56
301.518	101.56
301.748	98.56
301.979	96.56
302.209	84.56
302.439	96.56
302.669	94.56
302.9	97.56
303.13	89.56
303.36	100.56
303.59	95.56
303.82	103.56
304.051	75.56
304.281	86.56
304.511	87.56
304.741	83.56
304.971	84.56
305.201	93.56
305.431	89.56
305.661	96.56
305.891	103.56
306.121	95.56
306.352	86.56
306.582	112.56
306.812	80.56
307.042	76.56
307.272	82.56
307.502	99.56
307.731	87.56
307.961	89.56
308.191	84.56
308.421	82.56
308.651	86.56
308.881	94.56
309.111	110.56
309.341	101.56
309.571	98.56
309.8	92.56
310.03	95.56
310.26	104.56
310.49	90.56
310.72	99.56
310.949	93.56
311.179	95.56
311.409	90.56
311.639	81.56
311.868	85.56
312.098	97.56
312.328	90.56
312.557	93.56
312.787	95.56
313.017	113.56
313.246	88.56
313.476	97.56
313.706	97.56
313.935	74.56
314.165	98.56
314.394	104.56
314.624	97.56
314.853	93.56
315.083	99.56
315.312	98.56
315.542	89.56
315.771	81.56
316.001	71.56
316.23	85.56
316.46	87.56
316.689	96.56
316.919	85.56
317.148	90.56
317.377	99.56
317.607	96.56
317.836	99.56
318.065	101.56
318.295	96.56
318.524	83.56
318.753	103.56
318.983	86.56
319.212	85.56
319.441	99.56
319.67	94.56
319.9	95.56
320.129	77.56
320.358	88.56
320.587	93.56
320.816	83.56
321.046	95.56
321.275	101.56
321.504	102.56
321.733	97.56
321.962	89.56
322.191	95.56
322.42	102.56
322.649	96.56
322.878	93.56
323.108	107.56
323.337	105.56
323.566	125.56
323.795	130.56
324.024	188.56
324.253	335.56
324.482	758.56
324.71	1577.56
324.939	2091.56
325.168	782.56
325.397	257.56
325.626	143.56
325.855	127.56
326.084	122.56
326.313	113.56
326.542	144.56
326.77	205.56
326.999	443.56
327.228	879.56
327.457	1635.56
327.686	1291.56
327.914	360.56
328.143	186.56
328.372	135.56
328.6	109.56
328.829	112.56
329.058	107.56
329.287	112.56
329.515	102.56
329.744	99.56
329.972	97.56
330.201	101.56
330.43	105.56
330.658	115.56
330.887	134.56
331.115	116.56
331.344	98.56
331.572	92.56
331.801	97.56
332.03	96.56
332.258	104.56
332.486	105.56
332.715	89.56
332.943	91.56
333.172	96.56
333.4	93.56
333.629	88.56
333.857	111.56
334.085	90.56
334.314	104.56
334.542	103.56
334.771	97.56
334.999	90.56
335.227	91.56
335.455	99.56
335.684	86.56
335.912	100.56
336.14	92.56
336.369	87.56
336.597	88.56
336.825	103.56
337.053	96.56
337.281	82.56
337.51	93.56
337.738	97.56
337.966	81.56
338.194	96.56
338.422	90.56
338.65	80.56
338.878	84.56
339.106	84.56
339.334	86.56
339.562	84.56
339.79	95.56
340.018	97.56
340.246	95.56
340.474	102.56
340.702	93.56
340.93	93.56
341.158	89.56
341.386	81.56
341.614	89.56
341.842	113.56
342.07	84.56
342.298	87.56
342.526	87.56
342.754	112.56
342.981	96.56
343.209	85.56
343.437	95.56
343.665	84.56
343.893	74.56
344.12	85.56
344.348	81.56
344.576	101.56
344.804	93.56
345.031	87.56
345.259	91.56
345.487	82.56
345.714	98.56
345.942	105.56
346.17	92.56
346.397	90.56
346.625	80.56
346.853	88.56
347.08	91.56
347.308	96.56
347.535	91.56
347.763	107.56
347.99	92.56
348.218	100.56
348.445	95.56
348.673	100.56
348.9	83.56
349.128	91.56
349.355	98.56
349.583	107.56
349.81	94.56
350.037	97.56
350.265	98.56
350.492	89.56
350.72	96.56
350.947	93.56
351.174	107.56
351.402	95.56
351.629	104.56
351.856	90.56
352.083	113.56
352.311	100.56
352.538	97.56
352.765	108.56
352.992	104.56
353.22	106.56
353.447	101.56
353.674	92.56
353.901	81.56
354.128	89.56
354.355	102.56
354.583	93.56
354.81	99.56
355.037	103.56
355.264	89.56
355.491	80.56
355.718	94.56
355.945	87.56
356.172	94.56
356.399	98.56
356.626	72.56
356.853	90.56
357.08	98.56
357.307	88.56
357.534	88.56
357.761	99.56
357.988	99.56
358.215	93.56
358.441	98.56
358.668	80.56
358.895	104.56
359.122	93.56
359.349	86.56
359.576	93.56
359.802	104.56
360.029	110.56
360.256	104.56
360.483	93.56
360.709	90.56
360.936	87.56
361.163	97.56
361.39	88.56
361.616	85.56
361.843	100.56
362.07	88.56
362.296	90.56
362.523	85.56
362.749	96.56
362.976	101.56
363.203	97.56
363.429	92.56
363.656	83.56
363.882	88.56
364.109	85.56
364.335	87.56
364.562	91.56
364.788	96.56
365.015	87.56
365.241	97.56
365.468	109.56
365.694	104.56
365.92	79.56
366.147	82.56
366.373	65.56
366.599	73.56
366.826	83.56
367.052	82.56
367.278	84.56
367.505	90.56
367.731	83.56
367.957	90.56
368.184	75.56
368.41	80.56
368.636	95.56
368.862	111.56
369.089	99.56
369.315	99.56
369.541	89.56
369.767	89.56
369.993	85.56
370.219	80.56
370.445	84.56
370.672	102.56
370.898	93.56
371.124	93.56
371.35	84.56
371.576	105.56
371.802	88.56
372.028	90.56
372.254	97.56
372.48	83.56
372.706	75.56
372.932	80.56
373.158	85.56
373.384	94.56
373.61	95.56
373.835	89.56
374.061	82.56
374.287	90.56
374.513	90.56
374.739	74.56
374.965	81.56
375.191	87.56
375.416	86.56
375.642	100.56
375.868	82.56
376.094	93.56
376.319	96.56
376.545	82.56
376.771	87.56
376.997	93.56
377.222	99.56
377.448	102.56
377.674	84.56
377.899	89.56
378.125	73.56
378.35	100.56
378.576	81.56
378.802	95.56
379.027	72.56
379.253	102.56
379.478	87.56
379.704	87.56
379.929	91.56
380.155	82.56
380.38	90.56
380.606	95.56
380.831	88.56
381.057	96.56
381.282	104.56
381.507	98.56
381.733	89.56
381.958	86.56
382.184	86.56
382.409	84.56
382.634	83.56
382.86	92.56
383.085	100.56
383.31	104.56
383.535	103.56
383.761	106.56
383.986	90.56
384.211	83.56
384.436	95.56
384.662	90.56
384.887	99.56
385.112	99.56
385.337	103.56
385.562	90.56
385.787	105.56
386.013	110.56
386.238	104.56
386.463	93.56
386.688	102.56
386.913	96.56
387.138	111.56
387.363	101.56
387.588	92.56
387.813	102.56
388.038	100.56
388.263	97.56
388.488	102.56
388.713	98.56
388.938	95.56
389.163	104.56
389.387	85.56
389.612	84.56
389.837	105.56
390.062	87.56
390.287	95.56
390.512	91.56
390.736	69.56
390.961	90.56
391.186	85.56
391.411	98.56
391.636	99.56
391.86	81.56
392.085	77.56
392.31	74.56
392.534	84.56
392.759	64.56
392.984	90.56
393.208	101.56
393.433	102.56
393.658	94.56
393.882	92.56
394.107	88.56
394.331	73.56
394.556	93.56
394.78	80.56
395.005	81.56
395.229	79.56
395.454	95.56
395.678	99.56
395.903	98.56
396.127	86.56
396.352	73.56
396.576	77.56
396.801	84.56
397.025	78.56
397.249	87.56
397.474	89.56
397.698	80.56
397.922	81.56
398.147	83.56
398.371	75.56
398.595	105.56
398.82	91.56
399.044	90.56
399.268	70.56
399.492	91.56
399.717	93.56
399.941	87.56
400.165	84.56
400.389	89.56
400.613	94.56
400.837	90.56
401.062	79.56
401.286	87.56
401.51	98.56
401.734	90.56
401.958	97.56
402.182	121.56
402.406	161.56
402.63	115.56
402.854	98.56
403.078	89.56
403.302	87.56
403.526	94.56
403.75	89.56
403.974	73.56
404.198	66.56
404.422	79.56
404.645	85.56
404.869	93.56
405.093	100.56
405.317	83.56
405.541	102.56
405.765	90.56
405.988	110.56
406.212	163.56
406.436	200.56
406.66	134.56
406.883	106.56
407.107	108.56
407.331	88.56
407.555	84.56
407.778	93.56
408.002	94.56
408.226	89.56
408.449	105.56
408.673	83.56
408.896	96.56
409.12	91.56
409.344	101.56
409.567	81.56
409.791	78.56
410.014	83.56
410.238	93.56
410.461	95.56
410.685	96.56
410.908	81.56
411.132	103.56
411.355	94.56
411.578	89.56
411.802	88.56
412.025	87.56
412.249	85.56
412.472	86.56
412.695	86.56
412.919	102.56
413.142	97.56
413.365	83.56
413.589	87.56
413.812	82.56
414.035	79.56
414.258	91.56
414.482	96.56
414.705	86.56
414.928	95.56
415.151	86.56
415.374	84.56
415.597	101.56
415.821	82.56
416.044	87.56
416.267	72.56
416.49	84.56
416.713	73.56
416.936	83.56
417.159	93.56
417.382	85.56
417.605	87.56
417.828	86.56
418.051	85.56
418.274	95.56
418.497	88.56
418.72	77.56
418.943	89.56
419.166	92.56
419.389	99.56
419.611	85.56
419.834	101.56
420.057	92.56
420.28	87.56
420.503	91.56
420.726	96.56
420.948	90.56
421.171	104.56
421.394	78.56
421.617	107.56
421.839	86.56
422.062	89.56
422.285	94.56
422.507	96.56
422.73	95.56
422.953	86.56
423.175	78.56
423.398	91.56
423.621	106.56
423.843	88.56
424.066	87.56
424.288	88.56
424.511	97.56
424.733	97.56
424.956	101.56
425.178	91.56
425.401	95.56
425.623	94.56
425.846	82.56
426.068	87.56
426.291	84.56
426.513	94.56
426.735	81.56
426.958	81.56
427.18	99.56
427.402	134.56
427.625	145.56
427.847	113.56
428.069	105.56
428.292	93.56
428.514	79.56
428.736	58.56
428.958	84.56
429.181	83.56
429.403	81.56
429.625	89.56
429.847	86.56
430.069	106.56
430.292	86.56
430.514	98.56
430.736	88.56
430.958	95.56
431.18	89.56
431.402	82.56
431.624	107.56
431.846	93.56
432.068	74.56
432.29	87.56
432.512	92.56
432.734	93.56
432.956	102.56
433.178	98.56
433.4	103.56
433.622	82.56
433.844	94.56
434.066	81.56
434.287	90.56
434.509	94.56
434.731	93.56
434.953	89.56
435.175	95.56
435.397	85.56
435.618	90.56
435.84	98.56
436.062	119.56
436.284	108.56
436.505	103.56
436.727	98.56
436.949	87.56
437.17	102.56
437.392	94.56
437.614	74.56
437.835	117.56
438.057	111.56
438.278	104.56
438.5	99.56
438.721	126.56
438.943	96.56
439.165	88.56
439.386	89.56
439.608	93.56
439.829	91.56
440.05	115.56
440.272	127.56
440.493	103.56
440.715	97.56
440.936	83.56
441.158	95.56
441.379	100.56
441.6	83.56
441.822	98.56
442.043	86.56
442.264	89.56
442.486	99.56
442.707	73.56
442.928	94.56
443.149	125.56
443.371	123.56
443.592	102.56
443.813	97.56
444.034	100.56
444.255	86.56
444.476	91.56
444.698	93.56
444.919	78.56
445.14	131.56
445.361	123.56
445.582	108.56
445.803	122.56
446.024	132.56
446.245	121.56
446.466	123.56
446.687	89.56
446.908	73.56
447.129	77.56
447.35	100.56
447.571	92.56
447.792	105.56
448.013	90.56
448.234	86.56
448.455	106.56
448.675	118.56
448.896	113.56
449.117	113.56
449.338	97.56
449.559	105.56
449.779	111.56
450	89.56
450.221	95.56
450.442	92.56
450.662	86.56
450.883	110.56
451.104	99.56
451.324	89.56
451.545	97.56
451.766	83.56
451.986	99.56
452.207	91.56
452.428	84.56
452.648	89.56
452.869	111.56
453.089	110.56
453.31	96.56
453.53	82.56
453.751	88.56
453.971	97.56
454.192	114.56
454.412	95.56
454.633	91.56
454.853	83.56
455.073	73.56
455.294	102.56
455.514	98.56
455.734	90.56
455.955	93.56
456.175	98.56
456.395	82.56
456.616	70.56
456.836	88.56
457.056	82.56
457.276	94.56
457.497	82.56
457.717	84.56
457.937	66.56
458.157	99.56
458.377	87.56
458.598	104.56
458.818	126.56
459.038	150.56
459.258	116.56
459.478	99.56
459.698	85.56
459.918	90.56
460.138	90.56
460.358	94.56
460.578	95.56
460.798	97.56
461.018	83.56
461.238	103.56
461.458	84.56
461.678	93.56
461.898	81.56
462.118	98.56
462.338	86.56
462.558	83.56
462.777	85.56
462.997	81.56
463.217	86.56
463.437	88.56
463.657	97.56
463.876	90.56
464.096	109.56
464.316	88.56
464.536	89.56
464.755	93.56
464.975	114.56
465.195	149.56
465.414	136.56
465.634	83.56
465.854	85.56
466.073	87.56
466.293	90.56
466.512	83.56
466.732	77.56
466.951	83.56
467.171	88.56
467.391	90.56
467.61	102.56
467.829	98.56
468.049	98.56
468.268	82.56
468.488	85.56
468.707	92.56
468.927	82.56
469.146	87.56
469.365	74.56
469.585	84.56
469.804	97.56
470.023	97.56
470.243	80.56
470.462	83.56
470.681	102.56
470.901	91.56
471.12	103.56
471.339	85.56
471.558	91.56
471.777	78.56
471.997	81.56
472.216	93.56
472.435	87.56
472.654	94.56
472.873	81.56
473.092	101.56
473.311	94.56
473.53	87.56
473.749	85.56
473.968	102.56
474.187	101.56
474.406	83.56
474.625	82.56
474.844	99.56
475.063	83.56
475.282	87.56
475.501	83.56
475.72	86.56
475.939	94.56
476.158	82.56
476.377	81.56
476.596	81.56
476.814	93.56
477.033	101.56
477.252	97.56
477.471	93.56
477.69	75.56
477.908	83.56
478.127	83.56
478.346	64.56
478.564	93.56
478.783	93.56
479.002	90.56
479.22	87.56
479.439	99.56
479.658	101.56
479.876	87.56
480.095	98.56
480.313	90.56
480.532	89.56
480.751	95.56
480.969	89.56
481.188	110.56
481.406	100.56
481.624	89.56
481.843	90.56
482.061	81.56
482.28	88.56
482.498	86.56
482.717	89.56
482.935	100.56
483.153	90.56
483.372	83.56
483.59	100.56
483.808	93.56
484.027	85.56
484.245	91.56
484.463	82.56
484.681	100.56
484.9	86.56
485.118	89.56
485.336	96.56
485.554	100.56
485.772	90.56
485.99	87.56
486.209	115.56
486.427	97.56
486.645	99.56
486.863	109.56
487.081	111.56
487.299	97.56
487.517	89.56
487.735	88.56
487.953	80.56
488.171	94.56
488.389	104.56
488.607	95.56
488.825	101.56
489.043	97.56
489.261	85.56
489.479	83.56
489.696	81.56
489.914	97.56
490.132	98.56
490.35	80.56
490.568	83.56
490.786	85.56
491.003	102.56
491.221	94.56
491.439	91.56
491.657	92.56
491.874	79.56
492.092	88.56
492.31	84.56
492.527	80.56
492.745	73.56
492.963	87.56
493.18	87.56
493.398	103.56
493.615	99.56
493.833	101.56
494.05	89.56
494.268	87.56
494.485	111.56
494.703	91.56
494.92	103.56
495.138	106.56
495.355	81.56
495.573	95.56
495.79	87.56
496.008	89.56
496.225	90.56
496.442	98.56
496.66	95.56
496.877	90.56
497.094	103.56
497.312	105.56
497.529	85.56
497.746	89.56
497.963	92.56
498.181	96.56
498.398	87.56
498.615	99.56
498.832	100.56
499.049	105.56
499.267	89.56
499.484	88.56
499.701	80.56
499.918	90.56
500.135	89.56
500.352	92.56
500.569	83.56
500.786	86.56
501.003	93.56
501.22	82.56
501.437	89.56
501.654	94.56
501.871	95.56
502.088	95.56
502.305	94.56
502.522	100.56
502.739	91.56
502.956	92.56
503.172	90.56
503.389	102.56
503.606	87.56
503.823	86.56
504.04	85.56
504.256	102.56
504.473	105.56
504.69	81.56
504.907	91.56
505.123	87.56
505.34	90.56
505.557	91.56
505.773	85.56
505.99	78.56
506.207	88.56
506.423	83.56
506.64	108.56
506.856	82.56
507.073	89.56
507.289	81.56
507.506	82.56
507.722	118.56
507.939	117.56
508.155	81.56
508.372	103.56
508.588	98.56
508.805	83.56
509.021	106.56
509.238	94.56
509.454	104.56
509.67	111.56
509.887	107.56
510.103	112.56
510.319	192.56
510.536	715.56
510.752	2262.56
510.968	637.56
511.184	145.56
511.401	109.56
511.617	106.56
511.833	101.56
512.049	90.56
512.265	95.56
512.481	87.56
512.698	93.56
512.914	91.56
513.13	70.56
513.346	70.56
513.562	101.56
513.778	85.56
513.994	91.56
514.21	96.56
514.426	101.56
514.642	119.56
514.858	124.56
515.074	147.56
515.29	390.56
515.506	1339.56
515.721	489.56
515.937	138.56
516.153	110.56
516.369	102.56
