Data from Uncirc_1984_H10_HRD10591_00011.txt Node
Date: Wed Jan 03 12:21:39 EST 2024
User: Yrep
Spectrometer: HR+D1059
Trigger mode: 1
Integration Time (sec): 1.000000E-1
Scans to average: 1
Electric dark correction enabled: true
Nonlinearity correction enabled: false
Boxcar width: 0
XAxis mode: Wavelengths
Number of Pixels in Spectrum: 2048
>>>>>Begin Spectral Data<<<<<
223.165	-13.75
223.4	-13.75
223.635	-13.75
223.869	-27.75
224.104	-28.75
224.338	-22.75
224.573	-1.75
224.808	-8.75
225.042	-14.75
225.277	0.25
225.511	5.25
225.746	-1.75
225.98	0.25
226.215	13.25
226.449	11.25
226.683	26.25
226.918	33.25
227.152	30.25
227.387	34.25
227.621	29.25
227.856	49.25
228.09	41.25
228.324	62.25
228.559	60.25
228.793	55.25
229.027	64.25
229.262	64.25
229.496	60.25
229.73	82.25
229.964	93.25
230.199	73.25
230.433	85.25
230.667	81.25
230.901	86.25
231.136	85.25
231.37	84.25
231.604	84.25
231.838	79.25
232.072	77.25
232.306	75.25
232.541	78.25
232.775	81.25
233.009	78.25
233.243	72.25
233.477	74.25
233.711	88.25
233.945	88.25
234.179	88.25
234.413	78.25
234.647	83.25
234.881	95.25
235.115	76.25
235.349	91.25
235.583	86.25
235.817	86.25
236.051	80.25
236.285	72.25
236.519	84.25
236.753	77.25
236.987	79.25
237.221	84.25
237.455	91.25
237.689	83.25
237.922	84.25
238.156	76.25
238.39	82.25
238.624	87.25
238.858	67.25
239.091	83.25
239.325	68.25
239.559	72.25
239.793	70.25
240.027	74.25
240.26	72.25
240.494	76.25
240.728	82.25
240.961	65.25
241.195	92.25
241.429	85.25
241.662	75.25
241.896	80.25
242.13	73.25
242.363	82.25
242.597	76.25
242.83	69.25
243.064	92.25
243.298	75.25
243.531	77.25
243.765	74.25
243.998	88.25
244.232	77.25
244.465	96.25
244.699	81.25
244.932	76.25
245.166	71.25
245.399	83.25
245.633	98.25
245.866	84.25
246.099	89.25
246.333	85.25
246.566	60.25
246.8	84.25
247.033	90.25
247.266	87.25
247.5	78.25
247.733	92.25
247.966	87.25
248.2	83.25
248.433	90.25
248.666	83.25
248.899	71.25
249.133	77.25
249.366	74.25
249.599	91.25
249.832	86.25
250.066	64.25
250.299	86.25
250.532	97.25
250.765	75.25
250.998	92.25
251.231	82.25
251.465	82.25
251.698	86.25
251.931	73.25
252.164	76.25
252.397	92.25
252.63	82.25
252.863	89.25
253.096	100.25
253.329	59.25
253.562	82.25
253.795	90.25
254.028	94.25
254.261	85.25
254.494	76.25
254.727	90.25
254.96	80.25
255.193	87.25
255.426	91.25
255.659	66.25
255.892	84.25
256.124	86.25
256.357	88.25
256.59	72.25
256.823	80.25
257.056	78.25
257.289	90.25
257.521	89.25
257.754	77.25
257.987	85.25
258.22	86.25
258.452	98.25
258.685	95.25
258.918	85.25
259.151	85.25
259.383	81.25
259.616	88.25
259.849	86.25
260.081	66.25
260.314	87.25
260.547	94.25
260.779	75.25
261.012	90.25
261.244	91.25
261.477	94.25
261.71	98.25
261.942	100.25
262.175	100.25
262.407	93.25
262.64	99.25
262.872	92.25
263.105	96.25
263.337	70.25
263.57	84.25
263.802	86.25
264.035	80.25
264.267	88.25
264.499	68.25
264.732	89.25
264.964	72.25
265.197	90.25
265.429	90.25
265.661	86.25
265.894	80.25
266.126	96.25
266.358	91.25
266.591	90.25
266.823	93.25
267.055	66.25
267.287	87.25
267.52	89.25
267.752	98.25
267.984	83.25
268.216	85.25
268.448	75.25
268.681	88.25
268.913	88.25
269.145	81.25
269.377	78.25
269.609	85.25
269.841	80.25
270.073	92.25
270.306	87.25
270.538	75.25
270.77	84.25
271.002	86.25
271.234	74.25
271.466	94.25
271.698	92.25
271.93	91.25
272.162	77.25
272.394	88.25
272.626	79.25
272.858	81.25
273.09	77.25
273.322	74.25
273.553	76.25
273.785	82.25
274.017	92.25
274.249	86.25
274.481	73.25
274.713	88.25
274.945	83.25
275.176	81.25
275.408	86.25
275.64	107.25
275.872	80.25
276.104	76.25
276.335	96.25
276.567	92.25
276.799	93.25
277.031	84.25
277.262	97.25
277.494	84.25
277.726	77.25
277.957	82.25
278.189	91.25
278.421	99.25
278.652	94.25
278.884	89.25
279.115	74.25
279.347	88.25
279.579	88.25
279.81	82.25
280.042	86.25
280.273	80.25
280.505	90.25
280.736	82.25
280.968	66.25
281.199	81.25
281.431	80.25
281.662	90.25
281.894	98.25
282.125	87.25
282.356	114.25
282.588	115.25
282.819	110.25
283.051	95.25
283.282	84.25
283.513	80.25
283.745	80.25
283.976	81.25
284.207	85.25
284.439	89.25
284.67	92.25
284.901	75.25
285.132	88.25
285.364	73.25
285.595	84.25
285.826	88.25
286.057	93.25
286.288	63.25
286.52	85.25
286.751	80.25
286.982	89.25
287.213	85.25
287.444	77.25
287.675	103.25
287.906	97.25
288.138	86.25
288.369	103.25
288.6	97.25
288.831	101.25
289.062	99.25
289.293	90.25
289.524	92.25
289.755	88.25
289.986	86.25
290.217	101.25
290.448	79.25
290.679	92.25
290.91	92.25
291.141	70.25
291.371	94.25
291.602	81.25
291.833	75.25
292.064	91.25
292.295	78.25
292.526	94.25
292.757	84.25
292.987	95.25
293.218	91.25
293.449	96.25
293.68	83.25
293.91	96.25
294.141	75.25
294.372	82.25
294.603	77.25
294.833	96.25
295.064	89.25
295.295	77.25
295.525	88.25
295.756	112.25
295.987	116.25
296.217	119.25
296.448	100.25
296.679	99.25
296.909	74.25
297.14	108.25
297.37	88.25
297.601	97.25
297.831	89.25
298.062	89.25
298.292	94.25
298.523	94.25
298.753	90.25
298.984	83.25
299.214	81.25
299.445	100.25
299.675	76.25
299.905	75.25
300.136	92.25
300.366	97.25
300.597	92.25
300.827	104.25
301.057	90.25
301.288	87.25
301.518	89.25
301.748	90.25
301.979	115.25
302.209	101.25
302.439	100.25
302.669	107.25
302.9	98.25
303.13	112.25
303.36	96.25
303.59	94.25
303.82	99.25
304.051	86.25
304.281	66.25
304.511	101.25
304.741	84.25
304.971	94.25
305.201	84.25
305.431	92.25
305.661	97.25
305.891	93.25
306.121	88.25
306.352	100.25
306.582	109.25
306.812	106.25
307.042	85.25
307.272	96.25
307.502	102.25
307.731	93.25
307.961	95.25
308.191	73.25
308.421	82.25
308.651	91.25
308.881	90.25
309.111	93.25
309.341	106.25
309.571	86.25
309.8	88.25
310.03	80.25
310.26	92.25
310.49	94.25
310.72	80.25
310.949	84.25
311.179	106.25
311.409	90.25
311.639	99.25
311.868	82.25
312.098	101.25
312.328	105.25
312.557	103.25
312.787	80.25
313.017	102.25
313.246	93.25
313.476	88.25
313.706	104.25
313.935	75.25
314.165	88.25
314.394	101.25
314.624	86.25
314.853	95.25
315.083	84.25
315.312	96.25
315.542	99.25
315.771	101.25
316.001	93.25
316.23	87.25
316.46	90.25
316.689	75.25
316.919	89.25
317.148	97.25
317.377	84.25
317.607	91.25
317.836	102.25
318.065	94.25
318.295	93.25
318.524	78.25
318.753	80.25
318.983	90.25
319.212	89.25
319.441	90.25
319.67	101.25
319.9	92.25
320.129	101.25
320.358	95.25
320.587	92.25
320.816	109.25
321.046	83.25
321.275	85.25
321.504	97.25
321.733	86.25
321.962	98.25
322.191	104.25
322.42	114.25
322.649	93.25
322.878	109.25
323.108	101.25
323.337	103.25
323.566	118.25
323.795	132.25
324.024	178.25
324.253	326.25
324.482	652.25
324.71	1274.25
324.939	1698.25
325.168	620.25
325.397	211.25
325.626	125.25
325.855	123.25
326.084	116.25
326.313	124.25
326.542	127.25
326.77	188.25
326.999	368.25
327.228	737.25
327.457	1384.25
327.686	1050.25
327.914	300.25
328.143	162.25
328.372	132.25
328.6	113.25
328.829	104.25
329.058	130.25
329.287	106.25
329.515	96.25
329.744	72.25
329.972	94.25
330.201	92.25
330.43	100.25
330.658	106.25
330.887	117.25
331.115	113.25
331.344	101.25
331.572	102.25
331.801	98.25
332.03	83.25
332.258	94.25
332.486	101.25
332.715	86.25
332.943	96.25
333.172	99.25
333.4	94.25
333.629	104.25
333.857	106.25
334.085	116.25
334.314	92.25
334.542	101.25
334.771	86.25
334.999	92.25
335.227	97.25
335.455	94.25
335.684	87.25
335.912	85.25
336.14	94.25
336.369	98.25
336.597	96.25
336.825	87.25
337.053	100.25
337.281	92.25
337.51	99.25
337.738	102.25
337.966	102.25
338.194	85.25
338.422	113.25
338.65	84.25
338.878	94.25
339.106	82.25
339.334	111.25
339.562	77.25
339.79	99.25
340.018	100.25
340.246	98.25
340.474	98.25
340.702	92.25
340.93	99.25
341.158	95.25
341.386	94.25
341.614	91.25
341.842	98.25
342.07	77.25
342.298	87.25
342.526	100.25
342.754	90.25
342.981	94.25
343.209	87.25
343.437	114.25
343.665	100.25
343.893	88.25
344.12	99.25
344.348	77.25
344.576	87.25
344.804	93.25
345.031	96.25
345.259	102.25
345.487	96.25
345.714	92.25
345.942	91.25
346.17	92.25
346.397	87.25
346.625	96.25
346.853	101.25
347.08	86.25
347.308	88.25
347.535	108.25
347.763	95.25
347.99	97.25
348.218	105.25
348.445	101.25
348.673	105.25
348.9	101.25
349.128	98.25
349.355	103.25
349.583	94.25
349.81	88.25
350.037	87.25
350.265	84.25
350.492	93.25
350.72	101.25
350.947	107.25
351.174	117.25
351.402	104.25
351.629	116.25
351.856	101.25
352.083	96.25
352.311	111.25
352.538	101.25
352.765	92.25
352.992	108.25
353.22	98.25
353.447	104.25
353.674	83.25
353.901	103.25
354.128	78.25
354.355	92.25
354.583	93.25
354.81	99.25
355.037	96.25
355.264	90.25
355.491	93.25
355.718	93.25
355.945	90.25
356.172	90.25
356.399	91.25
356.626	98.25
356.853	84.25
357.08	87.25
357.307	101.25
357.534	94.25
357.761	98.25
357.988	104.25
358.215	104.25
358.441	95.25
358.668	76.25
358.895	107.25
359.122	113.25
359.349	87.25
359.576	82.25
359.802	99.25
360.029	116.25
360.256	90.25
360.483	87.25
360.709	86.25
360.936	85.25
361.163	85.25
361.39	87.25
361.616	86.25
361.843	87.25
362.07	93.25
362.296	82.25
362.523	88.25
362.749	92.25
362.976	84.25
363.203	105.25
363.429	91.25
363.656	99.25
363.882	88.25
364.109	92.25
364.335	90.25
364.562	97.25
364.788	100.25
365.015	88.25
365.241	106.25
365.468	96.25
365.694	83.25
365.92	84.25
366.147	84.25
366.373	87.25
366.599	92.25
366.826	88.25
367.052	97.25
367.278	98.25
367.505	78.25
367.731	77.25
367.957	90.25
368.184	89.25
368.41	88.25
368.636	102.25
368.862	109.25
369.089	100.25
369.315	84.25
369.541	94.25
369.767	84.25
369.993	91.25
370.219	84.25
370.445	94.25
370.672	93.25
370.898	96.25
371.124	92.25
371.35	84.25
371.576	100.25
371.802	91.25
372.028	91.25
372.254	96.25
372.48	96.25
372.706	92.25
372.932	77.25
373.158	96.25
373.384	107.25
373.61	84.25
373.835	98.25
374.061	102.25
374.287	92.25
374.513	89.25
374.739	86.25
374.965	94.25
375.191	96.25
375.416	89.25
375.642	89.25
375.868	94.25
376.094	80.25
376.319	84.25
376.545	91.25
376.771	97.25
376.997	92.25
377.222	93.25
377.448	100.25
377.674	80.25
377.899	102.25
378.125	84.25
378.35	98.25
378.576	99.25
378.802	96.25
379.027	91.25
379.253	101.25
379.478	99.25
379.704	97.25
379.929	92.25
380.155	84.25
380.38	104.25
380.606	97.25
380.831	97.25
381.057	87.25
381.282	100.25
381.507	90.25
381.733	102.25
381.958	86.25
382.184	100.25
382.409	95.25
382.634	112.25
382.86	100.25
383.085	106.25
383.31	103.25
383.535	108.25
383.761	102.25
383.986	93.25
384.211	92.25
384.436	108.25
384.662	98.25
384.887	99.25
385.112	108.25
385.337	110.25
385.562	110.25
385.787	106.25
386.013	112.25
386.238	98.25
386.463	106.25
386.688	123.25
386.913	96.25
387.138	107.25
387.363	99.25
387.588	104.25
387.813	88.25
388.038	100.25
388.263	108.25
388.488	119.25
388.713	109.25
388.938	98.25
389.163	91.25
389.387	103.25
389.612	93.25
389.837	98.25
390.062	107.25
390.287	100.25
390.512	104.25
390.736	91.25
390.961	99.25
391.186	87.25
391.411	100.25
391.636	101.25
391.86	97.25
392.085	93.25
392.31	97.25
392.534	99.25
392.759	100.25
392.984	87.25
393.208	102.25
393.433	108.25
393.658	89.25
393.882	77.25
394.107	80.25
394.331	101.25
394.556	90.25
394.78	91.25
395.005	91.25
395.229	89.25
395.454	85.25
395.678	79.25
395.903	84.25
396.127	85.25
396.352	83.25
396.576	84.25
396.801	93.25
397.025	90.25
397.249	89.25
397.474	87.25
397.698	93.25
397.922	95.25
398.147	86.25
398.371	74.25
398.595	88.25
398.82	88.25
399.044	86.25
399.268	92.25
399.492	91.25
399.717	93.25
399.941	108.25
400.165	90.25
400.389	82.25
400.613	98.25
400.837	102.25
401.062	84.25
401.286	111.25
401.51	98.25
401.734	89.25
401.958	87.25
402.182	113.25
402.406	130.25
402.63	109.25
402.854	85.25
403.078	83.25
403.302	90.25
403.526	92.25
403.75	100.25
403.974	88.25
404.198	85.25
404.422	88.25
404.645	87.25
404.869	82.25
405.093	101.25
405.317	97.25
405.541	100.25
405.765	94.25
405.988	109.25
406.212	135.25
406.436	177.25
406.66	118.25
406.883	105.25
407.107	108.25
407.331	90.25
407.555	95.25
407.778	92.25
408.002	93.25
408.226	88.25
408.449	82.25
408.673	88.25
408.896	80.25
409.12	100.25
409.344	85.25
409.567	103.25
409.791	104.25
410.014	85.25
410.238	99.25
410.461	101.25
410.685	99.25
410.908	98.25
411.132	108.25
411.355	87.25
411.578	86.25
411.802	87.25
412.025	80.25
412.249	86.25
412.472	90.25
412.695	89.25
412.919	93.25
413.142	93.25
413.365	84.25
413.589	83.25
413.812	103.25
414.035	86.25
414.258	92.25
414.482	95.25
414.705	94.25
414.928	88.25
415.151	89.25
415.374	109.25
415.597	99.25
415.821	90.25
416.044	93.25
416.267	93.25
416.49	99.25
416.713	88.25
416.936	85.25
417.159	87.25
417.382	83.25
417.605	87.25
417.828	93.25
418.051	104.25
418.274	88.25
418.497	97.25
418.72	93.25
418.943	102.25
419.166	95.25
419.389	93.25
419.611	106.25
419.834	98.25
420.057	101.25
420.28	90.25
420.503	92.25
420.726	89.25
420.948	89.25
421.171	76.25
421.394	88.25
421.617	92.25
421.839	73.25
422.062	94.25
422.285	108.25
422.507	114.25
422.73	110.25
422.953	100.25
423.175	73.25
423.398	101.25
423.621	77.25
423.843	88.25
424.066	83.25
424.288	86.25
424.511	97.25
424.733	100.25
424.956	99.25
425.178	92.25
425.401	104.25
425.623	105.25
425.846	105.25
426.068	105.25
426.291	90.25
426.513	95.25
426.735	87.25
426.958	108.25
427.18	93.25
427.402	131.25
427.625	133.25
427.847	104.25
428.069	98.25
428.292	82.25
428.514	77.25
428.736	74.25
428.958	77.25
429.181	89.25
429.403	82.25
429.625	92.25
429.847	100.25
430.069	85.25
430.292	89.25
430.514	78.25
430.736	89.25
430.958	83.25
431.18	94.25
431.402	95.25
431.624	100.25
431.846	95.25
432.068	98.25
432.29	93.25
432.512	101.25
432.734	89.25
432.956	100.25
433.178	104.25
433.4	101.25
433.622	97.25
433.844	87.25
434.066	88.25
434.287	104.25
434.509	80.25
434.731	91.25
434.953	84.25
435.175	91.25
435.397	92.25
435.618	75.25
435.84	97.25
436.062	113.25
436.284	120.25
436.505	92.25
436.727	105.25
436.949	102.25
437.17	85.25
437.392	92.25
437.614	96.25
437.835	104.25
438.057	113.25
438.278	99.25
438.5	106.25
438.721	110.25
438.943	99.25
439.165	80.25
439.386	87.25
439.608	94.25
439.829	101.25
440.05	105.25
440.272	122.25
440.493	88.25
440.715	100.25
440.936	103.25
441.158	85.25
441.379	77.25
441.6	80.25
441.822	90.25
442.043	88.25
442.264	113.25
442.486	88.25
442.707	85.25
442.928	96.25
443.149	117.25
443.371	129.25
443.592	103.25
443.813	109.25
444.034	98.25
444.255	94.25
444.476	69.25
444.698	94.25
444.919	82.25
445.14	125.25
445.361	110.25
445.582	101.25
445.803	133.25
446.024	130.25
446.245	118.25
446.466	109.25
446.687	84.25
446.908	96.25
447.129	96.25
447.35	91.25
447.571	100.25
447.792	89.25
448.013	101.25
448.234	119.25
448.455	96.25
448.675	107.25
448.896	119.25
449.117	100.25
449.338	98.25
449.559	117.25
449.779	117.25
450	103.25
450.221	100.25
450.442	84.25
450.662	93.25
450.883	85.25
451.104	108.25
451.324	86.25
451.545	97.25
451.766	90.25
451.986	77.25
452.207	89.25
452.428	78.25
452.648	97.25
452.869	101.25
453.089	111.25
453.31	106.25
453.53	82.25
453.751	87.25
453.971	99.25
454.192	108.25
454.412	92.25
454.633	77.25
454.853	80.25
455.073	88.25
455.294	95.25
455.514	104.25
455.734	97.25
455.955	85.25
456.175	88.25
456.395	88.25
456.616	85.25
456.836	87.25
457.056	84.25
457.276	77.25
457.497	88.25
457.717	90.25
457.937	94.25
458.157	87.25
458.377	82.25
458.598	101.25
458.818	119.25
459.038	147.25
459.258	113.25
459.478	94.25
459.698	90.25
459.918	93.25
460.138	92.25
460.358	88.25
460.578	96.25
460.798	92.25
461.018	90.25
461.238	77.25
461.458	92.25
461.678	95.25
461.898	73.25
462.118	95.25
462.338	80.25
462.558	83.25
462.777	91.25
462.997	76.25
463.217	82.25
463.437	84.25
463.657	80.25
463.876	84.25
464.096	90.25
464.316	87.25
464.536	88.25
464.755	89.25
464.975	94.25
465.195	122.25
465.414	131.25
465.634	97.25
465.854	93.25
466.073	88.25
466.293	77.25
466.512	96.25
466.732	83.25
466.951	91.25
467.171	102.25
467.391	88.25
467.61	101.25
467.829	88.25
468.049	90.25
468.268	94.25
468.488	110.25
468.707	93.25
468.927	81.25
469.146	82.25
469.365	88.25
469.585	83.25
469.804	105.25
470.023	89.25
470.243	87.25
470.462	95.25
470.681	90.25
470.901	90.25
471.12	84.25
471.339	88.25
471.558	94.25
471.777	88.25
471.997	80.25
472.216	86.25
472.435	92.25
472.654	98.25
472.873	83.25
473.092	96.25
473.311	92.25
473.53	81.25
473.749	102.25
473.968	87.25
474.187	97.25
474.406	99.25
474.625	85.25
474.844	90.25
475.063	95.25
475.282	102.25
475.501	91.25
475.72	84.25
475.939	81.25
476.158	96.25
476.377	92.25
476.596	92.25
476.814	84.25
477.033	97.25
477.252	89.25
477.471	104.25
477.69	90.25
477.908	93.25
478.127	93.25
478.346	95.25
478.564	84.25
478.783	117.25
479.002	100.25
479.22	84.25
479.439	100.25
479.658	104.25
479.876	77.25
480.095	99.25
480.313	91.25
480.532	83.25
480.751	105.25
480.969	90.25
481.188	104.25
481.406	101.25
481.624	101.25
481.843	90.25
482.061	90.25
482.28	99.25
482.498	99.25
482.717	93.25
482.935	86.25
483.153	96.25
483.372	104.25
483.59	106.25
483.808	105.25
484.027	86.25
484.245	86.25
484.463	94.25
484.681	102.25
484.9	103.25
485.118	103.25
485.336	98.25
485.554	105.25
485.772	102.25
485.99	101.25
486.209	105.25
486.427	100.25
486.645	110.25
486.863	100.25
487.081	109.25
487.299	108.25
487.517	107.25
487.735	77.25
487.953	91.25
488.171	102.25
488.389	92.25
488.607	92.25
488.825	98.25
489.043	102.25
489.261	114.25
489.479	93.25
489.696	110.25
489.914	93.25
490.132	91.25
490.35	99.25
490.568	92.25
490.786	85.25
491.003	80.25
491.221	86.25
491.439	89.25
491.657	91.25
491.874	85.25
492.092	85.25
492.31	101.25
492.527	98.25
492.745	103.25
492.963	79.25
493.18	98.25
493.398	88.25
493.615	98.25
493.833	102.25
494.05	78.25
494.268	92.25
494.485	91.25
494.703	93.25
494.92	83.25
495.138	86.25
495.355	105.25
495.573	93.25
495.79	91.25
496.008	92.25
496.225	95.25
496.442	92.25
496.66	105.25
496.877	97.25
497.094	93.25
497.312	97.25
497.529	98.25
497.746	90.25
497.963	96.25
498.181	82.25
498.398	86.25
498.615	110.25
498.832	108.25
499.049	81.25
499.267	78.25
499.484	95.25
499.701	92.25
499.918	100.25
500.135	99.25
500.352	91.25
500.569	93.25
500.786	90.25
501.003	96.25
501.22	80.25
501.437	95.25
501.654	92.25
501.871	92.25
502.088	85.25
502.305	77.25
502.522	104.25
502.739	97.25
502.956	73.25
503.172	73.25
503.389	90.25
503.606	102.25
503.823	117.25
504.04	102.25
504.256	98.25
504.473	94.25
504.69	97.25
504.907	93.25
505.123	94.25
505.34	85.25
505.557	98.25
505.773	103.25
505.99	87.25
506.207	76.25
506.423	88.25
506.64	84.25
506.856	86.25
507.073	81.25
507.289	99.25
507.506	88.25
507.722	109.25
507.939	109.25
508.155	106.25
508.372	93.25
508.588	86.25
508.805	97.25
509.021	117.25
509.238	89.25
509.454	95.25
509.67	103.25
509.887	113.25
510.103	123.25
510.319	193.25
510.536	625.25
510.752	1833.25
510.968	515.25
511.184	146.25
511.401	106.25
511.617	93.25
511.833	104.25
512.049	101.25
512.265	90.25
512.481	90.25
512.698	85.25
512.914	84.25
513.13	90.25
513.346	73.25
513.562	99.25
513.778	108.25
513.994	97.25
514.21	99.25
514.426	119.25
514.642	114.25
514.858	103.25
515.074	137.25
515.29	359.25
515.506	1036.25
