Data from Uncirc_1984_H10_HRD10591_00024.txt Node
Date: Wed Jan 03 12:21:42 EST 2024
User: Yrep
Spectrometer: HR+D1059
Trigger mode: 1
Integration Time (sec): 1.000000E-1
Scans to average: 1
Electric dark correction enabled: true
Nonlinearity correction enabled: false
Boxcar width: 0
XAxis mode: Wavelengths
Number of Pixels in Spectrum: 2048
>>>>>Begin Spectral Data<<<<<
223.165	-11.19
223.4	-11.19
223.635	-11.19
223.869	-17.19
224.104	-30.19
224.338	-15.19
224.573	-14.19
224.808	-19.19
225.042	-17.19
225.277	-11.19
225.511	2.81
225.746	17.81
225.98	2.81
226.215	9.81
226.449	24.81
226.683	23.81
226.918	23.81
227.152	29.81
227.387	30.81
227.621	30.81
227.856	41.81
228.09	49.81
228.324	35.81
228.559	49.81
228.793	54.81
229.027	67.81
229.262	63.81
229.496	80.81
229.73	86.81
229.964	88.81
230.199	74.81
230.433	65.81
230.667	77.81
230.901	80.81
231.136	74.81
231.37	77.81
231.604	64.81
231.838	76.81
232.072	69.81
232.306	76.81
232.541	78.81
232.775	71.81
233.009	86.81
233.243	68.81
233.477	70.81
233.711	78.81
233.945	71.81
234.179	70.81
234.413	95.81
234.647	72.81
234.881	69.81
235.115	72.81
235.349	69.81
235.583	71.81
235.817	60.81
236.051	68.81
236.285	67.81
236.519	84.81
236.753	82.81
236.987	82.81
237.221	90.81
237.455	85.81
237.689	72.81
237.922	66.81
238.156	87.81
238.39	72.81
238.624	82.81
238.858	76.81
239.091	73.81
239.325	73.81
239.559	79.81
239.793	76.81
240.027	81.81
240.26	70.81
240.494	74.81
240.728	87.81
240.961	77.81
241.195	80.81
241.429	85.81
241.662	74.81
241.896	60.81
242.13	64.81
242.363	90.81
242.597	73.81
242.83	76.81
243.064	88.81
243.298	82.81
243.531	82.81
243.765	83.81
243.998	72.81
244.232	66.81
244.465	81.81
244.699	78.81
244.932	92.81
245.166	81.81
245.399	78.81
245.633	84.81
245.866	76.81
246.099	76.81
246.333	60.81
246.566	71.81
246.8	65.81
247.033	83.81
247.266	81.81
247.5	74.81
247.733	65.81
247.966	73.81
248.2	63.81
248.433	58.81
248.666	71.81
248.899	72.81
249.133	88.81
249.366	104.81
249.599	96.81
249.832	70.81
250.066	70.81
250.299	83.81
250.532	80.81
250.765	90.81
250.998	72.81
251.231	75.81
251.465	93.81
251.698	83.81
251.931	84.81
252.164	77.81
252.397	66.81
252.63	74.81
252.863	83.81
253.096	90.81
253.329	77.81
253.562	77.81
253.795	87.81
254.028	68.81
254.261	81.81
254.494	88.81
254.727	73.81
254.96	88.81
255.193	85.81
255.426	76.81
255.659	73.81
255.892	95.81
256.124	81.81
256.357	83.81
256.59	84.81
256.823	85.81
257.056	72.81
257.289	91.81
257.521	92.81
257.754	86.81
257.987	64.81
258.22	78.81
258.452	73.81
258.685	80.81
258.918	68.81
259.151	69.81
259.383	71.81
259.616	86.81
259.849	84.81
260.081	99.81
260.314	73.81
260.547	80.81
260.779	76.81
261.012	69.81
261.244	87.81
261.477	94.81
261.71	96.81
261.942	96.81
262.175	104.81
262.407	78.81
262.64	83.81
262.872	66.81
263.105	95.81
263.337	73.81
263.57	78.81
263.802	77.81
264.035	71.81
264.267	81.81
264.499	82.81
264.732	81.81
264.964	72.81
265.197	73.81
265.429	68.81
265.661	87.81
265.894	82.81
266.126	77.81
266.358	94.81
266.591	78.81
266.823	74.81
267.055	84.81
267.287	81.81
267.52	81.81
267.752	69.81
267.984	64.81
268.216	87.81
268.448	87.81
268.681	72.81
268.913	80.81
269.145	89.81
269.377	68.81
269.609	82.81
269.841	87.81
270.073	67.81
270.306	69.81
270.538	85.81
270.77	80.81
271.002	94.81
271.234	75.81
271.466	78.81
271.698	91.81
271.93	78.81
272.162	90.81
272.394	80.81
272.626	77.81
272.858	82.81
273.09	62.81
273.322	94.81
273.553	87.81
273.785	93.81
274.017	78.81
274.249	86.81
274.481	73.81
274.713	76.81
274.945	76.81
275.176	81.81
275.408	62.81
275.64	85.81
275.872	80.81
276.104	83.81
276.335	76.81
276.567	81.81
276.799	97.81
277.031	88.81
277.262	84.81
277.494	94.81
277.726	101.81
277.957	78.81
278.189	78.81
278.421	89.81
278.652	77.81
278.884	81.81
279.115	95.81
279.347	74.81
279.579	88.81
279.81	90.81
280.042	81.81
280.273	80.81
280.505	87.81
280.736	83.81
280.968	89.81
281.199	84.81
281.431	85.81
281.662	81.81
281.894	78.81
282.125	91.81
282.356	111.81
282.588	134.81
282.819	104.81
283.051	98.81
283.282	88.81
283.513	90.81
283.745	68.81
283.976	76.81
284.207	86.81
284.439	80.81
284.67	93.81
284.901	67.81
285.132	78.81
285.364	86.81
285.595	81.81
285.826	98.81
286.057	87.81
286.288	84.81
286.52	81.81
286.751	94.81
286.982	91.81
287.213	80.81
287.444	83.81
287.675	92.81
287.906	92.81
288.138	94.81
288.369	86.81
288.6	86.81
288.831	88.81
289.062	77.81
289.293	85.81
289.524	79.81
289.755	88.81
289.986	73.81
290.217	72.81
290.448	80.81
290.679	84.81
290.91	80.81
291.141	78.81
291.371	92.81
291.602	79.81
291.833	71.81
292.064	89.81
292.295	106.81
292.526	90.81
292.757	88.81
292.987	80.81
293.218	84.81
293.449	92.81
293.68	89.81
293.91	92.81
294.141	73.81
294.372	84.81
294.603	82.81
294.833	102.81
295.064	102.81
295.295	81.81
295.525	92.81
295.756	92.81
295.987	115.81
296.217	109.81
296.448	119.81
296.679	88.81
296.909	89.81
297.14	104.81
297.37	86.81
297.601	87.81
297.831	93.81
298.062	80.81
298.292	91.81
298.523	77.81
298.753	79.81
298.984	82.81
299.214	94.81
299.445	86.81
299.675	86.81
299.905	76.81
300.136	95.81
300.366	90.81
300.597	93.81
300.827	83.81
301.057	86.81
301.288	78.81
301.518	93.81
301.748	84.81
301.979	97.81
302.209	89.81
302.439	93.81
302.669	81.81
302.9	95.81
303.13	98.81
303.36	92.81
303.59	84.81
303.82	88.81
304.051	85.81
304.281	100.81
304.511	88.81
304.741	82.81
304.971	78.81
305.201	82.81
305.431	76.81
305.661	73.81
305.891	86.81
306.121	79.81
306.352	125.81
306.582	103.81
306.812	91.81
307.042	103.81
307.272	83.81
307.502	92.81
307.731	88.81
307.961	72.81
308.191	88.81
308.421	89.81
308.651	82.81
308.881	78.81
309.111	68.81
309.341	90.81
309.571	88.81
309.8	96.81
310.03	86.81
310.26	102.81
310.49	89.81
310.72	90.81
310.949	110.81
311.179	107.81
311.409	90.81
311.639	79.81
311.868	90.81
312.098	92.81
312.328	97.81
312.557	91.81
312.787	80.81
313.017	101.81
313.246	99.81
313.476	94.81
313.706	90.81
313.935	88.81
314.165	90.81
314.394	101.81
314.624	83.81
314.853	91.81
315.083	84.81
315.312	85.81
315.542	86.81
315.771	91.81
316.001	93.81
316.23	100.81
316.46	93.81
316.689	91.81
316.919	80.81
317.148	71.81
317.377	92.81
317.607	98.81
317.836	91.81
318.065	98.81
318.295	92.81
318.524	93.81
318.753	88.81
318.983	87.81
319.212	90.81
319.441	113.81
319.67	96.81
319.9	92.81
320.129	95.81
320.358	101.81
320.587	101.81
320.816	89.81
321.046	86.81
321.275	94.81
321.504	97.81
321.733	82.81
321.962	92.81
322.191	99.81
322.42	100.81
322.649	101.81
322.878	105.81
323.108	106.81
323.337	117.81
323.566	128.81
323.795	142.81
324.024	201.81
324.253	367.81
324.482	776.81
324.71	1625.81
324.939	2196.81
325.168	828.81
325.397	237.81
325.626	165.81
325.855	126.81
326.084	120.81
326.313	123.81
326.542	145.81
326.77	221.81
326.999	426.81
327.228	902.81
327.457	1683.81
327.686	1333.81
327.914	362.81
328.143	179.81
328.372	129.81
328.6	113.81
328.829	114.81
329.058	112.81
329.287	128.81
329.515	82.81
329.744	92.81
329.972	110.81
330.201	92.81
330.43	93.81
330.658	114.81
330.887	122.81
331.115	121.81
331.344	88.81
331.572	87.81
331.801	100.81
332.03	97.81
332.258	86.81
332.486	82.81
332.715	76.81
332.943	94.81
333.172	97.81
333.4	95.81
333.629	109.81
333.857	114.81
334.085	102.81
334.314	78.81
334.542	94.81
334.771	109.81
334.999	93.81
335.227	104.81
335.455	92.81
335.684	97.81
335.912	78.81
336.14	83.81
336.369	94.81
336.597	88.81
336.825	104.81
337.053	90.81
337.281	96.81
337.51	85.81
337.738	86.81
337.966	93.81
338.194	86.81
338.422	92.81
338.65	109.81
338.878	93.81
339.106	106.81
339.334	93.81
339.562	81.81
339.79	81.81
340.018	93.81
340.246	105.81
340.474	81.81
340.702	85.81
340.93	81.81
341.158	85.81
341.386	92.81
341.614	90.81
341.842	89.81
342.07	83.81
342.298	91.81
342.526	95.81
342.754	89.81
342.981	95.81
343.209	83.81
343.437	94.81
343.665	90.81
343.893	84.81
344.12	79.81
344.348	101.81
344.576	91.81
344.804	64.81
345.031	98.81
345.259	108.81
345.487	88.81
345.714	99.81
345.942	102.81
346.17	90.81
346.397	88.81
346.625	78.81
346.853	92.81
347.08	84.81
347.308	95.81
347.535	96.81
347.763	94.81
347.99	92.81
348.218	87.81
348.445	101.81
348.673	95.81
348.9	97.81
349.128	103.81
349.355	89.81
349.583	89.81
349.81	89.81
350.037	93.81
350.265	85.81
350.492	85.81
350.72	86.81
350.947	100.81
351.174	107.81
351.402	108.81
351.629	94.81
351.856	94.81
352.083	78.81
352.311	103.81
352.538	110.81
352.765	112.81
352.992	93.81
353.22	90.81
353.447	100.81
353.674	106.81
353.901	94.81
354.128	99.81
354.355	105.81
354.583	106.81
354.81	96.81
355.037	83.81
355.264	102.81
355.491	93.81
355.718	100.81
355.945	88.81
356.172	71.81
356.399	88.81
356.626	91.81
356.853	85.81
357.08	93.81
357.307	92.81
357.534	78.81
357.761	80.81
357.988	85.81
358.215	100.81
358.441	92.81
358.668	79.81
358.895	100.81
359.122	82.81
359.349	80.81
359.576	89.81
359.802	92.81
360.029	108.81
360.256	105.81
360.483	88.81
360.709	88.81
360.936	92.81
361.163	98.81
361.39	88.81
361.616	82.81
361.843	98.81
362.07	86.81
362.296	100.81
362.523	92.81
362.749	89.81
362.976	92.81
363.203	94.81
363.429	85.81
363.656	84.81
363.882	77.81
364.109	81.81
364.335	96.81
364.562	97.81
364.788	94.81
365.015	92.81
365.241	96.81
365.468	103.81
365.694	98.81
365.92	83.81
366.147	92.81
366.373	80.81
366.599	92.81
366.826	93.81
367.052	86.81
367.278	90.81
367.505	74.81
367.731	85.81
367.957	84.81
368.184	93.81
368.41	89.81
368.636	99.81
368.862	125.81
369.089	106.81
369.315	100.81
369.541	73.81
369.767	87.81
369.993	81.81
370.219	81.81
370.445	74.81
370.672	89.81
370.898	89.81
371.124	99.81
371.35	96.81
371.576	84.81
371.802	72.81
372.028	90.81
372.254	91.81
372.48	95.81
372.706	89.81
372.932	99.81
373.158	84.81
373.384	82.81
373.61	80.81
373.835	77.81
374.061	87.81
374.287	85.81
374.513	88.81
374.739	91.81
374.965	76.81
375.191	96.81
375.416	87.81
375.642	98.81
375.868	94.81
376.094	83.81
376.319	92.81
376.545	67.81
376.771	77.81
376.997	85.81
377.222	80.81
377.448	103.81
377.674	86.81
377.899	80.81
378.125	86.81
378.35	91.81
378.576	103.81
378.802	85.81
379.027	92.81
379.253	81.81
379.478	85.81
379.704	88.81
379.929	93.81
380.155	90.81
380.38	73.81
380.606	88.81
380.831	79.81
381.057	76.81
381.282	97.81
381.507	102.81
381.733	102.81
381.958	97.81
382.184	103.81
382.409	92.81
382.634	105.81
382.86	112.81
383.085	100.81
383.31	96.81
383.535	93.81
383.761	89.81
383.986	88.81
384.211	88.81
384.436	88.81
384.662	89.81
384.887	96.81
385.112	92.81
385.337	100.81
385.562	92.81
385.787	107.81
386.013	97.81
386.238	110.81
386.463	92.81
386.688	98.81
386.913	112.81
387.138	89.81
387.363	99.81
387.588	88.81
387.813	92.81
388.038	102.81
388.263	105.81
388.488	112.81
388.713	99.81
388.938	92.81
389.163	82.81
389.387	82.81
389.612	87.81
389.837	91.81
390.062	91.81
390.287	89.81
390.512	99.81
390.736	88.81
390.961	80.81
391.186	89.81
391.411	76.81
391.636	80.81
391.86	87.81
392.085	82.81
392.31	89.81
392.534	68.81
392.759	80.81
392.984	85.81
393.208	92.81
393.433	100.81
393.658	84.81
393.882	71.81
394.107	76.81
394.331	64.81
394.556	82.81
394.78	81.81
395.005	79.81
395.229	95.81
395.454	86.81
395.678	96.81
395.903	80.81
396.127	85.81
396.352	83.81
396.576	92.81
396.801	93.81
397.025	94.81
397.249	89.81
397.474	89.81
397.698	89.81
397.922	84.81
398.147	70.81
398.371	88.81
398.595	88.81
398.82	80.81
399.044	78.81
399.268	92.81
399.492	88.81
399.717	79.81
399.941	98.81
400.165	96.81
400.389	89.81
400.613	84.81
400.837	79.81
401.062	92.81
401.286	101.81
401.51	87.81
401.734	93.81
401.958	88.81
402.182	121.81
402.406	147.81
402.63	117.81
402.854	80.81
403.078	85.81
403.302	80.81
403.526	76.81
403.75	90.81
403.974	84.81
404.198	84.81
404.422	89.81
404.645	79.81
404.869	82.81
405.093	74.81
405.317	97.81
405.541	96.81
405.765	85.81
405.988	112.81
406.212	154.81
406.436	218.81
406.66	142.81
406.883	102.81
407.107	78.81
407.331	94.81
407.555	83.81
407.778	87.81
408.002	95.81
408.226	80.81
408.449	92.81
408.673	99.81
408.896	87.81
409.12	99.81
409.344	68.81
409.567	89.81
409.791	96.81
410.014	83.81
410.238	92.81
410.461	87.81
410.685	97.81
410.908	98.81
411.132	100.81
411.355	97.81
411.578	91.81
411.802	88.81
412.025	82.81
412.249	82.81
412.472	85.81
412.695	73.81
412.919	65.81
413.142	74.81
413.365	87.81
413.589	97.81
413.812	96.81
414.035	104.81
414.258	103.81
414.482	86.81
414.705	83.81
414.928	82.81
415.151	87.81
415.374	92.81
415.597	86.81
415.821	76.81
416.044	87.81
416.267	82.81
416.49	92.81
416.713	87.81
416.936	87.81
417.159	85.81
417.382	102.81
417.605	79.81
417.828	86.81
418.051	96.81
418.274	93.81
418.497	85.81
418.72	82.81
418.943	84.81
419.166	86.81
419.389	74.81
419.611	84.81
419.834	84.81
420.057	80.81
420.28	94.81
420.503	80.81
420.726	111.81
420.948	85.81
421.171	74.81
421.394	87.81
421.617	93.81
421.839	100.81
422.062	79.81
422.285	97.81
422.507	91.81
422.73	98.81
422.953	94.81
423.175	72.81
423.398	101.81
423.621	86.81
423.843	87.81
424.066	80.81
424.288	89.81
424.511	97.81
424.733	100.81
424.956	113.81
425.178	105.81
425.401	96.81
425.623	94.81
425.846	80.81
426.068	105.81
426.291	96.81
426.513	76.81
426.735	88.81
426.958	92.81
427.18	96.81
427.402	131.81
427.625	176.81
427.847	112.81
428.069	91.81
428.292	80.81
428.514	78.81
428.736	71.81
428.958	84.81
429.181	88.81
429.403	81.81
429.625	90.81
429.847	77.81
430.069	93.81
430.292	84.81
430.514	69.81
430.736	71.81
430.958	76.81
431.18	74.81
431.402	76.81
431.624	90.81
431.846	76.81
432.068	63.81
432.29	80.81
432.512	88.81
432.734	82.81
432.956	90.81
433.178	103.81
433.4	104.81
433.622	104.81
433.844	96.81
434.066	73.81
434.287	98.81
434.509	87.81
434.731	78.81
434.953	80.81
435.175	85.81
435.397	97.81
435.618	88.81
435.84	102.81
436.062	96.81
436.284	100.81
436.505	93.81
436.727	95.81
436.949	89.81
437.17	79.81
437.392	81.81
437.614	94.81
437.835	109.81
438.057	105.81
438.278	104.81
438.5	96.81
438.721	118.81
438.943	80.81
439.165	81.81
439.386	83.81
439.608	87.81
439.829	88.81
440.05	106.81
440.272	135.81
440.493	97.81
440.715	90.81
440.936	81.81
441.158	89.81
441.379	81.81
441.6	96.81
441.822	95.81
442.043	83.81
442.264	107.81
442.486	93.81
442.707	92.81
442.928	95.81
443.149	125.81
443.371	120.81
443.592	101.81
443.813	102.81
444.034	89.81
444.255	83.81
444.476	74.81
444.698	86.81
444.919	79.81
445.14	135.81
445.361	113.81
445.582	106.81
445.803	137.81
446.024	120.81
446.245	130.81
446.466	115.81
446.687	96.81
446.908	76.81
447.129	96.81
447.35	77.81
447.571	89.81
447.792	95.81
448.013	95.81
448.234	96.81
448.455	90.81
448.675	119.81
448.896	108.81
449.117	100.81
449.338	102.81
449.559	127.81
449.779	134.81
450	92.81
450.221	94.81
450.442	97.81
450.662	83.81
450.883	93.81
451.104	109.81
451.324	93.81
451.545	80.81
451.766	83.81
451.986	88.81
452.207	92.81
452.428	77.81
452.648	101.81
452.869	103.81
453.089	106.81
453.31	100.81
453.53	96.81
453.751	98.81
453.971	96.81
454.192	96.81
454.412	86.81
454.633	84.81
454.853	80.81
455.073	76.81
455.294	87.81
455.514	94.81
455.734	84.81
455.955	79.81
456.175	81.81
456.395	77.81
456.616	77.81
456.836	80.81
457.056	84.81
457.276	91.81
457.497	76.81
457.717	84.81
457.937	86.81
458.157	75.81
458.377	89.81
458.598	112.81
458.818	150.81
459.038	153.81
459.258	98.81
459.478	84.81
459.698	89.81
459.918	90.81
460.138	86.81
460.358	84.81
460.578	87.81
460.798	88.81
461.018	80.81
461.238	79.81
461.458	74.81
461.678	89.81
461.898	92.81
462.118	93.81
462.338	90.81
462.558	82.81
462.777	88.81
462.997	82.81
463.217	73.81
463.437	96.81
463.657	80.81
463.876	78.81
464.096	106.81
464.316	70.81
464.536	89.81
464.755	98.81
464.975	109.81
465.195	156.81
465.414	142.81
465.634	86.81
465.854	76.81
466.073	91.81
466.293	85.81
466.512	77.81
466.732	85.81
466.951	84.81
467.171	86.81
467.391	89.81
467.61	98.81
467.829	97.81
468.049	95.81
468.268	92.81
468.488	85.81
468.707	87.81
468.927	92.81
469.146	96.81
469.365	79.81
469.585	81.81
469.804	86.81
470.023	92.81
470.243	80.81
470.462	95.81
470.681	104.81
470.901	90.81
471.12	90.81
471.339	83.81
471.558	94.81
471.777	82.81
471.997	76.81
472.216	71.81
472.435	90.81
472.654	87.81
472.873	78.81
473.092	87.81
473.311	76.81
473.53	58.81
473.749	79.81
473.968	93.81
474.187	100.81
474.406	89.81
474.625	88.81
474.844	89.81
475.063	83.81
475.282	93.81
475.501	85.81
475.72	89.81
475.939	78.81
476.158	86.81
476.377	88.81
476.596	91.81
476.814	75.81
477.033	90.81
477.252	99.81
477.471	79.81
477.69	82.81
477.908	89.81
478.127	89.81
478.346	88.81
478.564	89.81
478.783	85.81
479.002	70.81
479.22	88.81
479.439	109.81
479.658	93.81
479.876	97.81
480.095	91.81
480.313	87.81
480.532	100.81
480.751	94.81
480.969	82.81
481.188	96.81
481.406	98.81
481.624	89.81
481.843	73.81
482.061	87.81
482.28	94.81
482.498	90.81
482.717	80.81
482.935	69.81
483.153	69.81
483.372	76.81
483.59	81.81
483.808	85.81
484.027	81.81
484.245	81.81
484.463	96.81
484.681	102.81
484.9	81.81
485.118	87.81
485.336	83.81
485.554	100.81
485.772	82.81
485.99	85.81
486.209	104.81
486.427	105.81
486.645	104.81
486.863	107.81
487.081	95.81
487.299	71.81
487.517	103.81
487.735	95.81
487.953	84.81
488.171	69.81
488.389	94.81
488.607	100.81
488.825	84.81
489.043	85.81
489.261	65.81
489.479	76.81
489.696	88.81
489.914	79.81
490.132	69.81
490.35	82.81
490.568	91.81
490.786	79.81
491.003	79.81
491.221	71.81
491.439	109.81
491.657	95.81
491.874	84.81
492.092	104.81
492.31	96.81
492.527	76.81
492.745	101.81
492.963	86.81
493.18	92.81
493.398	90.81
493.615	109.81
493.833	76.81
494.05	80.81
494.268	91.81
494.485	94.81
494.703	65.81
494.92	86.81
495.138	88.81
495.355	93.81
495.573	99.81
495.79	86.81
496.008	92.81
496.225	87.81
496.442	94.81
496.66	92.81
496.877	77.81
497.094	94.81
497.312	88.81
497.529	86.81
497.746	102.81
497.963	74.81
498.181	80.81
498.398	106.81
498.615	85.81
498.832	91.81
499.049	84.81
499.267	89.81
499.484	92.81
499.701	81.81
499.918	81.81
500.135	85.81
500.352	87.81
500.569	90.81
500.786	105.81
501.003	83.81
501.22	97.81
501.437	82.81
501.654	97.81
501.871	94.81
502.088	88.81
502.305	104.81
502.522	85.81
502.739	76.81
502.956	70.81
503.172	79.81
503.389	82.81
503.606	99.81
503.823	88.81
504.04	77.81
504.256	92.81
504.473	88.81
504.69	87.81
504.907	82.81
505.123	92.81
505.34	75.81
505.557	92.81
505.773	75.81
505.99	67.81
506.207	89.81
506.423	87.81
506.64	83.81
506.856	80.81
507.073	80.81
507.289	88.81
507.506	102.81
507.722	108.81
507.939	95.81
508.155	100.81
508.372	86.81
508.588	93.81
508.805	81.81
509.021	89.81
509.238	102.81
509.454	105.81
509.67	104.81
509.887	103.81
510.103	120.81
510.319	202.81
510.536	741.81
510.752	2358.81
510.968	631.81
511.184	149.81
511.401	108.81
511.617	90.81
511.833	77.81
512.049	103.81
512.265	81.81
512.481	93.81
512.698	102.81
512.914	86.81
513.13	89.81
513.346	93.81
513.562	95.81
513.778	93.81
513.994	105.81
514.21	101.81
514.426	118.81
514.642	118.81
514.858	121.81
515.074	153.81
515.29	423.81
515.506	1423.81
515.721	497.81
515.937	143.81
516.153	102.81
516.369	98.81
516.585	85.81
516.801	94.81
