Data from Uncirc_1984_H10_HRD10591_00015.txt Node
Date: Wed Jan 03 12:21:40 EST 2024
User: Yrep
Spectrometer: HR+D1059
Trigger mode: 1
Integration Time (sec): 1.000000E-1
Scans to average: 1
Electric dark correction enabled: true
Nonlinearity correction enabled: false
Boxcar width: 0
XAxis mode: Wavelengths
Number of Pixels in Spectrum: 2048
>>>>>Begin Spectral Data<<<<<
223.165	-5.31
223.4	-5.31
223.635	-5.31
223.869	-13.31
224.104	-22.31
224.338	-7.31
224.573	-13.31
224.808	-15.31
225.042	-20.31
225.277	-3.31
225.511	-14.31
225.746	-6.31
225.98	4.69
226.215	21.69
226.449	26.69
226.683	9.69
226.918	25.69
227.152	32.69
227.387	29.69
227.621	34.69
227.856	58.69
228.09	33.69
228.324	39.69
228.559	39.69
228.793	55.69
229.027	66.69
229.262	70.69
229.496	74.69
229.73	77.69
229.964	80.69
230.199	57.69
230.433	64.69
230.667	72.69
230.901	72.69
231.136	87.69
231.37	67.69
231.604	87.69
231.838	90.69
232.072	77.69
232.306	94.69
232.541	87.69
232.775	77.69
233.009	81.69
233.243	78.69
233.477	72.69
233.711	81.69
233.945	77.69
234.179	73.69
234.413	85.69
234.647	86.69
234.881	75.69
235.115	78.69
235.349	79.69
235.583	79.69
235.817	78.69
236.051	90.69
236.285	77.69
236.519	90.69
236.753	93.69
236.987	80.69
237.221	81.69
237.455	75.69
237.689	77.69
237.922	67.69
238.156	87.69
238.39	71.69
238.624	75.69
238.858	73.69
239.091	79.69
239.325	81.69
239.559	86.69
239.793	79.69
240.027	82.69
240.26	82.69
240.494	73.69
240.728	73.69
240.961	81.69
241.195	74.69
241.429	73.69
241.662	75.69
241.896	80.69
242.13	80.69
242.363	80.69
242.597	65.69
242.83	69.69
243.064	74.69
243.298	70.69
243.531	81.69
243.765	73.69
243.998	89.69
244.232	74.69
244.465	89.69
244.699	85.69
244.932	73.69
245.166	81.69
245.399	72.69
245.633	71.69
245.866	77.69
246.099	93.69
246.333	84.69
246.566	95.69
246.8	69.69
247.033	97.69
247.266	69.69
247.5	91.69
247.733	69.69
247.966	81.69
248.2	83.69
248.433	81.69
248.666	81.69
248.899	70.69
249.133	74.69
249.366	95.69
249.599	107.69
249.832	82.69
250.066	79.69
250.299	84.69
250.532	70.69
250.765	71.69
250.998	81.69
251.231	70.69
251.465	68.69
251.698	79.69
251.931	78.69
252.164	80.69
252.397	75.69
252.63	81.69
252.863	72.69
253.096	69.69
253.329	76.69
253.562	67.69
253.795	74.69
254.028	75.69
254.261	77.69
254.494	69.69
254.727	86.69
254.96	67.69
255.193	78.69
255.426	87.69
255.659	76.69
255.892	90.69
256.124	74.69
256.357	92.69
256.59	93.69
256.823	85.69
257.056	65.69
257.289	83.69
257.521	80.69
257.754	85.69
257.987	79.69
258.22	81.69
258.452	87.69
258.685	83.69
258.918	68.69
259.151	79.69
259.383	84.69
259.616	86.69
259.849	77.69
260.081	77.69
260.314	72.69
260.547	83.69
260.779	79.69
261.012	90.69
261.244	85.69
261.477	88.69
261.71	87.69
261.942	93.69
262.175	101.69
262.407	80.69
262.64	77.69
262.872	91.69
263.105	92.69
263.337	92.69
263.57	82.69
263.802	84.69
264.035	82.69
264.267	80.69
264.499	93.69
264.732	89.69
264.964	81.69
265.197	86.69
265.429	92.69
265.661	74.69
265.894	75.69
266.126	86.69
266.358	84.69
266.591	81.69
266.823	93.69
267.055	80.69
267.287	80.69
267.52	78.69
267.752	91.69
267.984	86.69
268.216	69.69
268.448	76.69
268.681	95.69
268.913	83.69
269.145	80.69
269.377	83.69
269.609	76.69
269.841	83.69
270.073	74.69
270.306	95.69
270.538	101.69
270.77	85.69
271.002	83.69
271.234	90.69
271.466	79.69
271.698	88.69
271.93	96.69
272.162	93.69
272.394	75.69
272.626	82.69
272.858	71.69
273.09	87.69
273.322	77.69
273.553	76.69
273.785	74.69
274.017	87.69
274.249	83.69
274.481	89.69
274.713	77.69
274.945	83.69
275.176	85.69
275.408	81.69
275.64	83.69
275.872	84.69
276.104	79.69
276.335	99.69
276.567	83.69
276.799	107.69
277.031	89.69
277.262	94.69
277.494	98.69
277.726	90.69
277.957	83.69
278.189	81.69
278.421	98.69
278.652	80.69
278.884	91.69
279.115	82.69
279.347	96.69
279.579	77.69
279.81	87.69
280.042	96.69
280.273	101.69
280.505	90.69
280.736	81.69
280.968	74.69
281.199	91.69
281.431	81.69
281.662	83.69
281.894	75.69
282.125	81.69
282.356	102.69
282.588	130.69
282.819	101.69
283.051	95.69
283.282	92.69
283.513	98.69
283.745	85.69
283.976	76.69
284.207	89.69
284.439	81.69
284.67	83.69
284.901	94.69
285.132	98.69
285.364	81.69
285.595	93.69
285.826	85.69
286.057	87.69
286.288	102.69
286.52	79.69
286.751	93.69
286.982	86.69
287.213	81.69
287.444	88.69
287.675	85.69
287.906	86.69
288.138	90.69
288.369	90.69
288.6	89.69
288.831	79.69
289.062	81.69
289.293	90.69
289.524	90.69
289.755	90.69
289.986	82.69
290.217	71.69
290.448	68.69
290.679	79.69
290.91	83.69
291.141	90.69
291.371	81.69
291.602	93.69
291.833	102.69
292.064	68.69
292.295	97.69
292.526	91.69
292.757	93.69
292.987	89.69
293.218	92.69
293.449	99.69
293.68	87.69
293.91	75.69
294.141	80.69
294.372	81.69
294.603	101.69
294.833	89.69
295.064	96.69
295.295	91.69
295.525	91.69
295.756	104.69
295.987	97.69
296.217	115.69
296.448	101.69
296.679	102.69
296.909	88.69
297.14	89.69
297.37	84.69
297.601	83.69
297.831	97.69
298.062	86.69
298.292	80.69
298.523	70.69
298.753	67.69
298.984	89.69
299.214	87.69
299.445	85.69
299.675	83.69
299.905	94.69
300.136	88.69
300.366	70.69
300.597	77.69
300.827	95.69
301.057	97.69
301.288	99.69
301.518	102.69
301.748	98.69
301.979	101.69
302.209	77.69
302.439	88.69
302.669	99.69
302.9	90.69
303.13	94.69
303.36	96.69
303.59	97.69
303.82	89.69
304.051	84.69
304.281	86.69
304.511	95.69
304.741	85.69
304.971	84.69
305.201	80.69
305.431	90.69
305.661	83.69
305.891	100.69
306.121	95.69
306.352	92.69
306.582	103.69
306.812	85.69
307.042	77.69
307.272	94.69
307.502	85.69
307.731	91.69
307.961	95.69
308.191	98.69
308.421	91.69
308.651	107.69
308.881	85.69
309.111	78.69
309.341	97.69
309.571	99.69
309.8	90.69
310.03	101.69
310.26	101.69
310.49	84.69
310.72	102.69
310.949	83.69
311.179	90.69
311.409	91.69
311.639	86.69
311.868	111.69
312.098	92.69
312.328	81.69
312.557	95.69
312.787	99.69
313.017	84.69
313.246	91.69
313.476	84.69
313.706	84.69
313.935	98.69
314.165	83.69
314.394	99.69
314.624	86.69
314.853	89.69
315.083	81.69
315.312	99.69
315.542	103.69
315.771	77.69
316.001	99.69
316.23	94.69
316.46	89.69
316.689	91.69
316.919	85.69
317.148	86.69
317.377	74.69
317.607	88.69
317.836	79.69
318.065	95.69
318.295	113.69
318.524	89.69
318.753	78.69
318.983	89.69
319.212	77.69
319.441	93.69
319.67	103.69
319.9	98.69
320.129	87.69
320.358	86.69
320.587	97.69
320.816	98.69
321.046	93.69
321.275	89.69
321.504	88.69
321.733	83.69
321.962	109.69
322.191	112.69
322.42	109.69
322.649	121.69
322.878	110.69
323.108	110.69
323.337	114.69
323.566	122.69
323.795	131.69
324.024	171.69
324.253	321.69
324.482	729.69
324.71	1524.69
324.939	2037.69
325.168	728.69
325.397	230.69
325.626	134.69
325.855	119.69
326.084	112.69
326.313	115.69
326.542	137.69
326.77	204.69
326.999	418.69
327.228	866.69
327.457	1549.69
327.686	1274.69
327.914	355.69
328.143	174.69
328.372	125.69
328.6	115.69
328.829	120.69
329.058	111.69
329.287	110.69
329.515	98.69
329.744	99.69
329.972	90.69
330.201	95.69
330.43	101.69
330.658	108.69
330.887	113.69
331.115	95.69
331.344	83.69
331.572	107.69
331.801	105.69
332.03	96.69
332.258	92.69
332.486	91.69
332.715	100.69
332.943	84.69
333.172	80.69
333.4	98.69
333.629	104.69
333.857	111.69
334.085	88.69
334.314	88.69
334.542	106.69
334.771	96.69
334.999	90.69
335.227	96.69
335.455	91.69
335.684	98.69
335.912	93.69
336.14	98.69
336.369	92.69
336.597	98.69
336.825	105.69
337.053	90.69
337.281	87.69
337.51	87.69
337.738	105.69
337.966	91.69
338.194	90.69
338.422	88.69
338.65	83.69
338.878	97.69
339.106	98.69
339.334	97.69
339.562	93.69
339.79	87.69
340.018	93.69
340.246	87.69
340.474	98.69
340.702	89.69
340.93	89.69
341.158	89.69
341.386	77.69
341.614	89.69
341.842	91.69
342.07	94.69
342.298	83.69
342.526	90.69
342.754	102.69
342.981	99.69
343.209	84.69
343.437	109.69
343.665	101.69
343.893	91.69
344.12	90.69
344.348	83.69
344.576	89.69
344.804	91.69
345.031	91.69
345.259	110.69
345.487	94.69
345.714	83.69
345.942	91.69
346.17	94.69
346.397	95.69
346.625	101.69
346.853	95.69
347.08	80.69
347.308	86.69
347.535	103.69
347.763	98.69
347.99	86.69
348.218	86.69
348.445	111.69
348.673	91.69
348.9	95.69
349.128	85.69
349.355	76.69
349.583	99.69
349.81	93.69
350.037	94.69
350.265	91.69
350.492	92.69
350.72	102.69
350.947	98.69
351.174	102.69
351.402	92.69
351.629	97.69
351.856	84.69
352.083	93.69
352.311	97.69
352.538	96.69
352.765	102.69
352.992	103.69
353.22	90.69
353.447	98.69
353.674	104.69
353.901	98.69
354.128	96.69
354.355	87.69
354.583	85.69
354.81	104.69
355.037	95.69
355.264	72.69
355.491	112.69
355.718	89.69
355.945	82.69
356.172	82.69
356.399	91.69
356.626	90.69
356.853	94.69
357.08	95.69
357.307	74.69
357.534	95.69
357.761	90.69
357.988	103.69
358.215	85.69
358.441	100.69
358.668	84.69
358.895	79.69
359.122	89.69
359.349	78.69
359.576	94.69
359.802	98.69
360.029	99.69
360.256	89.69
360.483	93.69
360.709	78.69
360.936	100.69
361.163	90.69
361.39	97.69
361.616	85.69
361.843	95.69
362.07	107.69
362.296	95.69
362.523	98.69
362.749	93.69
362.976	79.69
363.203	80.69
363.429	78.69
363.656	93.69
363.882	78.69
364.109	99.69
364.335	104.69
364.562	96.69
364.788	95.69
365.015	98.69
365.241	103.69
365.468	97.69
365.694	91.69
365.92	103.69
366.147	95.69
366.373	95.69
366.599	79.69
366.826	97.69
367.052	80.69
367.278	80.69
367.505	92.69
367.731	94.69
367.957	99.69
368.184	92.69
368.41	95.69
368.636	103.69
368.862	97.69
369.089	99.69
369.315	109.69
369.541	92.69
369.767	95.69
369.993	97.69
370.219	88.69
370.445	88.69
370.672	96.69
370.898	95.69
371.124	82.69
371.35	67.69
371.576	101.69
371.802	83.69
372.028	105.69
372.254	83.69
372.48	93.69
372.706	77.69
372.932	74.69
373.158	79.69
373.384	99.69
373.61	82.69
373.835	84.69
374.061	85.69
374.287	81.69
374.513	73.69
374.739	69.69
374.965	80.69
375.191	64.69
375.416	98.69
375.642	85.69
375.868	84.69
376.094	103.69
376.319	93.69
376.545	88.69
376.771	77.69
376.997	91.69
377.222	78.69
377.448	99.69
377.674	92.69
377.899	94.69
378.125	93.69
378.35	87.69
378.576	78.69
378.802	99.69
379.027	83.69
379.253	79.69
379.478	99.69
379.704	73.69
379.929	81.69
380.155	101.69
380.38	92.69
380.606	75.69
380.831	88.69
381.057	92.69
381.282	90.69
381.507	100.69
381.733	115.69
381.958	95.69
382.184	74.69
382.409	89.69
382.634	99.69
382.86	104.69
383.085	91.69
383.31	92.69
383.535	93.69
383.761	91.69
383.986	94.69
384.211	94.69
384.436	105.69
384.662	103.69
384.887	96.69
385.112	97.69
385.337	95.69
385.562	86.69
385.787	116.69
386.013	104.69
386.238	108.69
386.463	96.69
386.688	108.69
386.913	105.69
387.138	102.69
387.363	107.69
387.588	96.69
387.813	90.69
388.038	98.69
388.263	109.69
388.488	108.69
388.713	87.69
388.938	87.69
389.163	90.69
389.387	89.69
389.612	98.69
389.837	95.69
390.062	85.69
390.287	86.69
390.512	97.69
390.736	95.69
390.961	88.69
391.186	96.69
391.411	107.69
391.636	83.69
391.86	100.69
392.085	78.69
392.31	82.69
392.534	79.69
392.759	79.69
392.984	83.69
393.208	85.69
393.433	109.69
393.658	90.69
393.882	80.69
394.107	83.69
394.331	73.69
394.556	95.69
394.78	86.69
395.005	72.69
395.229	84.69
395.454	72.69
395.678	77.69
395.903	82.69
396.127	96.69
396.352	90.69
396.576	94.69
396.801	96.69
397.025	67.69
397.249	77.69
397.474	98.69
397.698	95.69
397.922	82.69
398.147	95.69
398.371	85.69
398.595	82.69
398.82	66.69
399.044	87.69
399.268	79.69
399.492	82.69
399.717	98.69
399.941	94.69
400.165	102.69
400.389	97.69
400.613	90.69
400.837	93.69
401.062	88.69
401.286	74.69
401.51	98.69
401.734	94.69
401.958	89.69
402.182	119.69
402.406	133.69
402.63	95.69
402.854	90.69
403.078	85.69
403.302	80.69
403.526	81.69
403.75	84.69
403.974	93.69
404.198	85.69
404.422	90.69
404.645	79.69
404.869	92.69
405.093	84.69
405.317	94.69
405.541	83.69
405.765	94.69
405.988	114.69
406.212	145.69
406.436	187.69
406.66	132.69
406.883	102.69
407.107	93.69
407.331	101.69
407.555	104.69
407.778	100.69
408.002	90.69
408.226	81.69
408.449	75.69
408.673	94.69
408.896	97.69
409.12	97.69
409.344	99.69
409.567	106.69
409.791	73.69
410.014	80.69
410.238	71.69
410.461	87.69
410.685	95.69
410.908	88.69
411.132	93.69
411.355	106.69
411.578	96.69
411.802	75.69
412.025	83.69
412.249	102.69
412.472	70.69
412.695	81.69
412.919	83.69
413.142	98.69
413.365	86.69
413.589	79.69
413.812	86.69
414.035	96.69
414.258	89.69
414.482	74.69
414.705	75.69
414.928	89.69
415.151	87.69
415.374	78.69
415.597	101.69
415.821	96.69
416.044	85.69
416.267	98.69
416.49	97.69
416.713	91.69
416.936	91.69
417.159	88.69
417.382	75.69
417.605	82.69
417.828	94.69
418.051	77.69
418.274	79.69
418.497	76.69
418.72	61.69
418.943	79.69
419.166	86.69
419.389	85.69
419.611	89.69
419.834	89.69
420.057	88.69
420.28	86.69
420.503	78.69
420.726	88.69
420.948	96.69
421.171	83.69
421.394	86.69
421.617	84.69
421.839	86.69
422.062	82.69
422.285	104.69
422.507	114.69
422.73	101.69
422.953	106.69
423.175	95.69
423.398	93.69
423.621	95.69
423.843	89.69
424.066	74.69
424.288	88.69
424.511	79.69
424.733	84.69
424.956	99.69
425.178	97.69
425.401	94.69
425.623	98.69
425.846	94.69
426.068	81.69
426.291	79.69
426.513	85.69
426.735	86.69
426.958	89.69
427.18	90.69
427.402	135.69
427.625	135.69
427.847	112.69
428.069	95.69
428.292	93.69
428.514	81.69
428.736	81.69
428.958	91.69
429.181	90.69
429.403	84.69
429.625	72.69
429.847	96.69
430.069	96.69
430.292	83.69
430.514	70.69
430.736	77.69
430.958	87.69
431.18	78.69
431.402	85.69
431.624	72.69
431.846	83.69
432.068	95.69
432.29	96.69
432.512	93.69
432.734	87.69
432.956	89.69
433.178	100.69
433.4	97.69
433.622	98.69
433.844	93.69
434.066	88.69
434.287	105.69
434.509	90.69
434.731	79.69
434.953	86.69
435.175	90.69
435.397	84.69
435.618	74.69
435.84	99.69
436.062	124.69
436.284	93.69
436.505	102.69
436.727	90.69
436.949	82.69
437.17	91.69
437.392	96.69
437.614	83.69
437.835	93.69
438.057	106.69
438.278	107.69
438.5	109.69
438.721	119.69
438.943	93.69
439.165	77.69
439.386	85.69
439.608	82.69
439.829	88.69
440.05	120.69
440.272	137.69
440.493	86.69
440.715	89.69
440.936	83.69
441.158	78.69
441.379	87.69
441.6	91.69
441.822	84.69
442.043	90.69
442.264	98.69
442.486	88.69
442.707	106.69
442.928	114.69
443.149	112.69
443.371	122.69
443.592	104.69
443.813	111.69
444.034	106.69
444.255	97.69
444.476	85.69
444.698	71.69
444.919	101.69
445.14	152.69
445.361	125.69
445.582	103.69
445.803	114.69
446.024	113.69
446.245	104.69
446.466	106.69
446.687	92.69
446.908	81.69
447.129	88.69
447.35	79.69
447.571	84.69
447.792	93.69
448.013	97.69
448.234	94.69
448.455	98.69
448.675	116.69
448.896	120.69
449.117	102.69
449.338	110.69
449.559	132.69
449.779	122.69
450	81.69
450.221	74.69
450.442	88.69
450.662	82.69
450.883	104.69
451.104	105.69
451.324	89.69
451.545	98.69
451.766	90.69
451.986	89.69
452.207	87.69
452.428	83.69
452.648	97.69
452.869	106.69
453.089	94.69
453.31	107.69
453.53	81.69
453.751	83.69
453.971	91.69
454.192	111.69
454.412	83.69
454.633	87.69
454.853	72.69
455.073	90.69
455.294	100.69
455.514	96.69
455.734	82.69
455.955	85.69
456.175	95.69
456.395	92.69
456.616	96.69
456.836	85.69
457.056	81.69
457.276	89.69
457.497	74.69
457.717	84.69
457.937	87.69
458.157	87.69
458.377	98.69
458.598	101.69
458.818	134.69
459.038	138.69
459.258	109.69
459.478	97.69
459.698	87.69
459.918	82.69
460.138	91.69
460.358	87.69
460.578	82.69
460.798	86.69
461.018	106.69
461.238	93.69
461.458	87.69
461.678	76.69
461.898	98.69
462.118	79.69
462.338	83.69
462.558	97.69
462.777	81.69
462.997	89.69
463.217	90.69
463.437	78.69
463.657	87.69
463.876	99.69
464.096	90.69
464.316	85.69
464.536	83.69
464.755	80.69
464.975	97.69
465.195	136.69
465.414	126.69
465.634	94.69
465.854	71.69
466.073	94.69
466.293	69.69
466.512	93.69
466.732	80.69
466.951	87.69
467.171	93.69
467.391	88.69
467.61	93.69
467.829	78.69
468.049	88.69
468.268	85.69
468.488	88.69
468.707	96.69
468.927	86.69
469.146	84.69
469.365	84.69
469.585	70.69
469.804	104.69
470.023	83.69
470.243	79.69
470.462	93.69
470.681	103.69
470.901	97.69
471.12	93.69
471.339	86.69
471.558	73.69
471.777	79.69
471.997	79.69
472.216	85.69
472.435	94.69
472.654	92.69
472.873	89.69
473.092	84.69
473.311	87.69
473.53	78.69
473.749	91.69
473.968	89.69
474.187	100.69
474.406	95.69
474.625	81.69
474.844	77.69
475.063	91.69
475.282	82.69
475.501	88.69
475.72	99.69
475.939	81.69
476.158	89.69
476.377	80.69
476.596	86.69
476.814	92.69
477.033	89.69
477.252	97.69
477.471	92.69
477.69	74.69
477.908	91.69
478.127	81.69
478.346	85.69
478.564	89.69
478.783	90.69
479.002	83.69
479.22	90.69
479.439	97.69
479.658	97.69
479.876	82.69
480.095	86.69
480.313	72.69
480.532	89.69
480.751	90.69
480.969	87.69
481.188	100.69
481.406	105.69
481.624	89.69
481.843	86.69
482.061	90.69
482.28	92.69
482.498	95.69
482.717	96.69
482.935	72.69
483.153	70.69
483.372	82.69
483.59	94.69
483.808	96.69
484.027	93.69
484.245	88.69
484.463	88.69
484.681	67.69
484.9	95.69
485.118	101.69
485.336	95.69
485.554	74.69
485.772	104.69
485.99	101.69
486.209	104.69
486.427	115.69
486.645	121.69
486.863	99.69
487.081	104.69
487.299	96.69
487.517	114.69
487.735	87.69
487.953	88.69
488.171	72.69
488.389	79.69
488.607	99.69
488.825	81.69
489.043	84.69
489.261	98.69
489.479	72.69
489.696	81.69
489.914	88.69
490.132	91.69
490.35	99.69
490.568	80.69
490.786	83.69
491.003	73.69
491.221	107.69
491.439	103.69
491.657	92.69
491.874	99.69
492.092	93.69
492.31	85.69
492.527	83.69
492.745	81.69
492.963	96.69
493.18	110.69
493.398	89.69
493.615	93.69
493.833	88.69
494.05	87.69
494.268	84.69
494.485	80.69
494.703	88.69
494.92	89.69
495.138	90.69
495.355	92.69
495.573	90.69
495.79	90.69
496.008	99.69
496.225	89.69
496.442	97.69
496.66	90.69
496.877	103.69
497.094	98.69
497.312	97.69
497.529	89.69
497.746	96.69
497.963	98.69
498.181	81.69
498.398	104.69
498.615	90.69
498.832	86.69
499.049	93.69
499.267	79.69
499.484	91.69
499.701	84.69
499.918	85.69
500.135	91.69
500.352	86.69
500.569	84.69
500.786	86.69
501.003	91.69
501.22	82.69
501.437	82.69
501.654	94.69
501.871	91.69
502.088	88.69
502.305	85.69
502.522	80.69
502.739	99.69
502.956	86.69
503.172	97.69
503.389	94.69
503.606	83.69
503.823	87.69
504.04	87.69
504.256	79.69
504.473	69.69
504.69	87.69
504.907	104.69
505.123	94.69
505.34	81.69
505.557	99.69
505.773	81.69
505.99	88.69
506.207	83.69
506.423	82.69
506.64	89.69
506.856	73.69
507.073	95.69
507.289	101.69
507.506	90.69
507.722	105.69
507.939	81.69
508.155	89.69
508.372	98.69
508.588	89.69
508.805	90.69
509.021	80.69
509.238	108.69
509.454	104.69
509.67	104.69
509.887	110.69
510.103	126.69
510.319	197.69
510.536	663.69
510.752	2036.69
510.968	561.69
511.184	130.69
511.401	101.69
511.617	90.69
511.833	93.69
512.049	79.69
512.265	89.69
512.481	91.69
512.698	88.69
512.914	83.69
513.13	82.69
513.346	91.69
513.562	85.69
513.778	97.69
513.994	91.69
514.21	99.69
514.426	109.69
514.642	115.69
514.858	122.69
515.074	142.69
515.29	386.69
515.506	1215.69
515.721	436.69
515.937	134.69
516.153	125.69
516.369	86.69
516.585	99.69
516.801	103.69
517.016	75.69
