Data from Uncirc_1984_H10_HRD10591_00001.txt Node
Date: Wed Jan 03 12:21:37 EST 2024
User: Yrep
Spectrometer: HR+D1059
Trigger mode: 1
Integration Time (sec): 1.000000E-1
Scans to average: 1
Electric dark correction enabled: true
Nonlinearity correction enabled: false
Boxcar width: 0
XAxis mode: Wavelengths
Number of Pixels in Spectrum: 2048
>>>>>Begin Spectral Data<<<<<
223.165	-24.88
223.4	-24.88
223.635	-24.88
223.869	-3.88
224.104	-7.88
224.338	-13.88
224.573	-10.88
224.808	-15.88
225.042	-25.88
225.277	-0.88
225.511	0.12
225.746	1.12
225.98	6.12
226.215	9.12
226.449	14.12
226.683	21.12
226.918	27.12
227.152	25.12
227.387	35.12
227.621	36.12
227.856	40.12
228.09	50.12
228.324	49.12
228.559	56.12
228.793	57.12
229.027	59.12
229.262	61.12
229.496	72.12
229.73	81.12
229.964	79.12
230.199	67.12
230.433	67.12
230.667	72.12
230.901	76.12
231.136	69.12
231.37	84.12
231.604	77.12
231.838	79.12
232.072	85.12
232.306	68.12
232.541	77.12
232.775	85.12
233.009	89.12
233.243	73.12
233.477	75.12
233.711	84.12
233.945	82.12
234.179	76.12
234.413	60.12
234.647	82.12
234.881	62.12
235.115	71.12
235.349	82.12
235.583	85.12
235.817	86.12
236.051	94.12
236.285	78.12
236.519	75.12
236.753	79.12
236.987	64.12
237.221	80.12
237.455	90.12
237.689	72.12
237.922	72.12
238.156	84.12
238.39	64.12
238.624	71.12
238.858	68.12
239.091	66.12
239.325	74.12
239.559	73.12
239.793	89.12
240.027	84.12
240.26	72.12
240.494	68.12
240.728	64.12
240.961	72.12
241.195	88.12
241.429	80.12
241.662	78.12
241.896	90.12
242.13	63.12
242.363	77.12
242.597	66.12
242.83	73.12
243.064	77.12
243.298	79.12
243.531	77.12
243.765	67.12
243.998	77.12
244.232	83.12
244.465	83.12
244.699	88.12
244.932	80.12
245.166	56.12
245.399	74.12
245.633	77.12
245.866	91.12
246.099	75.12
246.333	73.12
246.566	68.12
246.8	78.12
247.033	78.12
247.266	67.12
247.5	66.12
247.733	68.12
247.966	93.12
248.2	85.12
248.433	67.12
248.666	79.12
248.899	72.12
249.133	76.12
249.366	86.12
249.599	86.12
249.832	83.12
250.066	71.12
250.299	79.12
250.532	69.12
250.765	77.12
250.998	78.12
251.231	76.12
251.465	79.12
251.698	81.12
251.931	72.12
252.164	86.12
252.397	68.12
252.63	70.12
252.863	85.12
253.096	76.12
253.329	68.12
253.562	76.12
253.795	68.12
254.028	77.12
254.261	88.12
254.494	77.12
254.727	68.12
254.96	77.12
255.193	72.12
255.426	74.12
255.659	82.12
255.892	85.12
256.124	82.12
256.357	75.12
256.59	80.12
256.823	91.12
257.056	72.12
257.289	79.12
257.521	66.12
257.754	65.12
257.987	56.12
258.22	81.12
258.452	95.12
258.685	81.12
258.918	77.12
259.151	74.12
259.383	72.12
259.616	77.12
259.849	85.12
260.081	72.12
260.314	80.12
260.547	82.12
260.779	83.12
261.012	78.12
261.244	67.12
261.477	81.12
261.71	93.12
261.942	82.12
262.175	110.12
262.407	77.12
262.64	77.12
262.872	80.12
263.105	90.12
263.337	80.12
263.57	81.12
263.802	84.12
264.035	80.12
264.267	80.12
264.499	83.12
264.732	79.12
264.964	72.12
265.197	91.12
265.429	95.12
265.661	83.12
265.894	76.12
266.126	89.12
266.358	91.12
266.591	80.12
266.823	81.12
267.055	82.12
267.287	75.12
267.52	76.12
267.752	75.12
267.984	85.12
268.216	90.12
268.448	85.12
268.681	55.12
268.913	88.12
269.145	85.12
269.377	86.12
269.609	80.12
269.841	79.12
270.073	87.12
270.306	92.12
270.538	94.12
270.77	89.12
271.002	84.12
271.234	88.12
271.466	77.12
271.698	72.12
271.93	80.12
272.162	89.12
272.394	78.12
272.626	80.12
272.858	100.12
273.09	88.12
273.322	85.12
273.553	89.12
273.785	95.12
274.017	86.12
274.249	87.12
274.481	75.12
274.713	81.12
274.945	75.12
275.176	87.12
275.408	94.12
275.64	87.12
275.872	82.12
276.104	99.12
276.335	95.12
276.567	77.12
276.799	101.12
277.031	88.12
277.262	85.12
277.494	95.12
277.726	84.12
277.957	83.12
278.189	94.12
278.421	87.12
278.652	77.12
278.884	83.12
279.115	89.12
279.347	89.12
279.579	64.12
279.81	75.12
280.042	96.12
280.273	77.12
280.505	84.12
280.736	87.12
280.968	84.12
281.199	101.12
281.431	80.12
281.662	87.12
281.894	89.12
282.125	97.12
282.356	124.12
282.588	111.12
282.819	91.12
283.051	94.12
283.282	79.12
283.513	85.12
283.745	87.12
283.976	89.12
284.207	75.12
284.439	81.12
284.67	91.12
284.901	85.12
285.132	99.12
285.364	85.12
285.595	70.12
285.826	93.12
286.057	78.12
286.288	91.12
286.52	85.12
286.751	72.12
286.982	82.12
287.213	87.12
287.444	76.12
287.675	71.12
287.906	83.12
288.138	77.12
288.369	86.12
288.6	94.12
288.831	83.12
289.062	96.12
289.293	94.12
289.524	80.12
289.755	93.12
289.986	76.12
290.217	89.12
290.448	84.12
290.679	78.12
290.91	94.12
291.141	80.12
291.371	80.12
291.602	76.12
291.833	81.12
292.064	65.12
292.295	88.12
292.526	75.12
292.757	84.12
292.987	79.12
293.218	82.12
293.449	80.12
293.68	80.12
293.91	91.12
294.141	75.12
294.372	86.12
294.603	80.12
294.833	71.12
295.064	101.12
295.295	105.12
295.525	91.12
295.756	91.12
295.987	95.12
296.217	127.12
296.448	115.12
296.679	94.12
296.909	92.12
297.14	91.12
297.37	72.12
297.601	87.12
297.831	88.12
298.062	91.12
298.292	81.12
298.523	78.12
298.753	81.12
298.984	89.12
299.214	99.12
299.445	73.12
299.675	83.12
299.905	83.12
300.136	88.12
300.366	74.12
300.597	92.12
300.827	99.12
301.057	100.12
301.288	94.12
301.518	84.12
301.748	95.12
301.979	97.12
302.209	88.12
302.439	83.12
302.669	88.12
302.9	84.12
303.13	86.12
303.36	81.12
303.59	88.12
303.82	105.12
304.051	104.12
304.281	86.12
304.511	88.12
304.741	84.12
304.971	78.12
305.201	93.12
305.431	91.12
305.661	80.12
305.891	85.12
306.121	95.12
306.352	92.12
306.582	108.12
306.812	91.12
307.042	95.12
307.272	91.12
307.502	89.12
307.731	95.12
307.961	97.12
308.191	80.12
308.421	97.12
308.651	71.12
308.881	75.12
309.111	93.12
309.341	92.12
309.571	101.12
309.8	107.12
310.03	112.12
310.26	91.12
310.49	96.12
310.72	110.12
310.949	88.12
311.179	88.12
311.409	99.12
311.639	101.12
311.868	96.12
312.098	89.12
312.328	99.12
312.557	86.12
312.787	88.12
313.017	92.12
313.246	110.12
313.476	103.12
313.706	77.12
313.935	91.12
314.165	104.12
314.394	84.12
314.624	97.12
314.853	88.12
315.083	99.12
315.312	89.12
315.542	101.12
315.771	85.12
316.001	96.12
316.23	100.12
316.46	84.12
316.689	88.12
316.919	91.12
317.148	97.12
317.377	95.12
317.607	76.12
317.836	89.12
318.065	91.12
318.295	77.12
318.524	71.12
318.753	81.12
318.983	93.12
319.212	82.12
319.441	98.12
319.67	91.12
319.9	104.12
320.129	115.12
320.358	92.12
320.587	79.12
320.816	89.12
321.046	76.12
321.275	106.12
321.504	97.12
321.733	96.12
321.962	86.12
322.191	89.12
322.42	83.12
322.649	102.12
322.878	109.12
323.108	120.12
323.337	116.12
323.566	125.12
323.795	137.12
324.024	176.12
324.253	311.12
324.482	687.12
324.71	1370.12
324.939	1781.12
325.168	667.12
325.397	219.12
325.626	139.12
325.855	118.12
326.084	113.12
326.313	127.12
326.542	142.12
326.77	183.12
326.999	392.12
327.228	770.12
327.457	1434.12
327.686	1125.12
327.914	293.12
328.143	153.12
328.372	114.12
328.6	113.12
328.829	90.12
329.058	111.12
329.287	108.12
329.515	111.12
329.744	98.12
329.972	92.12
330.201	93.12
330.43	105.12
330.658	89.12
330.887	117.12
331.115	104.12
331.344	103.12
331.572	96.12
331.801	93.12
332.03	93.12
332.258	85.12
332.486	86.12
332.715	92.12
332.943	93.12
333.172	82.12
333.4	77.12
333.629	89.12
333.857	94.12
334.085	96.12
334.314	91.12
334.542	99.12
334.771	99.12
334.999	76.12
335.227	89.12
335.455	77.12
335.684	82.12
335.912	68.12
336.14	91.12
336.369	95.12
336.597	95.12
336.825	89.12
337.053	94.12
337.281	87.12
337.51	95.12
337.738	84.12
337.966	86.12
338.194	93.12
338.422	76.12
338.65	92.12
338.878	93.12
339.106	92.12
339.334	85.12
339.562	81.12
339.79	82.12
340.018	77.12
340.246	77.12
340.474	88.12
340.702	96.12
340.93	88.12
341.158	99.12
341.386	102.12
341.614	92.12
341.842	105.12
342.07	94.12
342.298	82.12
342.526	84.12
342.754	68.12
342.981	86.12
343.209	75.12
343.437	94.12
343.665	97.12
343.893	91.12
344.12	88.12
344.348	89.12
344.576	82.12
344.804	85.12
345.031	86.12
345.259	89.12
345.487	100.12
345.714	93.12
345.942	92.12
346.17	81.12
346.397	88.12
346.625	87.12
346.853	85.12
347.08	89.12
347.308	89.12
347.535	95.12
347.763	92.12
347.99	97.12
348.218	86.12
348.445	106.12
348.673	99.12
348.9	86.12
349.128	95.12
349.355	86.12
349.583	101.12
349.81	81.12
350.037	79.12
350.265	96.12
350.492	95.12
350.72	93.12
350.947	86.12
351.174	92.12
351.402	96.12
351.629	93.12
351.856	88.12
352.083	97.12
352.311	97.12
352.538	91.12
352.765	103.12
352.992	85.12
353.22	115.12
353.447	89.12
353.674	101.12
353.901	93.12
354.128	88.12
354.355	99.12
354.583	94.12
354.81	103.12
355.037	88.12
355.264	91.12
355.491	88.12
355.718	94.12
355.945	89.12
356.172	104.12
356.399	85.12
356.626	88.12
356.853	94.12
357.08	103.12
357.307	89.12
357.534	84.12
357.761	87.12
357.988	101.12
358.215	113.12
358.441	97.12
358.668	82.12
358.895	91.12
359.122	91.12
359.349	85.12
359.576	86.12
359.802	89.12
360.029	97.12
360.256	101.12
360.483	94.12
360.709	87.12
360.936	95.12
361.163	85.12
361.39	103.12
361.616	97.12
361.843	92.12
362.07	85.12
362.296	85.12
362.523	88.12
362.749	79.12
362.976	90.12
363.203	77.12
363.429	83.12
363.656	83.12
363.882	99.12
364.109	74.12
364.335	91.12
364.562	77.12
364.788	88.12
365.015	93.12
365.241	96.12
365.468	95.12
365.694	94.12
365.92	107.12
366.147	91.12
366.373	80.12
366.599	82.12
366.826	83.12
367.052	79.12
367.278	70.12
367.505	83.12
367.731	81.12
367.957	81.12
368.184	86.12
368.41	89.12
368.636	102.12
368.862	102.12
369.089	99.12
369.315	86.12
369.541	94.12
369.767	98.12
369.993	86.12
370.219	79.12
370.445	80.12
370.672	95.12
370.898	93.12
371.124	95.12
371.35	73.12
371.576	78.12
371.802	90.12
372.028	91.12
372.254	79.12
372.48	88.12
372.706	89.12
372.932	70.12
373.158	79.12
373.384	85.12
373.61	99.12
373.835	83.12
374.061	104.12
374.287	89.12
374.513	81.12
374.739	87.12
374.965	93.12
375.191	93.12
375.416	84.12
375.642	95.12
375.868	95.12
376.094	92.12
376.319	86.12
376.545	83.12
376.771	75.12
376.997	93.12
377.222	91.12
377.448	81.12
377.674	88.12
377.899	82.12
378.125	82.12
378.35	94.12
378.576	98.12
378.802	92.12
379.027	115.12
379.253	85.12
379.478	93.12
379.704	96.12
379.929	97.12
380.155	96.12
380.38	98.12
380.606	89.12
380.831	101.12
381.057	92.12
381.282	104.12
381.507	115.12
381.733	107.12
381.958	95.12
382.184	104.12
382.409	97.12
382.634	100.12
382.86	113.12
383.085	104.12
383.31	104.12
383.535	98.12
383.761	90.12
383.986	88.12
384.211	88.12
384.436	112.12
384.662	83.12
384.887	91.12
385.112	117.12
385.337	112.12
385.562	112.12
385.787	117.12
386.013	113.12
386.238	114.12
386.463	104.12
386.688	127.12
386.913	118.12
387.138	109.12
387.363	105.12
387.588	100.12
387.813	105.12
388.038	92.12
388.263	117.12
388.488	115.12
388.713	98.12
388.938	92.12
389.163	82.12
389.387	102.12
389.612	91.12
389.837	88.12
390.062	92.12
390.287	89.12
390.512	79.12
390.736	86.12
390.961	88.12
391.186	99.12
391.411	99.12
391.636	83.12
391.86	94.12
392.085	85.12
392.31	75.12
392.534	85.12
392.759	85.12
392.984	94.12
393.208	93.12
393.433	104.12
393.658	103.12
393.882	88.12
394.107	83.12
394.331	88.12
394.556	78.12
394.78	80.12
395.005	82.12
395.229	87.12
395.454	78.12
395.678	83.12
395.903	96.12
396.127	88.12
396.352	71.12
396.576	97.12
396.801	82.12
397.025	102.12
397.249	82.12
397.474	81.12
397.698	86.12
397.922	77.12
398.147	79.12
398.371	92.12
398.595	101.12
398.82	103.12
399.044	87.12
399.268	90.12
399.492	87.12
399.717	91.12
399.941	84.12
400.165	88.12
400.389	78.12
400.613	76.12
400.837	80.12
401.062	93.12
401.286	73.12
401.51	88.12
401.734	92.12
401.958	86.12
402.182	111.12
402.406	132.12
402.63	88.12
402.854	86.12
403.078	90.12
403.302	81.12
403.526	85.12
403.75	84.12
403.974	82.12
404.198	91.12
404.422	103.12
404.645	76.12
404.869	81.12
405.093	76.12
405.317	95.12
405.541	81.12
405.765	99.12
405.988	102.12
406.212	156.12
406.436	167.12
406.66	109.12
406.883	85.12
407.107	87.12
407.331	72.12
407.555	97.12
407.778	78.12
408.002	79.12
408.226	79.12
408.449	60.12
408.673	85.12
408.896	84.12
409.12	93.12
409.344	90.12
409.567	85.12
409.791	84.12
410.014	94.12
410.238	95.12
410.461	92.12
410.685	95.12
410.908	87.12
411.132	96.12
411.355	95.12
411.578	83.12
411.802	87.12
412.025	81.12
412.249	99.12
412.472	79.12
412.695	87.12
412.919	82.12
413.142	61.12
413.365	79.12
413.589	90.12
413.812	69.12
414.035	92.12
414.258	91.12
414.482	77.12
414.705	86.12
414.928	95.12
415.151	92.12
415.374	90.12
415.597	101.12
415.821	83.12
416.044	89.12
416.267	89.12
416.49	97.12
416.713	72.12
416.936	86.12
417.159	79.12
417.382	87.12
417.605	81.12
417.828	95.12
418.051	82.12
418.274	72.12
418.497	93.12
418.72	80.12
418.943	84.12
419.166	95.12
419.389	77.12
419.611	78.12
419.834	83.12
420.057	77.12
420.28	88.12
420.503	69.12
420.726	89.12
420.948	82.12
421.171	80.12
421.394	99.12
421.617	91.12
421.839	78.12
422.062	95.12
422.285	87.12
422.507	101.12
422.73	97.12
422.953	104.12
423.175	84.12
423.398	91.12
423.621	94.12
423.843	84.12
424.066	85.12
424.288	77.12
424.511	73.12
424.733	87.12
424.956	100.12
425.178	84.12
425.401	92.12
425.623	103.12
425.846	88.12
426.068	84.12
426.291	75.12
426.513	75.12
426.735	98.12
426.958	93.12
427.18	102.12
427.402	118.12
427.625	125.12
427.847	106.12
428.069	99.12
428.292	88.12
428.514	77.12
428.736	86.12
428.958	67.12
429.181	91.12
429.403	66.12
429.625	81.12
429.847	86.12
430.069	80.12
430.292	81.12
430.514	82.12
430.736	89.12
430.958	81.12
431.18	79.12
431.402	91.12
431.624	87.12
431.846	83.12
432.068	99.12
432.29	75.12
432.512	76.12
432.734	90.12
432.956	67.12
433.178	94.12
433.4	88.12
433.622	75.12
433.844	89.12
434.066	82.12
434.287	88.12
434.509	79.12
434.731	90.12
434.953	97.12
435.175	67.12
435.397	90.12
435.618	84.12
435.84	102.12
436.062	103.12
436.284	104.12
436.505	97.12
436.727	92.12
436.949	103.12
437.17	92.12
437.392	79.12
437.614	94.12
437.835	99.12
438.057	104.12
438.278	99.12
438.5	81.12
438.721	104.12
438.943	91.12
439.165	85.12
439.386	94.12
439.608	64.12
439.829	104.12
440.05	99.12
440.272	120.12
440.493	87.12
440.715	83.12
440.936	75.12
441.158	72.12
441.379	102.12
441.6	95.12
441.822	86.12
442.043	79.12
442.264	94.12
442.486	96.12
442.707	99.12
442.928	104.12
443.149	118.12
443.371	101.12
443.592	104.12
443.813	117.12
444.034	95.12
444.255	82.12
444.476	87.12
444.698	86.12
444.919	92.12
445.14	129.12
445.361	108.12
445.582	101.12
445.803	128.12
446.024	115.12
446.245	117.12
446.466	110.12
446.687	78.12
446.908	89.12
447.129	95.12
447.35	103.12
447.571	78.12
447.792	83.12
448.013	77.12
448.234	96.12
448.455	98.12
448.675	103.12
448.896	101.12
449.117	92.12
449.338	114.12
449.559	124.12
449.779	141.12
450	98.12
450.221	91.12
450.442	87.12
450.662	88.12
450.883	92.12
451.104	93.12
451.324	84.12
451.545	83.12
451.766	82.12
451.986	78.12
452.207	95.12
452.428	100.12
452.648	87.12
452.869	92.12
453.089	100.12
453.31	94.12
453.53	81.12
453.751	96.12
453.971	113.12
454.192	102.12
454.412	80.12
454.633	85.12
454.853	87.12
455.073	87.12
455.294	90.12
455.514	82.12
455.734	78.12
455.955	76.12
456.175	99.12
456.395	81.12
456.616	86.12
456.836	85.12
457.056	80.12
457.276	89.12
457.497	100.12
457.717	89.12
457.937	90.12
458.157	75.12
458.377	86.12
458.598	93.12
458.818	121.12
459.038	116.12
459.258	102.12
459.478	90.12
459.698	79.12
459.918	78.12
460.138	76.12
460.358	93.12
460.578	86.12
460.798	105.12
461.018	78.12
461.238	98.12
461.458	77.12
461.678	79.12
461.898	81.12
462.118	82.12
462.338	77.12
462.558	78.12
462.777	72.12
462.997	79.12
463.217	97.12
463.437	96.12
463.657	73.12
463.876	93.12
464.096	83.12
464.316	95.12
464.536	92.12
464.755	91.12
464.975	103.12
465.195	125.12
465.414	116.12
465.634	89.12
465.854	88.12
466.073	84.12
466.293	61.12
466.512	81.12
466.732	84.12
466.951	79.12
467.171	92.12
467.391	80.12
467.61	99.12
467.829	89.12
468.049	84.12
468.268	75.12
468.488	83.12
468.707	87.12
468.927	76.12
469.146	86.12
469.365	81.12
469.585	82.12
469.804	95.12
470.023	78.12
470.243	87.12
470.462	97.12
470.681	98.12
470.901	99.12
471.12	79.12
471.339	90.12
471.558	82.12
471.777	87.12
471.997	81.12
472.216	91.12
472.435	83.12
472.654	73.12
472.873	92.12
473.092	79.12
473.311	73.12
473.53	104.12
473.749	87.12
473.968	95.12
474.187	89.12
474.406	83.12
474.625	90.12
474.844	94.12
475.063	78.12
475.282	78.12
475.501	88.12
475.72	80.12
475.939	76.12
476.158	85.12
476.377	92.12
476.596	85.12
476.814	67.12
477.033	89.12
477.252	84.12
477.471	66.12
477.69	82.12
477.908	77.12
478.127	81.12
478.346	83.12
478.564	84.12
478.783	80.12
479.002	82.12
479.22	75.12
479.439	96.12
479.658	96.12
479.876	83.12
480.095	93.12
480.313	97.12
480.532	90.12
480.751	88.12
480.969	89.12
481.188	106.12
481.406	93.12
481.624	88.12
481.843	97.12
482.061	83.12
482.28	69.12
482.498	95.12
482.717	87.12
482.935	95.12
483.153	78.12
483.372	88.12
483.59	89.12
483.808	92.12
484.027	82.12
484.245	111.12
484.463	100.12
484.681	93.12
484.9	80.12
485.118	84.12
485.336	88.12
485.554	94.12
485.772	91.12
485.99	95.12
486.209	92.12
486.427	104.12
486.645	105.12
486.863	100.12
487.081	112.12
487.299	104.12
487.517	101.12
487.735	103.12
487.953	92.12
488.171	93.12
488.389	91.12
488.607	100.12
488.825	86.12
489.043	95.12
489.261	88.12
489.479	88.12
489.696	86.12
489.914	79.12
490.132	76.12
490.35	91.12
490.568	100.12
490.786	82.12
491.003	95.12
491.221	79.12
491.439	94.12
491.657	84.12
491.874	98.12
492.092	95.12
492.31	86.12
492.527	102.12
492.745	89.12
492.963	87.12
493.18	72.12
493.398	91.12
493.615	102.12
493.833	97.12
494.05	87.12
494.268	91.12
494.485	95.12
494.703	99.12
494.92	87.12
495.138	92.12
495.355	85.12
495.573	84.12
495.79	76.12
496.008	89.12
496.225	92.12
496.442	92.12
496.66	91.12
496.877	104.12
497.094	107.12
497.312	75.12
497.529	87.12
497.746	95.12
497.963	80.12
498.181	88.12
498.398	105.12
498.615	103.12
498.832	106.12
499.049	102.12
499.267	76.12
499.484	92.12
499.701	91.12
499.918	88.12
500.135	88.12
500.352	84.12
500.569	78.12
500.786	95.12
501.003	92.12
501.22	90.12
501.437	90.12
501.654	97.12
501.871	99.12
502.088	89.12
502.305	86.12
502.522	91.12
502.739	94.12
502.956	91.12
503.172	88.12
503.389	87.12
503.606	92.12
503.823	97.12
504.04	95.12
504.256	79.12
504.473	83.12
504.69	84.12
504.907	92.12
505.123	85.12
505.34	91.12
505.557	95.12
505.773	78.12
505.99	82.12
506.207	81.12
506.423	95.12
506.64	65.12
506.856	91.12
507.073	104.12
507.289	88.12
507.506	102.12
507.722	87.12
507.939	91.12
508.155	96.12
508.372	95.12
508.588	78.12
508.805	93.12
509.021	83.12
509.238	96.12
509.454	91.12
509.67	95.12
509.887	96.12
510.103	110.12
510.319	167.12
510.536	545.12
510.752	1699.12
510.968	472.12
511.184	138.12
511.401	102.12
511.617	91.12
511.833	86.12
512.049	97.12
512.265	90.12
512.481	85.12
512.698	93.12
512.914	91.12
513.13	92.12
513.346	93.12
513.562	102.12
513.778	90.12
513.994	84.12
514.21	94.12
514.426	104.12
514.642	116.12
514.858	103.12
515.074	125.12
515.29	320.12
515.506	997.12
515.721	379.12
515.937	118.12
516.153	93.12
516.369	85.12
516.585	87.12
516.801	99.12
517.016	93.12
517.232	92.12
