Data from Uncirc_1984_H10_HRD10591_00070.txt Node
Date: Wed Jan 03 12:21:51 EST 2024
User: Yrep
Spectrometer: HR+D1059
Trigger mode: 1
Integration Time (sec): 1.000000E-1
Scans to average: 1
Electric dark correction enabled: true
Nonlinearity correction enabled: false
Boxcar width: 0
XAxis mode: Wavelengths
Number of Pixels in Spectrum: 2048
>>>>>Begin Spectral Data<<<<<
223.165	-15.44
223.4	-15.44
223.635	-15.44
223.869	-21.44
224.104	-18.44
224.338	-9.44
224.573	-17.44
224.808	-4.44
225.042	-9.44
225.277	2.56
225.511	-2.44
225.746	-2.44
225.98	14.56
226.215	10.56
226.449	7.56
226.683	16.56
226.918	18.56
227.152	30.56
227.387	47.56
227.621	32.56
227.856	53.56
228.09	44.56
228.324	49.56
228.559	56.56
228.793	58.56
229.027	61.56
229.262	68.56
229.496	91.56
229.73	74.56
229.964	86.56
230.199	84.56
230.433	94.56
230.667	92.56
230.901	79.56
231.136	85.56
231.37	84.56
231.604	79.56
231.838	82.56
232.072	86.56
232.306	79.56
232.541	94.56
232.775	76.56
233.009	90.56
233.243	80.56
233.477	64.56
233.711	79.56
233.945	77.56
234.179	88.56
234.413	71.56
234.647	84.56
234.881	80.56
235.115	95.56
235.349	80.56
235.583	93.56
235.817	91.56
236.051	76.56
236.285	91.56
236.519	91.56
236.753	75.56
236.987	80.56
237.221	82.56
237.455	73.56
237.689	77.56
237.922	78.56
238.156	72.56
238.39	70.56
238.624	80.56
238.858	78.56
239.091	76.56
239.325	78.56
239.559	89.56
239.793	85.56
240.027	82.56
240.26	86.56
240.494	87.56
240.728	75.56
240.961	77.56
241.195	78.56
241.429	74.56
241.662	74.56
241.896	86.56
242.13	76.56
242.363	83.56
242.597	78.56
242.83	90.56
243.064	92.56
243.298	71.56
243.531	84.56
243.765	86.56
243.998	87.56
244.232	82.56
244.465	90.56
244.699	87.56
244.932	77.56
245.166	76.56
245.399	76.56
245.633	86.56
245.866	82.56
246.099	75.56
246.333	87.56
246.566	83.56
246.8	75.56
247.033	88.56
247.266	81.56
247.5	86.56
247.733	82.56
247.966	80.56
248.2	82.56
248.433	79.56
248.666	73.56
248.899	93.56
249.133	89.56
249.366	106.56
249.599	101.56
249.832	93.56
250.066	75.56
250.299	88.56
250.532	78.56
250.765	65.56
250.998	79.56
251.231	86.56
251.465	93.56
251.698	91.56
251.931	75.56
252.164	86.56
252.397	88.56
252.63	91.56
252.863	90.56
253.096	72.56
253.329	85.56
253.562	103.56
253.795	86.56
254.028	88.56
254.261	72.56
254.494	75.56
254.727	80.56
254.96	87.56
255.193	93.56
255.426	85.56
255.659	77.56
255.892	77.56
256.124	83.56
256.357	71.56
256.59	79.56
256.823	82.56
257.056	85.56
257.289	94.56
257.521	103.56
257.754	89.56
257.987	87.56
258.22	89.56
258.452	94.56
258.685	90.56
258.918	89.56
259.151	84.56
259.383	85.56
259.616	67.56
259.849	79.56
260.081	86.56
260.314	80.56
260.547	86.56
260.779	78.56
261.012	90.56
261.244	92.56
261.477	82.56
261.71	88.56
261.942	114.56
262.175	126.56
262.407	92.56
262.64	86.56
262.872	92.56
263.105	88.56
263.337	74.56
263.57	90.56
263.802	84.56
264.035	94.56
264.267	84.56
264.499	80.56
264.732	82.56
264.964	82.56
265.197	74.56
265.429	88.56
265.661	70.56
265.894	74.56
266.126	102.56
266.358	90.56
266.591	70.56
266.823	69.56
267.055	82.56
267.287	89.56
267.52	80.56
267.752	90.56
267.984	85.56
268.216	88.56
268.448	95.56
268.681	86.56
268.913	103.56
269.145	79.56
269.377	79.56
269.609	85.56
269.841	88.56
270.073	91.56
270.306	98.56
270.538	86.56
270.77	85.56
271.002	94.56
271.234	104.56
271.466	85.56
271.698	83.56
271.93	67.56
272.162	100.56
272.394	74.56
272.626	91.56
272.858	88.56
273.09	76.56
273.322	87.56
273.553	87.56
273.785	82.56
274.017	92.56
274.249	86.56
274.481	92.56
274.713	101.56
274.945	83.56
275.176	85.56
275.408	88.56
275.64	80.56
275.872	78.56
276.104	94.56
276.335	94.56
276.567	94.56
276.799	111.56
277.031	99.56
277.262	88.56
277.494	95.56
277.726	94.56
277.957	97.56
278.189	95.56
278.421	94.56
278.652	88.56
278.884	99.56
279.115	98.56
279.347	75.56
279.579	96.56
279.81	86.56
280.042	99.56
280.273	105.56
280.505	95.56
280.736	79.56
280.968	98.56
281.199	78.56
281.431	89.56
281.662	94.56
281.894	83.56
282.125	109.56
282.356	118.56
282.588	127.56
282.819	109.56
283.051	99.56
283.282	86.56
283.513	87.56
283.745	99.56
283.976	95.56
284.207	88.56
284.439	79.56
284.67	92.56
284.901	83.56
285.132	97.56
285.364	94.56
285.595	98.56
285.826	91.56
286.057	94.56
286.288	93.56
286.52	101.56
286.751	96.56
286.982	101.56
287.213	77.56
287.444	94.56
287.675	92.56
287.906	91.56
288.138	92.56
288.369	102.56
288.6	93.56
288.831	92.56
289.062	91.56
289.293	84.56
289.524	75.56
289.755	83.56
289.986	81.56
290.217	80.56
290.448	96.56
290.679	93.56
290.91	98.56
291.141	99.56
291.371	94.56
291.602	93.56
291.833	99.56
292.064	95.56
292.295	95.56
292.526	93.56
292.757	90.56
292.987	91.56
293.218	91.56
293.449	87.56
293.68	87.56
293.91	85.56
294.141	82.56
294.372	97.56
294.603	95.56
294.833	92.56
295.064	98.56
295.295	96.56
295.525	80.56
295.756	111.56
295.987	118.56
296.217	136.56
296.448	125.56
296.679	92.56
296.909	96.56
297.14	87.56
297.37	104.56
297.601	102.56
297.831	93.56
298.062	103.56
298.292	96.56
298.523	99.56
298.753	93.56
298.984	88.56
299.214	103.56
299.445	96.56
299.675	102.56
299.905	91.56
300.136	99.56
300.366	104.56
300.597	103.56
300.827	98.56
301.057	107.56
301.288	101.56
301.518	96.56
301.748	76.56
301.979	108.56
302.209	88.56
302.439	88.56
302.669	91.56
302.9	82.56
303.13	88.56
303.36	94.56
303.59	94.56
303.82	99.56
304.051	96.56
304.281	99.56
304.511	98.56
304.741	94.56
304.971	99.56
305.201	84.56
305.431	99.56
305.661	87.56
305.891	101.56
306.121	106.56
306.352	113.56
306.582	114.56
306.812	114.56
307.042	96.56
307.272	97.56
307.502	103.56
307.731	96.56
307.961	92.56
308.191	84.56
308.421	107.56
308.651	78.56
308.881	99.56
309.111	101.56
309.341	109.56
309.571	101.56
309.8	88.56
310.03	105.56
310.26	111.56
310.49	88.56
310.72	111.56
310.949	118.56
311.179	115.56
311.409	103.56
311.639	108.56
311.868	111.56
312.098	104.56
312.328	98.56
312.557	106.56
312.787	105.56
313.017	120.56
313.246	82.56
313.476	89.56
313.706	91.56
313.935	95.56
314.165	96.56
314.394	98.56
314.624	99.56
314.853	112.56
315.083	90.56
315.312	94.56
315.542	97.56
315.771	97.56
316.001	97.56
316.23	101.56
316.46	74.56
316.689	92.56
316.919	108.56
317.148	93.56
317.377	106.56
317.607	117.56
317.836	110.56
318.065	96.56
318.295	97.56
318.524	111.56
318.753	91.56
318.983	107.56
319.212	98.56
319.441	118.56
319.67	105.56
319.9	92.56
320.129	101.56
320.358	102.56
320.587	91.56
320.816	90.56
321.046	92.56
321.275	110.56
321.504	106.56
321.733	104.56
321.962	101.56
322.191	108.56
322.42	102.56
322.649	111.56
322.878	118.56
323.108	115.56
323.337	123.56
323.566	154.56
323.795	155.56
324.024	199.56
324.253	402.56
324.482	833.56
324.71	1774.56
324.939	2330.56
325.168	842.56
325.397	257.56
325.626	157.56
325.855	123.56
326.084	119.56
326.313	128.56
326.542	159.56
326.77	230.56
326.999	454.56
327.228	982.56
327.457	1780.56
327.686	1448.56
327.914	380.56
328.143	194.56
328.372	149.56
328.6	118.56
328.829	111.56
329.058	134.56
329.287	132.56
329.515	105.56
329.744	109.56
329.972	110.56
330.201	106.56
330.43	107.56
330.658	126.56
330.887	148.56
331.115	134.56
331.344	111.56
331.572	96.56
331.801	108.56
332.03	101.56
332.258	109.56
332.486	95.56
332.715	95.56
332.943	92.56
333.172	93.56
333.4	114.56
333.629	100.56
333.857	124.56
334.085	104.56
334.314	95.56
334.542	116.56
334.771	113.56
334.999	90.56
335.227	111.56
335.455	92.56
335.684	98.56
335.912	110.56
336.14	113.56
336.369	96.56
336.597	92.56
336.825	103.56
337.053	94.56
337.281	96.56
337.51	86.56
337.738	99.56
337.966	95.56
338.194	88.56
338.422	108.56
338.65	99.56
338.878	95.56
339.106	94.56
339.334	105.56
339.562	93.56
339.79	93.56
340.018	84.56
340.246	97.56
340.474	97.56
340.702	101.56
340.93	99.56
341.158	99.56
341.386	94.56
341.614	103.56
341.842	96.56
342.07	101.56
342.298	100.56
342.526	96.56
342.754	98.56
342.981	94.56
343.209	80.56
343.437	106.56
343.665	79.56
343.893	92.56
344.12	102.56
344.348	95.56
344.576	102.56
344.804	96.56
345.031	92.56
345.259	105.56
345.487	89.56
345.714	112.56
345.942	76.56
346.17	91.56
346.397	98.56
346.625	111.56
346.853	100.56
347.08	104.56
347.308	97.56
347.535	92.56
347.763	94.56
347.99	106.56
348.218	106.56
348.445	115.56
348.673	114.56
348.9	101.56
349.128	106.56
349.355	102.56
349.583	95.56
349.81	95.56
350.037	92.56
350.265	96.56
350.492	96.56
350.72	112.56
350.947	101.56
351.174	108.56
351.402	121.56
351.629	114.56
351.856	95.56
352.083	117.56
352.311	128.56
352.538	133.56
352.765	91.56
352.992	105.56
353.22	131.56
353.447	118.56
353.674	126.56
353.901	111.56
354.128	95.56
354.355	91.56
354.583	92.56
354.81	101.56
355.037	111.56
355.264	121.56
355.491	103.56
355.718	95.56
355.945	92.56
356.172	88.56
356.399	114.56
356.626	101.56
356.853	100.56
357.08	84.56
357.307	79.56
357.534	108.56
357.761	94.56
357.988	94.56
358.215	111.56
358.441	95.56
358.668	98.56
358.895	89.56
359.122	90.56
359.349	86.56
359.576	105.56
359.802	92.56
360.029	111.56
360.256	96.56
360.483	93.56
360.709	84.56
360.936	101.56
361.163	109.56
361.39	96.56
361.616	96.56
361.843	109.56
362.07	97.56
362.296	100.56
362.523	102.56
362.749	81.56
362.976	95.56
363.203	94.56
363.429	100.56
363.656	102.56
363.882	74.56
364.109	100.56
364.335	87.56
364.562	80.56
364.788	103.56
365.015	101.56
365.241	109.56
365.468	119.56
365.694	112.56
365.92	105.56
366.147	98.56
366.373	95.56
366.599	93.56
366.826	88.56
367.052	114.56
367.278	90.56
367.505	100.56
367.731	100.56
367.957	99.56
368.184	93.56
368.41	100.56
368.636	116.56
368.862	127.56
369.089	130.56
369.315	82.56
369.541	107.56
369.767	101.56
369.993	100.56
370.219	87.56
370.445	100.56
370.672	103.56
370.898	93.56
371.124	106.56
371.35	104.56
371.576	70.56
371.802	87.56
372.028	82.56
372.254	75.56
372.48	86.56
372.706	86.56
372.932	92.56
373.158	112.56
373.384	86.56
373.61	90.56
373.835	88.56
374.061	89.56
374.287	94.56
374.513	83.56
374.739	92.56
374.965	92.56
375.191	93.56
375.416	88.56
375.642	82.56
375.868	95.56
376.094	100.56
376.319	87.56
376.545	102.56
376.771	102.56
376.997	100.56
377.222	96.56
377.448	92.56
377.674	85.56
377.899	91.56
378.125	103.56
378.35	106.56
378.576	94.56
378.802	98.56
379.027	97.56
379.253	94.56
379.478	92.56
379.704	95.56
379.929	111.56
380.155	86.56
380.38	102.56
380.606	109.56
380.831	103.56
381.057	95.56
381.282	97.56
381.507	93.56
381.733	89.56
381.958	100.56
382.184	88.56
382.409	100.56
382.634	105.56
382.86	105.56
383.085	96.56
383.31	99.56
383.535	105.56
383.761	108.56
383.986	101.56
384.211	92.56
384.436	111.56
384.662	103.56
384.887	106.56
385.112	103.56
385.337	107.56
385.562	103.56
385.787	105.56
386.013	104.56
386.238	111.56
386.463	116.56
386.688	109.56
386.913	95.56
387.138	102.56
387.363	89.56
387.588	98.56
387.813	98.56
388.038	98.56
388.263	110.56
388.488	107.56
388.713	109.56
388.938	86.56
389.163	96.56
389.387	94.56
389.612	94.56
389.837	107.56
390.062	110.56
390.287	102.56
390.512	89.56
390.736	98.56
390.961	94.56
391.186	102.56
391.411	100.56
391.636	107.56
391.86	98.56
392.085	89.56
392.31	79.56
392.534	91.56
392.759	84.56
392.984	105.56
393.208	85.56
393.433	84.56
393.658	100.56
393.882	101.56
394.107	94.56
394.331	93.56
394.556	94.56
394.78	84.56
395.005	91.56
395.229	85.56
395.454	92.56
395.678	104.56
395.903	92.56
396.127	97.56
396.352	87.56
396.576	99.56
396.801	84.56
397.025	90.56
397.249	105.56
397.474	90.56
397.698	92.56
397.922	91.56
398.147	86.56
398.371	86.56
398.595	92.56
398.82	95.56
399.044	87.56
399.268	98.56
399.492	96.56
399.717	84.56
399.941	98.56
400.165	99.56
400.389	103.56
400.613	93.56
400.837	90.56
401.062	104.56
401.286	92.56
401.51	99.56
401.734	86.56
401.958	120.56
402.182	136.56
402.406	171.56
402.63	121.56
402.854	104.56
403.078	101.56
403.302	102.56
403.526	81.56
403.75	84.56
403.974	87.56
404.198	94.56
404.422	94.56
404.645	89.56
404.869	84.56
405.093	107.56
405.317	102.56
405.541	88.56
405.765	111.56
405.988	116.56
406.212	180.56
406.436	236.56
406.66	155.56
406.883	109.56
407.107	98.56
407.331	111.56
407.555	84.56
407.778	98.56
408.002	94.56
408.226	94.56
408.449	102.56
408.673	76.56
408.896	88.56
409.12	105.56
409.344	90.56
409.567	96.56
409.791	86.56
410.014	95.56
410.238	106.56
410.461	99.56
410.685	113.56
410.908	99.56
411.132	114.56
411.355	100.56
411.578	96.56
411.802	84.56
412.025	102.56
412.249	95.56
412.472	100.56
412.695	89.56
412.919	79.56
413.142	85.56
413.365	90.56
413.589	98.56
413.812	96.56
414.035	101.56
414.258	98.56
414.482	95.56
414.705	90.56
414.928	86.56
415.151	90.56
415.374	98.56
415.597	88.56
415.821	91.56
416.044	95.56
416.267	86.56
416.49	95.56
416.713	96.56
416.936	91.56
417.159	86.56
417.382	88.56
417.605	99.56
417.828	98.56
418.051	102.56
418.274	99.56
418.497	92.56
418.72	80.56
418.943	103.56
419.166	103.56
419.389	95.56
419.611	104.56
419.834	90.56
420.057	84.56
420.28	92.56
420.503	87.56
420.726	81.56
420.948	101.56
421.171	88.56
421.394	101.56
421.617	99.56
421.839	82.56
422.062	99.56
422.285	88.56
422.507	101.56
422.73	112.56
422.953	100.56
423.175	108.56
423.398	90.56
423.621	87.56
423.843	101.56
424.066	93.56
424.288	84.56
424.511	85.56
424.733	92.56
424.956	106.56
425.178	92.56
425.401	125.56
425.623	110.56
425.846	84.56
426.068	88.56
426.291	93.56
426.513	102.56
426.735	95.56
426.958	100.56
427.18	112.56
427.402	140.56
427.625	159.56
427.847	123.56
428.069	102.56
428.292	107.56
428.514	90.56
428.736	76.56
428.958	90.56
429.181	76.56
429.403	86.56
429.625	79.56
429.847	102.56
430.069	99.56
430.292	92.56
430.514	83.56
430.736	93.56
430.958	85.56
431.18	86.56
431.402	79.56
431.624	77.56
431.846	82.56
432.068	90.56
432.29	82.56
432.512	105.56
432.734	83.56
432.956	96.56
433.178	102.56
433.4	90.56
433.622	95.56
433.844	100.56
434.066	103.56
434.287	99.56
434.509	86.56
434.731	88.56
434.953	88.56
435.175	86.56
435.397	87.56
435.618	91.56
435.84	97.56
436.062	113.56
436.284	122.56
436.505	105.56
436.727	112.56
436.949	101.56
437.17	99.56
437.392	103.56
437.614	87.56
437.835	126.56
438.057	127.56
438.278	115.56
438.5	100.56
438.721	116.56
438.943	103.56
439.165	85.56
439.386	95.56
439.608	108.56
439.829	96.56
440.05	127.56
440.272	141.56
440.493	101.56
440.715	81.56
440.936	87.56
441.158	93.56
441.379	100.56
441.6	99.56
441.822	93.56
442.043	106.56
442.264	108.56
442.486	109.56
442.707	91.56
442.928	103.56
443.149	125.56
443.371	139.56
443.592	115.56
443.813	103.56
444.034	114.56
444.255	104.56
444.476	92.56
444.698	94.56
444.919	86.56
445.14	134.56
445.361	129.56
445.582	117.56
445.803	146.56
446.024	137.56
446.245	141.56
446.466	107.56
446.687	86.56
446.908	78.56
447.129	87.56
447.35	106.56
447.571	91.56
447.792	86.56
448.013	92.56
448.234	111.56
448.455	96.56
448.675	130.56
448.896	118.56
449.117	115.56
449.338	116.56
449.559	136.56
449.779	131.56
450	98.56
450.221	82.56
450.442	94.56
450.662	88.56
450.883	111.56
451.104	109.56
451.324	95.56
451.545	79.56
451.766	84.56
451.986	91.56
452.207	94.56
452.428	90.56
452.648	95.56
452.869	107.56
453.089	109.56
453.31	119.56
453.53	104.56
453.751	98.56
453.971	103.56
454.192	102.56
454.412	103.56
454.633	88.56
454.853	89.56
455.073	90.56
455.294	89.56
455.514	106.56
455.734	98.56
455.955	100.56
456.175	85.56
456.395	88.56
456.616	95.56
456.836	92.56
457.056	86.56
457.276	89.56
457.497	88.56
457.717	92.56
457.937	89.56
458.157	90.56
458.377	104.56
458.598	104.56
458.818	147.56
459.038	172.56
459.258	121.56
459.478	85.56
459.698	80.56
459.918	94.56
460.138	89.56
460.358	93.56
460.578	90.56
460.798	97.56
461.018	85.56
461.238	85.56
461.458	88.56
461.678	93.56
461.898	88.56
462.118	97.56
462.338	93.56
462.558	89.56
462.777	89.56
462.997	93.56
463.217	94.56
463.437	84.56
463.657	92.56
463.876	90.56
464.096	97.56
464.316	89.56
464.536	99.56
464.755	97.56
464.975	113.56
465.195	165.56
465.414	159.56
465.634	96.56
465.854	91.56
466.073	93.56
466.293	87.56
466.512	90.56
466.732	88.56
466.951	90.56
467.171	93.56
467.391	110.56
467.61	112.56
467.829	95.56
468.049	85.56
468.268	90.56
468.488	93.56
468.707	73.56
468.927	82.56
469.146	89.56
469.365	86.56
469.585	87.56
469.804	91.56
470.023	96.56
470.243	87.56
470.462	101.56
470.681	129.56
470.901	100.56
471.12	92.56
471.339	87.56
471.558	99.56
471.777	94.56
471.997	87.56
472.216	89.56
472.435	96.56
472.654	101.56
472.873	98.56
473.092	88.56
473.311	103.56
473.53	91.56
473.749	87.56
473.968	97.56
474.187	105.56
474.406	98.56
474.625	91.56
474.844	93.56
475.063	92.56
475.282	89.56
475.501	88.56
475.72	88.56
475.939	78.56
476.158	89.56
476.377	92.56
476.596	80.56
476.814	85.56
477.033	104.56
477.252	97.56
477.471	86.56
477.69	94.56
477.908	82.56
478.127	95.56
478.346	92.56
478.564	101.56
478.783	94.56
479.002	109.56
479.22	100.56
479.439	112.56
479.658	104.56
479.876	90.56
480.095	92.56
480.313	98.56
480.532	97.56
480.751	86.56
480.969	106.56
481.188	104.56
481.406	106.56
481.624	82.56
481.843	92.56
482.061	88.56
482.28	97.56
482.498	83.56
482.717	93.56
482.935	87.56
483.153	87.56
483.372	86.56
483.59	91.56
483.808	101.56
484.027	102.56
484.245	106.56
484.463	106.56
484.681	97.56
484.9	94.56
485.118	98.56
485.336	87.56
485.554	98.56
485.772	103.56
485.99	95.56
486.209	95.56
486.427	116.56
486.645	102.56
486.863	108.56
487.081	95.56
487.299	92.56
487.517	100.56
487.735	95.56
487.953	98.56
488.171	92.56
488.389	102.56
488.607	92.56
488.825	102.56
489.043	89.56
489.261	82.56
489.479	78.56
489.696	96.56
489.914	84.56
490.132	103.56
490.35	105.56
490.568	101.56
490.786	115.56
491.003	100.56
491.221	87.56
491.439	77.56
491.657	90.56
491.874	88.56
492.092	99.56
492.31	95.56
492.527	103.56
492.745	83.56
492.963	87.56
493.18	80.56
493.398	82.56
493.615	96.56
493.833	95.56
494.05	95.56
494.268	92.56
494.485	99.56
494.703	95.56
494.92	93.56
495.138	115.56
495.355	93.56
495.573	94.56
495.79	103.56
496.008	102.56
496.225	94.56
496.442	98.56
496.66	90.56
496.877	92.56
497.094	84.56
497.312	86.56
497.529	92.56
497.746	95.56
497.963	94.56
498.181	102.56
498.398	90.56
498.615	109.56
498.832	106.56
499.049	91.56
499.267	83.56
499.484	90.56
499.701	90.56
499.918	87.56
500.135	100.56
500.352	96.56
500.569	95.56
500.786	94.56
501.003	99.56
501.22	93.56
501.437	110.56
501.654	89.56
501.871	107.56
502.088	106.56
502.305	97.56
502.522	105.56
502.739	94.56
502.956	94.56
503.172	104.56
503.389	103.56
503.606	105.56
503.823	106.56
504.04	89.56
504.256	117.56
504.473	96.56
504.69	102.56
504.907	88.56
505.123	94.56
505.34	110.56
505.557	89.56
505.773	82.56
505.99	102.56
506.207	93.56
506.423	98.56
506.64	108.56
506.856	85.56
507.073	70.56
507.289	108.56
507.506	107.56
507.722	126.56
507.939	108.56
508.155	112.56
508.372	107.56
508.588	97.56
508.805	111.56
509.021	90.56
509.238	90.56
509.454	99.56
509.67	109.56
509.887	102.56
510.103	146.56
510.319	216.56
510.536	791.56
510.752	2581.56
510.968	708.56
511.184	164.56
511.401	124.56
511.617	114.56
511.833	100.56
512.049	90.56
512.265	80.56
512.481	95.56
512.698	96.56
512.914	102.56
513.13	92.56
513.346	103.56
513.562	106.56
513.778	111.56
