Data from Dirtnoheat2_HRD10591_00002.txt Node
Date: Fri Dec 27 15:19:40 EST 2024
User: Yrep
Spectrometer: HR+D1059
Trigger mode: 1
Integration Time (sec): 1.000000E-1
Scans to average: 1
Electric dark correction enabled: true
Nonlinearity correction enabled: false
Boxcar width: 0
XAxis mode: Wavelengths
Number of Pixels in Spectrum: 2048
>>>>>Begin Spectral Data<<<<<
223.165	-22.81
223.4	-22.81
223.635	-22.81
223.869	-17.81
224.104	-21.81
224.338	-2.81
224.573	-7.81
224.808	-10.81
225.042	-7.81
225.277	-10.81
225.511	-1.81
225.746	-1.81
225.98	-8.81
226.215	12.19
226.449	26.19
226.683	17.19
226.918	24.19
227.152	35.19
227.387	27.19
227.621	31.19
227.856	45.19
228.09	47.19
228.324	48.19
228.559	50.19
228.793	55.19
229.027	61.19
229.262	64.19
229.496	67.19
229.73	63.19
229.964	67.19
230.199	75.19
230.433	67.19
230.667	79.19
230.901	76.19
231.136	70.19
231.37	74.19
231.604	88.19
231.838	93.19
232.072	91.19
232.306	85.19
232.541	87.19
232.775	79.19
233.009	68.19
233.243	80.19
233.477	78.19
233.711	75.19
233.945	78.19
234.179	75.19
234.413	74.19
234.647	74.19
234.881	71.19
235.115	93.19
235.349	78.19
235.583	82.19
235.817	68.19
236.051	74.19
236.285	79.19
236.519	81.19
236.753	65.19
236.987	63.19
237.221	69.19
237.455	71.19
237.689	67.19
237.922	73.19
238.156	77.19
238.39	72.19
238.624	78.19
238.858	75.19
239.091	70.19
239.325	64.19
239.559	94.19
239.793	83.19
240.027	76.19
240.26	78.19
240.494	94.19
240.728	53.19
240.961	74.19
241.195	66.19
241.429	70.19
241.662	81.19
241.896	75.19
242.13	75.19
242.363	68.19
242.597	66.19
242.83	58.19
243.064	75.19
243.298	81.19
243.531	77.19
243.765	64.19
243.998	71.19
244.232	76.19
244.465	80.19
244.699	98.19
244.932	74.19
245.166	76.19
245.399	84.19
245.633	93.19
245.866	73.19
246.099	61.19
246.333	76.19
246.566	64.19
246.8	82.19
247.033	75.19
247.266	72.19
247.5	73.19
247.733	78.19
247.966	74.19
248.2	79.19
248.433	70.19
248.666	86.19
248.899	84.19
249.133	81.19
249.366	79.19
249.599	86.19
249.832	80.19
250.066	74.19
250.299	71.19
250.532	88.19
250.765	80.19
250.998	91.19
251.231	86.19
251.465	79.19
251.698	86.19
251.931	74.19
252.164	80.19
252.397	71.19
252.63	74.19
252.863	72.19
253.096	81.19
253.329	90.19
253.562	80.19
253.795	86.19
254.028	80.19
254.261	68.19
254.494	73.19
254.727	87.19
254.96	77.19
255.193	85.19
255.426	89.19
255.659	73.19
255.892	87.19
256.124	82.19
256.357	86.19
256.59	74.19
256.823	76.19
257.056	85.19
257.289	87.19
257.521	82.19
257.754	62.19
257.987	80.19
258.22	85.19
258.452	70.19
258.685	87.19
258.918	81.19
259.151	72.19
259.383	74.19
259.616	77.19
259.849	80.19
260.081	86.19
260.314	68.19
260.547	72.19
260.779	87.19
261.012	73.19
261.244	83.19
261.477	86.19
261.71	92.19
261.942	87.19
262.175	74.19
262.407	73.19
262.64	76.19
262.872	83.19
263.105	85.19
263.337	92.19
263.57	73.19
263.802	77.19
264.035	78.19
264.267	80.19
264.499	80.19
264.732	102.19
264.964	67.19
265.197	82.19
265.429	77.19
265.661	77.19
265.894	86.19
266.126	78.19
266.358	72.19
266.591	88.19
266.823	74.19
267.055	83.19
267.287	83.19
267.52	71.19
267.752	73.19
267.984	89.19
268.216	75.19
268.448	69.19
268.681	86.19
268.913	75.19
269.145	89.19
269.377	82.19
269.609	95.19
269.841	84.19
270.073	82.19
270.306	83.19
270.538	87.19
270.77	77.19
271.002	66.19
271.234	68.19
271.466	73.19
271.698	85.19
271.93	90.19
272.162	81.19
272.394	73.19
272.626	85.19
272.858	90.19
273.09	85.19
273.322	74.19
273.553	84.19
273.785	89.19
274.017	85.19
274.249	79.19
274.481	77.19
274.713	87.19
274.945	86.19
275.176	84.19
275.408	89.19
275.64	73.19
275.872	73.19
276.104	65.19
276.335	74.19
276.567	78.19
276.799	91.19
277.031	89.19
277.262	79.19
277.494	87.19
277.726	81.19
277.957	93.19
278.189	76.19
278.421	87.19
278.652	88.19
278.884	84.19
279.115	85.19
279.347	72.19
279.579	71.19
279.81	73.19
280.042	82.19
280.273	94.19
280.505	70.19
280.736	79.19
280.968	92.19
281.199	69.19
281.431	82.19
281.662	87.19
281.894	74.19
282.125	75.19
282.356	85.19
282.588	80.19
282.819	86.19
283.051	86.19
283.282	94.19
283.513	88.19
283.745	85.19
283.976	85.19
284.207	77.19
284.439	74.19
284.67	96.19
284.901	83.19
285.132	91.19
285.364	76.19
285.595	76.19
285.826	87.19
286.057	76.19
286.288	75.19
286.52	89.19
286.751	81.19
286.982	91.19
287.213	82.19
287.444	80.19
287.675	91.19
287.906	90.19
288.138	79.19
288.369	89.19
288.6	78.19
288.831	102.19
289.062	92.19
289.293	77.19
289.524	81.19
289.755	92.19
289.986	83.19
290.217	95.19
290.448	90.19
290.679	93.19
290.91	82.19
291.141	81.19
291.371	90.19
291.602	87.19
291.833	89.19
292.064	83.19
292.295	67.19
292.526	85.19
292.757	86.19
292.987	88.19
293.218	83.19
293.449	87.19
293.68	86.19
293.91	83.19
294.141	83.19
294.372	94.19
294.603	78.19
294.833	83.19
295.064	94.19
295.295	82.19
295.525	85.19
295.756	88.19
295.987	90.19
296.217	86.19
296.448	77.19
296.679	81.19
296.909	91.19
297.14	84.19
297.37	87.19
297.601	73.19
297.831	76.19
298.062	85.19
298.292	81.19
298.523	101.19
298.753	72.19
298.984	66.19
299.214	73.19
299.445	90.19
299.675	94.19
299.905	71.19
300.136	84.19
300.366	97.19
300.597	93.19
300.827	83.19
301.057	77.19
301.288	85.19
301.518	80.19
301.748	88.19
301.979	104.19
302.209	82.19
302.439	80.19
302.669	91.19
302.9	75.19
303.13	78.19
303.36	86.19
303.59	79.19
303.82	87.19
304.051	79.19
304.281	81.19
304.511	98.19
304.741	88.19
304.971	88.19
305.201	83.19
305.431	70.19
305.661	71.19
305.891	77.19
306.121	86.19
306.352	81.19
306.582	74.19
306.812	80.19
307.042	88.19
307.272	95.19
307.502	99.19
307.731	93.19
307.961	81.19
308.191	79.19
308.421	87.19
308.651	72.19
308.881	82.19
309.111	78.19
309.341	73.19
309.571	89.19
309.8	83.19
310.03	89.19
310.26	74.19
310.49	91.19
310.72	91.19
310.949	97.19
311.179	95.19
311.409	89.19
311.639	103.19
311.868	88.19
312.098	95.19
312.328	81.19
312.557	76.19
312.787	74.19
313.017	98.19
313.246	92.19
313.476	82.19
313.706	81.19
313.935	77.19
314.165	79.19
314.394	84.19
314.624	88.19
314.853	79.19
315.083	92.19
315.312	81.19
315.542	75.19
315.771	74.19
316.001	93.19
316.23	82.19
316.46	95.19
316.689	86.19
316.919	79.19
317.148	82.19
317.377	92.19
317.607	86.19
317.836	74.19
318.065	81.19
318.295	81.19
318.524	73.19
318.753	78.19
318.983	91.19
319.212	82.19
319.441	77.19
319.67	69.19
319.9	94.19
320.129	80.19
320.358	90.19
320.587	91.19
320.816	83.19
321.046	80.19
321.275	82.19
321.504	82.19
321.733	80.19
321.962	74.19
322.191	83.19
322.42	85.19
322.649	79.19
322.878	90.19
323.108	80.19
323.337	91.19
323.566	94.19
323.795	81.19
324.024	103.19
324.253	81.19
324.482	91.19
324.71	76.19
324.939	88.19
325.168	78.19
325.397	73.19
325.626	77.19
325.855	86.19
326.084	83.19
326.313	90.19
326.542	90.19
326.77	87.19
326.999	78.19
327.228	77.19
327.457	86.19
327.686	81.19
327.914	78.19
328.143	105.19
328.372	92.19
328.6	77.19
328.829	85.19
329.058	77.19
329.287	80.19
329.515	85.19
329.744	82.19
329.972	80.19
330.201	89.19
330.43	77.19
330.658	73.19
330.887	90.19
331.115	81.19
331.344	81.19
331.572	87.19
331.801	90.19
332.03	82.19
332.258	94.19
332.486	83.19
332.715	81.19
332.943	76.19
333.172	86.19
333.4	87.19
333.629	91.19
333.857	93.19
334.085	80.19
334.314	76.19
334.542	77.19
334.771	89.19
334.999	81.19
335.227	90.19
335.455	80.19
335.684	90.19
335.912	97.19
336.14	72.19
336.369	103.19
336.597	82.19
336.825	83.19
337.053	85.19
337.281	84.19
337.51	86.19
337.738	92.19
337.966	79.19
338.194	69.19
338.422	84.19
338.65	89.19
338.878	73.19
339.106	91.19
339.334	94.19
339.562	82.19
339.79	109.19
340.018	81.19
340.246	77.19
340.474	87.19
340.702	77.19
340.93	89.19
341.158	99.19
341.386	89.19
341.614	75.19
341.842	79.19
342.07	77.19
342.298	76.19
342.526	87.19
342.754	90.19
342.981	78.19
343.209	90.19
343.437	95.19
343.665	78.19
343.893	100.19
344.12	89.19
344.348	77.19
344.576	86.19
344.804	86.19
345.031	92.19
345.259	81.19
345.487	88.19
345.714	80.19
345.942	94.19
346.17	90.19
346.397	80.19
346.625	90.19
346.853	80.19
347.08	81.19
347.308	70.19
347.535	78.19
347.763	76.19
347.99	73.19
348.218	83.19
348.445	92.19
348.673	77.19
348.9	97.19
349.128	89.19
349.355	79.19
349.583	74.19
349.81	76.19
350.037	95.19
350.265	91.19
350.492	81.19
350.72	87.19
350.947	76.19
351.174	93.19
351.402	87.19
351.629	73.19
351.856	85.19
352.083	80.19
352.311	85.19
352.538	83.19
352.765	77.19
352.992	80.19
353.22	99.19
353.447	83.19
353.674	88.19
353.901	97.19
354.128	86.19
354.355	73.19
354.583	86.19
354.81	89.19
355.037	88.19
355.264	84.19
355.491	70.19
355.718	88.19
355.945	80.19
356.172	67.19
356.399	77.19
356.626	76.19
356.853	81.19
357.08	83.19
357.307	74.19
357.534	77.19
357.761	93.19
357.988	78.19
358.215	83.19
358.441	86.19
358.668	72.19
358.895	90.19
359.122	95.19
359.349	91.19
359.576	63.19
359.802	81.19
360.029	76.19
360.256	88.19
360.483	79.19
360.709	66.19
360.936	82.19
361.163	81.19
361.39	72.19
361.616	88.19
361.843	90.19
362.07	81.19
362.296	87.19
362.523	85.19
362.749	59.19
362.976	82.19
363.203	93.19
363.429	85.19
363.656	83.19
363.882	73.19
364.109	95.19
364.335	101.19
364.562	78.19
364.788	93.19
365.015	71.19
365.241	83.19
365.468	85.19
365.694	78.19
365.92	73.19
366.147	97.19
366.373	90.19
366.599	87.19
366.826	82.19
367.052	81.19
367.278	75.19
367.505	86.19
367.731	93.19
367.957	98.19
368.184	75.19
368.41	94.19
368.636	86.19
368.862	74.19
369.089	88.19
369.315	73.19
369.541	87.19
369.767	86.19
369.993	81.19
370.219	98.19
370.445	71.19
370.672	76.19
370.898	82.19
371.124	80.19
371.35	89.19
371.576	79.19
371.802	80.19
372.028	79.19
372.254	74.19
372.48	86.19
372.706	82.19
372.932	83.19
373.158	80.19
373.384	76.19
373.61	84.19
373.835	95.19
374.061	80.19
374.287	85.19
374.513	81.19
374.739	96.19
374.965	89.19
375.191	92.19
375.416	80.19
375.642	86.19
375.868	72.19
376.094	82.19
376.319	85.19
376.545	76.19
376.771	85.19
376.997	88.19
377.222	76.19
377.448	97.19
377.674	94.19
377.899	75.19
378.125	78.19
378.35	103.19
378.576	80.19
378.802	70.19
379.027	79.19
379.253	80.19
379.478	82.19
379.704	73.19
379.929	70.19
380.155	78.19
380.38	86.19
380.606	85.19
380.831	80.19
381.057	86.19
381.282	71.19
381.507	80.19
381.733	81.19
381.958	77.19
382.184	87.19
382.409	95.19
382.634	81.19
382.86	89.19
383.085	87.19
383.31	88.19
383.535	78.19
383.761	94.19
383.986	83.19
384.211	87.19
384.436	79.19
384.662	78.19
384.887	86.19
385.112	94.19
385.337	91.19
385.562	93.19
385.787	88.19
386.013	83.19
386.238	79.19
386.463	67.19
386.688	85.19
386.913	83.19
387.138	61.19
387.363	91.19
387.588	82.19
387.813	88.19
388.038	92.19
388.263	86.19
388.488	67.19
388.713	67.19
388.938	87.19
389.163	69.19
389.387	87.19
389.612	88.19
389.837	80.19
390.062	98.19
390.287	69.19
390.512	88.19
390.736	81.19
390.961	83.19
391.186	73.19
391.411	94.19
391.636	88.19
391.86	77.19
392.085	85.19
392.31	69.19
392.534	80.19
392.759	78.19
392.984	92.19
393.208	101.19
393.433	95.19
393.658	98.19
393.882	79.19
394.107	78.19
394.331	79.19
394.556	77.19
394.78	77.19
395.005	66.19
395.229	83.19
395.454	75.19
395.678	87.19
395.903	87.19
396.127	85.19
396.352	92.19
396.576	84.19
396.801	85.19
397.025	83.19
397.249	84.19
397.474	91.19
397.698	89.19
397.922	77.19
398.147	82.19
398.371	69.19
398.595	81.19
398.82	84.19
399.044	87.19
399.268	74.19
399.492	77.19
399.717	86.19
399.941	62.19
400.165	86.19
400.389	74.19
400.613	79.19
400.837	87.19
401.062	78.19
401.286	85.19
401.51	80.19
401.734	82.19
401.958	74.19
402.182	76.19
402.406	74.19
402.63	79.19
402.854	77.19
403.078	76.19
403.302	82.19
403.526	78.19
403.75	78.19
403.974	78.19
404.198	87.19
404.422	83.19
404.645	81.19
404.869	73.19
405.093	73.19
405.317	70.19
405.541	89.19
405.765	73.19
405.988	79.19
406.212	82.19
406.436	78.19
406.66	83.19
406.883	78.19
407.107	70.19
407.331	61.19
407.555	80.19
407.778	82.19
408.002	72.19
408.226	86.19
408.449	83.19
408.673	93.19
408.896	83.19
409.12	85.19
409.344	83.19
409.567	71.19
409.791	75.19
410.014	66.19
410.238	66.19
410.461	71.19
410.685	60.19
410.908	77.19
411.132	82.19
411.355	77.19
411.578	71.19
411.802	78.19
412.025	80.19
412.249	82.19
412.472	87.19
412.695	77.19
412.919	76.19
413.142	80.19
413.365	82.19
413.589	84.19
413.812	67.19
414.035	84.19
414.258	85.19
414.482	75.19
414.705	82.19
414.928	73.19
415.151	61.19
415.374	75.19
415.597	89.19
415.821	77.19
416.044	56.19
416.267	81.19
416.49	80.19
416.713	87.19
416.936	59.19
417.159	85.19
417.382	79.19
417.605	71.19
417.828	79.19
418.051	81.19
418.274	73.19
418.497	88.19
418.72	75.19
418.943	86.19
419.166	86.19
419.389	76.19
419.611	85.19
419.834	85.19
420.057	82.19
420.28	80.19
420.503	86.19
420.726	88.19
420.948	81.19
421.171	78.19
421.394	77.19
421.617	81.19
421.839	90.19
422.062	88.19
422.285	91.19
422.507	90.19
422.73	102.19
422.953	94.19
423.175	93.19
423.398	95.19
423.621	80.19
423.843	72.19
424.066	89.19
424.288	78.19
424.511	77.19
424.733	79.19
424.956	71.19
425.178	75.19
425.401	82.19
425.623	76.19
425.846	82.19
426.068	77.19
426.291	97.19
426.513	76.19
426.735	77.19
426.958	82.19
427.18	92.19
427.402	80.19
427.625	78.19
427.847	92.19
428.069	84.19
428.292	79.19
428.514	82.19
428.736	88.19
428.958	90.19
429.181	87.19
429.403	80.19
429.625	76.19
429.847	89.19
430.069	94.19
430.292	85.19
430.514	91.19
430.736	90.19
430.958	90.19
431.18	71.19
431.402	76.19
431.624	78.19
431.846	78.19
432.068	91.19
432.29	81.19
432.512	78.19
432.734	67.19
432.956	85.19
433.178	86.19
433.4	63.19
433.622	81.19
433.844	88.19
434.066	90.19
434.287	78.19
434.509	81.19
434.731	81.19
434.953	88.19
435.175	67.19
435.397	71.19
435.618	73.19
435.84	86.19
436.062	79.19
436.284	74.19
436.505	81.19
436.727	85.19
436.949	83.19
437.17	70.19
437.392	73.19
437.614	81.19
437.835	76.19
438.057	70.19
438.278	79.19
438.5	78.19
438.721	77.19
438.943	81.19
439.165	77.19
439.386	77.19
439.608	75.19
439.829	67.19
440.05	85.19
440.272	75.19
440.493	84.19
440.715	81.19
440.936	86.19
441.158	93.19
441.379	86.19
441.6	71.19
441.822	76.19
442.043	62.19
442.264	73.19
442.486	90.19
442.707	85.19
442.928	94.19
443.149	72.19
443.371	90.19
443.592	81.19
443.813	90.19
444.034	82.19
444.255	73.19
444.476	86.19
444.698	95.19
444.919	75.19
445.14	144.19
445.361	119.19
445.582	94.19
445.803	91.19
446.024	72.19
446.245	77.19
446.466	74.19
446.687	72.19
446.908	81.19
447.129	70.19
447.35	65.19
447.571	80.19
447.792	80.19
448.013	73.19
448.234	79.19
448.455	77.19
448.675	77.19
448.896	62.19
449.117	75.19
449.338	78.19
449.559	83.19
449.779	94.19
450	86.19
450.221	74.19
450.442	102.19
450.662	71.19
450.883	81.19
451.104	95.19
451.324	95.19
451.545	72.19
451.766	81.19
451.986	74.19
452.207	79.19
452.428	85.19
452.648	79.19
452.869	76.19
453.089	79.19
453.31	89.19
453.53	65.19
453.751	90.19
453.971	60.19
454.192	70.19
454.412	78.19
454.633	94.19
454.853	75.19
455.073	69.19
455.294	75.19
455.514	78.19
455.734	82.19
455.955	70.19
456.175	74.19
456.395	72.19
456.616	76.19
456.836	78.19
457.056	80.19
457.276	77.19
457.497	79.19
457.717	80.19
457.937	62.19
458.157	80.19
458.377	85.19
458.598	77.19
458.818	90.19
459.038	75.19
459.258	75.19
459.478	79.19
459.698	86.19
459.918	78.19
460.138	81.19
460.358	82.19
460.578	78.19
460.798	90.19
461.018	82.19
461.238	85.19
461.458	85.19
461.678	87.19
461.898	91.19
462.118	81.19
462.338	66.19
462.558	80.19
462.777	74.19
462.997	68.19
463.217	82.19
463.437	82.19
463.657	81.19
463.876	74.19
464.096	84.19
464.316	80.19
464.536	82.19
464.755	91.19
464.975	78.19
465.195	74.19
465.414	82.19
465.634	80.19
465.854	74.19
466.073	80.19
466.293	79.19
466.512	81.19
466.732	74.19
466.951	71.19
467.171	79.19
467.391	74.19
467.61	88.19
467.829	74.19
468.049	82.19
468.268	75.19
468.488	91.19
468.707	87.19
468.927	72.19
469.146	90.19
469.365	92.19
469.585	78.19
469.804	78.19
470.023	86.19
470.243	82.19
470.462	79.19
470.681	89.19
470.901	72.19
471.12	84.19
471.339	96.19
471.558	82.19
471.777	86.19
471.997	88.19
472.216	91.19
472.435	81.19
472.654	73.19
472.873	75.19
473.092	87.19
473.311	70.19
473.53	74.19
473.749	81.19
473.968	74.19
474.187	77.19
474.406	79.19
474.625	69.19
474.844	86.19
475.063	81.19
475.282	90.19
475.501	85.19
475.72	92.19
475.939	71.19
476.158	77.19
476.377	81.19
476.596	78.19
476.814	82.19
477.033	78.19
477.252	78.19
477.471	97.19
477.69	66.19
477.908	81.19
478.127	81.19
478.346	80.19
478.564	68.19
478.783	80.19
479.002	89.19
479.22	81.19
479.439	97.19
479.658	81.19
479.876	86.19
480.095	73.19
480.313	83.19
480.532	86.19
480.751	91.19
480.969	89.19
481.188	81.19
481.406	89.19
481.624	70.19
481.843	75.19
482.061	85.19
482.28	89.19
482.498	71.19
482.717	72.19
482.935	82.19
483.153	87.19
483.372	89.19
483.59	90.19
483.808	81.19
484.027	75.19
484.245	71.19
484.463	71.19
484.681	100.19
484.9	89.19
485.118	89.19
485.336	87.19
485.554	70.19
485.772	76.19
485.99	76.19
486.209	80.19
486.427	72.19
486.645	87.19
486.863	79.19
487.081	72.19
487.299	84.19
487.517	87.19
487.735	88.19
487.953	106.19
488.171	89.19
488.389	71.19
488.607	80.19
488.825	72.19
489.043	73.19
489.261	102.19
489.479	89.19
489.696	93.19
489.914	79.19
490.132	79.19
490.35	97.19
490.568	91.19
490.786	86.19
491.003	63.19
491.221	81.19
491.439	75.19
491.657	76.19
491.874	101.19
492.092	94.19
492.31	65.19
492.527	93.19
492.745	83.19
492.963	96.19
493.18	76.19
493.398	104.19
493.615	84.19
493.833	75.19
494.05	87.19
494.268	88.19
494.485	89.19
494.703	81.19
494.92	82.19
495.138	89.19
495.355	58.19
495.573	80.19
495.79	82.19
496.008	106.19
496.225	84.19
496.442	81.19
496.66	83.19
496.877	91.19
497.094	91.19
497.312	82.19
497.529	82.19
497.746	78.19
497.963	88.19
498.181	80.19
498.398	88.19
498.615	85.19
498.832	78.19
499.049	84.19
499.267	91.19
499.484	100.19
499.701	74.19
499.918	81.19
500.135	79.19
500.352	87.19
500.569	73.19
500.786	83.19
501.003	89.19
501.22	85.19
501.437	88.19
501.654	88.19
501.871	76.19
502.088	92.19
502.305	91.19
502.522	72.19
502.739	96.19
502.956	77.19
503.172	82.19
503.389	81.19
503.606	67.19
503.823	75.19
504.04	87.19
504.256	93.19
504.473	95.19
504.69	96.19
504.907	86.19
505.123	74.19
505.34	78.19
505.557	90.19
505.773	86.19
505.99	72.19
506.207	82.19
506.423	83.19
506.64	89.19
506.856	77.19
507.073	90.19
507.289	82.19
507.506	78.19
507.722	83.19
507.939	85.19
508.155	79.19
508.372	74.19
508.588	97.19
508.805	62.19
509.021	93.19
509.238	90.19
509.454	73.19
509.67	82.19
509.887	90.19
510.103	77.19
510.319	86.19
510.536	85.19
510.752	76.19
510.968	83.19
511.184	69.19
511.401	79.19
511.617	69.19
511.833	76.19
512.049	76.19
512.265	78.19
512.481	77.19
512.698	73.19
512.914	82.19
513.13	90.19
513.346	80.19
513.562	76.19
513.778	86.19
513.994	91.19
514.21	95.19
514.426	94.19
514.642	82.19
514.858	79.19
515.074	73.19
515.29	91.19
515.506	89.19
515.721	101.19
515.937	85.19
516.153	86.19
516.369	66.19
516.585	76.19
516.801	82.19
517.016	75.19
517.232	80.19
517.448	75.19
517.664	77.19
517.879	74.19
518.095	88.19
518.311	89.19
518.527	101.19
518.742	87.19
518.958	99.19
519.173	95.19
519.389	88.19
519.605	81.19
519.82	66.19
