Data from Dirtnoheat2_HRD10591_00006.txt Node
Date: Fri Dec 27 15:19:44 EST 2024
User: Yrep
Spectrometer: HR+D1059
Trigger mode: 1
Integration Time (sec): 1.000000E-1
Scans to average: 1
Electric dark correction enabled: true
Nonlinearity correction enabled: false
Boxcar width: 0
XAxis mode: Wavelengths
Number of Pixels in Spectrum: 2048
>>>>>Begin Spectral Data<<<<<
223.165	-18.94
223.4	-18.94
223.635	-18.94
223.869	-20.94
224.104	-34.94
224.338	-14.94
224.573	-21.94
224.808	-5.94
225.042	-2.94
225.277	-3.94
225.511	0.06
225.746	14.06
225.98	-2.94
226.215	14.06
226.449	21.06
226.683	17.06
226.918	33.06
227.152	28.06
227.387	41.06
227.621	37.06
227.856	34.06
228.09	37.06
228.324	44.06
228.559	63.06
228.793	66.06
229.027	68.06
229.262	79.06
229.496	70.06
229.73	74.06
229.964	76.06
230.199	96.06
230.433	73.06
230.667	81.06
230.901	70.06
231.136	74.06
231.37	91.06
231.604	91.06
231.838	88.06
232.072	86.06
232.306	87.06
232.541	77.06
232.775	89.06
233.009	83.06
233.243	82.06
233.477	74.06
233.711	93.06
233.945	73.06
234.179	76.06
234.413	76.06
234.647	79.06
234.881	76.06
235.115	96.06
235.349	72.06
235.583	80.06
235.817	74.06
236.051	77.06
236.285	69.06
236.519	96.06
236.753	92.06
236.987	87.06
237.221	101.06
237.455	80.06
237.689	89.06
237.922	79.06
238.156	72.06
238.39	86.06
238.624	84.06
238.858	69.06
239.091	70.06
239.325	75.06
239.559	73.06
239.793	68.06
240.027	95.06
240.26	76.06
240.494	85.06
240.728	70.06
240.961	80.06
241.195	71.06
241.429	77.06
241.662	65.06
241.896	81.06
242.13	76.06
242.363	79.06
242.597	78.06
242.83	78.06
243.064	90.06
243.298	78.06
243.531	68.06
243.765	84.06
243.998	76.06
244.232	86.06
244.465	77.06
244.699	82.06
244.932	78.06
245.166	94.06
245.399	79.06
245.633	83.06
245.866	78.06
246.099	68.06
246.333	81.06
246.566	77.06
246.8	74.06
247.033	73.06
247.266	83.06
247.5	73.06
247.733	71.06
247.966	70.06
248.2	76.06
248.433	57.06
248.666	85.06
248.899	77.06
249.133	74.06
249.366	81.06
249.599	69.06
249.832	71.06
250.066	90.06
250.299	76.06
250.532	78.06
250.765	92.06
250.998	75.06
251.231	66.06
251.465	73.06
251.698	85.06
251.931	80.06
252.164	84.06
252.397	83.06
252.63	79.06
252.863	89.06
253.096	75.06
253.329	79.06
253.562	77.06
253.795	68.06
254.028	91.06
254.261	92.06
254.494	69.06
254.727	70.06
254.96	74.06
255.193	79.06
255.426	76.06
255.659	73.06
255.892	73.06
256.124	73.06
256.357	79.06
256.59	85.06
256.823	90.06
257.056	79.06
257.289	80.06
257.521	76.06
257.754	83.06
257.987	67.06
258.22	74.06
258.452	96.06
258.685	64.06
258.918	77.06
259.151	69.06
259.383	83.06
259.616	91.06
259.849	89.06
260.081	88.06
260.314	71.06
260.547	72.06
260.779	73.06
261.012	83.06
261.244	84.06
261.477	88.06
261.71	78.06
261.942	85.06
262.175	82.06
262.407	83.06
262.64	94.06
262.872	75.06
263.105	75.06
263.337	93.06
263.57	83.06
263.802	85.06
264.035	92.06
264.267	85.06
264.499	77.06
264.732	85.06
264.964	73.06
265.197	85.06
265.429	77.06
265.661	82.06
265.894	61.06
266.126	77.06
266.358	91.06
266.591	81.06
266.823	74.06
267.055	71.06
267.287	76.06
267.52	75.06
267.752	91.06
267.984	94.06
268.216	82.06
268.448	91.06
268.681	84.06
268.913	93.06
269.145	82.06
269.377	88.06
269.609	82.06
269.841	102.06
270.073	87.06
270.306	81.06
270.538	76.06
270.77	91.06
271.002	70.06
271.234	79.06
271.466	96.06
271.698	89.06
271.93	75.06
272.162	83.06
272.394	82.06
272.626	74.06
272.858	84.06
273.09	95.06
273.322	86.06
273.553	100.06
273.785	87.06
274.017	82.06
274.249	79.06
274.481	80.06
274.713	83.06
274.945	76.06
275.176	86.06
275.408	88.06
275.64	85.06
275.872	72.06
276.104	102.06
276.335	100.06
276.567	80.06
276.799	71.06
277.031	80.06
277.262	90.06
277.494	72.06
277.726	87.06
277.957	87.06
278.189	89.06
278.421	83.06
278.652	88.06
278.884	91.06
279.115	83.06
279.347	88.06
279.579	97.06
279.81	71.06
280.042	80.06
280.273	77.06
280.505	87.06
280.736	66.06
280.968	87.06
281.199	91.06
281.431	75.06
281.662	92.06
281.894	77.06
282.125	82.06
282.356	91.06
282.588	88.06
282.819	84.06
283.051	79.06
283.282	81.06
283.513	73.06
283.745	80.06
283.976	98.06
284.207	85.06
284.439	85.06
284.67	79.06
284.901	97.06
285.132	81.06
285.364	93.06
285.595	97.06
285.826	87.06
286.057	95.06
286.288	91.06
286.52	90.06
286.751	90.06
286.982	89.06
287.213	90.06
287.444	103.06
287.675	97.06
287.906	96.06
288.138	68.06
288.369	97.06
288.6	91.06
288.831	89.06
289.062	96.06
289.293	87.06
289.524	83.06
289.755	76.06
289.986	89.06
290.217	88.06
290.448	98.06
290.679	91.06
290.91	84.06
291.141	89.06
291.371	102.06
291.602	79.06
291.833	81.06
292.064	91.06
292.295	71.06
292.526	81.06
292.757	84.06
292.987	75.06
293.218	81.06
293.449	89.06
293.68	86.06
293.91	96.06
294.141	83.06
294.372	66.06
294.603	93.06
294.833	69.06
295.064	88.06
295.295	89.06
295.525	105.06
295.756	83.06
295.987	70.06
296.217	87.06
296.448	68.06
296.679	89.06
296.909	75.06
297.14	88.06
297.37	87.06
297.601	93.06
297.831	88.06
298.062	83.06
298.292	79.06
298.523	86.06
298.753	81.06
298.984	88.06
299.214	88.06
299.445	94.06
299.675	74.06
299.905	103.06
300.136	90.06
300.366	80.06
300.597	93.06
300.827	67.06
301.057	84.06
301.288	91.06
301.518	77.06
301.748	88.06
301.979	110.06
302.209	82.06
302.439	80.06
302.669	85.06
302.9	86.06
303.13	88.06
303.36	78.06
303.59	83.06
303.82	93.06
304.051	99.06
304.281	99.06
304.511	93.06
304.741	84.06
304.971	90.06
305.201	86.06
305.431	80.06
305.661	88.06
305.891	87.06
306.121	103.06
306.352	90.06
306.582	94.06
306.812	92.06
307.042	81.06
307.272	85.06
307.502	66.06
307.731	89.06
307.961	96.06
308.191	84.06
308.421	85.06
308.651	97.06
308.881	90.06
309.111	78.06
309.341	85.06
309.571	89.06
309.8	81.06
310.03	84.06
310.26	81.06
310.49	81.06
310.72	79.06
310.949	95.06
311.179	97.06
311.409	99.06
311.639	76.06
311.868	81.06
312.098	94.06
312.328	88.06
312.557	99.06
312.787	94.06
313.017	90.06
313.246	89.06
313.476	86.06
313.706	93.06
313.935	91.06
314.165	97.06
314.394	77.06
314.624	103.06
314.853	89.06
315.083	94.06
315.312	73.06
315.542	86.06
315.771	79.06
316.001	84.06
316.23	95.06
316.46	93.06
316.689	83.06
316.919	73.06
317.148	59.06
317.377	96.06
317.607	94.06
317.836	94.06
318.065	85.06
318.295	85.06
318.524	90.06
318.753	91.06
318.983	79.06
319.212	78.06
319.441	91.06
319.67	94.06
319.9	86.06
320.129	85.06
320.358	91.06
320.587	95.06
320.816	78.06
321.046	80.06
321.275	78.06
321.504	90.06
321.733	80.06
321.962	79.06
322.191	89.06
322.42	92.06
322.649	83.06
322.878	84.06
323.108	86.06
323.337	89.06
323.566	94.06
323.795	82.06
324.024	97.06
324.253	78.06
324.482	74.06
324.71	78.06
324.939	89.06
325.168	101.06
325.397	94.06
325.626	89.06
325.855	93.06
326.084	87.06
326.313	75.06
326.542	91.06
326.77	85.06
326.999	90.06
327.228	68.06
327.457	79.06
327.686	81.06
327.914	86.06
328.143	91.06
328.372	95.06
328.6	93.06
328.829	77.06
329.058	97.06
329.287	86.06
329.515	83.06
329.744	80.06
329.972	86.06
330.201	87.06
330.43	67.06
330.658	87.06
330.887	77.06
331.115	97.06
331.344	90.06
331.572	95.06
331.801	79.06
332.03	97.06
332.258	90.06
332.486	86.06
332.715	94.06
332.943	91.06
333.172	84.06
333.4	80.06
333.629	106.06
333.857	84.06
334.085	83.06
334.314	88.06
334.542	84.06
334.771	80.06
334.999	86.06
335.227	83.06
335.455	88.06
335.684	83.06
335.912	75.06
336.14	95.06
336.369	89.06
336.597	67.06
336.825	86.06
337.053	85.06
337.281	89.06
337.51	87.06
337.738	88.06
337.966	80.06
338.194	81.06
338.422	62.06
338.65	79.06
338.878	70.06
339.106	80.06
339.334	86.06
339.562	75.06
339.79	84.06
340.018	78.06
340.246	90.06
340.474	89.06
340.702	95.06
340.93	77.06
341.158	70.06
341.386	78.06
341.614	95.06
341.842	73.06
342.07	83.06
342.298	74.06
342.526	81.06
342.754	81.06
342.981	84.06
343.209	81.06
343.437	104.06
343.665	80.06
343.893	80.06
344.12	83.06
344.348	80.06
344.576	68.06
344.804	72.06
345.031	98.06
345.259	84.06
345.487	82.06
345.714	80.06
345.942	73.06
346.17	92.06
346.397	91.06
346.625	75.06
346.853	87.06
347.08	79.06
347.308	98.06
347.535	105.06
347.763	84.06
347.99	100.06
348.218	85.06
348.445	89.06
348.673	85.06
348.9	84.06
349.128	77.06
349.355	90.06
349.583	78.06
349.81	89.06
350.037	93.06
350.265	103.06
350.492	97.06
350.72	94.06
350.947	83.06
351.174	91.06
351.402	74.06
351.629	70.06
351.856	78.06
352.083	89.06
352.311	88.06
352.538	80.06
352.765	91.06
352.992	95.06
353.22	94.06
353.447	90.06
353.674	80.06
353.901	77.06
354.128	85.06
354.355	66.06
354.583	96.06
354.81	82.06
355.037	88.06
355.264	93.06
355.491	71.06
355.718	72.06
355.945	103.06
356.172	62.06
356.399	90.06
356.626	90.06
356.853	71.06
357.08	84.06
357.307	77.06
357.534	100.06
357.761	95.06
357.988	84.06
358.215	77.06
358.441	67.06
358.668	88.06
358.895	90.06
359.122	82.06
359.349	75.06
359.576	81.06
359.802	96.06
360.029	85.06
360.256	80.06
360.483	92.06
360.709	82.06
360.936	80.06
361.163	84.06
361.39	77.06
361.616	76.06
361.843	95.06
362.07	84.06
362.296	96.06
362.523	80.06
362.749	72.06
362.976	83.06
363.203	99.06
363.429	93.06
363.656	101.06
363.882	99.06
364.109	82.06
364.335	79.06
364.562	87.06
364.788	70.06
365.015	79.06
365.241	77.06
365.468	80.06
365.694	84.06
365.92	97.06
366.147	88.06
366.373	87.06
366.599	78.06
366.826	71.06
367.052	92.06
367.278	73.06
367.505	80.06
367.731	79.06
367.957	89.06
368.184	89.06
368.41	87.06
368.636	80.06
368.862	82.06
369.089	75.06
369.315	88.06
369.541	88.06
369.767	100.06
369.993	79.06
370.219	78.06
370.445	89.06
370.672	81.06
370.898	76.06
371.124	84.06
371.35	76.06
371.576	88.06
371.802	88.06
372.028	88.06
372.254	82.06
372.48	75.06
372.706	67.06
372.932	87.06
373.158	87.06
373.384	92.06
373.61	91.06
373.835	81.06
374.061	86.06
374.287	75.06
374.513	93.06
374.739	96.06
374.965	97.06
375.191	69.06
375.416	85.06
375.642	79.06
375.868	89.06
376.094	85.06
376.319	85.06
376.545	83.06
376.771	87.06
376.997	69.06
377.222	69.06
377.448	76.06
377.674	62.06
377.899	82.06
378.125	75.06
378.35	87.06
378.576	76.06
378.802	91.06
379.027	97.06
379.253	88.06
379.478	83.06
379.704	86.06
379.929	73.06
380.155	90.06
380.38	85.06
380.606	86.06
380.831	79.06
381.057	92.06
381.282	87.06
381.507	102.06
381.733	80.06
381.958	84.06
382.184	94.06
382.409	72.06
382.634	75.06
382.86	79.06
383.085	96.06
383.31	87.06
383.535	80.06
383.761	82.06
383.986	83.06
384.211	78.06
384.436	80.06
384.662	86.06
384.887	78.06
385.112	85.06
385.337	85.06
385.562	82.06
385.787	78.06
386.013	78.06
386.238	85.06
386.463	86.06
386.688	98.06
386.913	93.06
387.138	79.06
387.363	82.06
387.588	79.06
387.813	94.06
388.038	90.06
388.263	86.06
388.488	75.06
388.713	72.06
388.938	100.06
389.163	89.06
389.387	77.06
389.612	79.06
389.837	82.06
390.062	90.06
390.287	81.06
390.512	82.06
390.736	85.06
390.961	73.06
391.186	78.06
391.411	77.06
391.636	87.06
391.86	83.06
392.085	85.06
392.31	88.06
392.534	79.06
392.759	99.06
392.984	91.06
393.208	93.06
393.433	94.06
393.658	93.06
393.882	74.06
394.107	87.06
394.331	77.06
394.556	91.06
394.78	90.06
395.005	84.06
395.229	91.06
395.454	93.06
395.678	86.06
395.903	87.06
396.127	70.06
396.352	76.06
396.576	91.06
396.801	85.06
397.025	78.06
397.249	90.06
397.474	89.06
397.698	91.06
397.922	81.06
398.147	76.06
398.371	67.06
398.595	82.06
398.82	88.06
399.044	64.06
399.268	86.06
399.492	82.06
399.717	70.06
399.941	85.06
400.165	79.06
400.389	73.06
400.613	92.06
400.837	91.06
401.062	78.06
401.286	82.06
401.51	81.06
401.734	80.06
401.958	86.06
402.182	73.06
402.406	81.06
402.63	70.06
402.854	67.06
403.078	81.06
403.302	91.06
403.526	73.06
403.75	79.06
403.974	90.06
404.198	71.06
404.422	84.06
404.645	74.06
404.869	88.06
405.093	76.06
405.317	98.06
405.541	82.06
405.765	95.06
405.988	87.06
406.212	74.06
406.436	79.06
406.66	80.06
406.883	81.06
407.107	86.06
407.331	94.06
407.555	85.06
407.778	74.06
408.002	90.06
408.226	86.06
408.449	83.06
408.673	65.06
408.896	97.06
409.12	83.06
409.344	86.06
409.567	67.06
409.791	98.06
410.014	86.06
410.238	85.06
410.461	76.06
410.685	90.06
410.908	86.06
411.132	96.06
411.355	89.06
411.578	72.06
411.802	77.06
412.025	75.06
412.249	92.06
412.472	77.06
412.695	71.06
412.919	78.06
413.142	83.06
413.365	69.06
413.589	81.06
413.812	71.06
414.035	85.06
414.258	75.06
414.482	77.06
414.705	70.06
414.928	82.06
415.151	83.06
415.374	88.06
415.597	80.06
415.821	88.06
416.044	76.06
416.267	81.06
416.49	86.06
416.713	85.06
416.936	95.06
417.159	87.06
417.382	90.06
417.605	74.06
417.828	86.06
418.051	89.06
418.274	88.06
418.497	72.06
418.72	76.06
418.943	81.06
419.166	71.06
419.389	86.06
419.611	87.06
419.834	83.06
420.057	82.06
420.28	83.06
420.503	81.06
420.726	78.06
420.948	90.06
421.171	88.06
421.394	79.06
421.617	89.06
421.839	75.06
422.062	74.06
422.285	85.06
422.507	77.06
422.73	96.06
422.953	97.06
423.175	88.06
423.398	66.06
423.621	88.06
423.843	82.06
424.066	82.06
424.288	88.06
424.511	81.06
424.733	83.06
424.956	90.06
425.178	82.06
425.401	85.06
425.623	83.06
425.846	81.06
426.068	75.06
426.291	74.06
426.513	73.06
426.735	81.06
426.958	79.06
427.18	84.06
427.402	75.06
427.625	74.06
427.847	81.06
428.069	87.06
428.292	78.06
428.514	80.06
428.736	90.06
428.958	73.06
429.181	84.06
429.403	83.06
429.625	71.06
429.847	95.06
430.069	87.06
430.292	91.06
430.514	99.06
430.736	78.06
430.958	86.06
431.18	86.06
431.402	90.06
431.624	79.06
431.846	86.06
432.068	80.06
432.29	101.06
432.512	88.06
432.734	86.06
432.956	90.06
433.178	88.06
433.4	83.06
433.622	89.06
433.844	83.06
434.066	90.06
434.287	62.06
434.509	91.06
434.731	82.06
434.953	75.06
435.175	72.06
435.397	72.06
435.618	86.06
435.84	80.06
436.062	68.06
436.284	93.06
436.505	92.06
436.727	63.06
436.949	82.06
437.17	85.06
437.392	77.06
437.614	84.06
437.835	86.06
438.057	85.06
438.278	86.06
438.5	83.06
438.721	94.06
438.943	90.06
439.165	87.06
439.386	83.06
439.608	85.06
439.829	77.06
440.05	83.06
440.272	93.06
440.493	83.06
440.715	87.06
440.936	93.06
441.158	80.06
441.379	88.06
441.6	76.06
441.822	87.06
442.043	89.06
442.264	77.06
442.486	98.06
442.707	83.06
442.928	81.06
443.149	70.06
443.371	82.06
443.592	93.06
443.813	77.06
444.034	82.06
444.255	101.06
444.476	80.06
444.698	75.06
444.919	91.06
445.14	167.06
445.361	112.06
445.582	89.06
445.803	82.06
446.024	81.06
446.245	88.06
446.466	90.06
446.687	79.06
446.908	87.06
447.129	97.06
447.35	81.06
447.571	90.06
447.792	71.06
448.013	82.06
448.234	79.06
448.455	80.06
448.675	82.06
448.896	83.06
449.117	82.06
449.338	74.06
449.559	89.06
449.779	103.06
450	93.06
450.221	81.06
450.442	85.06
450.662	90.06
450.883	80.06
451.104	85.06
451.324	69.06
451.545	70.06
451.766	86.06
451.986	67.06
452.207	86.06
452.428	68.06
452.648	74.06
452.869	82.06
453.089	88.06
453.31	73.06
453.53	97.06
453.751	82.06
453.971	81.06
454.192	76.06
454.412	79.06
454.633	85.06
454.853	81.06
455.073	85.06
455.294	89.06
455.514	90.06
455.734	97.06
455.955	84.06
456.175	75.06
456.395	89.06
456.616	96.06
456.836	89.06
457.056	82.06
457.276	79.06
457.497	66.06
457.717	76.06
457.937	86.06
458.157	69.06
458.377	84.06
458.598	76.06
458.818	70.06
459.038	78.06
459.258	81.06
459.478	79.06
459.698	91.06
459.918	78.06
460.138	69.06
460.358	83.06
460.578	67.06
460.798	92.06
461.018	91.06
461.238	97.06
461.458	102.06
461.678	77.06
461.898	80.06
462.118	83.06
462.338	87.06
462.558	85.06
462.777	75.06
462.997	88.06
463.217	88.06
463.437	93.06
463.657	83.06
463.876	72.06
464.096	85.06
464.316	75.06
464.536	87.06
464.755	86.06
464.975	75.06
465.195	81.06
465.414	77.06
465.634	87.06
465.854	82.06
466.073	88.06
466.293	82.06
466.512	65.06
466.732	93.06
466.951	80.06
467.171	80.06
467.391	74.06
467.61	87.06
467.829	83.06
468.049	82.06
468.268	71.06
468.488	82.06
468.707	86.06
468.927	77.06
469.146	96.06
469.365	84.06
469.585	77.06
469.804	83.06
470.023	80.06
470.243	91.06
470.462	92.06
470.681	97.06
470.901	93.06
471.12	84.06
471.339	74.06
471.558	70.06
471.777	79.06
471.997	96.06
472.216	88.06
472.435	95.06
472.654	76.06
472.873	92.06
473.092	91.06
473.311	80.06
473.53	87.06
473.749	82.06
473.968	90.06
474.187	75.06
474.406	83.06
474.625	82.06
474.844	87.06
475.063	79.06
475.282	70.06
475.501	69.06
475.72	89.06
475.939	73.06
476.158	97.06
476.377	77.06
476.596	86.06
476.814	85.06
477.033	77.06
477.252	82.06
477.471	83.06
477.69	75.06
477.908	85.06
478.127	90.06
478.346	89.06
478.564	88.06
478.783	80.06
479.002	92.06
479.22	76.06
479.439	83.06
479.658	84.06
479.876	88.06
480.095	84.06
480.313	94.06
480.532	89.06
480.751	89.06
480.969	92.06
481.188	75.06
481.406	90.06
481.624	79.06
481.843	73.06
482.061	85.06
482.28	91.06
482.498	84.06
482.717	94.06
482.935	86.06
483.153	77.06
483.372	88.06
483.59	81.06
483.808	77.06
484.027	82.06
484.245	80.06
484.463	89.06
484.681	97.06
484.9	88.06
485.118	95.06
485.336	82.06
485.554	90.06
485.772	84.06
485.99	78.06
486.209	82.06
486.427	78.06
486.645	81.06
486.863	89.06
487.081	98.06
487.299	88.06
487.517	78.06
487.735	88.06
487.953	79.06
488.171	70.06
488.389	77.06
488.607	82.06
488.825	72.06
489.043	94.06
489.261	83.06
489.479	82.06
489.696	88.06
489.914	85.06
490.132	82.06
490.35	98.06
490.568	74.06
490.786	98.06
491.003	82.06
491.221	71.06
491.439	93.06
491.657	100.06
491.874	78.06
492.092	80.06
492.31	89.06
492.527	83.06
492.745	98.06
492.963	83.06
493.18	92.06
493.398	101.06
493.615	90.06
493.833	87.06
494.05	81.06
494.268	80.06
494.485	108.06
494.703	81.06
494.92	81.06
495.138	74.06
495.355	95.06
495.573	77.06
495.79	86.06
496.008	82.06
496.225	94.06
496.442	85.06
496.66	101.06
496.877	87.06
497.094	78.06
497.312	88.06
497.529	82.06
497.746	103.06
497.963	99.06
498.181	92.06
498.398	88.06
498.615	79.06
498.832	92.06
499.049	77.06
499.267	90.06
499.484	80.06
499.701	85.06
499.918	90.06
500.135	81.06
500.352	87.06
500.569	90.06
500.786	108.06
501.003	86.06
501.22	90.06
501.437	90.06
501.654	81.06
501.871	83.06
502.088	81.06
502.305	73.06
502.522	74.06
502.739	88.06
502.956	78.06
503.172	94.06
503.389	77.06
503.606	86.06
503.823	91.06
504.04	92.06
504.256	98.06
504.473	88.06
504.69	68.06
504.907	84.06
505.123	81.06
505.34	82.06
505.557	89.06
505.773	94.06
505.99	91.06
506.207	89.06
506.423	84.06
506.64	79.06
506.856	72.06
507.073	77.06
507.289	87.06
507.506	93.06
507.722	92.06
507.939	74.06
508.155	77.06
508.372	83.06
508.588	91.06
508.805	83.06
509.021	88.06
509.238	101.06
509.454	87.06
509.67	81.06
509.887	93.06
510.103	83.06
510.319	88.06
510.536	77.06
510.752	85.06
510.968	96.06
511.184	96.06
511.401	82.06
511.617	88.06
511.833	85.06
512.049	78.06
512.265	91.06
512.481	88.06
512.698	82.06
512.914	82.06
513.13	83.06
513.346	89.06
513.562	85.06
513.778	80.06
513.994	81.06
514.21	101.06
514.426	82.06
514.642	87.06
514.858	77.06
515.074	89.06
515.29	99.06
515.506	89.06
515.721	89.06
515.937	81.06
516.153	69.06
516.369	81.06
516.585	86.06
516.801	84.06
517.016	79.06
517.232	82.06
517.448	98.06
517.664	88.06
517.879	98.06
518.095	81.06
518.311	90.06
518.527	97.06
518.742	87.06
518.958	90.06
519.173	93.06
519.389	83.06
519.605	78.06
