Data from Dirtnoheat2_HRD10591_00017.txt Node
Date: Fri Dec 27 15:19:55 EST 2024
User: Yrep
Spectrometer: HR+D1059
Trigger mode: 1
Integration Time (sec): 1.000000E-1
Scans to average: 1
Electric dark correction enabled: true
Nonlinearity correction enabled: false
Boxcar width: 0
XAxis mode: Wavelengths
Number of Pixels in Spectrum: 2048
>>>>>Begin Spectral Data<<<<<
223.165	-23.69
223.4	-23.69
223.635	-23.69
223.869	-20.69
224.104	-16.69
224.338	-16.69
224.573	-18.69
224.808	-10.69
225.042	-6.69
225.277	-2.69
225.511	-7.69
225.746	-0.69
225.98	12.31
226.215	9.31
226.449	24.31
226.683	31.31
226.918	32.31
227.152	15.31
227.387	33.31
227.621	39.31
227.856	53.31
228.09	52.31
228.324	53.31
228.559	69.31
228.793	68.31
229.027	60.31
229.262	61.31
229.496	66.31
229.73	77.31
229.964	66.31
230.199	73.31
230.433	85.31
230.667	74.31
230.901	82.31
231.136	74.31
231.37	80.31
231.604	85.31
231.838	75.31
232.072	72.31
232.306	81.31
232.541	83.31
232.775	80.31
233.009	90.31
233.243	81.31
233.477	72.31
233.711	86.31
233.945	85.31
234.179	65.31
234.413	90.31
234.647	83.31
234.881	81.31
235.115	78.31
235.349	90.31
235.583	80.31
235.817	75.31
236.051	70.31
236.285	77.31
236.519	81.31
236.753	59.31
236.987	84.31
237.221	84.31
237.455	81.31
237.689	82.31
237.922	75.31
238.156	71.31
238.39	87.31
238.624	79.31
238.858	62.31
239.091	78.31
239.325	92.31
239.559	84.31
239.793	70.31
240.027	76.31
240.26	83.31
240.494	83.31
240.728	78.31
240.961	83.31
241.195	69.31
241.429	83.31
241.662	73.31
241.896	84.31
242.13	69.31
242.363	75.31
242.597	77.31
242.83	89.31
243.064	80.31
243.298	84.31
243.531	88.31
243.765	89.31
243.998	95.31
244.232	90.31
244.465	88.31
244.699	85.31
244.932	73.31
245.166	83.31
245.399	91.31
245.633	80.31
245.866	81.31
246.099	78.31
246.333	91.31
246.566	90.31
246.8	78.31
247.033	80.31
247.266	84.31
247.5	75.31
247.733	79.31
247.966	73.31
248.2	68.31
248.433	76.31
248.666	69.31
248.899	89.31
249.133	86.31
249.366	73.31
249.599	94.31
249.832	78.31
250.066	79.31
250.299	77.31
250.532	83.31
250.765	87.31
250.998	82.31
251.231	79.31
251.465	81.31
251.698	83.31
251.931	92.31
252.164	75.31
252.397	80.31
252.63	84.31
252.863	66.31
253.096	74.31
253.329	79.31
253.562	79.31
253.795	89.31
254.028	83.31
254.261	76.31
254.494	93.31
254.727	87.31
254.96	88.31
255.193	74.31
255.426	79.31
255.659	81.31
255.892	79.31
256.124	77.31
256.357	87.31
256.59	87.31
256.823	84.31
257.056	96.31
257.289	68.31
257.521	94.31
257.754	79.31
257.987	70.31
258.22	91.31
258.452	81.31
258.685	89.31
258.918	69.31
259.151	84.31
259.383	82.31
259.616	79.31
259.849	88.31
260.081	94.31
260.314	63.31
260.547	85.31
260.779	64.31
261.012	85.31
261.244	82.31
261.477	73.31
261.71	85.31
261.942	66.31
262.175	67.31
262.407	85.31
262.64	79.31
262.872	70.31
263.105	76.31
263.337	85.31
263.57	86.31
263.802	81.31
264.035	96.31
264.267	75.31
264.499	81.31
264.732	81.31
264.964	92.31
265.197	87.31
265.429	98.31
265.661	87.31
265.894	91.31
266.126	94.31
266.358	103.31
266.591	91.31
266.823	77.31
267.055	90.31
267.287	88.31
267.52	90.31
267.752	82.31
267.984	72.31
268.216	77.31
268.448	88.31
268.681	69.31
268.913	71.31
269.145	83.31
269.377	89.31
269.609	77.31
269.841	88.31
270.073	85.31
270.306	79.31
270.538	88.31
270.77	84.31
271.002	92.31
271.234	87.31
271.466	73.31
271.698	77.31
271.93	86.31
272.162	96.31
272.394	93.31
272.626	89.31
272.858	74.31
273.09	86.31
273.322	82.31
273.553	84.31
273.785	88.31
274.017	83.31
274.249	85.31
274.481	87.31
274.713	89.31
274.945	90.31
275.176	94.31
275.408	90.31
275.64	88.31
275.872	82.31
276.104	86.31
276.335	91.31
276.567	97.31
276.799	89.31
277.031	77.31
277.262	92.31
277.494	80.31
277.726	92.31
277.957	87.31
278.189	79.31
278.421	84.31
278.652	77.31
278.884	100.31
279.115	90.31
279.347	96.31
279.579	98.31
279.81	83.31
280.042	72.31
280.273	92.31
280.505	80.31
280.736	90.31
280.968	81.31
281.199	82.31
281.431	90.31
281.662	77.31
281.894	88.31
282.125	95.31
282.356	72.31
282.588	89.31
282.819	82.31
283.051	94.31
283.282	87.31
283.513	81.31
283.745	82.31
283.976	80.31
284.207	92.31
284.439	85.31
284.67	82.31
284.901	75.31
285.132	89.31
285.364	80.31
285.595	79.31
285.826	88.31
286.057	82.31
286.288	97.31
286.52	99.31
286.751	85.31
286.982	88.31
287.213	81.31
287.444	82.31
287.675	93.31
287.906	77.31
288.138	84.31
288.369	86.31
288.6	92.31
288.831	90.31
289.062	74.31
289.293	79.31
289.524	78.31
289.755	88.31
289.986	98.31
290.217	84.31
290.448	86.31
290.679	84.31
290.91	80.31
291.141	81.31
291.371	88.31
291.602	89.31
291.833	88.31
292.064	86.31
292.295	99.31
292.526	80.31
292.757	109.31
292.987	98.31
293.218	83.31
293.449	88.31
293.68	82.31
293.91	80.31
294.141	70.31
294.372	76.31
294.603	105.31
294.833	90.31
295.064	89.31
295.295	92.31
295.525	96.31
295.756	104.31
295.987	82.31
296.217	84.31
296.448	79.31
296.679	91.31
296.909	89.31
297.14	77.31
297.37	99.31
297.601	80.31
297.831	87.31
298.062	83.31
298.292	85.31
298.523	85.31
298.753	94.31
298.984	85.31
299.214	90.31
299.445	92.31
299.675	91.31
299.905	89.31
300.136	81.31
300.366	88.31
300.597	93.31
300.827	91.31
301.057	91.31
301.288	87.31
301.518	86.31
301.748	88.31
301.979	95.31
302.209	89.31
302.439	82.31
302.669	73.31
302.9	87.31
303.13	74.31
303.36	84.31
303.59	85.31
303.82	78.31
304.051	86.31
304.281	80.31
304.511	82.31
304.741	79.31
304.971	80.31
305.201	90.31
305.431	93.31
305.661	85.31
305.891	92.31
306.121	81.31
306.352	78.31
306.582	72.31
306.812	84.31
307.042	94.31
307.272	89.31
307.502	93.31
307.731	84.31
307.961	84.31
308.191	83.31
308.421	69.31
308.651	79.31
308.881	95.31
309.111	88.31
309.341	89.31
309.571	75.31
309.8	76.31
310.03	88.31
310.26	83.31
310.49	95.31
310.72	83.31
310.949	67.31
311.179	83.31
311.409	78.31
311.639	83.31
311.868	99.31
312.098	76.31
312.328	87.31
312.557	99.31
312.787	94.31
313.017	94.31
313.246	66.31
313.476	84.31
313.706	82.31
313.935	77.31
314.165	76.31
314.394	92.31
314.624	80.31
314.853	84.31
315.083	107.31
315.312	75.31
315.542	79.31
315.771	84.31
316.001	91.31
316.23	83.31
316.46	88.31
316.689	77.31
316.919	77.31
317.148	83.31
317.377	90.31
317.607	81.31
317.836	74.31
318.065	79.31
318.295	95.31
318.524	81.31
318.753	94.31
318.983	88.31
319.212	83.31
319.441	97.31
319.67	80.31
319.9	78.31
320.129	64.31
320.358	91.31
320.587	87.31
320.816	77.31
321.046	74.31
321.275	93.31
321.504	78.31
321.733	77.31
321.962	97.31
322.191	85.31
322.42	92.31
322.649	99.31
322.878	89.31
323.108	90.31
323.337	105.31
323.566	93.31
323.795	88.31
324.024	85.31
324.253	87.31
324.482	85.31
324.71	86.31
324.939	83.31
325.168	78.31
325.397	87.31
325.626	108.31
325.855	93.31
326.084	82.31
326.313	77.31
326.542	74.31
326.77	83.31
326.999	100.31
327.228	80.31
327.457	88.31
327.686	86.31
327.914	84.31
328.143	79.31
328.372	78.31
328.6	98.31
328.829	92.31
329.058	76.31
329.287	77.31
329.515	88.31
329.744	80.31
329.972	94.31
330.201	84.31
330.43	81.31
330.658	87.31
330.887	74.31
331.115	81.31
331.344	97.31
331.572	95.31
331.801	94.31
332.03	84.31
332.258	83.31
332.486	76.31
332.715	90.31
332.943	73.31
333.172	82.31
333.4	86.31
333.629	92.31
333.857	85.31
334.085	81.31
334.314	96.31
334.542	88.31
334.771	83.31
334.999	90.31
335.227	87.31
335.455	90.31
335.684	103.31
335.912	80.31
336.14	85.31
336.369	81.31
336.597	92.31
336.825	84.31
337.053	80.31
337.281	63.31
337.51	77.31
337.738	78.31
337.966	89.31
338.194	84.31
338.422	83.31
338.65	87.31
338.878	78.31
339.106	88.31
339.334	97.31
339.562	93.31
339.79	84.31
340.018	63.31
340.246	89.31
340.474	73.31
340.702	93.31
340.93	92.31
341.158	83.31
341.386	76.31
341.614	87.31
341.842	82.31
342.07	85.31
342.298	80.31
342.526	90.31
342.754	81.31
342.981	85.31
343.209	82.31
343.437	104.31
343.665	83.31
343.893	66.31
344.12	75.31
344.348	86.31
344.576	95.31
344.804	87.31
345.031	104.31
345.259	92.31
345.487	76.31
345.714	87.31
345.942	86.31
346.17	82.31
346.397	76.31
346.625	83.31
346.853	81.31
347.08	82.31
347.308	86.31
347.535	83.31
347.763	80.31
347.99	84.31
348.218	90.31
348.445	94.31
348.673	78.31
348.9	87.31
349.128	91.31
349.355	79.31
349.583	79.31
349.81	98.31
350.037	92.31
350.265	79.31
350.492	82.31
350.72	89.31
350.947	89.31
351.174	91.31
351.402	80.31
351.629	76.31
351.856	84.31
352.083	99.31
352.311	91.31
352.538	76.31
352.765	76.31
352.992	95.31
353.22	88.31
353.447	103.31
353.674	89.31
353.901	92.31
354.128	87.31
354.355	69.31
354.583	76.31
354.81	81.31
355.037	80.31
355.264	98.31
355.491	93.31
355.718	82.31
355.945	93.31
356.172	81.31
356.399	77.31
356.626	80.31
356.853	72.31
357.08	77.31
357.307	100.31
357.534	74.31
357.761	91.31
357.988	96.31
358.215	97.31
358.441	91.31
358.668	86.31
358.895	78.31
359.122	89.31
359.349	100.31
359.576	88.31
359.802	77.31
360.029	88.31
360.256	83.31
360.483	91.31
360.709	93.31
360.936	95.31
361.163	87.31
361.39	67.31
361.616	95.31
361.843	90.31
362.07	93.31
362.296	86.31
362.523	85.31
362.749	84.31
362.976	81.31
363.203	88.31
363.429	84.31
363.656	77.31
363.882	80.31
364.109	87.31
364.335	95.31
364.562	90.31
364.788	81.31
365.015	76.31
365.241	96.31
365.468	81.31
365.694	76.31
365.92	94.31
366.147	74.31
366.373	85.31
366.599	84.31
366.826	91.31
367.052	83.31
367.278	83.31
367.505	82.31
367.731	89.31
367.957	81.31
368.184	77.31
368.41	70.31
368.636	80.31
368.862	76.31
369.089	79.31
369.315	89.31
369.541	77.31
369.767	82.31
369.993	81.31
370.219	82.31
370.445	76.31
370.672	81.31
370.898	78.31
371.124	83.31
371.35	104.31
371.576	88.31
371.802	79.31
372.028	86.31
372.254	89.31
372.48	80.31
372.706	72.31
372.932	88.31
373.158	75.31
373.384	91.31
373.61	85.31
373.835	80.31
374.061	89.31
374.287	66.31
374.513	89.31
374.739	75.31
374.965	58.31
375.191	79.31
375.416	96.31
375.642	92.31
375.868	85.31
376.094	75.31
376.319	81.31
376.545	78.31
376.771	95.31
376.997	86.31
377.222	88.31
377.448	82.31
377.674	75.31
377.899	84.31
378.125	83.31
378.35	73.31
378.576	91.31
378.802	82.31
379.027	84.31
379.253	83.31
379.478	87.31
379.704	92.31
379.929	87.31
380.155	85.31
380.38	90.31
380.606	78.31
380.831	80.31
381.057	88.31
381.282	88.31
381.507	83.31
381.733	81.31
381.958	77.31
382.184	70.31
382.409	74.31
382.634	93.31
382.86	86.31
383.085	91.31
383.31	73.31
383.535	79.31
383.761	91.31
383.986	86.31
384.211	87.31
384.436	80.31
384.662	84.31
384.887	72.31
385.112	75.31
385.337	85.31
385.562	83.31
385.787	91.31
386.013	103.31
386.238	95.31
386.463	85.31
386.688	87.31
386.913	95.31
387.138	95.31
387.363	73.31
387.588	81.31
387.813	88.31
388.038	80.31
388.263	89.31
388.488	93.31
388.713	83.31
388.938	91.31
389.163	78.31
389.387	86.31
389.612	79.31
389.837	83.31
390.062	88.31
390.287	91.31
390.512	86.31
390.736	88.31
390.961	82.31
391.186	93.31
391.411	67.31
391.636	78.31
391.86	77.31
392.085	91.31
392.31	85.31
392.534	89.31
392.759	84.31
392.984	91.31
393.208	85.31
393.433	89.31
393.658	88.31
393.882	83.31
394.107	84.31
394.331	82.31
394.556	75.31
394.78	85.31
395.005	78.31
395.229	97.31
395.454	88.31
395.678	83.31
395.903	92.31
396.127	87.31
396.352	80.31
396.576	80.31
396.801	91.31
397.025	96.31
397.249	79.31
397.474	85.31
397.698	88.31
397.922	75.31
398.147	78.31
398.371	82.31
398.595	101.31
398.82	91.31
399.044	81.31
399.268	75.31
399.492	70.31
399.717	80.31
399.941	89.31
400.165	84.31
400.389	92.31
400.613	79.31
400.837	80.31
401.062	68.31
401.286	72.31
401.51	81.31
401.734	78.31
401.958	83.31
402.182	78.31
402.406	92.31
402.63	83.31
402.854	98.31
403.078	76.31
403.302	77.31
403.526	93.31
403.75	76.31
403.974	76.31
404.198	91.31
404.422	73.31
404.645	85.31
404.869	84.31
405.093	81.31
405.317	95.31
405.541	89.31
405.765	87.31
405.988	84.31
406.212	85.31
406.436	69.31
406.66	73.31
406.883	83.31
407.107	89.31
407.331	70.31
407.555	93.31
407.778	79.31
408.002	93.31
408.226	85.31
408.449	73.31
408.673	82.31
408.896	78.31
409.12	94.31
409.344	85.31
409.567	83.31
409.791	86.31
410.014	88.31
410.238	82.31
410.461	81.31
410.685	87.31
410.908	77.31
411.132	82.31
411.355	82.31
411.578	78.31
411.802	77.31
412.025	79.31
412.249	90.31
412.472	95.31
412.695	83.31
412.919	82.31
413.142	104.31
413.365	77.31
413.589	75.31
413.812	79.31
414.035	86.31
414.258	92.31
414.482	73.31
414.705	69.31
414.928	87.31
415.151	71.31
415.374	76.31
415.597	74.31
415.821	76.31
416.044	90.31
416.267	81.31
416.49	83.31
416.713	82.31
416.936	86.31
417.159	88.31
417.382	87.31
417.605	84.31
417.828	89.31
418.051	88.31
418.274	79.31
418.497	77.31
418.72	88.31
418.943	81.31
419.166	74.31
419.389	76.31
419.611	75.31
419.834	84.31
420.057	81.31
420.28	68.31
420.503	80.31
420.726	80.31
420.948	96.31
421.171	87.31
421.394	81.31
421.617	88.31
421.839	92.31
422.062	79.31
422.285	85.31
422.507	82.31
422.73	83.31
422.953	96.31
423.175	80.31
423.398	81.31
423.621	80.31
423.843	81.31
424.066	69.31
424.288	85.31
424.511	83.31
424.733	80.31
424.956	87.31
425.178	73.31
425.401	76.31
425.623	84.31
425.846	74.31
426.068	83.31
426.291	80.31
426.513	71.31
426.735	69.31
426.958	83.31
427.18	86.31
427.402	85.31
427.625	78.31
427.847	66.31
428.069	96.31
428.292	87.31
428.514	107.31
428.736	81.31
428.958	98.31
429.181	87.31
429.403	83.31
429.625	79.31
429.847	70.31
430.069	81.31
430.292	92.31
430.514	77.31
430.736	75.31
430.958	87.31
431.18	92.31
431.402	91.31
431.624	87.31
431.846	91.31
432.068	88.31
432.29	75.31
432.512	75.31
432.734	84.31
432.956	81.31
433.178	79.31
433.4	89.31
433.622	87.31
433.844	82.31
434.066	84.31
434.287	75.31
434.509	84.31
434.731	69.31
434.953	83.31
435.175	84.31
435.397	86.31
435.618	86.31
435.84	80.31
436.062	68.31
436.284	70.31
436.505	83.31
436.727	83.31
436.949	75.31
437.17	89.31
437.392	72.31
437.614	80.31
437.835	89.31
438.057	86.31
438.278	84.31
438.5	80.31
438.721	91.31
438.943	89.31
439.165	73.31
439.386	74.31
439.608	88.31
439.829	80.31
440.05	93.31
440.272	95.31
440.493	97.31
440.715	73.31
440.936	84.31
441.158	84.31
441.379	77.31
441.6	80.31
441.822	84.31
442.043	79.31
442.264	77.31
442.486	77.31
442.707	92.31
442.928	84.31
443.149	72.31
443.371	94.31
443.592	88.31
443.813	93.31
444.034	87.31
444.255	89.31
444.476	87.31
444.698	76.31
444.919	85.31
445.14	145.31
445.361	111.31
445.582	91.31
445.803	81.31
446.024	83.31
446.245	89.31
446.466	70.31
446.687	81.31
446.908	68.31
447.129	88.31
447.35	67.31
447.571	84.31
447.792	87.31
448.013	91.31
448.234	85.31
448.455	90.31
448.675	76.31
448.896	82.31
449.117	80.31
449.338	78.31
449.559	74.31
449.779	94.31
450	91.31
450.221	79.31
450.442	92.31
450.662	81.31
450.883	67.31
451.104	81.31
451.324	90.31
451.545	81.31
451.766	91.31
451.986	86.31
452.207	77.31
452.428	77.31
452.648	74.31
452.869	90.31
453.089	83.31
453.31	70.31
453.53	76.31
453.751	97.31
453.971	85.31
454.192	75.31
454.412	78.31
454.633	77.31
454.853	69.31
455.073	73.31
455.294	81.31
455.514	85.31
455.734	79.31
455.955	84.31
456.175	82.31
456.395	69.31
456.616	70.31
456.836	70.31
457.056	90.31
457.276	84.31
457.497	69.31
457.717	92.31
457.937	92.31
458.157	84.31
458.377	82.31
458.598	71.31
458.818	84.31
459.038	86.31
459.258	85.31
459.478	76.31
459.698	86.31
459.918	79.31
460.138	70.31
460.358	77.31
460.578	95.31
460.798	98.31
461.018	86.31
461.238	84.31
461.458	81.31
461.678	74.31
461.898	76.31
462.118	88.31
462.338	94.31
462.558	82.31
462.777	76.31
462.997	85.31
463.217	84.31
463.437	88.31
463.657	87.31
463.876	98.31
464.096	81.31
464.316	71.31
464.536	93.31
464.755	73.31
464.975	72.31
465.195	79.31
465.414	87.31
465.634	83.31
465.854	68.31
466.073	75.31
466.293	80.31
466.512	77.31
466.732	84.31
466.951	93.31
467.171	86.31
467.391	93.31
467.61	88.31
467.829	82.31
468.049	81.31
468.268	94.31
468.488	91.31
468.707	91.31
468.927	77.31
469.146	79.31
469.365	84.31
469.585	97.31
469.804	84.31
470.023	76.31
470.243	73.31
470.462	84.31
470.681	82.31
470.901	77.31
471.12	76.31
471.339	84.31
471.558	91.31
471.777	90.31
471.997	89.31
472.216	89.31
472.435	90.31
472.654	85.31
472.873	82.31
473.092	97.31
473.311	92.31
473.53	77.31
473.749	81.31
473.968	96.31
474.187	87.31
474.406	82.31
474.625	79.31
474.844	93.31
475.063	78.31
475.282	82.31
475.501	77.31
475.72	100.31
475.939	76.31
476.158	77.31
476.377	78.31
476.596	87.31
476.814	77.31
477.033	90.31
477.252	87.31
477.471	85.31
477.69	87.31
477.908	84.31
478.127	99.31
478.346	80.31
478.564	81.31
478.783	94.31
479.002	81.31
479.22	72.31
479.439	100.31
479.658	103.31
479.876	77.31
480.095	86.31
480.313	81.31
480.532	77.31
480.751	95.31
480.969	84.31
481.188	83.31
481.406	89.31
481.624	89.31
481.843	92.31
482.061	93.31
482.28	87.31
482.498	87.31
482.717	98.31
482.935	81.31
483.153	78.31
483.372	80.31
483.59	82.31
483.808	81.31
484.027	89.31
484.245	81.31
484.463	83.31
484.681	100.31
484.9	83.31
485.118	86.31
485.336	83.31
485.554	67.31
485.772	92.31
485.99	94.31
486.209	83.31
486.427	83.31
486.645	82.31
486.863	79.31
487.081	92.31
487.299	99.31
487.517	81.31
487.735	88.31
487.953	96.31
488.171	96.31
488.389	89.31
488.607	93.31
488.825	100.31
489.043	96.31
489.261	104.31
489.479	100.31
489.696	83.31
489.914	86.31
490.132	90.31
490.35	97.31
490.568	83.31
490.786	81.31
491.003	83.31
491.221	72.31
491.439	82.31
491.657	72.31
491.874	90.31
492.092	74.31
492.31	92.31
492.527	84.31
492.745	84.31
492.963	90.31
493.18	75.31
493.398	79.31
493.615	85.31
493.833	79.31
494.05	81.31
494.268	83.31
494.485	95.31
494.703	83.31
494.92	86.31
495.138	79.31
495.355	76.31
495.573	75.31
495.79	81.31
496.008	84.31
496.225	89.31
496.442	97.31
496.66	84.31
496.877	83.31
497.094	93.31
497.312	89.31
497.529	88.31
497.746	85.31
497.963	88.31
498.181	88.31
498.398	82.31
498.615	76.31
498.832	84.31
499.049	78.31
499.267	92.31
499.484	83.31
499.701	77.31
499.918	87.31
500.135	75.31
500.352	91.31
500.569	93.31
500.786	91.31
501.003	84.31
501.22	93.31
501.437	88.31
501.654	84.31
501.871	84.31
502.088	90.31
502.305	88.31
502.522	74.31
502.739	95.31
502.956	98.31
503.172	85.31
503.389	87.31
503.606	90.31
503.823	78.31
504.04	91.31
504.256	96.31
504.473	86.31
504.69	84.31
504.907	76.31
505.123	77.31
505.34	90.31
505.557	76.31
505.773	75.31
505.99	98.31
506.207	76.31
506.423	94.31
506.64	92.31
506.856	88.31
507.073	84.31
507.289	76.31
507.506	77.31
507.722	76.31
507.939	96.31
508.155	88.31
508.372	87.31
508.588	87.31
508.805	90.31
509.021	92.31
509.238	90.31
509.454	84.31
509.67	83.31
509.887	81.31
510.103	86.31
510.319	91.31
510.536	88.31
510.752	84.31
510.968	74.31
511.184	98.31
511.401	84.31
511.617	79.31
511.833	81.31
512.049	72.31
512.265	85.31
512.481	85.31
512.698	95.31
512.914	85.31
513.13	98.31
513.346	68.31
513.562	77.31
513.778	88.31
513.994	86.31
514.21	83.31
514.426	88.31
514.642	86.31
514.858	86.31
515.074	93.31
515.29	85.31
515.506	76.31
515.721	96.31
515.937	83.31
516.153	77.31
516.369	95.31
516.585	84.31
516.801	79.31
517.016	93.31
517.232	96.31
517.448	85.31
517.664	95.31
517.879	65.31
518.095	83.31
518.311	87.31
518.527	82.31
518.742	91.31
518.958	99.31
519.173	92.31
519.389	82.31
519.605	83.31
519.82	69.31
