Data from Dirtnoheat2_HRD10591_00010.txt Node
Date: Fri Dec 27 15:19:48 EST 2024
User: Yrep
Spectrometer: HR+D1059
Trigger mode: 1
Integration Time (sec): 1.000000E-1
Scans to average: 1
Electric dark correction enabled: true
Nonlinearity correction enabled: false
Boxcar width: 0
XAxis mode: Wavelengths
Number of Pixels in Spectrum: 2048
>>>>>Begin Spectral Data<<<<<
223.165	-23.75
223.4	-23.75
223.635	-23.75
223.869	-23.75
224.104	-18.75
224.338	-27.75
224.573	-15.75
224.808	-11.75
225.042	-6.75
225.277	-4.75
225.511	3.25
225.746	6.25
225.98	21.25
226.215	8.25
226.449	21.25
226.683	20.25
226.918	16.25
227.152	36.25
227.387	41.25
227.621	40.25
227.856	45.25
228.09	29.25
228.324	44.25
228.559	54.25
228.793	45.25
229.027	57.25
229.262	60.25
229.496	50.25
229.73	73.25
229.964	77.25
230.199	86.25
230.433	77.25
230.667	74.25
230.901	66.25
231.136	71.25
231.37	85.25
231.604	70.25
231.838	72.25
232.072	92.25
232.306	81.25
232.541	89.25
232.775	97.25
233.009	72.25
233.243	71.25
233.477	71.25
233.711	80.25
233.945	85.25
234.179	71.25
234.413	81.25
234.647	89.25
234.881	70.25
235.115	82.25
235.349	90.25
235.583	80.25
235.817	75.25
236.051	75.25
236.285	55.25
236.519	74.25
236.753	78.25
236.987	77.25
237.221	85.25
237.455	67.25
237.689	77.25
237.922	78.25
238.156	74.25
238.39	70.25
238.624	62.25
238.858	64.25
239.091	75.25
239.325	80.25
239.559	78.25
239.793	75.25
240.027	64.25
240.26	69.25
240.494	78.25
240.728	59.25
240.961	66.25
241.195	65.25
241.429	77.25
241.662	80.25
241.896	78.25
242.13	69.25
242.363	75.25
242.597	81.25
242.83	78.25
243.064	84.25
243.298	92.25
243.531	69.25
243.765	78.25
243.998	76.25
244.232	80.25
244.465	82.25
244.699	81.25
244.932	70.25
245.166	66.25
245.399	78.25
245.633	64.25
245.866	82.25
246.099	86.25
246.333	84.25
246.566	82.25
246.8	81.25
247.033	70.25
247.266	69.25
247.5	88.25
247.733	69.25
247.966	84.25
248.2	72.25
248.433	84.25
248.666	85.25
248.899	76.25
249.133	89.25
249.366	88.25
249.599	76.25
249.832	88.25
250.066	72.25
250.299	76.25
250.532	87.25
250.765	75.25
250.998	71.25
251.231	69.25
251.465	95.25
251.698	86.25
251.931	73.25
252.164	82.25
252.397	78.25
252.63	78.25
252.863	86.25
253.096	78.25
253.329	85.25
253.562	78.25
253.795	73.25
254.028	92.25
254.261	76.25
254.494	72.25
254.727	92.25
254.96	81.25
255.193	85.25
255.426	80.25
255.659	97.25
255.892	68.25
256.124	82.25
256.357	77.25
256.59	75.25
256.823	74.25
257.056	82.25
257.289	77.25
257.521	84.25
257.754	77.25
257.987	83.25
258.22	81.25
258.452	79.25
258.685	75.25
258.918	77.25
259.151	74.25
259.383	84.25
259.616	79.25
259.849	77.25
260.081	78.25
260.314	86.25
260.547	88.25
260.779	58.25
261.012	76.25
261.244	94.25
261.477	84.25
261.71	80.25
261.942	86.25
262.175	90.25
262.407	79.25
262.64	81.25
262.872	88.25
263.105	87.25
263.337	89.25
263.57	58.25
263.802	74.25
264.035	93.25
264.267	93.25
264.499	86.25
264.732	82.25
264.964	87.25
265.197	89.25
265.429	74.25
265.661	73.25
265.894	85.25
266.126	81.25
266.358	95.25
266.591	85.25
266.823	66.25
267.055	72.25
267.287	80.25
267.52	77.25
267.752	93.25
267.984	89.25
268.216	82.25
268.448	74.25
268.681	85.25
268.913	84.25
269.145	86.25
269.377	89.25
269.609	87.25
269.841	79.25
270.073	83.25
270.306	81.25
270.538	88.25
270.77	83.25
271.002	74.25
271.234	82.25
271.466	77.25
271.698	89.25
271.93	85.25
272.162	87.25
272.394	87.25
272.626	80.25
272.858	73.25
273.09	75.25
273.322	68.25
273.553	84.25
273.785	72.25
274.017	89.25
274.249	77.25
274.481	85.25
274.713	79.25
274.945	95.25
275.176	84.25
275.408	101.25
275.64	78.25
275.872	65.25
276.104	85.25
276.335	82.25
276.567	84.25
276.799	91.25
277.031	92.25
277.262	79.25
277.494	86.25
277.726	74.25
277.957	107.25
278.189	84.25
278.421	61.25
278.652	63.25
278.884	69.25
279.115	80.25
279.347	77.25
279.579	90.25
279.81	87.25
280.042	86.25
280.273	81.25
280.505	76.25
280.736	76.25
280.968	83.25
281.199	86.25
281.431	76.25
281.662	86.25
281.894	83.25
282.125	76.25
282.356	92.25
282.588	85.25
282.819	73.25
283.051	81.25
283.282	84.25
283.513	88.25
283.745	74.25
283.976	88.25
284.207	86.25
284.439	79.25
284.67	84.25
284.901	80.25
285.132	71.25
285.364	77.25
285.595	69.25
285.826	80.25
286.057	86.25
286.288	97.25
286.52	71.25
286.751	95.25
286.982	75.25
287.213	74.25
287.444	88.25
287.675	75.25
287.906	76.25
288.138	84.25
288.369	79.25
288.6	80.25
288.831	95.25
289.062	77.25
289.293	74.25
289.524	79.25
289.755	76.25
289.986	84.25
290.217	83.25
290.448	71.25
290.679	81.25
290.91	97.25
291.141	90.25
291.371	80.25
291.602	86.25
291.833	77.25
292.064	83.25
292.295	68.25
292.526	78.25
292.757	88.25
292.987	83.25
293.218	80.25
293.449	75.25
293.68	76.25
293.91	80.25
294.141	89.25
294.372	76.25
294.603	71.25
294.833	80.25
295.064	77.25
295.295	93.25
295.525	79.25
295.756	96.25
295.987	77.25
296.217	82.25
296.448	80.25
296.679	78.25
296.909	97.25
297.14	86.25
297.37	76.25
297.601	78.25
297.831	76.25
298.062	77.25
298.292	84.25
298.523	87.25
298.753	87.25
298.984	78.25
299.214	73.25
299.445	87.25
299.675	85.25
299.905	78.25
300.136	103.25
300.366	92.25
300.597	91.25
300.827	86.25
301.057	80.25
301.288	85.25
301.518	95.25
301.748	67.25
301.979	104.25
302.209	86.25
302.439	91.25
302.669	88.25
302.9	73.25
303.13	79.25
303.36	84.25
303.59	84.25
303.82	77.25
304.051	84.25
304.281	70.25
304.511	79.25
304.741	78.25
304.971	85.25
305.201	76.25
305.431	89.25
305.661	80.25
305.891	85.25
306.121	74.25
306.352	79.25
306.582	95.25
306.812	89.25
307.042	94.25
307.272	86.25
307.502	90.25
307.731	91.25
307.961	86.25
308.191	104.25
308.421	102.25
308.651	85.25
308.881	79.25
309.111	83.25
309.341	85.25
309.571	83.25
309.8	79.25
310.03	84.25
310.26	74.25
310.49	73.25
310.72	77.25
310.949	85.25
311.179	85.25
311.409	74.25
311.639	84.25
311.868	87.25
312.098	81.25
312.328	80.25
312.557	86.25
312.787	79.25
313.017	86.25
313.246	88.25
313.476	84.25
313.706	86.25
313.935	87.25
314.165	88.25
314.394	90.25
314.624	77.25
314.853	86.25
315.083	74.25
315.312	86.25
315.542	88.25
315.771	95.25
316.001	91.25
316.23	83.25
316.46	80.25
316.689	88.25
316.919	100.25
317.148	73.25
317.377	85.25
317.607	93.25
317.836	94.25
318.065	98.25
318.295	100.25
318.524	68.25
318.753	73.25
318.983	89.25
319.212	94.25
319.441	83.25
319.67	87.25
319.9	87.25
320.129	83.25
320.358	75.25
320.587	81.25
320.816	88.25
321.046	95.25
321.275	81.25
321.504	78.25
321.733	85.25
321.962	88.25
322.191	77.25
322.42	74.25
322.649	72.25
322.878	90.25
323.108	84.25
323.337	93.25
323.566	90.25
323.795	95.25
324.024	87.25
324.253	89.25
324.482	87.25
324.71	82.25
324.939	93.25
325.168	90.25
325.397	74.25
325.626	89.25
325.855	78.25
326.084	81.25
326.313	79.25
326.542	82.25
326.77	88.25
326.999	74.25
327.228	91.25
327.457	78.25
327.686	74.25
327.914	75.25
328.143	81.25
328.372	81.25
328.6	87.25
328.829	86.25
329.058	79.25
329.287	79.25
329.515	80.25
329.744	78.25
329.972	69.25
330.201	85.25
330.43	88.25
330.658	73.25
330.887	96.25
331.115	88.25
331.344	76.25
331.572	79.25
331.801	77.25
332.03	72.25
332.258	95.25
332.486	75.25
332.715	77.25
332.943	96.25
333.172	88.25
333.4	80.25
333.629	83.25
333.857	76.25
334.085	82.25
334.314	97.25
334.542	72.25
334.771	93.25
334.999	89.25
335.227	86.25
335.455	91.25
335.684	77.25
335.912	81.25
336.14	83.25
336.369	89.25
336.597	82.25
336.825	84.25
337.053	91.25
337.281	81.25
337.51	92.25
337.738	91.25
337.966	93.25
338.194	75.25
338.422	88.25
338.65	94.25
338.878	85.25
339.106	94.25
339.334	78.25
339.562	86.25
339.79	78.25
340.018	80.25
340.246	81.25
340.474	75.25
340.702	87.25
340.93	84.25
341.158	70.25
341.386	84.25
341.614	103.25
341.842	86.25
342.07	84.25
342.298	90.25
342.526	84.25
342.754	93.25
342.981	84.25
343.209	91.25
343.437	95.25
343.665	88.25
343.893	70.25
344.12	92.25
344.348	85.25
344.576	85.25
344.804	94.25
345.031	85.25
345.259	78.25
345.487	94.25
345.714	95.25
345.942	78.25
346.17	79.25
346.397	76.25
346.625	78.25
346.853	78.25
347.08	78.25
347.308	85.25
347.535	89.25
347.763	84.25
347.99	80.25
348.218	90.25
348.445	84.25
348.673	81.25
348.9	73.25
349.128	85.25
349.355	80.25
349.583	85.25
349.81	80.25
350.037	88.25
350.265	77.25
350.492	83.25
350.72	79.25
350.947	78.25
351.174	83.25
351.402	90.25
351.629	88.25
351.856	94.25
352.083	81.25
352.311	79.25
352.538	76.25
352.765	93.25
352.992	103.25
353.22	78.25
353.447	96.25
353.674	80.25
353.901	84.25
354.128	89.25
354.355	80.25
354.583	73.25
354.81	93.25
355.037	84.25
355.264	76.25
355.491	73.25
355.718	69.25
355.945	90.25
356.172	87.25
356.399	94.25
356.626	85.25
356.853	76.25
357.08	86.25
357.307	95.25
357.534	92.25
357.761	79.25
357.988	76.25
358.215	105.25
358.441	71.25
358.668	82.25
358.895	77.25
359.122	74.25
359.349	84.25
359.576	87.25
359.802	83.25
360.029	80.25
360.256	86.25
360.483	94.25
360.709	89.25
360.936	92.25
361.163	76.25
361.39	78.25
361.616	90.25
361.843	99.25
362.07	76.25
362.296	74.25
362.523	83.25
362.749	82.25
362.976	81.25
363.203	99.25
363.429	72.25
363.656	88.25
363.882	81.25
364.109	75.25
364.335	73.25
364.562	77.25
364.788	74.25
365.015	75.25
365.241	76.25
365.468	84.25
365.694	77.25
365.92	84.25
366.147	90.25
366.373	79.25
366.599	72.25
366.826	75.25
367.052	76.25
367.278	100.25
367.505	100.25
367.731	93.25
367.957	76.25
368.184	86.25
368.41	92.25
368.636	67.25
368.862	75.25
369.089	88.25
369.315	80.25
369.541	73.25
369.767	77.25
369.993	80.25
370.219	74.25
370.445	90.25
370.672	81.25
370.898	79.25
371.124	92.25
371.35	83.25
371.576	76.25
371.802	83.25
372.028	81.25
372.254	86.25
372.48	80.25
372.706	82.25
372.932	103.25
373.158	84.25
373.384	94.25
373.61	76.25
373.835	85.25
374.061	86.25
374.287	85.25
374.513	94.25
374.739	95.25
374.965	80.25
375.191	76.25
375.416	97.25
375.642	85.25
375.868	73.25
376.094	78.25
376.319	94.25
376.545	95.25
376.771	92.25
376.997	91.25
377.222	87.25
377.448	91.25
377.674	74.25
377.899	86.25
378.125	70.25
378.35	87.25
378.576	85.25
378.802	72.25
379.027	76.25
379.253	88.25
379.478	82.25
379.704	73.25
379.929	85.25
380.155	104.25
380.38	86.25
380.606	78.25
380.831	81.25
381.057	75.25
381.282	86.25
381.507	90.25
381.733	79.25
381.958	76.25
382.184	88.25
382.409	96.25
382.634	85.25
382.86	82.25
383.085	86.25
383.31	85.25
383.535	71.25
383.761	68.25
383.986	72.25
384.211	85.25
384.436	89.25
384.662	87.25
384.887	100.25
385.112	76.25
385.337	93.25
385.562	79.25
385.787	81.25
386.013	84.25
386.238	83.25
386.463	91.25
386.688	101.25
386.913	86.25
387.138	84.25
387.363	77.25
387.588	94.25
387.813	77.25
388.038	77.25
388.263	94.25
388.488	67.25
388.713	75.25
388.938	86.25
389.163	95.25
389.387	81.25
389.612	71.25
389.837	80.25
390.062	86.25
390.287	84.25
390.512	93.25
390.736	88.25
390.961	79.25
391.186	91.25
391.411	83.25
391.636	76.25
391.86	91.25
392.085	87.25
392.31	79.25
392.534	88.25
392.759	77.25
392.984	87.25
393.208	83.25
393.433	88.25
393.658	100.25
393.882	67.25
394.107	72.25
394.331	82.25
394.556	69.25
394.78	93.25
395.005	74.25
395.229	91.25
395.454	77.25
395.678	97.25
395.903	84.25
396.127	85.25
396.352	98.25
396.576	77.25
396.801	82.25
397.025	91.25
397.249	83.25
397.474	78.25
397.698	68.25
397.922	87.25
398.147	90.25
398.371	67.25
398.595	76.25
398.82	83.25
399.044	81.25
399.268	82.25
399.492	81.25
399.717	84.25
399.941	68.25
400.165	77.25
400.389	71.25
400.613	81.25
400.837	86.25
401.062	88.25
401.286	90.25
401.51	95.25
401.734	88.25
401.958	87.25
402.182	101.25
402.406	73.25
402.63	68.25
402.854	89.25
403.078	89.25
403.302	89.25
403.526	93.25
403.75	77.25
403.974	71.25
404.198	80.25
404.422	81.25
404.645	80.25
404.869	82.25
405.093	81.25
405.317	83.25
405.541	79.25
405.765	82.25
405.988	88.25
406.212	84.25
406.436	80.25
406.66	80.25
406.883	84.25
407.107	72.25
407.331	71.25
407.555	89.25
407.778	85.25
408.002	97.25
408.226	82.25
408.449	80.25
408.673	83.25
408.896	85.25
409.12	76.25
409.344	85.25
409.567	80.25
409.791	64.25
410.014	86.25
410.238	75.25
410.461	89.25
410.685	100.25
410.908	81.25
411.132	80.25
411.355	74.25
411.578	81.25
411.802	79.25
412.025	82.25
412.249	75.25
412.472	66.25
412.695	60.25
412.919	85.25
413.142	72.25
413.365	92.25
413.589	84.25
413.812	80.25
414.035	90.25
414.258	78.25
414.482	80.25
414.705	77.25
414.928	74.25
415.151	93.25
415.374	75.25
415.597	77.25
415.821	74.25
416.044	68.25
416.267	77.25
416.49	81.25
416.713	95.25
416.936	106.25
417.159	102.25
417.382	84.25
417.605	82.25
417.828	87.25
418.051	82.25
418.274	94.25
418.497	85.25
418.72	85.25
418.943	86.25
419.166	85.25
419.389	73.25
419.611	63.25
419.834	83.25
420.057	70.25
420.28	88.25
420.503	87.25
420.726	85.25
420.948	82.25
421.171	88.25
421.394	88.25
421.617	85.25
421.839	84.25
422.062	71.25
422.285	81.25
422.507	90.25
422.73	97.25
422.953	93.25
423.175	81.25
423.398	78.25
423.621	81.25
423.843	80.25
424.066	65.25
424.288	90.25
424.511	80.25
424.733	83.25
424.956	82.25
425.178	78.25
425.401	88.25
425.623	88.25
425.846	80.25
426.068	89.25
426.291	78.25
426.513	83.25
426.735	80.25
426.958	87.25
427.18	86.25
427.402	79.25
427.625	85.25
427.847	71.25
428.069	79.25
428.292	86.25
428.514	86.25
428.736	71.25
428.958	86.25
429.181	95.25
429.403	82.25
429.625	79.25
429.847	78.25
430.069	85.25
430.292	81.25
430.514	73.25
430.736	84.25
430.958	88.25
431.18	79.25
431.402	89.25
431.624	86.25
431.846	86.25
432.068	81.25
432.29	79.25
432.512	65.25
432.734	78.25
432.956	89.25
433.178	102.25
433.4	73.25
433.622	72.25
433.844	83.25
434.066	73.25
434.287	73.25
434.509	75.25
434.731	86.25
434.953	84.25
435.175	92.25
435.397	78.25
435.618	74.25
435.84	73.25
436.062	85.25
436.284	78.25
436.505	75.25
436.727	82.25
436.949	66.25
437.17	81.25
437.392	76.25
437.614	81.25
437.835	72.25
438.057	73.25
438.278	79.25
438.5	78.25
438.721	78.25
438.943	85.25
439.165	86.25
439.386	77.25
439.608	85.25
439.829	97.25
440.05	85.25
440.272	94.25
440.493	83.25
440.715	77.25
440.936	90.25
441.158	78.25
441.379	73.25
441.6	87.25
441.822	80.25
442.043	92.25
442.264	86.25
442.486	88.25
442.707	82.25
442.928	76.25
443.149	85.25
443.371	93.25
443.592	82.25
443.813	78.25
444.034	84.25
444.255	72.25
444.476	87.25
444.698	86.25
444.919	79.25
445.14	155.25
445.361	113.25
445.582	83.25
445.803	88.25
446.024	72.25
446.245	99.25
446.466	82.25
446.687	73.25
446.908	89.25
447.129	90.25
447.35	84.25
447.571	93.25
447.792	84.25
448.013	77.25
448.234	80.25
448.455	84.25
448.675	76.25
448.896	89.25
449.117	93.25
449.338	80.25
449.559	90.25
449.779	79.25
450	84.25
450.221	79.25
450.442	88.25
450.662	72.25
450.883	78.25
451.104	70.25
451.324	63.25
451.545	69.25
451.766	76.25
451.986	78.25
452.207	69.25
452.428	80.25
452.648	60.25
452.869	84.25
453.089	80.25
453.31	87.25
453.53	73.25
453.751	78.25
453.971	83.25
454.192	85.25
454.412	82.25
454.633	74.25
454.853	87.25
455.073	73.25
455.294	84.25
455.514	87.25
455.734	80.25
455.955	78.25
456.175	48.25
456.395	83.25
456.616	78.25
456.836	88.25
457.056	90.25
457.276	79.25
457.497	76.25
457.717	79.25
457.937	85.25
458.157	86.25
458.377	86.25
458.598	80.25
458.818	81.25
459.038	86.25
459.258	81.25
459.478	83.25
459.698	84.25
459.918	84.25
460.138	81.25
460.358	77.25
460.578	85.25
460.798	83.25
461.018	83.25
461.238	77.25
461.458	93.25
461.678	93.25
461.898	93.25
462.118	73.25
462.338	89.25
462.558	78.25
462.777	84.25
462.997	71.25
463.217	76.25
463.437	77.25
463.657	82.25
463.876	69.25
464.096	72.25
464.316	76.25
464.536	79.25
464.755	81.25
464.975	71.25
465.195	84.25
465.414	89.25
465.634	89.25
465.854	94.25
466.073	86.25
466.293	76.25
466.512	78.25
466.732	73.25
466.951	69.25
467.171	88.25
467.391	78.25
467.61	85.25
467.829	82.25
468.049	73.25
468.268	87.25
468.488	81.25
468.707	77.25
468.927	72.25
469.146	76.25
469.365	91.25
469.585	84.25
469.804	86.25
470.023	80.25
470.243	82.25
470.462	88.25
470.681	75.25
470.901	84.25
471.12	82.25
471.339	65.25
471.558	81.25
471.777	77.25
471.997	93.25
472.216	74.25
472.435	79.25
472.654	82.25
472.873	90.25
473.092	81.25
473.311	84.25
473.53	90.25
473.749	79.25
473.968	92.25
474.187	82.25
474.406	91.25
474.625	90.25
474.844	81.25
475.063	80.25
475.282	82.25
475.501	74.25
475.72	83.25
475.939	84.25
476.158	98.25
476.377	79.25
476.596	76.25
476.814	91.25
477.033	89.25
477.252	82.25
477.471	88.25
477.69	69.25
477.908	74.25
478.127	82.25
478.346	67.25
478.564	77.25
478.783	71.25
479.002	70.25
479.22	82.25
479.439	101.25
479.658	91.25
479.876	74.25
480.095	73.25
480.313	80.25
480.532	72.25
480.751	79.25
480.969	79.25
481.188	77.25
481.406	88.25
481.624	86.25
481.843	80.25
482.061	74.25
482.28	88.25
482.498	86.25
482.717	70.25
482.935	93.25
483.153	78.25
483.372	77.25
483.59	69.25
483.808	69.25
484.027	79.25
484.245	89.25
484.463	79.25
484.681	93.25
484.9	89.25
485.118	87.25
485.336	79.25
485.554	77.25
485.772	85.25
485.99	77.25
486.209	80.25
486.427	80.25
486.645	102.25
486.863	77.25
487.081	81.25
487.299	90.25
487.517	79.25
487.735	81.25
487.953	81.25
488.171	78.25
488.389	92.25
488.607	84.25
488.825	74.25
489.043	82.25
489.261	92.25
489.479	86.25
489.696	97.25
489.914	84.25
490.132	79.25
490.35	84.25
490.568	75.25
490.786	70.25
491.003	80.25
491.221	92.25
491.439	81.25
491.657	87.25
491.874	100.25
492.092	89.25
492.31	102.25
492.527	78.25
492.745	80.25
492.963	101.25
493.18	72.25
493.398	79.25
493.615	81.25
493.833	80.25
494.05	87.25
494.268	89.25
494.485	97.25
494.703	73.25
494.92	88.25
495.138	79.25
495.355	92.25
495.573	79.25
495.79	100.25
496.008	82.25
496.225	79.25
496.442	87.25
496.66	94.25
496.877	90.25
497.094	91.25
497.312	81.25
497.529	78.25
497.746	80.25
497.963	82.25
498.181	83.25
498.398	73.25
498.615	97.25
498.832	87.25
499.049	92.25
499.267	95.25
499.484	70.25
499.701	80.25
499.918	76.25
500.135	76.25
500.352	86.25
500.569	96.25
500.786	93.25
501.003	78.25
501.22	90.25
501.437	84.25
501.654	77.25
501.871	88.25
502.088	82.25
502.305	80.25
502.522	96.25
502.739	81.25
502.956	72.25
503.172	93.25
503.389	77.25
503.606	85.25
503.823	70.25
504.04	85.25
504.256	97.25
504.473	89.25
504.69	90.25
504.907	89.25
505.123	81.25
505.34	87.25
505.557	87.25
505.773	83.25
505.99	85.25
506.207	75.25
506.423	72.25
506.64	76.25
506.856	76.25
507.073	85.25
507.289	95.25
507.506	89.25
507.722	90.25
507.939	72.25
508.155	83.25
508.372	87.25
508.588	79.25
508.805	82.25
509.021	93.25
509.238	91.25
509.454	81.25
509.67	89.25
509.887	84.25
510.103	61.25
510.319	82.25
510.536	81.25
510.752	77.25
510.968	83.25
511.184	84.25
511.401	82.25
511.617	90.25
511.833	89.25
512.049	71.25
512.265	92.25
512.481	86.25
512.698	75.25
512.914	94.25
513.13	86.25
513.346	83.25
513.562	82.25
513.778	85.25
513.994	87.25
514.21	93.25
514.426	85.25
514.642	80.25
514.858	87.25
515.074	89.25
515.29	89.25
515.506	88.25
515.721	80.25
515.937	80.25
516.153	87.25
516.369	77.25
516.585	74.25
516.801	91.25
517.016	82.25
517.232	83.25
517.448	70.25
517.664	80.25
517.879	81.25
518.095	76.25
518.311	76.25
518.527	71.25
518.742	73.25
518.958	87.25
519.173	84.25
519.389	83.25
519.605	90.25
519.82	78.25
