Data from Dirtnoheat2_HRD10591_00004.txt Node
Date: Fri Dec 27 15:19:42 EST 2024
User: Yrep
Spectrometer: HR+D1059
Trigger mode: 1
Integration Time (sec): 1.000000E-1
Scans to average: 1
Electric dark correction enabled: true
Nonlinearity correction enabled: false
Boxcar width: 0
XAxis mode: Wavelengths
Number of Pixels in Spectrum: 2048
>>>>>Begin Spectral Data<<<<<
223.165	-13.69
223.4	-13.69
223.635	-13.69
223.869	-10.69
224.104	-11.69
224.338	-14.69
224.573	-19.69
224.808	-18.69
225.042	-3.69
225.277	-12.69
225.511	-2.69
225.746	-7.69
225.98	0.31
226.215	8.31
226.449	21.31
226.683	19.31
226.918	27.31
227.152	39.31
227.387	37.31
227.621	52.31
227.856	42.31
228.09	37.31
228.324	63.31
228.559	61.31
228.793	61.31
229.027	65.31
229.262	62.31
229.496	75.31
229.73	81.31
229.964	72.31
230.199	78.31
230.433	64.31
230.667	70.31
230.901	78.31
231.136	81.31
231.37	78.31
231.604	89.31
231.838	85.31
232.072	81.31
232.306	85.31
232.541	89.31
232.775	80.31
233.009	88.31
233.243	89.31
233.477	71.31
233.711	91.31
233.945	87.31
234.179	77.31
234.413	92.31
234.647	85.31
234.881	86.31
235.115	75.31
235.349	68.31
235.583	78.31
235.817	76.31
236.051	73.31
236.285	82.31
236.519	81.31
236.753	79.31
236.987	89.31
237.221	70.31
237.455	91.31
237.689	71.31
237.922	79.31
238.156	77.31
238.39	65.31
238.624	74.31
238.858	66.31
239.091	78.31
239.325	82.31
239.559	79.31
239.793	72.31
240.027	65.31
240.26	82.31
240.494	80.31
240.728	65.31
240.961	81.31
241.195	79.31
241.429	80.31
241.662	77.31
241.896	89.31
242.13	81.31
242.363	66.31
242.597	67.31
242.83	80.31
243.064	81.31
243.298	75.31
243.531	75.31
243.765	78.31
243.998	69.31
244.232	68.31
244.465	79.31
244.699	90.31
244.932	74.31
245.166	80.31
245.399	70.31
245.633	76.31
245.866	80.31
246.099	67.31
246.333	66.31
246.566	75.31
246.8	87.31
247.033	82.31
247.266	83.31
247.5	66.31
247.733	66.31
247.966	80.31
248.2	85.31
248.433	96.31
248.666	78.31
248.899	75.31
249.133	66.31
249.366	85.31
249.599	86.31
249.832	80.31
250.066	78.31
250.299	77.31
250.532	85.31
250.765	80.31
250.998	84.31
251.231	82.31
251.465	84.31
251.698	78.31
251.931	78.31
252.164	74.31
252.397	89.31
252.63	85.31
252.863	69.31
253.096	75.31
253.329	73.31
253.562	85.31
253.795	74.31
254.028	95.31
254.261	68.31
254.494	88.31
254.727	91.31
254.96	79.31
255.193	78.31
255.426	86.31
255.659	71.31
255.892	86.31
256.124	90.31
256.357	94.31
256.59	76.31
256.823	75.31
257.056	83.31
257.289	83.31
257.521	92.31
257.754	94.31
257.987	86.31
258.22	88.31
258.452	80.31
258.685	80.31
258.918	78.31
259.151	65.31
259.383	82.31
259.616	80.31
259.849	78.31
260.081	64.31
260.314	82.31
260.547	79.31
260.779	75.31
261.012	80.31
261.244	79.31
261.477	92.31
261.71	88.31
261.942	64.31
262.175	79.31
262.407	82.31
262.64	86.31
262.872	92.31
263.105	69.31
263.337	86.31
263.57	68.31
263.802	81.31
264.035	71.31
264.267	87.31
264.499	83.31
264.732	92.31
264.964	76.31
265.197	88.31
265.429	87.31
265.661	91.31
265.894	91.31
266.126	86.31
266.358	81.31
266.591	81.31
266.823	75.31
267.055	96.31
267.287	79.31
267.52	76.31
267.752	91.31
267.984	77.31
268.216	75.31
268.448	73.31
268.681	88.31
268.913	89.31
269.145	82.31
269.377	64.31
269.609	78.31
269.841	75.31
270.073	78.31
270.306	81.31
270.538	77.31
270.77	86.31
271.002	90.31
271.234	81.31
271.466	79.31
271.698	70.31
271.93	87.31
272.162	73.31
272.394	83.31
272.626	82.31
272.858	89.31
273.09	86.31
273.322	75.31
273.553	76.31
273.785	105.31
274.017	82.31
274.249	86.31
274.481	85.31
274.713	85.31
274.945	81.31
275.176	78.31
275.408	83.31
275.64	95.31
275.872	73.31
276.104	86.31
276.335	80.31
276.567	82.31
276.799	73.31
277.031	79.31
277.262	80.31
277.494	93.31
277.726	77.31
277.957	71.31
278.189	90.31
278.421	74.31
278.652	83.31
278.884	66.31
279.115	81.31
279.347	88.31
279.579	88.31
279.81	74.31
280.042	81.31
280.273	93.31
280.505	93.31
280.736	109.31
280.968	90.31
281.199	93.31
281.431	88.31
281.662	87.31
281.894	76.31
282.125	81.31
282.356	77.31
282.588	91.31
282.819	74.31
283.051	80.31
283.282	77.31
283.513	85.31
283.745	74.31
283.976	78.31
284.207	89.31
284.439	74.31
284.67	81.31
284.901	90.31
285.132	78.31
285.364	96.31
285.595	88.31
285.826	98.31
286.057	84.31
286.288	83.31
286.52	77.31
286.751	81.31
286.982	87.31
287.213	74.31
287.444	78.31
287.675	87.31
287.906	90.31
288.138	82.31
288.369	79.31
288.6	95.31
288.831	81.31
289.062	96.31
289.293	84.31
289.524	88.31
289.755	87.31
289.986	66.31
290.217	83.31
290.448	77.31
290.679	92.31
290.91	77.31
291.141	95.31
291.371	74.31
291.602	104.31
291.833	88.31
292.064	89.31
292.295	75.31
292.526	74.31
292.757	75.31
292.987	86.31
293.218	94.31
293.449	101.31
293.68	89.31
293.91	86.31
294.141	96.31
294.372	80.31
294.603	85.31
294.833	95.31
295.064	74.31
295.295	97.31
295.525	77.31
295.756	86.31
295.987	76.31
296.217	89.31
296.448	88.31
296.679	84.31
296.909	86.31
297.14	84.31
297.37	84.31
297.601	86.31
297.831	86.31
298.062	90.31
298.292	86.31
298.523	89.31
298.753	90.31
298.984	75.31
299.214	80.31
299.445	85.31
299.675	69.31
299.905	93.31
300.136	97.31
300.366	85.31
300.597	80.31
300.827	91.31
301.057	80.31
301.288	87.31
301.518	102.31
301.748	87.31
301.979	101.31
302.209	87.31
302.439	92.31
302.669	89.31
302.9	86.31
303.13	81.31
303.36	77.31
303.59	78.31
303.82	84.31
304.051	87.31
304.281	88.31
304.511	92.31
304.741	102.31
304.971	85.31
305.201	89.31
305.431	89.31
305.661	71.31
305.891	83.31
306.121	74.31
306.352	90.31
306.582	83.31
306.812	98.31
307.042	81.31
307.272	88.31
307.502	89.31
307.731	97.31
307.961	69.31
308.191	86.31
308.421	81.31
308.651	89.31
308.881	85.31
309.111	83.31
309.341	79.31
309.571	95.31
309.8	79.31
310.03	79.31
310.26	86.31
310.49	80.31
310.72	86.31
310.949	87.31
311.179	89.31
311.409	89.31
311.639	92.31
311.868	83.31
312.098	89.31
312.328	92.31
312.557	91.31
312.787	90.31
313.017	82.31
313.246	90.31
313.476	81.31
313.706	87.31
313.935	80.31
314.165	89.31
314.394	85.31
314.624	75.31
314.853	84.31
315.083	85.31
315.312	94.31
315.542	78.31
315.771	91.31
316.001	83.31
316.23	96.31
316.46	86.31
316.689	81.31
316.919	78.31
317.148	93.31
317.377	82.31
317.607	89.31
317.836	84.31
318.065	84.31
318.295	82.31
318.524	83.31
318.753	73.31
318.983	83.31
319.212	89.31
319.441	90.31
319.67	74.31
319.9	85.31
320.129	86.31
320.358	91.31
320.587	82.31
320.816	83.31
321.046	74.31
321.275	98.31
321.504	83.31
321.733	80.31
321.962	81.31
322.191	86.31
322.42	95.31
322.649	92.31
322.878	107.31
323.108	81.31
323.337	82.31
323.566	86.31
323.795	82.31
324.024	83.31
324.253	95.31
324.482	105.31
324.71	88.31
324.939	77.31
325.168	76.31
325.397	92.31
325.626	89.31
325.855	86.31
326.084	84.31
326.313	80.31
326.542	85.31
326.77	81.31
326.999	93.31
327.228	73.31
327.457	83.31
327.686	87.31
327.914	83.31
328.143	94.31
328.372	86.31
328.6	90.31
328.829	83.31
329.058	91.31
329.287	91.31
329.515	74.31
329.744	85.31
329.972	85.31
330.201	83.31
330.43	89.31
330.658	90.31
330.887	87.31
331.115	93.31
331.344	79.31
331.572	85.31
331.801	78.31
332.03	89.31
332.258	96.31
332.486	74.31
332.715	75.31
332.943	84.31
333.172	82.31
333.4	73.31
333.629	71.31
333.857	80.31
334.085	77.31
334.314	81.31
334.542	86.31
334.771	95.31
334.999	86.31
335.227	86.31
335.455	83.31
335.684	80.31
335.912	88.31
336.14	78.31
336.369	83.31
336.597	83.31
336.825	75.31
337.053	93.31
337.281	77.31
337.51	76.31
337.738	74.31
337.966	79.31
338.194	84.31
338.422	78.31
338.65	87.31
338.878	91.31
339.106	107.31
339.334	91.31
339.562	78.31
339.79	77.31
340.018	80.31
340.246	74.31
340.474	78.31
340.702	88.31
340.93	83.31
341.158	84.31
341.386	83.31
341.614	80.31
341.842	77.31
342.07	82.31
342.298	86.31
342.526	84.31
342.754	76.31
342.981	84.31
343.209	77.31
343.437	98.31
343.665	85.31
343.893	90.31
344.12	87.31
344.348	84.31
344.576	83.31
344.804	81.31
345.031	74.31
345.259	75.31
345.487	83.31
345.714	77.31
345.942	81.31
346.17	75.31
346.397	88.31
346.625	82.31
346.853	89.31
347.08	76.31
347.308	79.31
347.535	85.31
347.763	97.31
347.99	65.31
348.218	86.31
348.445	76.31
348.673	93.31
348.9	91.31
349.128	84.31
349.355	84.31
349.583	94.31
349.81	78.31
350.037	88.31
350.265	77.31
350.492	73.31
350.72	83.31
350.947	78.31
351.174	81.31
351.402	81.31
351.629	93.31
351.856	79.31
352.083	95.31
352.311	91.31
352.538	93.31
352.765	96.31
352.992	82.31
353.22	89.31
353.447	86.31
353.674	101.31
353.901	71.31
354.128	85.31
354.355	87.31
354.583	83.31
354.81	90.31
355.037	72.31
355.264	78.31
355.491	78.31
355.718	79.31
355.945	89.31
356.172	78.31
356.399	82.31
356.626	98.31
356.853	99.31
357.08	78.31
357.307	79.31
357.534	101.31
357.761	82.31
357.988	79.31
358.215	77.31
358.441	78.31
358.668	95.31
358.895	97.31
359.122	79.31
359.349	89.31
359.576	91.31
359.802	96.31
360.029	86.31
360.256	85.31
360.483	78.31
360.709	87.31
360.936	76.31
361.163	91.31
361.39	90.31
361.616	78.31
361.843	58.31
362.07	75.31
362.296	91.31
362.523	94.31
362.749	90.31
362.976	91.31
363.203	87.31
363.429	79.31
363.656	84.31
363.882	77.31
364.109	76.31
364.335	95.31
364.562	83.31
364.788	94.31
365.015	82.31
365.241	86.31
365.468	87.31
365.694	92.31
365.92	87.31
366.147	92.31
366.373	79.31
366.599	79.31
366.826	70.31
367.052	80.31
367.278	79.31
367.505	84.31
367.731	92.31
367.957	96.31
368.184	91.31
368.41	90.31
368.636	75.31
368.862	77.31
369.089	83.31
369.315	68.31
369.541	86.31
369.767	92.31
369.993	74.31
370.219	73.31
370.445	83.31
370.672	75.31
370.898	68.31
371.124	90.31
371.35	80.31
371.576	88.31
371.802	81.31
372.028	86.31
372.254	70.31
372.48	85.31
372.706	82.31
372.932	80.31
373.158	77.31
373.384	85.31
373.61	81.31
373.835	92.31
374.061	83.31
374.287	88.31
374.513	84.31
374.739	98.31
374.965	78.31
375.191	85.31
375.416	69.31
375.642	89.31
375.868	81.31
376.094	95.31
376.319	71.31
376.545	85.31
376.771	83.31
376.997	70.31
377.222	83.31
377.448	82.31
377.674	87.31
377.899	84.31
378.125	76.31
378.35	76.31
378.576	95.31
378.802	82.31
379.027	92.31
379.253	85.31
379.478	77.31
379.704	77.31
379.929	89.31
380.155	86.31
380.38	74.31
380.606	78.31
380.831	96.31
381.057	99.31
381.282	95.31
381.507	85.31
381.733	84.31
381.958	98.31
382.184	85.31
382.409	68.31
382.634	87.31
382.86	80.31
383.085	76.31
383.31	73.31
383.535	70.31
383.761	83.31
383.986	88.31
384.211	69.31
384.436	73.31
384.662	93.31
384.887	87.31
385.112	80.31
385.337	92.31
385.562	75.31
385.787	98.31
386.013	83.31
386.238	88.31
386.463	87.31
386.688	101.31
386.913	74.31
387.138	96.31
387.363	83.31
387.588	98.31
387.813	90.31
388.038	74.31
388.263	79.31
388.488	94.31
388.713	82.31
388.938	85.31
389.163	87.31
389.387	78.31
389.612	72.31
389.837	76.31
390.062	91.31
390.287	89.31
390.512	79.31
390.736	86.31
390.961	82.31
391.186	75.31
391.411	78.31
391.636	74.31
391.86	79.31
392.085	78.31
392.31	73.31
392.534	80.31
392.759	101.31
392.984	85.31
393.208	93.31
393.433	93.31
393.658	93.31
393.882	79.31
394.107	87.31
394.331	84.31
394.556	86.31
394.78	85.31
395.005	87.31
395.229	66.31
395.454	79.31
395.678	85.31
395.903	91.31
396.127	101.31
396.352	71.31
396.576	99.31
396.801	76.31
397.025	87.31
397.249	98.31
397.474	86.31
397.698	101.31
397.922	91.31
398.147	92.31
398.371	91.31
398.595	74.31
398.82	83.31
399.044	73.31
399.268	72.31
399.492	89.31
399.717	74.31
399.941	74.31
400.165	98.31
400.389	81.31
400.613	71.31
400.837	79.31
401.062	86.31
401.286	88.31
401.51	82.31
401.734	80.31
401.958	81.31
402.182	83.31
402.406	79.31
402.63	92.31
402.854	87.31
403.078	81.31
403.302	72.31
403.526	76.31
403.75	83.31
403.974	86.31
404.198	84.31
404.422	77.31
404.645	93.31
404.869	84.31
405.093	78.31
405.317	88.31
405.541	70.31
405.765	94.31
405.988	73.31
406.212	85.31
406.436	75.31
406.66	81.31
406.883	87.31
407.107	88.31
407.331	85.31
407.555	72.31
407.778	77.31
408.002	83.31
408.226	78.31
408.449	60.31
408.673	79.31
408.896	102.31
409.12	78.31
409.344	87.31
409.567	90.31
409.791	89.31
410.014	83.31
410.238	75.31
410.461	85.31
410.685	68.31
410.908	81.31
411.132	78.31
411.355	74.31
411.578	75.31
411.802	74.31
412.025	67.31
412.249	75.31
412.472	71.31
412.695	93.31
412.919	84.31
413.142	85.31
413.365	71.31
413.589	79.31
413.812	88.31
414.035	87.31
414.258	75.31
414.482	85.31
414.705	96.31
414.928	69.31
415.151	74.31
415.374	67.31
415.597	67.31
415.821	85.31
416.044	68.31
416.267	73.31
416.49	87.31
416.713	78.31
416.936	79.31
417.159	73.31
417.382	70.31
417.605	67.31
417.828	88.31
418.051	81.31
418.274	82.31
418.497	85.31
418.72	73.31
418.943	73.31
419.166	82.31
419.389	76.31
419.611	69.31
419.834	75.31
420.057	72.31
420.28	89.31
420.503	67.31
420.726	99.31
420.948	82.31
421.171	77.31
421.394	78.31
421.617	82.31
421.839	81.31
422.062	80.31
422.285	82.31
422.507	96.31
422.73	101.31
422.953	107.31
423.175	79.31
423.398	77.31
423.621	75.31
423.843	80.31
424.066	85.31
424.288	74.31
424.511	82.31
424.733	82.31
424.956	76.31
425.178	83.31
425.401	87.31
425.623	85.31
425.846	74.31
426.068	75.31
426.291	79.31
426.513	78.31
426.735	83.31
426.958	83.31
427.18	76.31
427.402	97.31
427.625	91.31
427.847	75.31
428.069	87.31
428.292	76.31
428.514	85.31
428.736	97.31
428.958	83.31
429.181	80.31
429.403	89.31
429.625	85.31
429.847	78.31
430.069	83.31
430.292	90.31
430.514	98.31
430.736	95.31
430.958	85.31
431.18	76.31
431.402	75.31
431.624	77.31
431.846	93.31
432.068	90.31
432.29	80.31
432.512	86.31
432.734	79.31
432.956	92.31
433.178	83.31
433.4	91.31
433.622	85.31
433.844	78.31
434.066	81.31
434.287	85.31
434.509	88.31
434.731	84.31
434.953	88.31
435.175	74.31
435.397	81.31
435.618	87.31
435.84	89.31
436.062	83.31
436.284	72.31
436.505	77.31
436.727	77.31
436.949	67.31
437.17	80.31
437.392	64.31
437.614	67.31
437.835	85.31
438.057	90.31
438.278	87.31
438.5	89.31
438.721	89.31
438.943	75.31
439.165	83.31
439.386	88.31
439.608	67.31
439.829	87.31
440.05	85.31
440.272	92.31
440.493	78.31
440.715	92.31
440.936	83.31
441.158	81.31
441.379	64.31
441.6	94.31
441.822	83.31
442.043	84.31
442.264	85.31
442.486	79.31
442.707	96.31
442.928	73.31
443.149	96.31
443.371	73.31
443.592	102.31
443.813	96.31
444.034	79.31
444.255	83.31
444.476	83.31
444.698	85.31
444.919	90.31
445.14	164.31
445.361	129.31
445.582	102.31
445.803	85.31
446.024	89.31
446.245	85.31
446.466	89.31
446.687	77.31
446.908	70.31
447.129	88.31
447.35	91.31
447.571	89.31
447.792	83.31
448.013	81.31
448.234	90.31
448.455	82.31
448.675	78.31
448.896	96.31
449.117	73.31
449.338	88.31
449.559	85.31
449.779	79.31
450	86.31
450.221	74.31
450.442	77.31
450.662	88.31
450.883	101.31
451.104	97.31
451.324	87.31
451.545	77.31
451.766	81.31
451.986	93.31
452.207	77.31
452.428	81.31
452.648	79.31
452.869	96.31
453.089	78.31
453.31	95.31
453.53	80.31
453.751	86.31
453.971	88.31
454.192	79.31
454.412	72.31
454.633	81.31
454.853	73.31
455.073	82.31
455.294	72.31
455.514	79.31
455.734	89.31
455.955	95.31
456.175	87.31
456.395	92.31
456.616	79.31
456.836	73.31
457.056	88.31
457.276	100.31
457.497	89.31
457.717	91.31
457.937	94.31
458.157	79.31
458.377	79.31
458.598	77.31
458.818	77.31
459.038	76.31
459.258	78.31
459.478	79.31
459.698	98.31
459.918	78.31
460.138	73.31
460.358	85.31
460.578	79.31
460.798	79.31
461.018	95.31
461.238	80.31
461.458	89.31
461.678	94.31
461.898	86.31
462.118	83.31
462.338	79.31
462.558	86.31
462.777	82.31
462.997	85.31
463.217	81.31
463.437	81.31
463.657	84.31
463.876	83.31
464.096	75.31
464.316	77.31
464.536	72.31
464.755	88.31
464.975	92.31
465.195	79.31
465.414	83.31
465.634	76.31
465.854	83.31
466.073	88.31
466.293	88.31
466.512	81.31
466.732	85.31
466.951	83.31
467.171	82.31
467.391	77.31
467.61	84.31
467.829	79.31
468.049	93.31
468.268	83.31
468.488	70.31
468.707	74.31
468.927	92.31
469.146	85.31
469.365	91.31
469.585	83.31
469.804	73.31
470.023	80.31
470.243	82.31
470.462	89.31
470.681	70.31
470.901	72.31
471.12	91.31
471.339	87.31
471.558	86.31
471.777	95.31
471.997	89.31
472.216	69.31
472.435	87.31
472.654	73.31
472.873	81.31
473.092	89.31
473.311	90.31
473.53	73.31
473.749	86.31
473.968	96.31
474.187	90.31
474.406	91.31
474.625	90.31
474.844	85.31
475.063	93.31
475.282	71.31
475.501	78.31
475.72	83.31
475.939	82.31
476.158	73.31
476.377	82.31
476.596	80.31
476.814	76.31
477.033	79.31
477.252	75.31
477.471	78.31
477.69	56.31
477.908	86.31
478.127	91.31
478.346	85.31
478.564	83.31
478.783	85.31
479.002	78.31
479.22	81.31
479.439	86.31
479.658	77.31
479.876	82.31
480.095	79.31
480.313	85.31
480.532	79.31
480.751	93.31
480.969	77.31
481.188	83.31
481.406	88.31
481.624	75.31
481.843	87.31
482.061	78.31
482.28	88.31
482.498	90.31
482.717	84.31
482.935	82.31
483.153	83.31
483.372	83.31
483.59	81.31
483.808	78.31
484.027	90.31
484.245	84.31
484.463	76.31
484.681	85.31
484.9	79.31
485.118	95.31
485.336	82.31
485.554	80.31
485.772	79.31
485.99	86.31
486.209	84.31
486.427	93.31
486.645	77.31
486.863	76.31
487.081	76.31
487.299	87.31
487.517	98.31
487.735	83.31
487.953	96.31
488.171	90.31
488.389	86.31
488.607	86.31
488.825	94.31
489.043	81.31
489.261	93.31
489.479	96.31
489.696	88.31
489.914	84.31
490.132	98.31
490.35	91.31
490.568	95.31
490.786	88.31
491.003	93.31
491.221	89.31
491.439	90.31
491.657	92.31
491.874	74.31
492.092	79.31
492.31	84.31
492.527	92.31
492.745	81.31
492.963	86.31
493.18	83.31
493.398	79.31
493.615	73.31
493.833	90.31
494.05	74.31
494.268	87.31
494.485	82.31
494.703	86.31
494.92	76.31
495.138	79.31
495.355	94.31
495.573	84.31
495.79	78.31
496.008	92.31
496.225	87.31
496.442	87.31
496.66	91.31
496.877	80.31
497.094	90.31
497.312	84.31
497.529	70.31
497.746	81.31
497.963	87.31
498.181	70.31
498.398	90.31
498.615	85.31
498.832	74.31
499.049	88.31
499.267	96.31
499.484	86.31
499.701	76.31
499.918	97.31
500.135	89.31
500.352	82.31
500.569	78.31
500.786	88.31
501.003	94.31
501.22	93.31
501.437	72.31
501.654	93.31
501.871	88.31
502.088	76.31
502.305	87.31
502.522	89.31
502.739	99.31
502.956	66.31
503.172	79.31
503.389	101.31
503.606	108.31
503.823	84.31
504.04	79.31
504.256	102.31
504.473	91.31
504.69	82.31
504.907	100.31
505.123	86.31
505.34	81.31
505.557	75.31
505.773	90.31
505.99	81.31
506.207	91.31
506.423	67.31
506.64	87.31
506.856	77.31
507.073	78.31
507.289	90.31
507.506	80.31
507.722	79.31
507.939	84.31
508.155	74.31
508.372	97.31
508.588	84.31
508.805	91.31
509.021	76.31
509.238	85.31
509.454	79.31
509.67	89.31
509.887	72.31
510.103	85.31
510.319	86.31
510.536	81.31
510.752	79.31
510.968	75.31
511.184	79.31
511.401	83.31
511.617	80.31
511.833	85.31
512.049	89.31
512.265	82.31
512.481	66.31
512.698	87.31
512.914	96.31
513.13	107.31
513.346	87.31
513.562	94.31
513.778	94.31
513.994	89.31
514.21	72.31
514.426	70.31
514.642	88.31
514.858	86.31
515.074	95.31
515.29	80.31
515.506	74.31
515.721	71.31
515.937	95.31
516.153	89.31
516.369	80.31
516.585	82.31
516.801	75.31
517.016	91.31
517.232	96.31
517.448	102.31
517.664	81.31
517.879	101.31
518.095	88.31
518.311	87.31
518.527	83.31
518.742	89.31
518.958	77.31
519.173	87.31
519.389	83.31
519.605	78.31
519.82	93.31
