Data from Dirtnoheat2_HRD10591_00012.txt Node
Date: Fri Dec 27 15:19:50 EST 2024
User: Yrep
Spectrometer: HR+D1059
Trigger mode: 1
Integration Time (sec): 1.000000E-1
Scans to average: 1
Electric dark correction enabled: true
Nonlinearity correction enabled: false
Boxcar width: 0
XAxis mode: Wavelengths
Number of Pixels in Spectrum: 2048
>>>>>Begin Spectral Data<<<<<
223.165	-15.38
223.4	-15.38
223.635	-15.38
223.869	-23.38
224.104	-29.38
224.338	-18.38
224.573	-18.38
224.808	-19.38
225.042	-0.38
225.277	-2.38
225.511	0.62
225.746	5.62
225.98	6.62
226.215	14.62
226.449	16.62
226.683	30.62
226.918	20.62
227.152	31.62
227.387	33.62
227.621	44.62
227.856	59.62
228.09	54.62
228.324	49.62
228.559	60.62
228.793	55.62
229.027	70.62
229.262	55.62
229.496	66.62
229.73	87.62
229.964	65.62
230.199	64.62
230.433	68.62
230.667	61.62
230.901	69.62
231.136	85.62
231.37	83.62
231.604	84.62
231.838	78.62
232.072	91.62
232.306	73.62
232.541	80.62
232.775	78.62
233.009	83.62
233.243	87.62
233.477	91.62
233.711	91.62
233.945	75.62
234.179	88.62
234.413	84.62
234.647	76.62
234.881	70.62
235.115	72.62
235.349	80.62
235.583	97.62
235.817	78.62
236.051	80.62
236.285	75.62
236.519	80.62
236.753	78.62
236.987	77.62
237.221	92.62
237.455	82.62
237.689	88.62
237.922	72.62
238.156	81.62
238.39	68.62
238.624	67.62
238.858	87.62
239.091	78.62
239.325	57.62
239.559	61.62
239.793	88.62
240.027	98.62
240.26	69.62
240.494	78.62
240.728	67.62
240.961	80.62
241.195	70.62
241.429	80.62
241.662	80.62
241.896	66.62
242.13	74.62
242.363	80.62
242.597	66.62
242.83	72.62
243.064	77.62
243.298	80.62
243.531	79.62
243.765	80.62
243.998	86.62
244.232	70.62
244.465	78.62
244.699	76.62
244.932	72.62
245.166	71.62
245.399	77.62
245.633	84.62
245.866	74.62
246.099	72.62
246.333	70.62
246.566	64.62
246.8	69.62
247.033	63.62
247.266	70.62
247.5	87.62
247.733	86.62
247.966	70.62
248.2	97.62
248.433	79.62
248.666	65.62
248.899	66.62
249.133	66.62
249.366	90.62
249.599	72.62
249.832	61.62
250.066	81.62
250.299	82.62
250.532	93.62
250.765	73.62
250.998	94.62
251.231	80.62
251.465	69.62
251.698	76.62
251.931	79.62
252.164	70.62
252.397	72.62
252.63	81.62
252.863	77.62
253.096	73.62
253.329	84.62
253.562	92.62
253.795	82.62
254.028	84.62
254.261	78.62
254.494	77.62
254.727	69.62
254.96	81.62
255.193	81.62
255.426	78.62
255.659	72.62
255.892	93.62
256.124	67.62
256.357	71.62
256.59	85.62
256.823	78.62
257.056	82.62
257.289	79.62
257.521	89.62
257.754	81.62
257.987	79.62
258.22	95.62
258.452	73.62
258.685	84.62
258.918	73.62
259.151	76.62
259.383	90.62
259.616	74.62
259.849	79.62
260.081	71.62
260.314	86.62
260.547	84.62
260.779	77.62
261.012	86.62
261.244	88.62
261.477	83.62
261.71	87.62
261.942	89.62
262.175	75.62
262.407	79.62
262.64	80.62
262.872	73.62
263.105	73.62
263.337	73.62
263.57	82.62
263.802	80.62
264.035	78.62
264.267	102.62
264.499	60.62
264.732	81.62
264.964	75.62
265.197	77.62
265.429	82.62
265.661	87.62
265.894	78.62
266.126	84.62
266.358	81.62
266.591	76.62
266.823	75.62
267.055	76.62
267.287	75.62
267.52	76.62
267.752	83.62
267.984	96.62
268.216	81.62
268.448	92.62
268.681	80.62
268.913	89.62
269.145	84.62
269.377	78.62
269.609	83.62
269.841	80.62
270.073	66.62
270.306	88.62
270.538	75.62
270.77	84.62
271.002	91.62
271.234	79.62
271.466	75.62
271.698	80.62
271.93	70.62
272.162	80.62
272.394	92.62
272.626	86.62
272.858	73.62
273.09	76.62
273.322	70.62
273.553	93.62
273.785	82.62
274.017	66.62
274.249	77.62
274.481	86.62
274.713	83.62
274.945	81.62
275.176	86.62
275.408	70.62
275.64	95.62
275.872	73.62
276.104	88.62
276.335	89.62
276.567	63.62
276.799	81.62
277.031	85.62
277.262	94.62
277.494	74.62
277.726	82.62
277.957	81.62
278.189	68.62
278.421	84.62
278.652	83.62
278.884	93.62
279.115	75.62
279.347	79.62
279.579	78.62
279.81	85.62
280.042	85.62
280.273	77.62
280.505	82.62
280.736	74.62
280.968	95.62
281.199	83.62
281.431	77.62
281.662	98.62
281.894	74.62
282.125	92.62
282.356	95.62
282.588	72.62
282.819	84.62
283.051	93.62
283.282	79.62
283.513	87.62
283.745	88.62
283.976	84.62
284.207	83.62
284.439	85.62
284.67	81.62
284.901	79.62
285.132	87.62
285.364	89.62
285.595	84.62
285.826	101.62
286.057	86.62
286.288	84.62
286.52	85.62
286.751	86.62
286.982	89.62
287.213	78.62
287.444	79.62
287.675	86.62
287.906	88.62
288.138	78.62
288.369	88.62
288.6	94.62
288.831	78.62
289.062	85.62
289.293	79.62
289.524	82.62
289.755	85.62
289.986	94.62
290.217	78.62
290.448	80.62
290.679	85.62
290.91	75.62
291.141	76.62
291.371	92.62
291.602	80.62
291.833	100.62
292.064	92.62
292.295	95.62
292.526	78.62
292.757	80.62
292.987	87.62
293.218	69.62
293.449	94.62
293.68	80.62
293.91	84.62
294.141	93.62
294.372	89.62
294.603	93.62
294.833	81.62
295.064	80.62
295.295	71.62
295.525	85.62
295.756	87.62
295.987	92.62
296.217	66.62
296.448	75.62
296.679	89.62
296.909	86.62
297.14	84.62
297.37	86.62
297.601	84.62
297.831	86.62
298.062	84.62
298.292	76.62
298.523	81.62
298.753	96.62
298.984	85.62
299.214	84.62
299.445	88.62
299.675	90.62
299.905	72.62
300.136	82.62
300.366	77.62
300.597	72.62
300.827	90.62
301.057	78.62
301.288	72.62
301.518	80.62
301.748	82.62
301.979	103.62
302.209	94.62
302.439	87.62
302.669	89.62
302.9	90.62
303.13	87.62
303.36	89.62
303.59	76.62
303.82	88.62
304.051	92.62
304.281	87.62
304.511	91.62
304.741	82.62
304.971	87.62
305.201	89.62
305.431	81.62
305.661	61.62
305.891	86.62
306.121	99.62
306.352	86.62
306.582	82.62
306.812	78.62
307.042	78.62
307.272	80.62
307.502	75.62
307.731	84.62
307.961	77.62
308.191	90.62
308.421	93.62
308.651	84.62
308.881	87.62
309.111	97.62
309.341	79.62
309.571	93.62
309.8	75.62
310.03	81.62
310.26	85.62
310.49	95.62
310.72	77.62
310.949	102.62
311.179	81.62
311.409	76.62
311.639	88.62
311.868	77.62
312.098	84.62
312.328	90.62
312.557	85.62
312.787	79.62
313.017	86.62
313.246	84.62
313.476	81.62
313.706	86.62
313.935	97.62
314.165	90.62
314.394	90.62
314.624	72.62
314.853	90.62
315.083	83.62
315.312	90.62
315.542	91.62
315.771	81.62
316.001	92.62
316.23	79.62
316.46	85.62
316.689	75.62
316.919	80.62
317.148	86.62
317.377	105.62
317.607	79.62
317.836	107.62
318.065	94.62
318.295	82.62
318.524	89.62
318.753	72.62
318.983	80.62
319.212	89.62
319.441	95.62
319.67	97.62
319.9	77.62
320.129	92.62
320.358	73.62
320.587	86.62
320.816	75.62
321.046	90.62
321.275	97.62
321.504	71.62
321.733	81.62
321.962	79.62
322.191	98.62
322.42	91.62
322.649	79.62
322.878	78.62
323.108	91.62
323.337	71.62
323.566	79.62
323.795	96.62
324.024	90.62
324.253	69.62
324.482	73.62
324.71	76.62
324.939	79.62
325.168	89.62
325.397	85.62
325.626	78.62
325.855	79.62
326.084	91.62
326.313	98.62
326.542	88.62
326.77	82.62
326.999	93.62
327.228	80.62
327.457	80.62
327.686	87.62
327.914	81.62
328.143	82.62
328.372	66.62
328.6	89.62
328.829	88.62
329.058	84.62
329.287	83.62
329.515	74.62
329.744	78.62
329.972	69.62
330.201	82.62
330.43	86.62
330.658	89.62
330.887	78.62
331.115	73.62
331.344	83.62
331.572	90.62
331.801	76.62
332.03	91.62
332.258	76.62
332.486	88.62
332.715	86.62
332.943	75.62
333.172	93.62
333.4	90.62
333.629	77.62
333.857	92.62
334.085	73.62
334.314	78.62
334.542	81.62
334.771	92.62
334.999	82.62
335.227	85.62
335.455	85.62
335.684	103.62
335.912	91.62
336.14	80.62
336.369	84.62
336.597	92.62
336.825	97.62
337.053	76.62
337.281	86.62
337.51	79.62
337.738	84.62
337.966	73.62
338.194	96.62
338.422	89.62
338.65	91.62
338.878	91.62
339.106	94.62
339.334	92.62
339.562	76.62
339.79	65.62
340.018	85.62
340.246	85.62
340.474	80.62
340.702	81.62
340.93	81.62
341.158	82.62
341.386	82.62
341.614	81.62
341.842	95.62
342.07	78.62
342.298	89.62
342.526	94.62
342.754	93.62
342.981	87.62
343.209	86.62
343.437	104.62
343.665	77.62
343.893	88.62
344.12	85.62
344.348	86.62
344.576	92.62
344.804	87.62
345.031	91.62
345.259	87.62
345.487	85.62
345.714	91.62
345.942	89.62
346.17	90.62
346.397	92.62
346.625	84.62
346.853	76.62
347.08	82.62
347.308	75.62
347.535	88.62
347.763	87.62
347.99	78.62
348.218	78.62
348.445	93.62
348.673	78.62
348.9	80.62
349.128	89.62
349.355	81.62
349.583	77.62
349.81	84.62
350.037	95.62
350.265	95.62
350.492	87.62
350.72	86.62
350.947	87.62
351.174	81.62
351.402	89.62
351.629	100.62
351.856	82.62
352.083	86.62
352.311	86.62
352.538	82.62
352.765	89.62
352.992	76.62
353.22	85.62
353.447	83.62
353.674	80.62
353.901	81.62
354.128	87.62
354.355	89.62
354.583	81.62
354.81	78.62
355.037	78.62
355.264	88.62
355.491	96.62
355.718	84.62
355.945	79.62
356.172	80.62
356.399	77.62
356.626	84.62
356.853	83.62
357.08	83.62
357.307	77.62
357.534	66.62
357.761	80.62
357.988	94.62
358.215	91.62
358.441	96.62
358.668	80.62
358.895	84.62
359.122	96.62
359.349	85.62
359.576	75.62
359.802	96.62
360.029	77.62
360.256	84.62
360.483	88.62
360.709	94.62
360.936	90.62
361.163	101.62
361.39	79.62
361.616	80.62
361.843	92.62
362.07	81.62
362.296	84.62
362.523	87.62
362.749	85.62
362.976	80.62
363.203	88.62
363.429	96.62
363.656	84.62
363.882	83.62
364.109	82.62
364.335	92.62
364.562	85.62
364.788	99.62
365.015	102.62
365.241	82.62
365.468	86.62
365.694	81.62
365.92	88.62
366.147	93.62
366.373	81.62
366.599	75.62
366.826	84.62
367.052	84.62
367.278	90.62
367.505	97.62
367.731	90.62
367.957	93.62
368.184	76.62
368.41	92.62
368.636	84.62
368.862	78.62
369.089	83.62
369.315	73.62
369.541	74.62
369.767	95.62
369.993	89.62
370.219	87.62
370.445	87.62
370.672	95.62
370.898	88.62
371.124	74.62
371.35	79.62
371.576	89.62
371.802	92.62
372.028	82.62
372.254	82.62
372.48	91.62
372.706	85.62
372.932	74.62
373.158	84.62
373.384	68.62
373.61	101.62
373.835	88.62
374.061	76.62
374.287	82.62
374.513	82.62
374.739	88.62
374.965	85.62
375.191	89.62
375.416	74.62
375.642	91.62
375.868	90.62
376.094	80.62
376.319	80.62
376.545	79.62
376.771	81.62
376.997	82.62
377.222	88.62
377.448	94.62
377.674	73.62
377.899	82.62
378.125	89.62
378.35	76.62
378.576	71.62
378.802	96.62
379.027	74.62
379.253	85.62
379.478	87.62
379.704	69.62
379.929	89.62
380.155	77.62
380.38	81.62
380.606	74.62
380.831	75.62
381.057	93.62
381.282	74.62
381.507	76.62
381.733	92.62
381.958	71.62
382.184	77.62
382.409	84.62
382.634	79.62
382.86	78.62
383.085	85.62
383.31	92.62
383.535	89.62
383.761	72.62
383.986	76.62
384.211	90.62
384.436	91.62
384.662	74.62
384.887	83.62
385.112	94.62
385.337	84.62
385.562	87.62
385.787	66.62
386.013	90.62
386.238	98.62
386.463	84.62
386.688	88.62
386.913	90.62
387.138	86.62
387.363	95.62
387.588	77.62
387.813	81.62
388.038	78.62
388.263	89.62
388.488	85.62
388.713	84.62
388.938	84.62
389.163	76.62
389.387	94.62
389.612	97.62
389.837	67.62
390.062	82.62
390.287	84.62
390.512	84.62
390.736	87.62
390.961	84.62
391.186	79.62
391.411	98.62
391.636	75.62
391.86	92.62
392.085	79.62
392.31	78.62
392.534	78.62
392.759	74.62
392.984	88.62
393.208	100.62
393.433	84.62
393.658	86.62
393.882	101.62
394.107	78.62
394.331	66.62
394.556	80.62
394.78	78.62
395.005	92.62
395.229	91.62
395.454	93.62
395.678	87.62
395.903	95.62
396.127	95.62
396.352	82.62
396.576	82.62
396.801	95.62
397.025	89.62
397.249	72.62
397.474	88.62
397.698	77.62
397.922	90.62
398.147	91.62
398.371	85.62
398.595	79.62
398.82	69.62
399.044	77.62
399.268	93.62
399.492	77.62
399.717	76.62
399.941	90.62
400.165	84.62
400.389	92.62
400.613	75.62
400.837	72.62
401.062	75.62
401.286	75.62
401.51	90.62
401.734	69.62
401.958	83.62
402.182	71.62
402.406	73.62
402.63	79.62
402.854	76.62
403.078	85.62
403.302	93.62
403.526	92.62
403.75	75.62
403.974	82.62
404.198	96.62
404.422	90.62
404.645	71.62
404.869	74.62
405.093	83.62
405.317	90.62
405.541	83.62
405.765	89.62
405.988	88.62
406.212	92.62
406.436	96.62
406.66	81.62
406.883	77.62
407.107	86.62
407.331	79.62
407.555	76.62
407.778	78.62
408.002	88.62
408.226	84.62
408.449	94.62
408.673	78.62
408.896	71.62
409.12	88.62
409.344	77.62
409.567	78.62
409.791	85.62
410.014	88.62
410.238	78.62
410.461	91.62
410.685	93.62
410.908	79.62
411.132	89.62
411.355	72.62
411.578	94.62
411.802	75.62
412.025	70.62
412.249	86.62
412.472	82.62
412.695	82.62
412.919	80.62
413.142	82.62
413.365	67.62
413.589	79.62
413.812	66.62
414.035	83.62
414.258	75.62
414.482	88.62
414.705	83.62
414.928	82.62
415.151	80.62
415.374	79.62
415.597	71.62
415.821	84.62
416.044	98.62
416.267	87.62
416.49	82.62
416.713	81.62
416.936	77.62
417.159	73.62
417.382	96.62
417.605	76.62
417.828	60.62
418.051	81.62
418.274	91.62
418.497	77.62
418.72	87.62
418.943	90.62
419.166	86.62
419.389	86.62
419.611	82.62
419.834	71.62
420.057	72.62
420.28	87.62
420.503	78.62
420.726	77.62
420.948	79.62
421.171	84.62
421.394	82.62
421.617	80.62
421.839	80.62
422.062	85.62
422.285	80.62
422.507	99.62
422.73	85.62
422.953	102.62
423.175	86.62
423.398	78.62
423.621	86.62
423.843	82.62
424.066	66.62
424.288	78.62
424.511	78.62
424.733	64.62
424.956	78.62
425.178	78.62
425.401	87.62
425.623	89.62
425.846	73.62
426.068	88.62
426.291	81.62
426.513	87.62
426.735	85.62
426.958	84.62
427.18	81.62
427.402	79.62
427.625	70.62
427.847	72.62
428.069	80.62
428.292	81.62
428.514	80.62
428.736	82.62
428.958	73.62
429.181	77.62
429.403	85.62
429.625	84.62
429.847	84.62
430.069	89.62
430.292	93.62
430.514	72.62
430.736	82.62
430.958	94.62
431.18	94.62
431.402	74.62
431.624	100.62
431.846	81.62
432.068	102.62
432.29	94.62
432.512	94.62
432.734	87.62
432.956	85.62
433.178	81.62
433.4	71.62
433.622	77.62
433.844	87.62
434.066	83.62
434.287	78.62
434.509	76.62
434.731	80.62
434.953	80.62
435.175	86.62
435.397	89.62
435.618	88.62
435.84	91.62
436.062	81.62
436.284	89.62
436.505	90.62
436.727	78.62
436.949	79.62
437.17	100.62
437.392	87.62
437.614	87.62
437.835	87.62
438.057	66.62
438.278	81.62
438.5	80.62
438.721	84.62
438.943	76.62
439.165	75.62
439.386	76.62
439.608	95.62
439.829	88.62
440.05	85.62
440.272	87.62
440.493	73.62
440.715	79.62
440.936	81.62
441.158	77.62
441.379	77.62
441.6	81.62
441.822	86.62
442.043	90.62
442.264	80.62
442.486	80.62
442.707	80.62
442.928	82.62
443.149	92.62
443.371	79.62
443.592	78.62
443.813	75.62
444.034	92.62
444.255	98.62
444.476	71.62
444.698	80.62
444.919	80.62
445.14	147.62
445.361	98.62
445.582	105.62
445.803	81.62
446.024	74.62
446.245	71.62
446.466	85.62
446.687	77.62
446.908	81.62
447.129	80.62
447.35	98.62
447.571	91.62
447.792	85.62
448.013	75.62
448.234	81.62
448.455	71.62
448.675	89.62
448.896	81.62
449.117	85.62
449.338	93.62
449.559	84.62
449.779	74.62
450	76.62
450.221	81.62
450.442	96.62
450.662	72.62
450.883	77.62
451.104	74.62
451.324	86.62
451.545	86.62
451.766	69.62
451.986	78.62
452.207	76.62
452.428	81.62
452.648	88.62
452.869	83.62
453.089	80.62
453.31	74.62
453.53	86.62
453.751	88.62
453.971	85.62
454.192	74.62
454.412	76.62
454.633	68.62
454.853	89.62
455.073	63.62
455.294	72.62
455.514	73.62
455.734	88.62
455.955	74.62
456.175	86.62
456.395	82.62
456.616	82.62
456.836	95.62
457.056	72.62
457.276	88.62
457.497	86.62
457.717	87.62
457.937	81.62
458.157	80.62
458.377	79.62
458.598	92.62
458.818	99.62
459.038	74.62
459.258	80.62
459.478	82.62
459.698	72.62
459.918	92.62
460.138	86.62
460.358	94.62
460.578	93.62
460.798	72.62
461.018	80.62
461.238	77.62
461.458	85.62
461.678	90.62
461.898	86.62
462.118	74.62
462.338	85.62
462.558	85.62
462.777	82.62
462.997	89.62
463.217	78.62
463.437	80.62
463.657	76.62
463.876	91.62
464.096	87.62
464.316	80.62
464.536	73.62
464.755	87.62
464.975	81.62
465.195	89.62
465.414	79.62
465.634	65.62
465.854	86.62
466.073	95.62
466.293	76.62
466.512	79.62
466.732	80.62
466.951	85.62
467.171	81.62
467.391	74.62
467.61	97.62
467.829	87.62
468.049	80.62
468.268	82.62
468.488	82.62
468.707	74.62
468.927	72.62
469.146	89.62
469.365	70.62
469.585	69.62
469.804	79.62
470.023	73.62
470.243	72.62
470.462	81.62
470.681	61.62
470.901	87.62
471.12	86.62
471.339	84.62
471.558	82.62
471.777	85.62
471.997	79.62
472.216	78.62
472.435	74.62
472.654	80.62
472.873	97.62
473.092	82.62
473.311	91.62
473.53	87.62
473.749	80.62
473.968	87.62
474.187	78.62
474.406	68.62
474.625	100.62
474.844	87.62
475.063	79.62
475.282	80.62
475.501	91.62
475.72	81.62
475.939	81.62
476.158	91.62
476.377	86.62
476.596	63.62
476.814	75.62
477.033	76.62
477.252	81.62
477.471	88.62
477.69	92.62
477.908	101.62
478.127	94.62
478.346	79.62
478.564	97.62
478.783	72.62
479.002	84.62
479.22	83.62
479.439	81.62
479.658	88.62
479.876	96.62
480.095	77.62
480.313	77.62
480.532	81.62
480.751	75.62
480.969	85.62
481.188	78.62
481.406	87.62
481.624	94.62
481.843	82.62
482.061	84.62
482.28	76.62
482.498	76.62
482.717	88.62
482.935	76.62
483.153	72.62
483.372	84.62
483.59	87.62
483.808	79.62
484.027	90.62
484.245	94.62
484.463	76.62
484.681	79.62
484.9	75.62
485.118	77.62
485.336	80.62
485.554	85.62
485.772	88.62
485.99	72.62
486.209	86.62
486.427	67.62
486.645	92.62
486.863	86.62
487.081	90.62
487.299	77.62
487.517	88.62
487.735	84.62
487.953	103.62
488.171	98.62
488.389	88.62
488.607	80.62
488.825	81.62
489.043	94.62
489.261	93.62
489.479	88.62
489.696	90.62
489.914	68.62
490.132	84.62
490.35	79.62
490.568	96.62
490.786	82.62
491.003	90.62
491.221	86.62
491.439	84.62
491.657	90.62
491.874	89.62
492.092	78.62
492.31	83.62
492.527	77.62
492.745	87.62
492.963	79.62
493.18	80.62
493.398	80.62
493.615	69.62
493.833	77.62
494.05	88.62
494.268	78.62
494.485	92.62
494.703	71.62
494.92	69.62
495.138	75.62
495.355	85.62
495.573	74.62
495.79	81.62
496.008	78.62
496.225	77.62
496.442	78.62
496.66	87.62
496.877	91.62
497.094	85.62
497.312	68.62
497.529	85.62
497.746	96.62
497.963	87.62
498.181	68.62
498.398	75.62
498.615	97.62
498.832	87.62
499.049	92.62
499.267	74.62
499.484	81.62
499.701	71.62
499.918	69.62
500.135	89.62
500.352	88.62
500.569	79.62
500.786	82.62
501.003	94.62
501.22	83.62
501.437	80.62
501.654	66.62
501.871	77.62
502.088	92.62
502.305	77.62
502.522	75.62
502.739	77.62
502.956	90.62
503.172	89.62
503.389	80.62
503.606	88.62
503.823	83.62
504.04	80.62
504.256	90.62
504.473	96.62
504.69	84.62
504.907	85.62
505.123	80.62
505.34	86.62
505.557	88.62
505.773	93.62
505.99	90.62
506.207	84.62
506.423	72.62
506.64	97.62
506.856	85.62
507.073	84.62
507.289	81.62
507.506	89.62
507.722	85.62
507.939	96.62
508.155	78.62
508.372	87.62
508.588	95.62
508.805	83.62
509.021	88.62
509.238	78.62
509.454	79.62
509.67	79.62
509.887	78.62
510.103	84.62
510.319	69.62
510.536	84.62
510.752	91.62
510.968	93.62
511.184	88.62
511.401	72.62
511.617	91.62
511.833	82.62
512.049	81.62
512.265	90.62
512.481	80.62
512.698	85.62
512.914	82.62
513.13	86.62
513.346	79.62
513.562	91.62
513.778	91.62
513.994	83.62
514.21	69.62
514.426	84.62
514.642	81.62
514.858	89.62
515.074	86.62
515.29	104.62
515.506	91.62
515.721	97.62
515.937	75.62
516.153	83.62
516.369	85.62
516.585	81.62
516.801	89.62
517.016	87.62
517.232	94.62
517.448	92.62
517.664	69.62
517.879	90.62
518.095	79.62
518.311	87.62
518.527	106.62
518.742	84.62
518.958	88.62
519.173	82.62
519.389	88.62
519.605	79.62
519.82	82.62
