Data from Dirtnoheat2_HRD10591_00013.txt Node
Date: Fri Dec 27 15:19:51 EST 2024
User: Yrep
Spectrometer: HR+D1059
Trigger mode: 1
Integration Time (sec): 1.000000E-1
Scans to average: 1
Electric dark correction enabled: true
Nonlinearity correction enabled: false
Boxcar width: 0
XAxis mode: Wavelengths
Number of Pixels in Spectrum: 2048
>>>>>Begin Spectral Data<<<<<
223.165	-8.94
223.4	-8.94
223.635	-8.94
223.869	-29.94
224.104	-10.94
224.338	-3.94
224.573	-11.94
224.808	-19.94
225.042	-7.94
225.277	-6.94
225.511	-4.94
225.746	1.06
225.98	-7.94
226.215	22.06
226.449	5.06
226.683	25.06
226.918	34.06
227.152	26.06
227.387	20.06
227.621	44.06
227.856	45.06
228.09	64.06
228.324	38.06
228.559	61.06
228.793	55.06
229.027	62.06
229.262	73.06
229.496	60.06
229.73	75.06
229.964	74.06
230.199	82.06
230.433	87.06
230.667	72.06
230.901	67.06
231.136	72.06
231.37	84.06
231.604	90.06
231.838	80.06
232.072	92.06
232.306	71.06
232.541	77.06
232.775	67.06
233.009	80.06
233.243	80.06
233.477	90.06
233.711	93.06
233.945	86.06
234.179	78.06
234.413	66.06
234.647	80.06
234.881	76.06
235.115	83.06
235.349	84.06
235.583	66.06
235.817	76.06
236.051	81.06
236.285	77.06
236.519	73.06
236.753	77.06
236.987	83.06
237.221	61.06
237.455	68.06
237.689	87.06
237.922	81.06
238.156	85.06
238.39	86.06
238.624	68.06
238.858	83.06
239.091	76.06
239.325	74.06
239.559	73.06
239.793	70.06
240.027	75.06
240.26	68.06
240.494	84.06
240.728	70.06
240.961	73.06
241.195	79.06
241.429	68.06
241.662	77.06
241.896	74.06
242.13	81.06
242.363	84.06
242.597	82.06
242.83	81.06
243.064	79.06
243.298	86.06
243.531	70.06
243.765	66.06
243.998	78.06
244.232	77.06
244.465	98.06
244.699	80.06
244.932	68.06
245.166	80.06
245.399	76.06
245.633	64.06
245.866	70.06
246.099	67.06
246.333	84.06
246.566	71.06
246.8	61.06
247.033	80.06
247.266	87.06
247.5	79.06
247.733	77.06
247.966	77.06
248.2	82.06
248.433	77.06
248.666	82.06
248.899	93.06
249.133	82.06
249.366	88.06
249.599	81.06
249.832	70.06
250.066	79.06
250.299	89.06
250.532	99.06
250.765	89.06
250.998	75.06
251.231	77.06
251.465	80.06
251.698	86.06
251.931	77.06
252.164	77.06
252.397	85.06
252.63	75.06
252.863	93.06
253.096	82.06
253.329	81.06
253.562	91.06
253.795	75.06
254.028	71.06
254.261	74.06
254.494	76.06
254.727	94.06
254.96	73.06
255.193	66.06
255.426	78.06
255.659	69.06
255.892	81.06
256.124	77.06
256.357	73.06
256.59	81.06
256.823	77.06
257.056	84.06
257.289	79.06
257.521	74.06
257.754	79.06
257.987	84.06
258.22	94.06
258.452	87.06
258.685	74.06
258.918	75.06
259.151	71.06
259.383	70.06
259.616	81.06
259.849	67.06
260.081	66.06
260.314	81.06
260.547	83.06
260.779	85.06
261.012	77.06
261.244	94.06
261.477	97.06
261.71	88.06
261.942	87.06
262.175	95.06
262.407	96.06
262.64	83.06
262.872	81.06
263.105	79.06
263.337	79.06
263.57	69.06
263.802	94.06
264.035	77.06
264.267	80.06
264.499	80.06
264.732	73.06
264.964	76.06
265.197	94.06
265.429	76.06
265.661	78.06
265.894	76.06
266.126	92.06
266.358	75.06
266.591	91.06
266.823	88.06
267.055	77.06
267.287	87.06
267.52	93.06
267.752	99.06
267.984	88.06
268.216	86.06
268.448	99.06
268.681	86.06
268.913	76.06
269.145	93.06
269.377	80.06
269.609	76.06
269.841	82.06
270.073	83.06
270.306	73.06
270.538	83.06
270.77	64.06
271.002	72.06
271.234	90.06
271.466	83.06
271.698	87.06
271.93	87.06
272.162	75.06
272.394	80.06
272.626	86.06
272.858	73.06
273.09	79.06
273.322	87.06
273.553	82.06
273.785	84.06
274.017	73.06
274.249	82.06
274.481	84.06
274.713	84.06
274.945	82.06
275.176	78.06
275.408	91.06
275.64	88.06
275.872	79.06
276.104	74.06
276.335	62.06
276.567	83.06
276.799	73.06
277.031	83.06
277.262	67.06
277.494	101.06
277.726	85.06
277.957	87.06
278.189	86.06
278.421	76.06
278.652	92.06
278.884	84.06
279.115	83.06
279.347	95.06
279.579	85.06
279.81	71.06
280.042	82.06
280.273	78.06
280.505	83.06
280.736	88.06
280.968	85.06
281.199	81.06
281.431	82.06
281.662	82.06
281.894	76.06
282.125	69.06
282.356	84.06
282.588	83.06
282.819	83.06
283.051	74.06
283.282	68.06
283.513	108.06
283.745	91.06
283.976	88.06
284.207	79.06
284.439	72.06
284.67	81.06
284.901	93.06
285.132	87.06
285.364	73.06
285.595	84.06
285.826	94.06
286.057	92.06
286.288	82.06
286.52	87.06
286.751	88.06
286.982	103.06
287.213	77.06
287.444	86.06
287.675	82.06
287.906	87.06
288.138	87.06
288.369	91.06
288.6	86.06
288.831	81.06
289.062	95.06
289.293	88.06
289.524	71.06
289.755	94.06
289.986	74.06
290.217	88.06
290.448	91.06
290.679	88.06
290.91	85.06
291.141	76.06
291.371	95.06
291.602	82.06
291.833	86.06
292.064	96.06
292.295	89.06
292.526	86.06
292.757	87.06
292.987	72.06
293.218	86.06
293.449	77.06
293.68	79.06
293.91	90.06
294.141	104.06
294.372	74.06
294.603	92.06
294.833	78.06
295.064	79.06
295.295	89.06
295.525	68.06
295.756	91.06
295.987	80.06
296.217	91.06
296.448	85.06
296.679	82.06
296.909	83.06
297.14	88.06
297.37	87.06
297.601	88.06
297.831	65.06
298.062	88.06
298.292	72.06
298.523	86.06
298.753	90.06
298.984	87.06
299.214	89.06
299.445	91.06
299.675	81.06
299.905	84.06
300.136	86.06
300.366	81.06
300.597	76.06
300.827	87.06
301.057	100.06
301.288	87.06
301.518	86.06
301.748	85.06
301.979	104.06
302.209	76.06
302.439	92.06
302.669	82.06
302.9	79.06
303.13	79.06
303.36	78.06
303.59	94.06
303.82	75.06
304.051	99.06
304.281	78.06
304.511	93.06
304.741	87.06
304.971	90.06
305.201	88.06
305.431	91.06
305.661	83.06
305.891	76.06
306.121	80.06
306.352	89.06
306.582	87.06
306.812	81.06
307.042	85.06
307.272	77.06
307.502	92.06
307.731	99.06
307.961	79.06
308.191	95.06
308.421	91.06
308.651	90.06
308.881	84.06
309.111	89.06
309.341	90.06
309.571	89.06
309.8	91.06
310.03	90.06
310.26	89.06
310.49	78.06
310.72	81.06
310.949	90.06
311.179	96.06
311.409	90.06
311.639	76.06
311.868	85.06
312.098	87.06
312.328	81.06
312.557	66.06
312.787	84.06
313.017	93.06
313.246	80.06
313.476	67.06
313.706	81.06
313.935	76.06
314.165	78.06
314.394	94.06
314.624	87.06
314.853	83.06
315.083	82.06
315.312	87.06
315.542	88.06
315.771	94.06
316.001	88.06
316.23	104.06
316.46	81.06
316.689	79.06
316.919	83.06
317.148	80.06
317.377	78.06
317.607	87.06
317.836	87.06
318.065	84.06
318.295	92.06
318.524	88.06
318.753	100.06
318.983	80.06
319.212	76.06
319.441	99.06
319.67	89.06
319.9	82.06
320.129	77.06
320.358	76.06
320.587	81.06
320.816	83.06
321.046	91.06
321.275	87.06
321.504	82.06
321.733	90.06
321.962	93.06
322.191	82.06
322.42	73.06
322.649	94.06
322.878	94.06
323.108	86.06
323.337	96.06
323.566	86.06
323.795	94.06
324.024	95.06
324.253	87.06
324.482	77.06
324.71	91.06
324.939	91.06
325.168	77.06
325.397	91.06
325.626	68.06
325.855	86.06
326.084	80.06
326.313	93.06
326.542	90.06
326.77	83.06
326.999	73.06
327.228	93.06
327.457	81.06
327.686	83.06
327.914	78.06
328.143	102.06
328.372	84.06
328.6	80.06
328.829	89.06
329.058	84.06
329.287	87.06
329.515	88.06
329.744	87.06
329.972	71.06
330.201	57.06
330.43	74.06
330.658	85.06
330.887	90.06
331.115	80.06
331.344	74.06
331.572	87.06
331.801	71.06
332.03	76.06
332.258	105.06
332.486	77.06
332.715	83.06
332.943	83.06
333.172	80.06
333.4	83.06
333.629	80.06
333.857	83.06
334.085	80.06
334.314	80.06
334.542	92.06
334.771	68.06
334.999	85.06
335.227	79.06
335.455	88.06
335.684	83.06
335.912	73.06
336.14	80.06
336.369	88.06
336.597	80.06
336.825	87.06
337.053	84.06
337.281	82.06
337.51	88.06
337.738	94.06
337.966	86.06
338.194	84.06
338.422	99.06
338.65	76.06
338.878	81.06
339.106	82.06
339.334	72.06
339.562	74.06
339.79	82.06
340.018	79.06
340.246	89.06
340.474	93.06
340.702	90.06
340.93	97.06
341.158	78.06
341.386	76.06
341.614	79.06
341.842	74.06
342.07	64.06
342.298	83.06
342.526	73.06
342.754	85.06
342.981	85.06
343.209	78.06
343.437	75.06
343.665	77.06
343.893	71.06
344.12	87.06
344.348	83.06
344.576	93.06
344.804	87.06
345.031	90.06
345.259	85.06
345.487	91.06
345.714	69.06
345.942	95.06
346.17	86.06
346.397	84.06
346.625	68.06
346.853	85.06
347.08	82.06
347.308	81.06
347.535	76.06
347.763	83.06
347.99	86.06
348.218	91.06
348.445	81.06
348.673	87.06
348.9	86.06
349.128	90.06
349.355	69.06
349.583	82.06
349.81	91.06
350.037	86.06
350.265	80.06
350.492	80.06
350.72	68.06
350.947	74.06
351.174	87.06
351.402	88.06
351.629	78.06
351.856	95.06
352.083	92.06
352.311	84.06
352.538	88.06
352.765	80.06
352.992	88.06
353.22	84.06
353.447	80.06
353.674	91.06
353.901	81.06
354.128	93.06
354.355	89.06
354.583	98.06
354.81	89.06
355.037	72.06
355.264	76.06
355.491	78.06
355.718	94.06
355.945	89.06
356.172	75.06
356.399	84.06
356.626	86.06
356.853	90.06
357.08	78.06
357.307	77.06
357.534	66.06
357.761	82.06
357.988	69.06
358.215	86.06
358.441	68.06
358.668	94.06
358.895	83.06
359.122	86.06
359.349	78.06
359.576	93.06
359.802	94.06
360.029	80.06
360.256	90.06
360.483	82.06
360.709	70.06
360.936	104.06
361.163	99.06
361.39	93.06
361.616	78.06
361.843	73.06
362.07	94.06
362.296	93.06
362.523	78.06
362.749	83.06
362.976	94.06
363.203	98.06
363.429	80.06
363.656	101.06
363.882	84.06
364.109	94.06
364.335	84.06
364.562	84.06
364.788	81.06
365.015	73.06
365.241	91.06
365.468	83.06
365.694	88.06
365.92	77.06
366.147	95.06
366.373	86.06
366.599	78.06
366.826	90.06
367.052	76.06
367.278	91.06
367.505	82.06
367.731	81.06
367.957	91.06
368.184	83.06
368.41	95.06
368.636	91.06
368.862	92.06
369.089	90.06
369.315	89.06
369.541	90.06
369.767	90.06
369.993	67.06
370.219	79.06
370.445	81.06
370.672	86.06
370.898	79.06
371.124	72.06
371.35	96.06
371.576	74.06
371.802	90.06
372.028	76.06
372.254	69.06
372.48	84.06
372.706	77.06
372.932	85.06
373.158	93.06
373.384	92.06
373.61	71.06
373.835	73.06
374.061	89.06
374.287	77.06
374.513	90.06
374.739	84.06
374.965	75.06
375.191	74.06
375.416	96.06
375.642	88.06
375.868	90.06
376.094	82.06
376.319	76.06
376.545	90.06
376.771	87.06
376.997	89.06
377.222	90.06
377.448	95.06
377.674	74.06
377.899	89.06
378.125	79.06
378.35	68.06
378.576	79.06
378.802	72.06
379.027	79.06
379.253	92.06
379.478	85.06
379.704	89.06
379.929	76.06
380.155	80.06
380.38	91.06
380.606	81.06
380.831	89.06
381.057	87.06
381.282	74.06
381.507	87.06
381.733	89.06
381.958	78.06
382.184	77.06
382.409	77.06
382.634	75.06
382.86	83.06
383.085	79.06
383.31	92.06
383.535	92.06
383.761	77.06
383.986	91.06
384.211	75.06
384.436	78.06
384.662	76.06
384.887	88.06
385.112	86.06
385.337	80.06
385.562	73.06
385.787	66.06
386.013	88.06
386.238	89.06
386.463	89.06
386.688	96.06
386.913	91.06
387.138	80.06
387.363	86.06
387.588	97.06
387.813	95.06
388.038	80.06
388.263	87.06
388.488	84.06
388.713	76.06
388.938	85.06
389.163	78.06
389.387	91.06
389.612	80.06
389.837	82.06
390.062	88.06
390.287	69.06
390.512	77.06
390.736	90.06
390.961	83.06
391.186	84.06
391.411	83.06
391.636	76.06
391.86	92.06
392.085	86.06
392.31	73.06
392.534	81.06
392.759	90.06
392.984	73.06
393.208	86.06
393.433	75.06
393.658	66.06
393.882	72.06
394.107	88.06
394.331	91.06
394.556	73.06
394.78	77.06
395.005	85.06
395.229	76.06
395.454	94.06
395.678	87.06
395.903	74.06
396.127	79.06
396.352	82.06
396.576	81.06
396.801	72.06
397.025	80.06
397.249	69.06
397.474	92.06
397.698	98.06
397.922	87.06
398.147	78.06
398.371	73.06
398.595	96.06
398.82	80.06
399.044	78.06
399.268	83.06
399.492	82.06
399.717	68.06
399.941	81.06
400.165	88.06
400.389	74.06
400.613	76.06
400.837	85.06
401.062	72.06
401.286	87.06
401.51	90.06
401.734	89.06
401.958	71.06
402.182	76.06
402.406	78.06
402.63	74.06
402.854	82.06
403.078	87.06
403.302	87.06
403.526	85.06
403.75	83.06
403.974	88.06
404.198	85.06
404.422	70.06
404.645	75.06
404.869	74.06
405.093	87.06
405.317	96.06
405.541	74.06
405.765	78.06
405.988	76.06
406.212	73.06
406.436	78.06
406.66	91.06
406.883	82.06
407.107	79.06
407.331	88.06
407.555	78.06
407.778	82.06
408.002	72.06
408.226	77.06
408.449	77.06
408.673	86.06
408.896	84.06
409.12	85.06
409.344	83.06
409.567	61.06
409.791	77.06
410.014	75.06
410.238	84.06
410.461	92.06
410.685	80.06
410.908	82.06
411.132	85.06
411.355	83.06
411.578	77.06
411.802	73.06
412.025	78.06
412.249	75.06
412.472	72.06
412.695	100.06
412.919	74.06
413.142	81.06
413.365	82.06
413.589	66.06
413.812	75.06
414.035	82.06
414.258	94.06
414.482	76.06
414.705	88.06
414.928	80.06
415.151	92.06
415.374	84.06
415.597	75.06
415.821	73.06
416.044	87.06
416.267	82.06
416.49	82.06
416.713	72.06
416.936	62.06
417.159	79.06
417.382	94.06
417.605	83.06
417.828	87.06
418.051	90.06
418.274	78.06
418.497	82.06
418.72	81.06
418.943	86.06
419.166	70.06
419.389	87.06
419.611	94.06
419.834	84.06
420.057	77.06
420.28	88.06
420.503	71.06
420.726	83.06
420.948	88.06
421.171	92.06
421.394	84.06
421.617	82.06
421.839	87.06
422.062	90.06
422.285	95.06
422.507	109.06
422.73	103.06
422.953	99.06
423.175	83.06
423.398	76.06
423.621	72.06
423.843	89.06
424.066	81.06
424.288	88.06
424.511	81.06
424.733	83.06
424.956	94.06
425.178	81.06
425.401	74.06
425.623	80.06
425.846	82.06
426.068	62.06
426.291	73.06
426.513	95.06
426.735	86.06
426.958	79.06
427.18	81.06
427.402	89.06
427.625	84.06
427.847	79.06
428.069	85.06
428.292	89.06
428.514	83.06
428.736	74.06
428.958	88.06
429.181	86.06
429.403	66.06
429.625	90.06
429.847	95.06
430.069	80.06
430.292	77.06
430.514	87.06
430.736	77.06
430.958	83.06
431.18	67.06
431.402	79.06
431.624	79.06
431.846	88.06
432.068	81.06
432.29	85.06
432.512	89.06
432.734	78.06
432.956	82.06
433.178	88.06
433.4	82.06
433.622	71.06
433.844	101.06
434.066	74.06
434.287	71.06
434.509	85.06
434.731	89.06
434.953	92.06
435.175	96.06
435.397	95.06
435.618	72.06
435.84	84.06
436.062	67.06
436.284	80.06
436.505	89.06
436.727	72.06
436.949	89.06
437.17	96.06
437.392	75.06
437.614	75.06
437.835	69.06
438.057	79.06
438.278	73.06
438.5	82.06
438.721	81.06
438.943	82.06
439.165	98.06
439.386	81.06
439.608	85.06
439.829	73.06
440.05	75.06
440.272	84.06
440.493	81.06
440.715	84.06
440.936	102.06
441.158	76.06
441.379	74.06
441.6	71.06
441.822	77.06
442.043	78.06
442.264	80.06
442.486	88.06
442.707	65.06
442.928	81.06
443.149	82.06
443.371	91.06
443.592	91.06
443.813	81.06
444.034	72.06
444.255	83.06
444.476	83.06
444.698	74.06
444.919	85.06
445.14	158.06
445.361	113.06
445.582	96.06
445.803	80.06
446.024	84.06
446.245	95.06
446.466	87.06
446.687	84.06
446.908	87.06
447.129	82.06
447.35	89.06
447.571	80.06
447.792	77.06
448.013	85.06
448.234	94.06
448.455	83.06
448.675	94.06
448.896	81.06
449.117	76.06
449.338	77.06
449.559	83.06
449.779	81.06
450	77.06
450.221	76.06
450.442	71.06
450.662	86.06
450.883	74.06
451.104	88.06
451.324	79.06
451.545	93.06
451.766	75.06
451.986	76.06
452.207	90.06
452.428	76.06
452.648	85.06
452.869	65.06
453.089	73.06
453.31	74.06
453.53	95.06
453.751	86.06
453.971	81.06
454.192	76.06
454.412	79.06
454.633	81.06
454.853	78.06
455.073	84.06
455.294	79.06
455.514	66.06
455.734	76.06
455.955	78.06
456.175	84.06
456.395	75.06
456.616	83.06
456.836	79.06
457.056	78.06
457.276	80.06
457.497	81.06
457.717	70.06
457.937	86.06
458.157	84.06
458.377	92.06
458.598	79.06
458.818	92.06
459.038	85.06
459.258	68.06
459.478	75.06
459.698	92.06
459.918	74.06
460.138	81.06
460.358	83.06
460.578	80.06
460.798	80.06
461.018	72.06
461.238	81.06
461.458	90.06
461.678	80.06
461.898	74.06
462.118	99.06
462.338	86.06
462.558	76.06
462.777	68.06
462.997	75.06
463.217	68.06
463.437	69.06
463.657	67.06
463.876	77.06
464.096	86.06
464.316	82.06
464.536	76.06
464.755	78.06
464.975	84.06
465.195	90.06
465.414	87.06
465.634	79.06
465.854	76.06
466.073	91.06
466.293	72.06
466.512	83.06
466.732	80.06
466.951	90.06
467.171	85.06
467.391	68.06
467.61	75.06
467.829	77.06
468.049	83.06
468.268	90.06
468.488	80.06
468.707	88.06
468.927	89.06
469.146	80.06
469.365	69.06
469.585	83.06
469.804	88.06
470.023	74.06
470.243	76.06
470.462	97.06
470.681	91.06
470.901	83.06
471.12	82.06
471.339	85.06
471.558	70.06
471.777	74.06
471.997	74.06
472.216	83.06
472.435	80.06
472.654	90.06
472.873	94.06
473.092	88.06
473.311	85.06
473.53	84.06
473.749	86.06
473.968	87.06
474.187	89.06
474.406	91.06
474.625	87.06
474.844	89.06
475.063	89.06
475.282	82.06
475.501	77.06
475.72	93.06
475.939	75.06
476.158	74.06
476.377	82.06
476.596	65.06
476.814	74.06
477.033	80.06
477.252	89.06
477.471	81.06
477.69	78.06
477.908	87.06
478.127	96.06
478.346	83.06
478.564	68.06
478.783	74.06
479.002	75.06
479.22	73.06
479.439	80.06
479.658	79.06
479.876	68.06
480.095	82.06
480.313	98.06
480.532	86.06
480.751	84.06
480.969	78.06
481.188	79.06
481.406	77.06
481.624	79.06
481.843	70.06
482.061	69.06
482.28	76.06
482.498	89.06
482.717	73.06
482.935	83.06
483.153	75.06
483.372	98.06
483.59	87.06
483.808	85.06
484.027	76.06
484.245	79.06
484.463	93.06
484.681	83.06
484.9	81.06
485.118	89.06
485.336	82.06
485.554	81.06
485.772	82.06
485.99	84.06
486.209	83.06
486.427	67.06
486.645	81.06
486.863	92.06
487.081	86.06
487.299	88.06
487.517	76.06
487.735	98.06
487.953	83.06
488.171	77.06
488.389	81.06
488.607	76.06
488.825	82.06
489.043	90.06
489.261	82.06
489.479	85.06
489.696	92.06
489.914	87.06
490.132	72.06
490.35	91.06
490.568	80.06
490.786	78.06
491.003	90.06
491.221	82.06
491.439	98.06
491.657	95.06
491.874	80.06
492.092	82.06
492.31	86.06
492.527	75.06
492.745	74.06
492.963	71.06
493.18	78.06
493.398	75.06
493.615	80.06
493.833	90.06
494.05	73.06
494.268	84.06
494.485	102.06
494.703	87.06
494.92	83.06
495.138	84.06
495.355	102.06
495.573	90.06
495.79	87.06
496.008	94.06
496.225	88.06
496.442	83.06
496.66	76.06
496.877	86.06
497.094	89.06
497.312	88.06
497.529	84.06
497.746	79.06
497.963	82.06
498.181	90.06
498.398	87.06
498.615	86.06
498.832	79.06
499.049	87.06
499.267	82.06
499.484	91.06
499.701	72.06
499.918	79.06
500.135	92.06
500.352	80.06
500.569	86.06
500.786	85.06
501.003	83.06
501.22	85.06
501.437	80.06
501.654	86.06
501.871	84.06
502.088	98.06
502.305	76.06
502.522	71.06
502.739	101.06
502.956	80.06
503.172	82.06
503.389	99.06
503.606	71.06
503.823	72.06
504.04	82.06
504.256	87.06
504.473	90.06
504.69	90.06
504.907	79.06
505.123	79.06
505.34	76.06
505.557	87.06
505.773	95.06
505.99	93.06
506.207	82.06
506.423	79.06
506.64	68.06
506.856	72.06
507.073	70.06
507.289	84.06
507.506	80.06
507.722	76.06
507.939	81.06
508.155	86.06
508.372	82.06
508.588	92.06
508.805	75.06
509.021	69.06
509.238	91.06
509.454	83.06
509.67	83.06
509.887	80.06
510.103	75.06
510.319	92.06
510.536	78.06
510.752	71.06
510.968	81.06
511.184	80.06
511.401	95.06
511.617	88.06
511.833	95.06
512.049	75.06
512.265	95.06
512.481	81.06
512.698	103.06
512.914	81.06
513.13	91.06
513.346	78.06
513.562	88.06
513.778	84.06
513.994	96.06
514.21	88.06
514.426	95.06
514.642	74.06
514.858	82.06
515.074	85.06
515.29	89.06
515.506	78.06
515.721	80.06
515.937	83.06
516.153	83.06
516.369	92.06
516.585	82.06
516.801	72.06
517.016	91.06
517.232	74.06
517.448	102.06
517.664	86.06
517.879	93.06
518.095	88.06
518.311	72.06
518.527	95.06
518.742	87.06
518.958	78.06
519.173	81.06
519.389	92.06
519.605	79.06
519.82	67.06
520.036	86.06
