Data from Dirtnoheat2_HRD10591_00003.txt Node
Date: Fri Dec 27 15:19:41 EST 2024
User: Yrep
Spectrometer: HR+D1059
Trigger mode: 1
Integration Time (sec): 1.000000E-1
Scans to average: 1
Electric dark correction enabled: true
Nonlinearity correction enabled: false
Boxcar width: 0
XAxis mode: Wavelengths
Number of Pixels in Spectrum: 2048
>>>>>Begin Spectral Data<<<<<
223.165	-23.62
223.4	-23.62
223.635	-23.62
223.869	-21.62
224.104	-17.62
224.338	-13.62
224.573	-4.62
224.808	-14.62
225.042	-21.62
225.277	7.38
225.511	-16.62
225.746	11.38
225.98	15.38
226.215	7.38
226.449	10.38
226.683	28.38
226.918	14.38
227.152	39.38
227.387	24.38
227.621	41.38
227.856	36.38
228.09	43.38
228.324	40.38
228.559	55.38
228.793	47.38
229.027	62.38
229.262	51.38
229.496	73.38
229.73	71.38
229.964	61.38
230.199	62.38
230.433	69.38
230.667	82.38
230.901	77.38
231.136	72.38
231.37	84.38
231.604	83.38
231.838	59.38
232.072	86.38
232.306	73.38
232.541	88.38
232.775	83.38
233.009	63.38
233.243	85.38
233.477	101.38
233.711	82.38
233.945	90.38
234.179	75.38
234.413	97.38
234.647	77.38
234.881	76.38
235.115	84.38
235.349	78.38
235.583	82.38
235.817	72.38
236.051	74.38
236.285	69.38
236.519	56.38
236.753	81.38
236.987	68.38
237.221	76.38
237.455	68.38
237.689	75.38
237.922	80.38
238.156	70.38
238.39	66.38
238.624	83.38
238.858	74.38
239.091	68.38
239.325	80.38
239.559	74.38
239.793	84.38
240.027	75.38
240.26	71.38
240.494	83.38
240.728	70.38
240.961	74.38
241.195	95.38
241.429	67.38
241.662	71.38
241.896	60.38
242.13	91.38
242.363	68.38
242.597	55.38
242.83	95.38
243.064	89.38
243.298	89.38
243.531	79.38
243.765	72.38
243.998	85.38
244.232	72.38
244.465	73.38
244.699	84.38
244.932	76.38
245.166	76.38
245.399	71.38
245.633	87.38
245.866	55.38
246.099	83.38
246.333	69.38
246.566	71.38
246.8	65.38
247.033	84.38
247.266	68.38
247.5	87.38
247.733	65.38
247.966	77.38
248.2	75.38
248.433	79.38
248.666	81.38
248.899	82.38
249.133	76.38
249.366	83.38
249.599	83.38
249.832	74.38
250.066	75.38
250.299	70.38
250.532	65.38
250.765	75.38
250.998	76.38
251.231	83.38
251.465	88.38
251.698	67.38
251.931	78.38
252.164	68.38
252.397	79.38
252.63	58.38
252.863	83.38
253.096	91.38
253.329	77.38
253.562	75.38
253.795	82.38
254.028	69.38
254.261	79.38
254.494	80.38
254.727	65.38
254.96	79.38
255.193	67.38
255.426	59.38
255.659	67.38
255.892	88.38
256.124	74.38
256.357	75.38
256.59	78.38
256.823	70.38
257.056	73.38
257.289	84.38
257.521	73.38
257.754	79.38
257.987	69.38
258.22	84.38
258.452	83.38
258.685	76.38
258.918	66.38
259.151	80.38
259.383	85.38
259.616	76.38
259.849	89.38
260.081	95.38
260.314	79.38
260.547	82.38
260.779	77.38
261.012	76.38
261.244	75.38
261.477	78.38
261.71	79.38
261.942	78.38
262.175	66.38
262.407	68.38
262.64	71.38
262.872	80.38
263.105	88.38
263.337	76.38
263.57	82.38
263.802	77.38
264.035	83.38
264.267	82.38
264.499	82.38
264.732	86.38
264.964	72.38
265.197	91.38
265.429	83.38
265.661	70.38
265.894	87.38
266.126	78.38
266.358	69.38
266.591	83.38
266.823	70.38
267.055	72.38
267.287	83.38
267.52	79.38
267.752	80.38
267.984	87.38
268.216	83.38
268.448	86.38
268.681	70.38
268.913	102.38
269.145	84.38
269.377	71.38
269.609	86.38
269.841	75.38
270.073	64.38
270.306	59.38
270.538	72.38
270.77	80.38
271.002	85.38
271.234	89.38
271.466	89.38
271.698	65.38
271.93	82.38
272.162	81.38
272.394	92.38
272.626	83.38
272.858	79.38
273.09	82.38
273.322	86.38
273.553	77.38
273.785	74.38
274.017	83.38
274.249	86.38
274.481	66.38
274.713	91.38
274.945	70.38
275.176	75.38
275.408	74.38
275.64	77.38
275.872	81.38
276.104	84.38
276.335	78.38
276.567	86.38
276.799	78.38
277.031	69.38
277.262	87.38
277.494	79.38
277.726	84.38
277.957	87.38
278.189	83.38
278.421	78.38
278.652	74.38
278.884	94.38
279.115	64.38
279.347	67.38
279.579	69.38
279.81	73.38
280.042	90.38
280.273	92.38
280.505	77.38
280.736	84.38
280.968	93.38
281.199	78.38
281.431	83.38
281.662	77.38
281.894	74.38
282.125	84.38
282.356	75.38
282.588	76.38
282.819	87.38
283.051	81.38
283.282	82.38
283.513	79.38
283.745	80.38
283.976	94.38
284.207	89.38
284.439	67.38
284.67	76.38
284.901	81.38
285.132	88.38
285.364	87.38
285.595	85.38
285.826	71.38
286.057	79.38
286.288	87.38
286.52	83.38
286.751	84.38
286.982	85.38
287.213	69.38
287.444	90.38
287.675	76.38
287.906	75.38
288.138	71.38
288.369	97.38
288.6	78.38
288.831	78.38
289.062	104.38
289.293	83.38
289.524	84.38
289.755	65.38
289.986	73.38
290.217	88.38
290.448	84.38
290.679	84.38
290.91	81.38
291.141	67.38
291.371	89.38
291.602	82.38
291.833	83.38
292.064	85.38
292.295	87.38
292.526	78.38
292.757	75.38
292.987	73.38
293.218	92.38
293.449	90.38
293.68	91.38
293.91	78.38
294.141	80.38
294.372	84.38
294.603	94.38
294.833	79.38
295.064	77.38
295.295	78.38
295.525	74.38
295.756	92.38
295.987	70.38
296.217	83.38
296.448	81.38
296.679	80.38
296.909	79.38
297.14	81.38
297.37	86.38
297.601	82.38
297.831	84.38
298.062	94.38
298.292	79.38
298.523	95.38
298.753	73.38
298.984	75.38
299.214	73.38
299.445	81.38
299.675	73.38
299.905	84.38
300.136	86.38
300.366	76.38
300.597	78.38
300.827	85.38
301.057	83.38
301.288	82.38
301.518	90.38
301.748	76.38
301.979	102.38
302.209	99.38
302.439	87.38
302.669	93.38
302.9	82.38
303.13	84.38
303.36	63.38
303.59	101.38
303.82	77.38
304.051	96.38
304.281	95.38
304.511	83.38
304.741	89.38
304.971	73.38
305.201	99.38
305.431	83.38
305.661	71.38
305.891	78.38
306.121	87.38
306.352	89.38
306.582	92.38
306.812	87.38
307.042	79.38
307.272	76.38
307.502	87.38
307.731	79.38
307.961	93.38
308.191	85.38
308.421	82.38
308.651	77.38
308.881	88.38
309.111	89.38
309.341	78.38
309.571	77.38
309.8	71.38
310.03	72.38
310.26	84.38
310.49	90.38
310.72	75.38
310.949	76.38
311.179	92.38
311.409	84.38
311.639	79.38
311.868	84.38
312.098	71.38
312.328	72.38
312.557	71.38
312.787	86.38
313.017	88.38
313.246	97.38
313.476	81.38
313.706	84.38
313.935	90.38
314.165	80.38
314.394	88.38
314.624	91.38
314.853	78.38
315.083	87.38
315.312	73.38
315.542	84.38
315.771	85.38
316.001	76.38
316.23	74.38
316.46	80.38
316.689	76.38
316.919	85.38
317.148	82.38
317.377	83.38
317.607	84.38
317.836	86.38
318.065	91.38
318.295	69.38
318.524	85.38
318.753	72.38
318.983	75.38
319.212	75.38
319.441	69.38
319.67	93.38
319.9	83.38
320.129	89.38
320.358	80.38
320.587	89.38
320.816	82.38
321.046	72.38
321.275	87.38
321.504	87.38
321.733	87.38
321.962	74.38
322.191	83.38
322.42	79.38
322.649	76.38
322.878	87.38
323.108	77.38
323.337	89.38
323.566	77.38
323.795	61.38
324.024	75.38
324.253	79.38
324.482	91.38
324.71	92.38
324.939	90.38
325.168	88.38
325.397	81.38
325.626	74.38
325.855	81.38
326.084	77.38
326.313	76.38
326.542	75.38
326.77	81.38
326.999	58.38
327.228	89.38
327.457	85.38
327.686	82.38
327.914	74.38
328.143	73.38
328.372	71.38
328.6	83.38
328.829	88.38
329.058	91.38
329.287	89.38
329.515	83.38
329.744	89.38
329.972	74.38
330.201	75.38
330.43	84.38
330.658	80.38
330.887	86.38
331.115	91.38
331.344	86.38
331.572	78.38
331.801	75.38
332.03	84.38
332.258	79.38
332.486	85.38
332.715	82.38
332.943	73.38
333.172	75.38
333.4	70.38
333.629	93.38
333.857	93.38
334.085	59.38
334.314	75.38
334.542	76.38
334.771	79.38
334.999	102.38
335.227	91.38
335.455	76.38
335.684	83.38
335.912	92.38
336.14	87.38
336.369	81.38
336.597	91.38
336.825	101.38
337.053	83.38
337.281	87.38
337.51	87.38
337.738	100.38
337.966	75.38
338.194	69.38
338.422	71.38
338.65	96.38
338.878	78.38
339.106	79.38
339.334	84.38
339.562	85.38
339.79	97.38
340.018	86.38
340.246	81.38
340.474	79.38
340.702	79.38
340.93	77.38
341.158	93.38
341.386	85.38
341.614	81.38
341.842	89.38
342.07	80.38
342.298	95.38
342.526	85.38
342.754	66.38
342.981	86.38
343.209	71.38
343.437	89.38
343.665	65.38
343.893	86.38
344.12	82.38
344.348	87.38
344.576	79.38
344.804	79.38
345.031	84.38
345.259	86.38
345.487	83.38
345.714	83.38
345.942	94.38
346.17	83.38
346.397	87.38
346.625	81.38
346.853	91.38
347.08	95.38
347.308	86.38
347.535	87.38
347.763	85.38
347.99	88.38
348.218	72.38
348.445	86.38
348.673	77.38
348.9	84.38
349.128	85.38
349.355	71.38
349.583	81.38
349.81	80.38
350.037	75.38
350.265	72.38
350.492	74.38
350.72	79.38
350.947	91.38
351.174	91.38
351.402	87.38
351.629	90.38
351.856	92.38
352.083	80.38
352.311	86.38
352.538	63.38
352.765	83.38
352.992	77.38
353.22	77.38
353.447	87.38
353.674	84.38
353.901	82.38
354.128	71.38
354.355	87.38
354.583	73.38
354.81	68.38
355.037	80.38
355.264	86.38
355.491	82.38
355.718	77.38
355.945	83.38
356.172	84.38
356.399	80.38
356.626	99.38
356.853	89.38
357.08	87.38
357.307	80.38
357.534	79.38
357.761	73.38
357.988	84.38
358.215	92.38
358.441	94.38
358.668	76.38
358.895	71.38
359.122	83.38
359.349	77.38
359.576	89.38
359.802	91.38
360.029	89.38
360.256	80.38
360.483	85.38
360.709	61.38
360.936	90.38
361.163	72.38
361.39	85.38
361.616	71.38
361.843	81.38
362.07	88.38
362.296	88.38
362.523	72.38
362.749	64.38
362.976	88.38
363.203	90.38
363.429	81.38
363.656	97.38
363.882	81.38
364.109	74.38
364.335	87.38
364.562	77.38
364.788	74.38
365.015	81.38
365.241	80.38
365.468	74.38
365.694	82.38
365.92	84.38
366.147	73.38
366.373	79.38
366.599	67.38
366.826	92.38
367.052	85.38
367.278	80.38
367.505	80.38
367.731	85.38
367.957	75.38
368.184	95.38
368.41	68.38
368.636	85.38
368.862	88.38
369.089	86.38
369.315	86.38
369.541	75.38
369.767	79.38
369.993	74.38
370.219	81.38
370.445	76.38
370.672	76.38
370.898	70.38
371.124	55.38
371.35	86.38
371.576	81.38
371.802	80.38
372.028	67.38
372.254	85.38
372.48	65.38
372.706	92.38
372.932	65.38
373.158	92.38
373.384	95.38
373.61	77.38
373.835	79.38
374.061	90.38
374.287	87.38
374.513	77.38
374.739	85.38
374.965	81.38
375.191	87.38
375.416	80.38
375.642	79.38
375.868	91.38
376.094	74.38
376.319	76.38
376.545	79.38
376.771	78.38
376.997	95.38
377.222	92.38
377.448	99.38
377.674	71.38
377.899	90.38
378.125	90.38
378.35	80.38
378.576	64.38
378.802	86.38
379.027	89.38
379.253	78.38
379.478	87.38
379.704	70.38
379.929	94.38
380.155	67.38
380.38	80.38
380.606	90.38
380.831	91.38
381.057	83.38
381.282	86.38
381.507	96.38
381.733	69.38
381.958	79.38
382.184	85.38
382.409	85.38
382.634	81.38
382.86	82.38
383.085	69.38
383.31	98.38
383.535	75.38
383.761	71.38
383.986	64.38
384.211	76.38
384.436	76.38
384.662	84.38
384.887	84.38
385.112	75.38
385.337	84.38
385.562	86.38
385.787	74.38
386.013	80.38
386.238	91.38
386.463	85.38
386.688	87.38
386.913	84.38
387.138	81.38
387.363	83.38
387.588	78.38
387.813	78.38
388.038	84.38
388.263	83.38
388.488	71.38
388.713	71.38
388.938	88.38
389.163	74.38
389.387	77.38
389.612	78.38
389.837	93.38
390.062	87.38
390.287	83.38
390.512	88.38
390.736	94.38
390.961	94.38
391.186	76.38
391.411	82.38
391.636	83.38
391.86	81.38
392.085	84.38
392.31	77.38
392.534	79.38
392.759	77.38
392.984	91.38
393.208	82.38
393.433	90.38
393.658	86.38
393.882	77.38
394.107	68.38
394.331	80.38
394.556	81.38
394.78	86.38
395.005	93.38
395.229	86.38
395.454	73.38
395.678	96.38
395.903	80.38
396.127	70.38
396.352	84.38
396.576	92.38
396.801	97.38
397.025	87.38
397.249	83.38
397.474	76.38
397.698	70.38
397.922	75.38
398.147	85.38
398.371	85.38
398.595	81.38
398.82	95.38
399.044	83.38
399.268	79.38
399.492	79.38
399.717	84.38
399.941	79.38
400.165	87.38
400.389	81.38
400.613	79.38
400.837	93.38
401.062	85.38
401.286	86.38
401.51	73.38
401.734	81.38
401.958	73.38
402.182	89.38
402.406	79.38
402.63	76.38
402.854	75.38
403.078	88.38
403.302	86.38
403.526	73.38
403.75	71.38
403.974	92.38
404.198	85.38
404.422	81.38
404.645	83.38
404.869	81.38
405.093	77.38
405.317	79.38
405.541	81.38
405.765	90.38
405.988	84.38
406.212	83.38
406.436	80.38
406.66	78.38
406.883	69.38
407.107	75.38
407.331	84.38
407.555	81.38
407.778	77.38
408.002	81.38
408.226	95.38
408.449	84.38
408.673	81.38
408.896	74.38
409.12	84.38
409.344	90.38
409.567	88.38
409.791	95.38
410.014	77.38
410.238	70.38
410.461	85.38
410.685	70.38
410.908	85.38
411.132	79.38
411.355	89.38
411.578	92.38
411.802	78.38
412.025	85.38
412.249	79.38
412.472	88.38
412.695	85.38
412.919	88.38
413.142	74.38
413.365	80.38
413.589	70.38
413.812	93.38
414.035	88.38
414.258	81.38
414.482	75.38
414.705	73.38
414.928	90.38
415.151	77.38
415.374	85.38
415.597	78.38
415.821	82.38
416.044	83.38
416.267	77.38
416.49	85.38
416.713	88.38
416.936	94.38
417.159	73.38
417.382	82.38
417.605	81.38
417.828	94.38
418.051	81.38
418.274	87.38
418.497	80.38
418.72	82.38
418.943	89.38
419.166	92.38
419.389	73.38
419.611	70.38
419.834	88.38
420.057	84.38
420.28	64.38
420.503	78.38
420.726	68.38
420.948	84.38
421.171	78.38
421.394	76.38
421.617	77.38
421.839	81.38
422.062	79.38
422.285	74.38
422.507	111.38
422.73	109.38
422.953	107.38
423.175	96.38
423.398	79.38
423.621	76.38
423.843	75.38
424.066	84.38
424.288	91.38
424.511	79.38
424.733	72.38
424.956	75.38
425.178	69.38
425.401	85.38
425.623	91.38
425.846	77.38
426.068	75.38
426.291	88.38
426.513	87.38
426.735	88.38
426.958	85.38
427.18	85.38
427.402	87.38
427.625	86.38
427.847	80.38
428.069	80.38
428.292	77.38
428.514	80.38
428.736	69.38
428.958	75.38
429.181	83.38
429.403	77.38
429.625	88.38
429.847	81.38
430.069	88.38
430.292	94.38
430.514	78.38
430.736	80.38
430.958	86.38
431.18	76.38
431.402	77.38
431.624	89.38
431.846	89.38
432.068	83.38
432.29	81.38
432.512	88.38
432.734	87.38
432.956	81.38
433.178	85.38
433.4	87.38
433.622	95.38
433.844	92.38
434.066	97.38
434.287	92.38
434.509	75.38
434.731	80.38
434.953	77.38
435.175	88.38
435.397	91.38
435.618	81.38
435.84	81.38
436.062	92.38
436.284	70.38
436.505	75.38
436.727	63.38
436.949	84.38
437.17	67.38
437.392	80.38
437.614	77.38
437.835	69.38
438.057	80.38
438.278	77.38
438.5	87.38
438.721	84.38
438.943	88.38
439.165	80.38
439.386	82.38
439.608	78.38
439.829	91.38
440.05	71.38
440.272	85.38
440.493	80.38
440.715	75.38
440.936	89.38
441.158	79.38
441.379	87.38
441.6	66.38
441.822	72.38
442.043	94.38
442.264	81.38
442.486	89.38
442.707	79.38
442.928	83.38
443.149	91.38
443.371	88.38
443.592	88.38
443.813	94.38
444.034	79.38
444.255	92.38
444.476	79.38
444.698	92.38
444.919	84.38
445.14	152.38
445.361	115.38
445.582	97.38
445.803	88.38
446.024	83.38
446.245	91.38
446.466	71.38
446.687	72.38
446.908	75.38
447.129	82.38
447.35	82.38
447.571	88.38
447.792	100.38
448.013	71.38
448.234	84.38
448.455	64.38
448.675	85.38
448.896	73.38
449.117	85.38
449.338	67.38
449.559	87.38
449.779	95.38
450	84.38
450.221	80.38
450.442	75.38
450.662	79.38
450.883	78.38
451.104	95.38
451.324	85.38
451.545	76.38
451.766	71.38
451.986	76.38
452.207	79.38
452.428	84.38
452.648	94.38
452.869	85.38
453.089	81.38
453.31	88.38
453.53	76.38
453.751	85.38
453.971	78.38
454.192	75.38
454.412	73.38
454.633	70.38
454.853	91.38
455.073	80.38
455.294	81.38
455.514	73.38
455.734	75.38
455.955	86.38
456.175	81.38
456.395	94.38
456.616	84.38
456.836	86.38
457.056	78.38
457.276	75.38
457.497	79.38
457.717	76.38
457.937	81.38
458.157	88.38
458.377	82.38
458.598	79.38
458.818	87.38
459.038	79.38
459.258	99.38
459.478	94.38
459.698	79.38
459.918	77.38
460.138	80.38
460.358	75.38
460.578	74.38
460.798	73.38
461.018	79.38
461.238	80.38
461.458	77.38
461.678	87.38
461.898	84.38
462.118	84.38
462.338	94.38
462.558	92.38
462.777	84.38
462.997	75.38
463.217	85.38
463.437	82.38
463.657	89.38
463.876	79.38
464.096	97.38
464.316	87.38
464.536	91.38
464.755	72.38
464.975	75.38
465.195	82.38
465.414	71.38
465.634	83.38
465.854	71.38
466.073	85.38
466.293	87.38
466.512	83.38
466.732	85.38
466.951	79.38
467.171	76.38
467.391	85.38
467.61	81.38
467.829	83.38
468.049	91.38
468.268	75.38
468.488	78.38
468.707	76.38
468.927	101.38
469.146	70.38
469.365	80.38
469.585	77.38
469.804	67.38
470.023	70.38
470.243	71.38
470.462	83.38
470.681	91.38
470.901	73.38
471.12	67.38
471.339	91.38
471.558	81.38
471.777	84.38
471.997	95.38
472.216	68.38
472.435	90.38
472.654	86.38
472.873	89.38
473.092	86.38
473.311	82.38
473.53	79.38
473.749	89.38
473.968	88.38
474.187	88.38
474.406	81.38
474.625	87.38
474.844	84.38
475.063	76.38
475.282	80.38
475.501	74.38
475.72	93.38
475.939	88.38
476.158	69.38
476.377	73.38
476.596	85.38
476.814	77.38
477.033	78.38
477.252	100.38
477.471	76.38
477.69	73.38
477.908	80.38
478.127	71.38
478.346	80.38
478.564	92.38
478.783	84.38
479.002	79.38
479.22	71.38
479.439	77.38
479.658	75.38
479.876	91.38
480.095	71.38
480.313	97.38
480.532	87.38
480.751	95.38
480.969	86.38
481.188	90.38
481.406	83.38
481.624	81.38
481.843	80.38
482.061	77.38
482.28	79.38
482.498	89.38
482.717	93.38
482.935	70.38
483.153	91.38
483.372	73.38
483.59	84.38
483.808	85.38
484.027	87.38
484.245	87.38
484.463	64.38
484.681	85.38
484.9	99.38
485.118	97.38
485.336	76.38
485.554	79.38
485.772	89.38
485.99	76.38
486.209	76.38
486.427	68.38
486.645	86.38
486.863	73.38
487.081	77.38
487.299	85.38
487.517	68.38
487.735	95.38
487.953	94.38
488.171	75.38
488.389	85.38
488.607	80.38
488.825	78.38
489.043	65.38
489.261	75.38
489.479	85.38
489.696	87.38
489.914	82.38
490.132	69.38
490.35	78.38
490.568	88.38
490.786	76.38
491.003	78.38
491.221	68.38
491.439	72.38
491.657	85.38
491.874	85.38
492.092	72.38
492.31	96.38
492.527	83.38
492.745	80.38
492.963	75.38
493.18	91.38
493.398	90.38
493.615	85.38
493.833	74.38
494.05	78.38
494.268	72.38
494.485	83.38
494.703	92.38
494.92	87.38
495.138	77.38
495.355	78.38
495.573	87.38
495.79	91.38
496.008	91.38
496.225	101.38
496.442	85.38
496.66	79.38
496.877	68.38
497.094	87.38
497.312	92.38
497.529	94.38
497.746	92.38
497.963	87.38
498.181	80.38
498.398	82.38
498.615	77.38
498.832	92.38
499.049	88.38
499.267	76.38
499.484	90.38
499.701	81.38
499.918	89.38
500.135	78.38
500.352	89.38
500.569	94.38
500.786	80.38
501.003	79.38
501.22	84.38
501.437	99.38
501.654	81.38
501.871	80.38
502.088	86.38
502.305	74.38
502.522	90.38
502.739	92.38
502.956	71.38
503.172	86.38
503.389	91.38
503.606	89.38
503.823	81.38
504.04	79.38
504.256	87.38
504.473	77.38
504.69	85.38
504.907	76.38
505.123	67.38
505.34	84.38
505.557	74.38
505.773	93.38
505.99	84.38
506.207	81.38
506.423	85.38
506.64	77.38
506.856	86.38
507.073	78.38
507.289	83.38
507.506	69.38
507.722	90.38
507.939	76.38
508.155	97.38
508.372	97.38
508.588	87.38
508.805	81.38
509.021	74.38
509.238	85.38
509.454	102.38
509.67	76.38
509.887	88.38
510.103	88.38
510.319	94.38
510.536	79.38
510.752	86.38
510.968	83.38
511.184	85.38
511.401	71.38
511.617	87.38
511.833	79.38
512.049	77.38
512.265	75.38
512.481	74.38
512.698	85.38
512.914	84.38
513.13	83.38
513.346	82.38
513.562	80.38
513.778	89.38
513.994	80.38
514.21	78.38
514.426	94.38
514.642	80.38
514.858	81.38
515.074	86.38
515.29	84.38
515.506	71.38
515.721	80.38
515.937	78.38
516.153	79.38
516.369	78.38
516.585	66.38
516.801	81.38
517.016	70.38
517.232	81.38
517.448	73.38
517.664	80.38
517.879	82.38
518.095	99.38
518.311	91.38
518.527	96.38
518.742	84.38
518.958	89.38
519.173	89.38
519.389	95.38
519.605	78.38
519.82	80.38
520.036	100.38
