Data from Dirtnoheat2_HRD10591_00005.txt Node
Date: Fri Dec 27 15:19:43 EST 2024
User: Yrep
Spectrometer: HR+D1059
Trigger mode: 1
Integration Time (sec): 1.000000E-1
Scans to average: 1
Electric dark correction enabled: true
Nonlinearity correction enabled: false
Boxcar width: 0
XAxis mode: Wavelengths
Number of Pixels in Spectrum: 2048
>>>>>Begin Spectral Data<<<<<
223.165	-7.5
223.4	-7.5
223.635	-7.5
223.869	-22.5
224.104	-8.5
224.338	-22.5
224.573	-22.5
224.808	-3.5
225.042	-5.5
225.277	-0.5
225.511	-3.5
225.746	-6.5
225.98	14.5
226.215	19.5
226.449	14.5
226.683	13.5
226.918	18.5
227.152	22.5
227.387	28.5
227.621	33.5
227.856	46.5
228.09	43.5
228.324	53.5
228.559	66.5
228.793	57.5
229.027	56.5
229.262	75.5
229.496	88.5
229.73	75.5
229.964	72.5
230.199	78.5
230.433	76.5
230.667	90.5
230.901	67.5
231.136	85.5
231.37	82.5
231.604	75.5
231.838	82.5
232.072	87.5
232.306	73.5
232.541	75.5
232.775	73.5
233.009	91.5
233.243	87.5
233.477	69.5
233.711	75.5
233.945	79.5
234.179	78.5
234.413	78.5
234.647	85.5
234.881	80.5
235.115	72.5
235.349	78.5
235.583	77.5
235.817	72.5
236.051	65.5
236.285	77.5
236.519	72.5
236.753	75.5
236.987	71.5
237.221	65.5
237.455	73.5
237.689	64.5
237.922	77.5
238.156	81.5
238.39	62.5
238.624	65.5
238.858	66.5
239.091	97.5
239.325	91.5
239.559	71.5
239.793	65.5
240.027	72.5
240.26	67.5
240.494	77.5
240.728	80.5
240.961	83.5
241.195	74.5
241.429	90.5
241.662	67.5
241.896	78.5
242.13	74.5
242.363	70.5
242.597	71.5
242.83	78.5
243.064	73.5
243.298	71.5
243.531	82.5
243.765	72.5
243.998	76.5
244.232	70.5
244.465	73.5
244.699	59.5
244.932	78.5
245.166	73.5
245.399	96.5
245.633	82.5
245.866	72.5
246.099	72.5
246.333	76.5
246.566	65.5
246.8	71.5
247.033	73.5
247.266	77.5
247.5	66.5
247.733	65.5
247.966	91.5
248.2	79.5
248.433	95.5
248.666	83.5
248.899	73.5
249.133	80.5
249.366	87.5
249.599	72.5
249.832	68.5
250.066	76.5
250.299	75.5
250.532	89.5
250.765	81.5
250.998	87.5
251.231	66.5
251.465	66.5
251.698	84.5
251.931	88.5
252.164	70.5
252.397	67.5
252.63	71.5
252.863	75.5
253.096	77.5
253.329	75.5
253.562	77.5
253.795	87.5
254.028	78.5
254.261	82.5
254.494	67.5
254.727	87.5
254.96	87.5
255.193	75.5
255.426	63.5
255.659	81.5
255.892	84.5
256.124	84.5
256.357	79.5
256.59	90.5
256.823	76.5
257.056	78.5
257.289	76.5
257.521	90.5
257.754	77.5
257.987	65.5
258.22	96.5
258.452	77.5
258.685	78.5
258.918	88.5
259.151	73.5
259.383	80.5
259.616	71.5
259.849	78.5
260.081	79.5
260.314	73.5
260.547	74.5
260.779	71.5
261.012	73.5
261.244	73.5
261.477	78.5
261.71	82.5
261.942	73.5
262.175	72.5
262.407	75.5
262.64	59.5
262.872	66.5
263.105	72.5
263.337	93.5
263.57	79.5
263.802	94.5
264.035	68.5
264.267	76.5
264.499	89.5
264.732	76.5
264.964	78.5
265.197	62.5
265.429	85.5
265.661	73.5
265.894	79.5
266.126	71.5
266.358	77.5
266.591	72.5
266.823	87.5
267.055	77.5
267.287	84.5
267.52	72.5
267.752	80.5
267.984	92.5
268.216	74.5
268.448	81.5
268.681	82.5
268.913	79.5
269.145	96.5
269.377	80.5
269.609	85.5
269.841	85.5
270.073	87.5
270.306	85.5
270.538	82.5
270.77	73.5
271.002	82.5
271.234	82.5
271.466	84.5
271.698	72.5
271.93	78.5
272.162	91.5
272.394	79.5
272.626	76.5
272.858	78.5
273.09	82.5
273.322	87.5
273.553	81.5
273.785	67.5
274.017	74.5
274.249	82.5
274.481	80.5
274.713	81.5
274.945	73.5
275.176	88.5
275.408	70.5
275.64	87.5
275.872	70.5
276.104	93.5
276.335	94.5
276.567	74.5
276.799	75.5
277.031	87.5
277.262	75.5
277.494	82.5
277.726	77.5
277.957	79.5
278.189	77.5
278.421	81.5
278.652	74.5
278.884	82.5
279.115	87.5
279.347	73.5
279.579	80.5
279.81	79.5
280.042	79.5
280.273	69.5
280.505	75.5
280.736	74.5
280.968	84.5
281.199	86.5
281.431	70.5
281.662	62.5
281.894	91.5
282.125	92.5
282.356	79.5
282.588	86.5
282.819	84.5
283.051	77.5
283.282	82.5
283.513	90.5
283.745	82.5
283.976	83.5
284.207	63.5
284.439	82.5
284.67	79.5
284.901	86.5
285.132	87.5
285.364	75.5
285.595	93.5
285.826	77.5
286.057	93.5
286.288	85.5
286.52	81.5
286.751	77.5
286.982	72.5
287.213	80.5
287.444	86.5
287.675	89.5
287.906	79.5
288.138	71.5
288.369	84.5
288.6	79.5
288.831	95.5
289.062	88.5
289.293	85.5
289.524	83.5
289.755	72.5
289.986	95.5
290.217	82.5
290.448	75.5
290.679	98.5
290.91	80.5
291.141	81.5
291.371	94.5
291.602	84.5
291.833	80.5
292.064	84.5
292.295	84.5
292.526	86.5
292.757	70.5
292.987	73.5
293.218	75.5
293.449	80.5
293.68	102.5
293.91	85.5
294.141	78.5
294.372	84.5
294.603	89.5
294.833	66.5
295.064	73.5
295.295	78.5
295.525	76.5
295.756	91.5
295.987	92.5
296.217	74.5
296.448	96.5
296.679	81.5
296.909	67.5
297.14	83.5
297.37	95.5
297.601	68.5
297.831	81.5
298.062	89.5
298.292	94.5
298.523	77.5
298.753	84.5
298.984	74.5
299.214	89.5
299.445	91.5
299.675	79.5
299.905	87.5
300.136	82.5
300.366	62.5
300.597	85.5
300.827	90.5
301.057	95.5
301.288	79.5
301.518	85.5
301.748	88.5
301.979	97.5
302.209	88.5
302.439	88.5
302.669	77.5
302.9	77.5
303.13	74.5
303.36	89.5
303.59	83.5
303.82	76.5
304.051	83.5
304.281	80.5
304.511	89.5
304.741	79.5
304.971	99.5
305.201	99.5
305.431	84.5
305.661	77.5
305.891	69.5
306.121	78.5
306.352	78.5
306.582	80.5
306.812	80.5
307.042	85.5
307.272	81.5
307.502	81.5
307.731	81.5
307.961	75.5
308.191	87.5
308.421	86.5
308.651	87.5
308.881	73.5
309.111	74.5
309.341	76.5
309.571	92.5
309.8	79.5
310.03	75.5
310.26	81.5
310.49	81.5
310.72	95.5
310.949	77.5
311.179	80.5
311.409	78.5
311.639	89.5
311.868	83.5
312.098	92.5
312.328	70.5
312.557	103.5
312.787	83.5
313.017	88.5
313.246	85.5
313.476	99.5
313.706	85.5
313.935	92.5
314.165	88.5
314.394	96.5
314.624	90.5
314.853	98.5
315.083	59.5
315.312	83.5
315.542	80.5
315.771	81.5
316.001	87.5
316.23	78.5
316.46	79.5
316.689	81.5
316.919	85.5
317.148	90.5
317.377	88.5
317.607	87.5
317.836	90.5
318.065	80.5
318.295	83.5
318.524	83.5
318.753	87.5
318.983	79.5
319.212	79.5
319.441	68.5
319.67	83.5
319.9	85.5
320.129	86.5
320.358	83.5
320.587	85.5
320.816	87.5
321.046	78.5
321.275	94.5
321.504	94.5
321.733	87.5
321.962	91.5
322.191	86.5
322.42	89.5
322.649	69.5
322.878	97.5
323.108	80.5
323.337	94.5
323.566	67.5
323.795	77.5
324.024	85.5
324.253	88.5
324.482	85.5
324.71	80.5
324.939	79.5
325.168	82.5
325.397	81.5
325.626	83.5
325.855	82.5
326.084	81.5
326.313	92.5
326.542	72.5
326.77	77.5
326.999	72.5
327.228	73.5
327.457	90.5
327.686	86.5
327.914	80.5
328.143	75.5
328.372	74.5
328.6	74.5
328.829	88.5
329.058	86.5
329.287	83.5
329.515	74.5
329.744	74.5
329.972	76.5
330.201	74.5
330.43	78.5
330.658	97.5
330.887	96.5
331.115	79.5
331.344	87.5
331.572	85.5
331.801	105.5
332.03	82.5
332.258	81.5
332.486	89.5
332.715	72.5
332.943	71.5
333.172	76.5
333.4	83.5
333.629	75.5
333.857	80.5
334.085	96.5
334.314	70.5
334.542	75.5
334.771	82.5
334.999	78.5
335.227	82.5
335.455	89.5
335.684	98.5
335.912	91.5
336.14	88.5
336.369	78.5
336.597	85.5
336.825	78.5
337.053	82.5
337.281	87.5
337.51	75.5
337.738	76.5
337.966	72.5
338.194	82.5
338.422	75.5
338.65	75.5
338.878	90.5
339.106	86.5
339.334	74.5
339.562	70.5
339.79	83.5
340.018	88.5
340.246	102.5
340.474	85.5
340.702	82.5
340.93	75.5
341.158	85.5
341.386	86.5
341.614	83.5
341.842	79.5
342.07	83.5
342.298	74.5
342.526	83.5
342.754	78.5
342.981	79.5
343.209	75.5
343.437	108.5
343.665	77.5
343.893	73.5
344.12	78.5
344.348	86.5
344.576	66.5
344.804	72.5
345.031	77.5
345.259	80.5
345.487	87.5
345.714	79.5
345.942	79.5
346.17	87.5
346.397	78.5
346.625	83.5
346.853	94.5
347.08	75.5
347.308	83.5
347.535	79.5
347.763	80.5
347.99	91.5
348.218	91.5
348.445	85.5
348.673	82.5
348.9	74.5
349.128	79.5
349.355	84.5
349.583	86.5
349.81	89.5
350.037	100.5
350.265	97.5
350.492	72.5
350.72	80.5
350.947	77.5
351.174	84.5
351.402	83.5
351.629	88.5
351.856	80.5
352.083	72.5
352.311	73.5
352.538	69.5
352.765	76.5
352.992	89.5
353.22	87.5
353.447	76.5
353.674	88.5
353.901	98.5
354.128	85.5
354.355	76.5
354.583	80.5
354.81	97.5
355.037	86.5
355.264	85.5
355.491	86.5
355.718	89.5
355.945	92.5
356.172	84.5
356.399	87.5
356.626	85.5
356.853	71.5
357.08	93.5
357.307	87.5
357.534	86.5
357.761	94.5
357.988	81.5
358.215	95.5
358.441	68.5
358.668	91.5
358.895	72.5
359.122	90.5
359.349	85.5
359.576	82.5
359.802	71.5
360.029	75.5
360.256	75.5
360.483	76.5
360.709	85.5
360.936	103.5
361.163	87.5
361.39	71.5
361.616	64.5
361.843	102.5
362.07	85.5
362.296	86.5
362.523	80.5
362.749	78.5
362.976	84.5
363.203	75.5
363.429	72.5
363.656	73.5
363.882	72.5
364.109	94.5
364.335	89.5
364.562	91.5
364.788	82.5
365.015	79.5
365.241	82.5
365.468	67.5
365.694	78.5
365.92	81.5
366.147	80.5
366.373	85.5
366.599	87.5
366.826	80.5
367.052	89.5
367.278	71.5
367.505	78.5
367.731	83.5
367.957	77.5
368.184	85.5
368.41	91.5
368.636	81.5
368.862	85.5
369.089	85.5
369.315	82.5
369.541	81.5
369.767	82.5
369.993	85.5
370.219	76.5
370.445	91.5
370.672	81.5
370.898	96.5
371.124	83.5
371.35	83.5
371.576	91.5
371.802	76.5
372.028	85.5
372.254	87.5
372.48	78.5
372.706	70.5
372.932	89.5
373.158	81.5
373.384	81.5
373.61	80.5
373.835	82.5
374.061	90.5
374.287	91.5
374.513	93.5
374.739	79.5
374.965	79.5
375.191	83.5
375.416	79.5
375.642	91.5
375.868	88.5
376.094	67.5
376.319	71.5
376.545	74.5
376.771	70.5
376.997	77.5
377.222	79.5
377.448	72.5
377.674	72.5
377.899	95.5
378.125	77.5
378.35	92.5
378.576	76.5
378.802	76.5
379.027	93.5
379.253	98.5
379.478	83.5
379.704	79.5
379.929	72.5
380.155	70.5
380.38	85.5
380.606	91.5
380.831	87.5
381.057	87.5
381.282	71.5
381.507	74.5
381.733	88.5
381.958	84.5
382.184	84.5
382.409	93.5
382.634	82.5
382.86	75.5
383.085	80.5
383.31	80.5
383.535	81.5
383.761	86.5
383.986	86.5
384.211	77.5
384.436	88.5
384.662	87.5
384.887	75.5
385.112	85.5
385.337	83.5
385.562	90.5
385.787	104.5
386.013	71.5
386.238	78.5
386.463	80.5
386.688	90.5
386.913	70.5
387.138	86.5
387.363	74.5
387.588	93.5
387.813	87.5
388.038	73.5
388.263	78.5
388.488	93.5
388.713	84.5
388.938	64.5
389.163	78.5
389.387	76.5
389.612	76.5
389.837	78.5
390.062	93.5
390.287	81.5
390.512	94.5
390.736	81.5
390.961	74.5
391.186	82.5
391.411	85.5
391.636	103.5
391.86	81.5
392.085	83.5
392.31	76.5
392.534	83.5
392.759	83.5
392.984	79.5
393.208	92.5
393.433	106.5
393.658	84.5
393.882	90.5
394.107	106.5
394.331	105.5
394.556	94.5
394.78	80.5
395.005	82.5
395.229	87.5
395.454	71.5
395.678	92.5
395.903	82.5
396.127	90.5
396.352	79.5
396.576	83.5
396.801	72.5
397.025	87.5
397.249	87.5
397.474	75.5
397.698	90.5
397.922	96.5
398.147	81.5
398.371	88.5
398.595	88.5
398.82	79.5
399.044	79.5
399.268	81.5
399.492	74.5
399.717	89.5
399.941	93.5
400.165	83.5
400.389	82.5
400.613	92.5
400.837	90.5
401.062	80.5
401.286	93.5
401.51	71.5
401.734	74.5
401.958	89.5
402.182	79.5
402.406	103.5
402.63	77.5
402.854	86.5
403.078	84.5
403.302	84.5
403.526	76.5
403.75	73.5
403.974	76.5
404.198	86.5
404.422	81.5
404.645	82.5
404.869	75.5
405.093	94.5
405.317	95.5
405.541	96.5
405.765	89.5
405.988	74.5
406.212	81.5
406.436	75.5
406.66	94.5
406.883	88.5
407.107	76.5
407.331	79.5
407.555	66.5
407.778	75.5
408.002	75.5
408.226	72.5
408.449	87.5
408.673	68.5
408.896	83.5
409.12	71.5
409.344	71.5
409.567	79.5
409.791	86.5
410.014	87.5
410.238	87.5
410.461	83.5
410.685	81.5
410.908	78.5
411.132	82.5
411.355	90.5
411.578	79.5
411.802	97.5
412.025	77.5
412.249	77.5
412.472	80.5
412.695	74.5
412.919	72.5
413.142	85.5
413.365	79.5
413.589	75.5
413.812	83.5
414.035	92.5
414.258	70.5
414.482	79.5
414.705	86.5
414.928	87.5
415.151	82.5
415.374	79.5
415.597	74.5
415.821	87.5
416.044	76.5
416.267	85.5
416.49	68.5
416.713	61.5
416.936	71.5
417.159	85.5
417.382	73.5
417.605	81.5
417.828	85.5
418.051	91.5
418.274	83.5
418.497	70.5
418.72	94.5
418.943	95.5
419.166	100.5
419.389	84.5
419.611	83.5
419.834	72.5
420.057	85.5
420.28	86.5
420.503	74.5
420.726	71.5
420.948	90.5
421.171	70.5
421.394	82.5
421.617	96.5
421.839	74.5
422.062	89.5
422.285	94.5
422.507	85.5
422.73	103.5
422.953	105.5
423.175	95.5
423.398	87.5
423.621	71.5
423.843	88.5
424.066	97.5
424.288	83.5
424.511	85.5
424.733	78.5
424.956	89.5
425.178	89.5
425.401	80.5
425.623	79.5
425.846	84.5
426.068	76.5
426.291	81.5
426.513	81.5
426.735	103.5
426.958	89.5
427.18	81.5
427.402	78.5
427.625	80.5
427.847	75.5
428.069	82.5
428.292	82.5
428.514	74.5
428.736	75.5
428.958	96.5
429.181	84.5
429.403	96.5
429.625	85.5
429.847	90.5
430.069	77.5
430.292	93.5
430.514	82.5
430.736	77.5
430.958	105.5
431.18	66.5
431.402	81.5
431.624	93.5
431.846	78.5
432.068	88.5
432.29	81.5
432.512	64.5
432.734	92.5
432.956	94.5
433.178	79.5
433.4	73.5
433.622	85.5
433.844	94.5
434.066	78.5
434.287	68.5
434.509	76.5
434.731	84.5
434.953	83.5
435.175	71.5
435.397	79.5
435.618	72.5
435.84	90.5
436.062	76.5
436.284	81.5
436.505	80.5
436.727	88.5
436.949	82.5
437.17	86.5
437.392	71.5
437.614	90.5
437.835	88.5
438.057	79.5
438.278	84.5
438.5	69.5
438.721	81.5
438.943	74.5
439.165	88.5
439.386	90.5
439.608	84.5
439.829	70.5
440.05	84.5
440.272	82.5
440.493	87.5
440.715	75.5
440.936	74.5
441.158	86.5
441.379	76.5
441.6	94.5
441.822	83.5
442.043	83.5
442.264	82.5
442.486	66.5
442.707	77.5
442.928	75.5
443.149	98.5
443.371	93.5
443.592	94.5
443.813	74.5
444.034	78.5
444.255	94.5
444.476	88.5
444.698	61.5
444.919	80.5
445.14	142.5
445.361	126.5
445.582	104.5
445.803	95.5
446.024	83.5
446.245	83.5
446.466	79.5
446.687	88.5
446.908	74.5
447.129	82.5
447.35	84.5
447.571	84.5
447.792	80.5
448.013	81.5
448.234	87.5
448.455	85.5
448.675	75.5
448.896	77.5
449.117	94.5
449.338	85.5
449.559	81.5
449.779	74.5
450	75.5
450.221	90.5
450.442	81.5
450.662	83.5
450.883	76.5
451.104	82.5
451.324	75.5
451.545	97.5
451.766	69.5
451.986	85.5
452.207	82.5
452.428	105.5
452.648	78.5
452.869	81.5
453.089	85.5
453.31	83.5
453.53	88.5
453.751	91.5
453.971	76.5
454.192	77.5
454.412	78.5
454.633	84.5
454.853	77.5
455.073	75.5
455.294	94.5
455.514	89.5
455.734	79.5
455.955	78.5
456.175	78.5
456.395	80.5
456.616	85.5
456.836	98.5
457.056	85.5
457.276	91.5
457.497	79.5
457.717	91.5
457.937	88.5
458.157	79.5
458.377	96.5
458.598	83.5
458.818	83.5
459.038	86.5
459.258	82.5
459.478	85.5
459.698	64.5
459.918	77.5
460.138	75.5
460.358	87.5
460.578	66.5
460.798	82.5
461.018	93.5
461.238	96.5
461.458	87.5
461.678	93.5
461.898	87.5
462.118	89.5
462.338	77.5
462.558	68.5
462.777	78.5
462.997	86.5
463.217	86.5
463.437	86.5
463.657	66.5
463.876	73.5
464.096	86.5
464.316	90.5
464.536	85.5
464.755	93.5
464.975	79.5
465.195	79.5
465.414	75.5
465.634	81.5
465.854	74.5
466.073	91.5
466.293	91.5
466.512	72.5
466.732	75.5
466.951	91.5
467.171	80.5
467.391	73.5
467.61	82.5
467.829	73.5
468.049	73.5
468.268	88.5
468.488	71.5
468.707	97.5
468.927	86.5
469.146	96.5
469.365	84.5
469.585	83.5
469.804	86.5
470.023	83.5
470.243	80.5
470.462	85.5
470.681	68.5
470.901	85.5
471.12	75.5
471.339	74.5
471.558	101.5
471.777	91.5
471.997	88.5
472.216	100.5
472.435	92.5
472.654	83.5
472.873	81.5
473.092	78.5
473.311	73.5
473.53	94.5
473.749	79.5
473.968	72.5
474.187	83.5
474.406	94.5
474.625	90.5
474.844	97.5
475.063	78.5
475.282	79.5
475.501	82.5
475.72	97.5
475.939	70.5
476.158	84.5
476.377	73.5
476.596	86.5
476.814	81.5
477.033	84.5
477.252	73.5
477.471	89.5
477.69	66.5
477.908	69.5
478.127	85.5
478.346	88.5
478.564	87.5
478.783	86.5
479.002	84.5
479.22	71.5
479.439	75.5
479.658	86.5
479.876	76.5
480.095	81.5
480.313	87.5
480.532	79.5
480.751	91.5
480.969	71.5
481.188	85.5
481.406	76.5
481.624	78.5
481.843	84.5
482.061	90.5
482.28	89.5
482.498	90.5
482.717	74.5
482.935	90.5
483.153	89.5
483.372	87.5
483.59	79.5
483.808	77.5
484.027	88.5
484.245	85.5
484.463	90.5
484.681	82.5
484.9	88.5
485.118	84.5
485.336	78.5
485.554	66.5
485.772	99.5
485.99	77.5
486.209	95.5
486.427	78.5
486.645	86.5
486.863	88.5
487.081	86.5
487.299	82.5
487.517	82.5
487.735	90.5
487.953	95.5
488.171	98.5
488.389	82.5
488.607	77.5
488.825	85.5
489.043	89.5
489.261	92.5
489.479	86.5
489.696	81.5
489.914	94.5
490.132	90.5
490.35	78.5
490.568	76.5
490.786	85.5
491.003	78.5
491.221	81.5
491.439	82.5
491.657	79.5
491.874	94.5
492.092	84.5
492.31	99.5
492.527	82.5
492.745	79.5
492.963	79.5
493.18	73.5
493.398	69.5
493.615	87.5
493.833	83.5
494.05	87.5
494.268	83.5
494.485	84.5
494.703	74.5
494.92	85.5
495.138	82.5
495.355	84.5
495.573	83.5
495.79	87.5
496.008	86.5
496.225	86.5
496.442	82.5
496.66	90.5
496.877	82.5
497.094	88.5
497.312	94.5
497.529	83.5
497.746	75.5
497.963	80.5
498.181	80.5
498.398	84.5
498.615	74.5
498.832	82.5
499.049	89.5
499.267	78.5
499.484	79.5
499.701	81.5
499.918	78.5
500.135	81.5
500.352	82.5
500.569	84.5
500.786	97.5
501.003	82.5
501.22	72.5
501.437	70.5
501.654	64.5
501.871	87.5
502.088	79.5
502.305	102.5
502.522	93.5
502.739	92.5
502.956	82.5
503.172	78.5
503.389	79.5
503.606	71.5
503.823	91.5
504.04	93.5
504.256	99.5
504.473	91.5
504.69	98.5
504.907	91.5
505.123	81.5
505.34	85.5
505.557	69.5
505.773	76.5
505.99	79.5
506.207	66.5
506.423	77.5
506.64	82.5
506.856	95.5
507.073	78.5
507.289	78.5
507.506	74.5
507.722	79.5
507.939	82.5
508.155	99.5
508.372	97.5
508.588	87.5
508.805	73.5
509.021	85.5
509.238	70.5
509.454	61.5
509.67	74.5
509.887	71.5
510.103	90.5
510.319	89.5
510.536	99.5
510.752	89.5
510.968	83.5
511.184	80.5
511.401	87.5
511.617	79.5
511.833	72.5
512.049	85.5
512.265	77.5
512.481	65.5
512.698	74.5
512.914	84.5
513.13	77.5
513.346	80.5
513.562	78.5
513.778	96.5
513.994	94.5
514.21	96.5
514.426	81.5
514.642	78.5
514.858	98.5
515.074	74.5
515.29	80.5
515.506	81.5
515.721	77.5
515.937	87.5
516.153	80.5
516.369	87.5
516.585	76.5
516.801	78.5
517.016	88.5
517.232	86.5
517.448	82.5
517.664	77.5
517.879	82.5
518.095	85.5
518.311	74.5
518.527	89.5
518.742	87.5
518.958	77.5
519.173	104.5
519.389	71.5
519.605	79.5
519.82	84.5
520.036	96.5
520.251	91.5
520.467	73.5
520.682	98.5
520.898	85.5
521.113	82.5
521.329	67.5
521.544	81.5
521.76	78.5
521.975	94.5
522.19	82.5
522.406	78.5
522.621	74.5
522.836	76.5
523.052	89.5
523.267	80.5
523.482	94.5
523.698	76.5
523.913	65.5
524.128	94.5
524.343	94.5
524.559	76.5
524.774	83.5
524.989	82.5
525.204	85.5
525.419	105.5
525.634	90.5
525.849	84.5
526.064	85.5
526.28	106.5
526.495	103.5
526.71	106.5
526.925	100.5
527.14	96.5
527.355	92.5
527.57	85.5
527.785	75.5
527.999	68.5
528.214	85.5
528.429	74.5
528.644	81.5
528.859	70.5
529.074	73.5
529.289	80.5
529.503	76.5
529.718	97.5
529.933	88.5
530.148	77.5
530.363	81.5
530.577	77.5
530.792	77.5
531.007	79.5
531.221	100.5
531.436	76.5
531.651	90.5
531.865	86.5
532.08	64.5
532.295	74.5
532.509	76.5
532.724	86.5
532.938	88.5
533.153	84.5
533.367	76.5
533.582	94.5
533.796	83.5
534.011	82.5
534.225	85.5
534.44	85.5
534.654	80.5
534.868	87.5
535.083	87.5
535.297	86.5
535.511	97.5
535.726	91.5
535.94	96.5
536.154	87.5
536.369	63.5
536.583	89.5
536.797	86.5
537.011	85.5
537.225	89.5
537.44	94.5
537.654	85.5
537.868	86.5
538.082	91.5
538.296	76.5
538.51	85.5
538.724	75.5
538.938	85.5
539.153	97.5
539.367	89.5
539.581	81.5
539.795	78.5
540.009	81.5
540.222	81.5
