Data from Dirtnoheat2_HRD10591_00019.txt Node
Date: Fri Dec 27 15:19:57 EST 2024
User: Yrep
Spectrometer: HR+D1059
Trigger mode: 1
Integration Time (sec): 1.000000E-1
Scans to average: 1
Electric dark correction enabled: true
Nonlinearity correction enabled: false
Boxcar width: 0
XAxis mode: Wavelengths
Number of Pixels in Spectrum: 2048
>>>>>Begin Spectral Data<<<<<
223.165	-20.31
223.4	-20.31
223.635	-20.31
223.869	-21.31
224.104	-16.31
224.338	-12.31
224.573	-15.31
224.808	-7.31
225.042	-5.31
225.277	-6.31
225.511	-7.31
225.746	3.69
225.98	0.69
226.215	20.69
226.449	19.69
226.683	16.69
226.918	32.69
227.152	17.69
227.387	50.69
227.621	42.69
227.856	40.69
228.09	45.69
228.324	57.69
228.559	33.69
228.793	58.69
229.027	60.69
229.262	63.69
229.496	70.69
229.73	84.69
229.964	73.69
230.199	71.69
230.433	83.69
230.667	78.69
230.901	61.69
231.136	90.69
231.37	78.69
231.604	85.69
231.838	73.69
232.072	65.69
232.306	87.69
232.541	84.69
232.775	72.69
233.009	83.69
233.243	71.69
233.477	75.69
233.711	61.69
233.945	78.69
234.179	79.69
234.413	70.69
234.647	82.69
234.881	92.69
235.115	80.69
235.349	81.69
235.583	78.69
235.817	77.69
236.051	79.69
236.285	71.69
236.519	90.69
236.753	77.69
236.987	71.69
237.221	86.69
237.455	67.69
237.689	86.69
237.922	72.69
238.156	77.69
238.39	70.69
238.624	77.69
238.858	72.69
239.091	72.69
239.325	94.69
239.559	81.69
239.793	83.69
240.027	82.69
240.26	65.69
240.494	87.69
240.728	89.69
240.961	69.69
241.195	87.69
241.429	77.69
241.662	77.69
241.896	77.69
242.13	71.69
242.363	69.69
242.597	77.69
242.83	79.69
243.064	72.69
243.298	85.69
243.531	64.69
243.765	81.69
243.998	96.69
244.232	72.69
244.465	81.69
244.699	79.69
244.932	62.69
245.166	74.69
245.399	84.69
245.633	81.69
245.866	81.69
246.099	80.69
246.333	76.69
246.566	77.69
246.8	71.69
247.033	86.69
247.266	75.69
247.5	70.69
247.733	76.69
247.966	82.69
248.2	82.69
248.433	75.69
248.666	75.69
248.899	77.69
249.133	93.69
249.366	77.69
249.599	73.69
249.832	84.69
250.066	89.69
250.299	89.69
250.532	71.69
250.765	81.69
250.998	80.69
251.231	85.69
251.465	87.69
251.698	68.69
251.931	74.69
252.164	71.69
252.397	75.69
252.63	78.69
252.863	81.69
253.096	75.69
253.329	66.69
253.562	70.69
253.795	70.69
254.028	85.69
254.261	89.69
254.494	95.69
254.727	83.69
254.96	84.69
255.193	78.69
255.426	77.69
255.659	87.69
255.892	79.69
256.124	72.69
256.357	79.69
256.59	84.69
256.823	83.69
257.056	86.69
257.289	80.69
257.521	92.69
257.754	71.69
257.987	83.69
258.22	81.69
258.452	95.69
258.685	82.69
258.918	72.69
259.151	84.69
259.383	62.69
259.616	88.69
259.849	78.69
260.081	102.69
260.314	71.69
260.547	84.69
260.779	76.69
261.012	89.69
261.244	68.69
261.477	91.69
261.71	86.69
261.942	78.69
262.175	84.69
262.407	86.69
262.64	92.69
262.872	83.69
263.105	70.69
263.337	84.69
263.57	85.69
263.802	78.69
264.035	81.69
264.267	85.69
264.499	84.69
264.732	85.69
264.964	74.69
265.197	68.69
265.429	63.69
265.661	79.69
265.894	76.69
266.126	76.69
266.358	97.69
266.591	95.69
266.823	84.69
267.055	74.69
267.287	82.69
267.52	83.69
267.752	85.69
267.984	73.69
268.216	84.69
268.448	76.69
268.681	87.69
268.913	87.69
269.145	85.69
269.377	77.69
269.609	101.69
269.841	81.69
270.073	58.69
270.306	80.69
270.538	77.69
270.77	74.69
271.002	88.69
271.234	93.69
271.466	81.69
271.698	87.69
271.93	66.69
272.162	74.69
272.394	78.69
272.626	74.69
272.858	94.69
273.09	75.69
273.322	74.69
273.553	86.69
273.785	76.69
274.017	81.69
274.249	83.69
274.481	80.69
274.713	67.69
274.945	98.69
275.176	92.69
275.408	85.69
275.64	76.69
275.872	81.69
276.104	89.69
276.335	97.69
276.567	93.69
276.799	81.69
277.031	77.69
277.262	82.69
277.494	93.69
277.726	88.69
277.957	84.69
278.189	80.69
278.421	84.69
278.652	66.69
278.884	95.69
279.115	82.69
279.347	80.69
279.579	96.69
279.81	70.69
280.042	84.69
280.273	87.69
280.505	70.69
280.736	87.69
280.968	94.69
281.199	84.69
281.431	75.69
281.662	82.69
281.894	73.69
282.125	78.69
282.356	75.69
282.588	92.69
282.819	84.69
283.051	80.69
283.282	76.69
283.513	84.69
283.745	87.69
283.976	77.69
284.207	84.69
284.439	75.69
284.67	82.69
284.901	96.69
285.132	75.69
285.364	90.69
285.595	91.69
285.826	75.69
286.057	88.69
286.288	85.69
286.52	76.69
286.751	71.69
286.982	86.69
287.213	73.69
287.444	91.69
287.675	85.69
287.906	81.69
288.138	79.69
288.369	85.69
288.6	80.69
288.831	87.69
289.062	94.69
289.293	86.69
289.524	83.69
289.755	84.69
289.986	80.69
290.217	84.69
290.448	93.69
290.679	90.69
290.91	83.69
291.141	79.69
291.371	81.69
291.602	84.69
291.833	77.69
292.064	84.69
292.295	88.69
292.526	80.69
292.757	96.69
292.987	78.69
293.218	92.69
293.449	90.69
293.68	69.69
293.91	81.69
294.141	78.69
294.372	80.69
294.603	81.69
294.833	76.69
295.064	78.69
295.295	86.69
295.525	85.69
295.756	92.69
295.987	81.69
296.217	54.69
296.448	84.69
296.679	89.69
296.909	82.69
297.14	80.69
297.37	80.69
297.601	81.69
297.831	82.69
298.062	82.69
298.292	86.69
298.523	97.69
298.753	88.69
298.984	78.69
299.214	101.69
299.445	93.69
299.675	85.69
299.905	75.69
300.136	89.69
300.366	84.69
300.597	91.69
300.827	78.69
301.057	79.69
301.288	85.69
301.518	80.69
301.748	81.69
301.979	105.69
302.209	96.69
302.439	81.69
302.669	94.69
302.9	70.69
303.13	78.69
303.36	92.69
303.59	91.69
303.82	85.69
304.051	99.69
304.281	72.69
304.511	86.69
304.741	79.69
304.971	80.69
305.201	88.69
305.431	92.69
305.661	82.69
305.891	87.69
306.121	80.69
306.352	106.69
306.582	91.69
306.812	76.69
307.042	83.69
307.272	86.69
307.502	86.69
307.731	79.69
307.961	89.69
308.191	83.69
308.421	60.69
308.651	85.69
308.881	93.69
309.111	77.69
309.341	93.69
309.571	93.69
309.8	95.69
310.03	80.69
310.26	76.69
310.49	86.69
310.72	95.69
310.949	76.69
311.179	91.69
311.409	89.69
311.639	86.69
311.868	89.69
312.098	75.69
312.328	71.69
312.557	98.69
312.787	82.69
313.017	85.69
313.246	74.69
313.476	78.69
313.706	78.69
313.935	76.69
314.165	77.69
314.394	76.69
314.624	87.69
314.853	81.69
315.083	90.69
315.312	89.69
315.542	99.69
315.771	85.69
316.001	88.69
316.23	89.69
316.46	76.69
316.689	73.69
316.919	83.69
317.148	86.69
317.377	80.69
317.607	95.69
317.836	77.69
318.065	86.69
318.295	82.69
318.524	82.69
318.753	93.69
318.983	82.69
319.212	97.69
319.441	75.69
319.67	77.69
319.9	88.69
320.129	96.69
320.358	82.69
320.587	86.69
320.816	88.69
321.046	79.69
321.275	84.69
321.504	81.69
321.733	72.69
321.962	78.69
322.191	82.69
322.42	85.69
322.649	83.69
322.878	81.69
323.108	83.69
323.337	81.69
323.566	91.69
323.795	70.69
324.024	88.69
324.253	83.69
324.482	91.69
324.71	76.69
324.939	94.69
325.168	93.69
325.397	81.69
325.626	90.69
325.855	76.69
326.084	84.69
326.313	84.69
326.542	86.69
326.77	94.69
326.999	85.69
327.228	92.69
327.457	82.69
327.686	74.69
327.914	92.69
328.143	78.69
328.372	77.69
328.6	85.69
328.829	81.69
329.058	81.69
329.287	83.69
329.515	67.69
329.744	88.69
329.972	83.69
330.201	72.69
330.43	89.69
330.658	95.69
330.887	81.69
331.115	96.69
331.344	104.69
331.572	85.69
331.801	93.69
332.03	85.69
332.258	85.69
332.486	79.69
332.715	80.69
332.943	77.69
333.172	93.69
333.4	85.69
333.629	85.69
333.857	77.69
334.085	73.69
334.314	82.69
334.542	79.69
334.771	95.69
334.999	83.69
335.227	79.69
335.455	90.69
335.684	79.69
335.912	80.69
336.14	73.69
336.369	83.69
336.597	98.69
336.825	91.69
337.053	103.69
337.281	91.69
337.51	75.69
337.738	90.69
337.966	79.69
338.194	75.69
338.422	80.69
338.65	88.69
338.878	87.69
339.106	85.69
339.334	85.69
339.562	80.69
339.79	76.69
340.018	81.69
340.246	78.69
340.474	68.69
340.702	73.69
340.93	88.69
341.158	68.69
341.386	84.69
341.614	72.69
341.842	88.69
342.07	89.69
342.298	91.69
342.526	99.69
342.754	83.69
342.981	81.69
343.209	94.69
343.437	90.69
343.665	89.69
343.893	78.69
344.12	69.69
344.348	85.69
344.576	80.69
344.804	85.69
345.031	78.69
345.259	78.69
345.487	75.69
345.714	67.69
345.942	77.69
346.17	94.69
346.397	76.69
346.625	93.69
346.853	82.69
347.08	77.69
347.308	87.69
347.535	85.69
347.763	82.69
347.99	85.69
348.218	95.69
348.445	83.69
348.673	89.69
348.9	81.69
349.128	82.69
349.355	93.69
349.583	82.69
349.81	86.69
350.037	77.69
350.265	77.69
350.492	69.69
350.72	77.69
350.947	71.69
351.174	98.69
351.402	88.69
351.629	87.69
351.856	84.69
352.083	84.69
352.311	94.69
352.538	88.69
352.765	78.69
352.992	78.69
353.22	93.69
353.447	79.69
353.674	84.69
353.901	87.69
354.128	83.69
354.355	94.69
354.583	93.69
354.81	73.69
355.037	85.69
355.264	78.69
355.491	88.69
355.718	86.69
355.945	99.69
356.172	69.69
356.399	90.69
356.626	76.69
356.853	71.69
357.08	72.69
357.307	91.69
357.534	64.69
357.761	81.69
357.988	80.69
358.215	89.69
358.441	91.69
358.668	66.69
358.895	88.69
359.122	96.69
359.349	84.69
359.576	94.69
359.802	89.69
360.029	88.69
360.256	74.69
360.483	69.69
360.709	78.69
360.936	91.69
361.163	85.69
361.39	82.69
361.616	78.69
361.843	90.69
362.07	97.69
362.296	94.69
362.523	81.69
362.749	76.69
362.976	82.69
363.203	93.69
363.429	79.69
363.656	85.69
363.882	90.69
364.109	76.69
364.335	87.69
364.562	80.69
364.788	82.69
365.015	72.69
365.241	82.69
365.468	88.69
365.694	90.69
365.92	90.69
366.147	86.69
366.373	67.69
366.599	83.69
366.826	94.69
367.052	90.69
367.278	78.69
367.505	91.69
367.731	89.69
367.957	82.69
368.184	84.69
368.41	92.69
368.636	79.69
368.862	89.69
369.089	88.69
369.315	88.69
369.541	75.69
369.767	81.69
369.993	83.69
370.219	76.69
370.445	76.69
370.672	84.69
370.898	82.69
371.124	74.69
371.35	87.69
371.576	82.69
371.802	82.69
372.028	76.69
372.254	84.69
372.48	83.69
372.706	85.69
372.932	86.69
373.158	91.69
373.384	93.69
373.61	98.69
373.835	86.69
374.061	90.69
374.287	94.69
374.513	100.69
374.739	76.69
374.965	66.69
375.191	91.69
375.416	84.69
375.642	82.69
375.868	86.69
376.094	90.69
376.319	86.69
376.545	81.69
376.771	86.69
376.997	77.69
377.222	91.69
377.448	89.69
377.674	78.69
377.899	81.69
378.125	70.69
378.35	77.69
378.576	80.69
378.802	83.69
379.027	71.69
379.253	76.69
379.478	81.69
379.704	109.69
379.929	86.69
380.155	86.69
380.38	81.69
380.606	93.69
380.831	64.69
381.057	77.69
381.282	84.69
381.507	87.69
381.733	73.69
381.958	76.69
382.184	89.69
382.409	83.69
382.634	89.69
382.86	92.69
383.085	94.69
383.31	84.69
383.535	76.69
383.761	70.69
383.986	89.69
384.211	80.69
384.436	82.69
384.662	81.69
384.887	78.69
385.112	84.69
385.337	74.69
385.562	72.69
385.787	84.69
386.013	94.69
386.238	80.69
386.463	90.69
386.688	97.69
386.913	84.69
387.138	84.69
387.363	77.69
387.588	95.69
387.813	77.69
388.038	76.69
388.263	77.69
388.488	85.69
388.713	88.69
388.938	87.69
389.163	79.69
389.387	86.69
389.612	82.69
389.837	76.69
390.062	75.69
390.287	78.69
390.512	87.69
390.736	88.69
390.961	84.69
391.186	85.69
391.411	90.69
391.636	81.69
391.86	81.69
392.085	73.69
392.31	87.69
392.534	76.69
392.759	81.69
392.984	93.69
393.208	61.69
393.433	79.69
393.658	92.69
393.882	81.69
394.107	91.69
394.331	83.69
394.556	75.69
394.78	77.69
395.005	73.69
395.229	80.69
395.454	86.69
395.678	86.69
395.903	86.69
396.127	88.69
396.352	81.69
396.576	77.69
396.801	86.69
397.025	85.69
397.249	82.69
397.474	94.69
397.698	85.69
397.922	77.69
398.147	77.69
398.371	81.69
398.595	84.69
398.82	90.69
399.044	89.69
399.268	57.69
399.492	91.69
399.717	87.69
399.941	80.69
400.165	100.69
400.389	84.69
400.613	78.69
400.837	88.69
401.062	72.69
401.286	93.69
401.51	85.69
401.734	79.69
401.958	75.69
402.182	83.69
402.406	77.69
402.63	80.69
402.854	88.69
403.078	80.69
403.302	74.69
403.526	72.69
403.75	84.69
403.974	85.69
404.198	77.69
404.422	96.69
404.645	91.69
404.869	80.69
405.093	84.69
405.317	75.69
405.541	75.69
405.765	79.69
405.988	91.69
406.212	91.69
406.436	77.69
406.66	82.69
406.883	77.69
407.107	87.69
407.331	90.69
407.555	86.69
407.778	71.69
408.002	75.69
408.226	84.69
408.449	83.69
408.673	63.69
408.896	73.69
409.12	85.69
409.344	74.69
409.567	91.69
409.791	77.69
410.014	70.69
410.238	85.69
410.461	91.69
410.685	80.69
410.908	92.69
411.132	84.69
411.355	77.69
411.578	79.69
411.802	82.69
412.025	84.69
412.249	69.69
412.472	66.69
412.695	88.69
412.919	76.69
413.142	86.69
413.365	78.69
413.589	72.69
413.812	80.69
414.035	85.69
414.258	75.69
414.482	85.69
414.705	79.69
414.928	81.69
415.151	76.69
415.374	67.69
415.597	79.69
415.821	69.69
416.044	88.69
416.267	66.69
416.49	66.69
416.713	93.69
416.936	82.69
417.159	87.69
417.382	95.69
417.605	83.69
417.828	48.69
418.051	78.69
418.274	84.69
418.497	81.69
418.72	90.69
418.943	93.69
419.166	85.69
419.389	93.69
419.611	91.69
419.834	81.69
420.057	79.69
420.28	83.69
420.503	75.69
420.726	80.69
420.948	81.69
421.171	76.69
421.394	74.69
421.617	94.69
421.839	90.69
422.062	81.69
422.285	80.69
422.507	90.69
422.73	96.69
422.953	103.69
423.175	88.69
423.398	88.69
423.621	85.69
423.843	86.69
424.066	71.69
424.288	71.69
424.511	86.69
424.733	85.69
424.956	73.69
425.178	71.69
425.401	97.69
425.623	82.69
425.846	87.69
426.068	66.69
426.291	92.69
426.513	80.69
426.735	89.69
426.958	98.69
427.18	87.69
427.402	81.69
427.625	83.69
427.847	78.69
428.069	75.69
428.292	86.69
428.514	86.69
428.736	72.69
428.958	83.69
429.181	89.69
429.403	84.69
429.625	80.69
429.847	81.69
430.069	84.69
430.292	95.69
430.514	84.69
430.736	75.69
430.958	76.69
431.18	90.69
431.402	80.69
431.624	88.69
431.846	88.69
432.068	87.69
432.29	86.69
432.512	81.69
432.734	86.69
432.956	99.69
433.178	94.69
433.4	89.69
433.622	85.69
433.844	88.69
434.066	78.69
434.287	97.69
434.509	77.69
434.731	78.69
434.953	66.69
435.175	78.69
435.397	71.69
435.618	96.69
435.84	86.69
436.062	89.69
436.284	84.69
436.505	81.69
436.727	71.69
436.949	76.69
437.17	87.69
437.392	80.69
437.614	75.69
437.835	66.69
438.057	86.69
438.278	83.69
438.5	64.69
438.721	81.69
438.943	88.69
439.165	84.69
439.386	82.69
439.608	88.69
439.829	72.69
440.05	80.69
440.272	86.69
440.493	92.69
440.715	88.69
440.936	87.69
441.158	70.69
441.379	74.69
441.6	88.69
441.822	89.69
442.043	72.69
442.264	86.69
442.486	88.69
442.707	85.69
442.928	70.69
443.149	76.69
443.371	86.69
443.592	82.69
443.813	96.69
444.034	94.69
444.255	91.69
444.476	95.69
444.698	78.69
444.919	78.69
445.14	151.69
445.361	113.69
445.582	83.69
445.803	84.69
446.024	77.69
446.245	80.69
446.466	90.69
446.687	92.69
446.908	81.69
447.129	92.69
447.35	80.69
447.571	94.69
447.792	68.69
448.013	86.69
448.234	103.69
448.455	74.69
448.675	97.69
448.896	70.69
449.117	87.69
449.338	74.69
449.559	87.69
449.779	76.69
450	95.69
450.221	76.69
450.442	80.69
450.662	89.69
450.883	84.69
451.104	75.69
451.324	78.69
451.545	86.69
451.766	86.69
451.986	72.69
452.207	83.69
452.428	76.69
452.648	80.69
452.869	76.69
453.089	83.69
453.31	90.69
453.53	74.69
453.751	89.69
453.971	79.69
454.192	73.69
454.412	82.69
454.633	81.69
454.853	85.69
455.073	68.69
455.294	90.69
455.514	93.69
455.734	86.69
455.955	80.69
456.175	94.69
456.395	89.69
456.616	87.69
456.836	86.69
457.056	88.69
457.276	76.69
457.497	84.69
457.717	77.69
457.937	78.69
458.157	91.69
458.377	67.69
458.598	69.69
458.818	85.69
459.038	72.69
459.258	78.69
459.478	86.69
459.698	75.69
459.918	81.69
460.138	85.69
460.358	85.69
460.578	86.69
460.798	82.69
461.018	79.69
461.238	65.69
461.458	92.69
461.678	65.69
461.898	71.69
462.118	88.69
462.338	77.69
462.558	87.69
462.777	76.69
462.997	73.69
463.217	109.69
463.437	76.69
463.657	81.69
463.876	79.69
464.096	76.69
464.316	85.69
464.536	77.69
464.755	81.69
464.975	70.69
465.195	86.69
465.414	69.69
465.634	79.69
465.854	81.69
466.073	83.69
466.293	89.69
466.512	71.69
466.732	79.69
466.951	84.69
467.171	90.69
467.391	69.69
467.61	80.69
467.829	84.69
468.049	74.69
468.268	74.69
468.488	66.69
468.707	73.69
468.927	93.69
469.146	77.69
469.365	87.69
469.585	61.69
469.804	89.69
470.023	69.69
470.243	80.69
470.462	97.69
470.681	80.69
470.901	82.69
471.12	70.69
471.339	78.69
471.558	86.69
471.777	84.69
471.997	62.69
472.216	90.69
472.435	76.69
472.654	84.69
472.873	88.69
473.092	82.69
473.311	75.69
473.53	77.69
473.749	82.69
473.968	80.69
474.187	82.69
474.406	78.69
474.625	77.69
474.844	82.69
475.063	85.69
475.282	80.69
475.501	85.69
475.72	77.69
475.939	88.69
476.158	84.69
476.377	77.69
476.596	74.69
476.814	79.69
477.033	71.69
477.252	86.69
477.471	93.69
477.69	89.69
477.908	85.69
478.127	84.69
478.346	82.69
478.564	92.69
478.783	100.69
479.002	93.69
479.22	96.69
479.439	80.69
479.658	70.69
479.876	78.69
480.095	67.69
480.313	87.69
480.532	72.69
480.751	70.69
480.969	67.69
481.188	89.69
481.406	87.69
481.624	81.69
481.843	82.69
482.061	78.69
482.28	71.69
482.498	96.69
482.717	90.69
482.935	100.69
483.153	89.69
483.372	85.69
483.59	102.69
483.808	90.69
484.027	86.69
484.245	82.69
484.463	89.69
484.681	88.69
484.9	76.69
485.118	94.69
485.336	75.69
485.554	85.69
485.772	93.69
485.99	79.69
486.209	91.69
486.427	82.69
486.645	87.69
486.863	80.69
487.081	88.69
487.299	70.69
487.517	82.69
487.735	82.69
487.953	93.69
488.171	84.69
488.389	76.69
488.607	90.69
488.825	79.69
489.043	77.69
489.261	83.69
489.479	91.69
489.696	82.69
489.914	88.69
490.132	77.69
490.35	90.69
490.568	94.69
490.786	81.69
491.003	79.69
491.221	82.69
491.439	81.69
491.657	78.69
491.874	83.69
492.092	86.69
492.31	75.69
492.527	88.69
492.745	76.69
492.963	97.69
493.18	80.69
493.398	87.69
493.615	82.69
493.833	83.69
494.05	82.69
494.268	81.69
494.485	101.69
494.703	88.69
494.92	84.69
495.138	91.69
495.355	86.69
495.573	88.69
495.79	83.69
496.008	89.69
496.225	89.69
496.442	84.69
496.66	96.69
496.877	91.69
497.094	87.69
497.312	93.69
497.529	89.69
497.746	87.69
497.963	78.69
498.181	76.69
498.398	78.69
498.615	78.69
498.832	88.69
499.049	90.69
499.267	91.69
499.484	78.69
499.701	86.69
499.918	90.69
500.135	87.69
500.352	77.69
500.569	85.69
500.786	71.69
501.003	92.69
501.22	93.69
501.437	92.69
501.654	79.69
501.871	88.69
502.088	87.69
502.305	92.69
502.522	96.69
502.739	80.69
502.956	73.69
503.172	78.69
503.389	92.69
503.606	79.69
503.823	94.69
504.04	86.69
504.256	88.69
504.473	88.69
504.69	77.69
504.907	86.69
505.123	94.69
505.34	91.69
505.557	100.69
505.773	83.69
505.99	82.69
506.207	82.69
506.423	81.69
506.64	88.69
506.856	92.69
507.073	79.69
507.289	70.69
507.506	88.69
507.722	80.69
507.939	78.69
508.155	83.69
508.372	73.69
508.588	87.69
508.805	79.69
509.021	84.69
509.238	84.69
509.454	93.69
509.67	76.69
509.887	98.69
510.103	83.69
510.319	81.69
510.536	78.69
510.752	75.69
510.968	74.69
511.184	82.69
511.401	85.69
511.617	93.69
511.833	94.69
512.049	85.69
512.265	87.69
512.481	83.69
512.698	89.69
512.914	80.69
513.13	87.69
513.346	86.69
513.562	88.69
513.778	77.69
513.994	76.69
514.21	87.69
514.426	88.69
514.642	89.69
514.858	91.69
515.074	108.69
515.29	102.69
515.506	94.69
515.721	79.69
515.937	76.69
516.153	79.69
516.369	88.69
516.585	85.69
516.801	100.69
517.016	76.69
517.232	88.69
517.448	80.69
517.664	96.69
517.879	71.69
518.095	75.69
518.311	79.69
518.527	71.69
518.742	72.69
518.958	86.69
519.173	91.69
519.389	84.69
519.605	78.69
519.82	93.69
520.036	86.69
