Data from Dirtnoheat2_HRD10591_00011.txt Node
Date: Fri Dec 27 15:19:49 EST 2024
User: Yrep
Spectrometer: HR+D1059
Trigger mode: 1
Integration Time (sec): 1.000000E-1
Scans to average: 1
Electric dark correction enabled: true
Nonlinearity correction enabled: false
Boxcar width: 0
XAxis mode: Wavelengths
Number of Pixels in Spectrum: 2048
>>>>>Begin Spectral Data<<<<<
223.165	-37.44
223.4	-37.44
223.635	-37.44
223.869	-27.44
224.104	-0.44
224.338	-23.44
224.573	-24.44
224.808	-18.44
225.042	-3.44
225.277	-7.44
225.511	-8.44
225.746	6.56
225.98	19.56
226.215	6.56
226.449	18.56
226.683	34.56
226.918	28.56
227.152	36.56
227.387	28.56
227.621	31.56
227.856	42.56
228.09	38.56
228.324	55.56
228.559	61.56
228.793	58.56
229.027	60.56
229.262	72.56
229.496	57.56
229.73	68.56
229.964	81.56
230.199	57.56
230.433	76.56
230.667	63.56
230.901	68.56
231.136	70.56
231.37	69.56
231.604	92.56
231.838	70.56
232.072	80.56
232.306	86.56
232.541	78.56
232.775	66.56
233.009	68.56
233.243	74.56
233.477	83.56
233.711	77.56
233.945	85.56
234.179	83.56
234.413	72.56
234.647	77.56
234.881	75.56
235.115	72.56
235.349	72.56
235.583	75.56
235.817	78.56
236.051	77.56
236.285	78.56
236.519	85.56
236.753	88.56
236.987	64.56
237.221	81.56
237.455	81.56
237.689	66.56
237.922	69.56
238.156	77.56
238.39	69.56
238.624	80.56
238.858	73.56
239.091	83.56
239.325	68.56
239.559	85.56
239.793	69.56
240.027	93.56
240.26	78.56
240.494	74.56
240.728	64.56
240.961	58.56
241.195	75.56
241.429	73.56
241.662	73.56
241.896	70.56
242.13	60.56
242.363	72.56
242.597	66.56
242.83	73.56
243.064	83.56
243.298	81.56
243.531	68.56
243.765	71.56
243.998	57.56
244.232	78.56
244.465	77.56
244.699	64.56
244.932	58.56
245.166	80.56
245.399	69.56
245.633	78.56
245.866	77.56
246.099	69.56
246.333	79.56
246.566	67.56
246.8	65.56
247.033	69.56
247.266	72.56
247.5	81.56
247.733	82.56
247.966	75.56
248.2	62.56
248.433	79.56
248.666	67.56
248.899	87.56
249.133	91.56
249.366	76.56
249.599	82.56
249.832	72.56
250.066	85.56
250.299	78.56
250.532	67.56
250.765	70.56
250.998	70.56
251.231	76.56
251.465	62.56
251.698	80.56
251.931	64.56
252.164	61.56
252.397	62.56
252.63	78.56
252.863	73.56
253.096	81.56
253.329	70.56
253.562	74.56
253.795	86.56
254.028	82.56
254.261	76.56
254.494	78.56
254.727	59.56
254.96	77.56
255.193	69.56
255.426	70.56
255.659	73.56
255.892	71.56
256.124	64.56
256.357	69.56
256.59	77.56
256.823	75.56
257.056	86.56
257.289	84.56
257.521	93.56
257.754	68.56
257.987	67.56
258.22	77.56
258.452	76.56
258.685	87.56
258.918	75.56
259.151	86.56
259.383	85.56
259.616	71.56
259.849	85.56
260.081	79.56
260.314	71.56
260.547	85.56
260.779	75.56
261.012	82.56
261.244	64.56
261.477	84.56
261.71	74.56
261.942	91.56
262.175	78.56
262.407	80.56
262.64	82.56
262.872	86.56
263.105	71.56
263.337	86.56
263.57	89.56
263.802	72.56
264.035	78.56
264.267	74.56
264.499	78.56
264.732	86.56
264.964	91.56
265.197	69.56
265.429	87.56
265.661	62.56
265.894	71.56
266.126	71.56
266.358	71.56
266.591	85.56
266.823	80.56
267.055	75.56
267.287	85.56
267.52	88.56
267.752	85.56
267.984	90.56
268.216	69.56
268.448	71.56
268.681	82.56
268.913	87.56
269.145	79.56
269.377	74.56
269.609	86.56
269.841	78.56
270.073	82.56
270.306	90.56
270.538	83.56
270.77	78.56
271.002	83.56
271.234	69.56
271.466	76.56
271.698	67.56
271.93	93.56
272.162	92.56
272.394	95.56
272.626	75.56
272.858	73.56
273.09	67.56
273.322	67.56
273.553	79.56
273.785	64.56
274.017	82.56
274.249	94.56
274.481	87.56
274.713	86.56
274.945	89.56
275.176	70.56
275.408	75.56
275.64	87.56
275.872	80.56
276.104	63.56
276.335	85.56
276.567	86.56
276.799	79.56
277.031	87.56
277.262	84.56
277.494	82.56
277.726	90.56
277.957	83.56
278.189	78.56
278.421	82.56
278.652	76.56
278.884	75.56
279.115	72.56
279.347	79.56
279.579	91.56
279.81	77.56
280.042	79.56
280.273	79.56
280.505	70.56
280.736	67.56
280.968	77.56
281.199	72.56
281.431	87.56
281.662	70.56
281.894	78.56
282.125	66.56
282.356	79.56
282.588	71.56
282.819	85.56
283.051	78.56
283.282	71.56
283.513	88.56
283.745	78.56
283.976	79.56
284.207	66.56
284.439	74.56
284.67	66.56
284.901	67.56
285.132	79.56
285.364	80.56
285.595	71.56
285.826	73.56
286.057	77.56
286.288	86.56
286.52	87.56
286.751	93.56
286.982	70.56
287.213	72.56
287.444	73.56
287.675	78.56
287.906	80.56
288.138	81.56
288.369	82.56
288.6	57.56
288.831	73.56
289.062	68.56
289.293	87.56
289.524	82.56
289.755	82.56
289.986	78.56
290.217	100.56
290.448	87.56
290.679	78.56
290.91	88.56
291.141	75.56
291.371	68.56
291.602	78.56
291.833	84.56
292.064	91.56
292.295	79.56
292.526	75.56
292.757	75.56
292.987	101.56
293.218	79.56
293.449	80.56
293.68	86.56
293.91	85.56
294.141	80.56
294.372	91.56
294.603	87.56
294.833	61.56
295.064	82.56
295.295	76.56
295.525	79.56
295.756	90.56
295.987	84.56
296.217	65.56
296.448	86.56
296.679	70.56
296.909	92.56
297.14	88.56
297.37	76.56
297.601	72.56
297.831	85.56
298.062	98.56
298.292	88.56
298.523	75.56
298.753	75.56
298.984	76.56
299.214	80.56
299.445	87.56
299.675	102.56
299.905	69.56
300.136	91.56
300.366	79.56
300.597	85.56
300.827	85.56
301.057	90.56
301.288	89.56
301.518	76.56
301.748	88.56
301.979	107.56
302.209	76.56
302.439	88.56
302.669	77.56
302.9	72.56
303.13	79.56
303.36	64.56
303.59	74.56
303.82	92.56
304.051	88.56
304.281	85.56
304.511	88.56
304.741	82.56
304.971	92.56
305.201	89.56
305.431	79.56
305.661	86.56
305.891	76.56
306.121	94.56
306.352	86.56
306.582	55.56
306.812	76.56
307.042	80.56
307.272	81.56
307.502	79.56
307.731	80.56
307.961	91.56
308.191	75.56
308.421	79.56
308.651	82.56
308.881	84.56
309.111	97.56
309.341	83.56
309.571	89.56
309.8	87.56
310.03	79.56
310.26	84.56
310.49	86.56
310.72	85.56
310.949	87.56
311.179	75.56
311.409	80.56
311.639	73.56
311.868	75.56
312.098	88.56
312.328	72.56
312.557	95.56
312.787	72.56
313.017	88.56
313.246	79.56
313.476	96.56
313.706	74.56
313.935	83.56
314.165	80.56
314.394	83.56
314.624	76.56
314.853	94.56
315.083	70.56
315.312	72.56
315.542	76.56
315.771	82.56
316.001	84.56
316.23	93.56
316.46	93.56
316.689	85.56
316.919	73.56
317.148	75.56
317.377	84.56
317.607	86.56
317.836	74.56
318.065	76.56
318.295	92.56
318.524	91.56
318.753	96.56
318.983	79.56
319.212	71.56
319.441	75.56
319.67	91.56
319.9	74.56
320.129	86.56
320.358	88.56
320.587	94.56
320.816	87.56
321.046	80.56
321.275	90.56
321.504	64.56
321.733	67.56
321.962	76.56
322.191	87.56
322.42	73.56
322.649	87.56
322.878	94.56
323.108	79.56
323.337	72.56
323.566	82.56
323.795	72.56
324.024	74.56
324.253	73.56
324.482	72.56
324.71	90.56
324.939	82.56
325.168	75.56
325.397	96.56
325.626	79.56
325.855	60.56
326.084	64.56
326.313	73.56
326.542	89.56
326.77	76.56
326.999	67.56
327.228	83.56
327.457	85.56
327.686	82.56
327.914	81.56
328.143	74.56
328.372	84.56
328.6	83.56
328.829	77.56
329.058	80.56
329.287	82.56
329.515	72.56
329.744	82.56
329.972	95.56
330.201	95.56
330.43	79.56
330.658	83.56
330.887	78.56
331.115	79.56
331.344	70.56
331.572	76.56
331.801	75.56
332.03	82.56
332.258	70.56
332.486	62.56
332.715	86.56
332.943	79.56
333.172	79.56
333.4	92.56
333.629	80.56
333.857	82.56
334.085	88.56
334.314	79.56
334.542	93.56
334.771	89.56
334.999	77.56
335.227	80.56
335.455	72.56
335.684	75.56
335.912	67.56
336.14	77.56
336.369	70.56
336.597	84.56
336.825	80.56
337.053	72.56
337.281	68.56
337.51	67.56
337.738	77.56
337.966	79.56
338.194	95.56
338.422	75.56
338.65	71.56
338.878	66.56
339.106	84.56
339.334	76.56
339.562	62.56
339.79	84.56
340.018	77.56
340.246	90.56
340.474	91.56
340.702	81.56
340.93	75.56
341.158	73.56
341.386	71.56
341.614	68.56
341.842	78.56
342.07	71.56
342.298	73.56
342.526	84.56
342.754	84.56
342.981	69.56
343.209	91.56
343.437	82.56
343.665	81.56
343.893	74.56
344.12	84.56
344.348	78.56
344.576	77.56
344.804	73.56
345.031	76.56
345.259	76.56
345.487	75.56
345.714	79.56
345.942	84.56
346.17	82.56
346.397	83.56
346.625	82.56
346.853	75.56
347.08	85.56
347.308	80.56
347.535	90.56
347.763	77.56
347.99	80.56
348.218	76.56
348.445	84.56
348.673	63.56
348.9	74.56
349.128	99.56
349.355	90.56
349.583	71.56
349.81	85.56
350.037	80.56
350.265	80.56
350.492	79.56
350.72	91.56
350.947	74.56
351.174	94.56
351.402	79.56
351.629	80.56
351.856	86.56
352.083	59.56
352.311	83.56
352.538	93.56
352.765	86.56
352.992	94.56
353.22	78.56
353.447	71.56
353.674	75.56
353.901	87.56
354.128	88.56
354.355	77.56
354.583	77.56
354.81	75.56
355.037	85.56
355.264	69.56
355.491	66.56
355.718	84.56
355.945	79.56
356.172	68.56
356.399	58.56
356.626	64.56
356.853	99.56
357.08	82.56
357.307	76.56
357.534	82.56
357.761	80.56
357.988	80.56
358.215	77.56
358.441	89.56
358.668	90.56
358.895	78.56
359.122	71.56
359.349	76.56
359.576	69.56
359.802	86.56
360.029	77.56
360.256	72.56
360.483	82.56
360.709	74.56
360.936	85.56
361.163	76.56
361.39	75.56
361.616	79.56
361.843	69.56
362.07	91.56
362.296	89.56
362.523	65.56
362.749	74.56
362.976	71.56
363.203	91.56
363.429	87.56
363.656	84.56
363.882	67.56
364.109	83.56
364.335	79.56
364.562	76.56
364.788	78.56
365.015	70.56
365.241	80.56
365.468	82.56
365.694	71.56
365.92	72.56
366.147	82.56
366.373	81.56
366.599	94.56
366.826	93.56
367.052	94.56
367.278	71.56
367.505	76.56
367.731	79.56
367.957	72.56
368.184	76.56
368.41	88.56
368.636	81.56
368.862	89.56
369.089	70.56
369.315	89.56
369.541	94.56
369.767	72.56
369.993	78.56
370.219	76.56
370.445	83.56
370.672	77.56
370.898	88.56
371.124	74.56
371.35	79.56
371.576	75.56
371.802	55.56
372.028	83.56
372.254	86.56
372.48	80.56
372.706	65.56
372.932	93.56
373.158	73.56
373.384	85.56
373.61	87.56
373.835	71.56
374.061	76.56
374.287	84.56
374.513	83.56
374.739	83.56
374.965	74.56
375.191	72.56
375.416	82.56
375.642	82.56
375.868	89.56
376.094	80.56
376.319	75.56
376.545	81.56
376.771	76.56
376.997	79.56
377.222	91.56
377.448	92.56
377.674	74.56
377.899	95.56
378.125	81.56
378.35	79.56
378.576	68.56
378.802	78.56
379.027	69.56
379.253	67.56
379.478	86.56
379.704	82.56
379.929	79.56
380.155	71.56
380.38	80.56
380.606	77.56
380.831	63.56
381.057	81.56
381.282	74.56
381.507	85.56
381.733	84.56
381.958	90.56
382.184	78.56
382.409	67.56
382.634	77.56
382.86	86.56
383.085	76.56
383.31	75.56
383.535	80.56
383.761	74.56
383.986	92.56
384.211	79.56
384.436	70.56
384.662	73.56
384.887	71.56
385.112	75.56
385.337	78.56
385.562	88.56
385.787	82.56
386.013	83.56
386.238	93.56
386.463	76.56
386.688	87.56
386.913	84.56
387.138	81.56
387.363	84.56
387.588	86.56
387.813	80.56
388.038	82.56
388.263	78.56
388.488	78.56
388.713	82.56
388.938	84.56
389.163	82.56
389.387	88.56
389.612	70.56
389.837	85.56
390.062	85.56
390.287	73.56
390.512	69.56
390.736	82.56
390.961	75.56
391.186	85.56
391.411	62.56
391.636	89.56
391.86	74.56
392.085	84.56
392.31	71.56
392.534	91.56
392.759	78.56
392.984	79.56
393.208	74.56
393.433	80.56
393.658	78.56
393.882	69.56
394.107	75.56
394.331	83.56
394.556	82.56
394.78	89.56
395.005	76.56
395.229	82.56
395.454	78.56
395.678	77.56
395.903	80.56
396.127	90.56
396.352	75.56
396.576	107.56
396.801	85.56
397.025	100.56
397.249	93.56
397.474	72.56
397.698	82.56
397.922	83.56
398.147	76.56
398.371	70.56
398.595	86.56
398.82	79.56
399.044	77.56
399.268	87.56
399.492	86.56
399.717	77.56
399.941	87.56
400.165	58.56
400.389	71.56
400.613	76.56
400.837	76.56
401.062	84.56
401.286	75.56
401.51	75.56
401.734	84.56
401.958	66.56
402.182	75.56
402.406	82.56
402.63	75.56
402.854	87.56
403.078	85.56
403.302	79.56
403.526	77.56
403.75	88.56
403.974	82.56
404.198	81.56
404.422	72.56
404.645	77.56
404.869	74.56
405.093	71.56
405.317	84.56
405.541	75.56
405.765	69.56
405.988	73.56
406.212	78.56
406.436	67.56
406.66	79.56
406.883	92.56
407.107	83.56
407.331	86.56
407.555	78.56
407.778	71.56
408.002	75.56
408.226	85.56
408.449	84.56
408.673	69.56
408.896	79.56
409.12	74.56
409.344	77.56
409.567	79.56
409.791	74.56
410.014	91.56
410.238	74.56
410.461	59.56
410.685	73.56
410.908	84.56
411.132	79.56
411.355	86.56
411.578	78.56
411.802	70.56
412.025	87.56
412.249	84.56
412.472	77.56
412.695	81.56
412.919	77.56
413.142	83.56
413.365	78.56
413.589	75.56
413.812	92.56
414.035	84.56
414.258	86.56
414.482	65.56
414.705	76.56
414.928	77.56
415.151	75.56
415.374	81.56
415.597	88.56
415.821	87.56
416.044	77.56
416.267	79.56
416.49	68.56
416.713	72.56
416.936	79.56
417.159	77.56
417.382	76.56
417.605	76.56
417.828	80.56
418.051	74.56
418.274	69.56
418.497	89.56
418.72	77.56
418.943	72.56
419.166	63.56
419.389	81.56
419.611	73.56
419.834	75.56
420.057	78.56
420.28	76.56
420.503	87.56
420.726	85.56
420.948	65.56
421.171	81.56
421.394	90.56
421.617	82.56
421.839	85.56
422.062	86.56
422.285	85.56
422.507	92.56
422.73	98.56
422.953	100.56
423.175	72.56
423.398	77.56
423.621	71.56
423.843	77.56
424.066	89.56
424.288	81.56
424.511	87.56
424.733	76.56
424.956	70.56
425.178	86.56
425.401	67.56
425.623	68.56
425.846	69.56
426.068	76.56
426.291	70.56
426.513	68.56
426.735	66.56
426.958	80.56
427.18	83.56
427.402	68.56
427.625	81.56
427.847	66.56
428.069	77.56
428.292	72.56
428.514	79.56
428.736	82.56
428.958	78.56
429.181	71.56
429.403	90.56
429.625	74.56
429.847	82.56
430.069	85.56
430.292	85.56
430.514	86.56
430.736	91.56
430.958	96.56
431.18	78.56
431.402	69.56
431.624	82.56
431.846	78.56
432.068	88.56
432.29	69.56
432.512	72.56
432.734	82.56
432.956	79.56
433.178	92.56
433.4	86.56
433.622	71.56
433.844	76.56
434.066	78.56
434.287	82.56
434.509	69.56
434.731	85.56
434.953	71.56
435.175	71.56
435.397	72.56
435.618	80.56
435.84	76.56
436.062	78.56
436.284	88.56
436.505	76.56
436.727	67.56
436.949	83.56
437.17	97.56
437.392	70.56
437.614	78.56
437.835	92.56
438.057	87.56
438.278	76.56
438.5	87.56
438.721	76.56
438.943	87.56
439.165	86.56
439.386	82.56
439.608	101.56
439.829	67.56
440.05	76.56
440.272	78.56
440.493	86.56
440.715	76.56
440.936	76.56
441.158	79.56
441.379	83.56
441.6	84.56
441.822	78.56
442.043	76.56
442.264	70.56
442.486	77.56
442.707	90.56
442.928	67.56
443.149	77.56
443.371	101.56
443.592	82.56
443.813	84.56
444.034	80.56
444.255	70.56
444.476	81.56
444.698	84.56
444.919	84.56
445.14	160.56
445.361	109.56
445.582	92.56
445.803	79.56
446.024	76.56
446.245	80.56
446.466	75.56
446.687	84.56
446.908	80.56
447.129	74.56
447.35	74.56
447.571	80.56
447.792	89.56
448.013	71.56
448.234	84.56
448.455	78.56
448.675	61.56
448.896	88.56
449.117	78.56
449.338	68.56
449.559	74.56
449.779	88.56
450	83.56
450.221	78.56
450.442	80.56
450.662	77.56
450.883	74.56
451.104	97.56
451.324	68.56
451.545	76.56
451.766	76.56
451.986	82.56
452.207	82.56
452.428	79.56
452.648	84.56
452.869	58.56
453.089	82.56
453.31	57.56
453.53	80.56
453.751	75.56
453.971	79.56
454.192	72.56
454.412	85.56
454.633	85.56
454.853	77.56
455.073	78.56
455.294	79.56
455.514	92.56
455.734	74.56
455.955	65.56
456.175	83.56
456.395	73.56
456.616	97.56
456.836	75.56
457.056	64.56
457.276	72.56
457.497	56.56
457.717	68.56
457.937	89.56
458.157	88.56
458.377	78.56
458.598	77.56
458.818	79.56
459.038	85.56
459.258	82.56
459.478	77.56
459.698	78.56
459.918	62.56
460.138	90.56
460.358	68.56
460.578	82.56
460.798	83.56
461.018	80.56
461.238	78.56
461.458	81.56
461.678	89.56
461.898	83.56
462.118	75.56
462.338	74.56
462.558	94.56
462.777	81.56
462.997	76.56
463.217	75.56
463.437	72.56
463.657	82.56
463.876	80.56
464.096	73.56
464.316	63.56
464.536	73.56
464.755	89.56
464.975	79.56
465.195	75.56
465.414	71.56
465.634	94.56
465.854	84.56
466.073	64.56
466.293	87.56
466.512	82.56
466.732	95.56
466.951	74.56
467.171	82.56
467.391	83.56
467.61	66.56
467.829	85.56
468.049	76.56
468.268	73.56
468.488	84.56
468.707	78.56
468.927	80.56
469.146	73.56
469.365	72.56
469.585	91.56
469.804	85.56
470.023	80.56
470.243	74.56
470.462	84.56
470.681	83.56
470.901	69.56
471.12	74.56
471.339	74.56
471.558	80.56
471.777	79.56
471.997	82.56
472.216	63.56
472.435	70.56
472.654	71.56
472.873	93.56
473.092	81.56
473.311	69.56
473.53	76.56
473.749	67.56
473.968	96.56
474.187	96.56
474.406	85.56
474.625	80.56
474.844	83.56
475.063	70.56
475.282	76.56
475.501	65.56
475.72	94.56
475.939	67.56
476.158	63.56
476.377	76.56
476.596	91.56
476.814	63.56
477.033	72.56
477.252	70.56
477.471	77.56
477.69	94.56
477.908	80.56
478.127	72.56
478.346	85.56
478.564	89.56
478.783	76.56
479.002	68.56
479.22	77.56
479.439	82.56
479.658	84.56
479.876	73.56
480.095	60.56
480.313	72.56
480.532	79.56
480.751	88.56
480.969	69.56
481.188	83.56
481.406	90.56
481.624	74.56
481.843	91.56
482.061	83.56
482.28	93.56
482.498	81.56
482.717	78.56
482.935	79.56
483.153	72.56
483.372	67.56
483.59	71.56
483.808	71.56
484.027	78.56
484.245	84.56
484.463	76.56
484.681	76.56
484.9	79.56
485.118	84.56
485.336	86.56
485.554	92.56
485.772	84.56
485.99	84.56
486.209	90.56
486.427	87.56
486.645	71.56
486.863	76.56
487.081	72.56
487.299	94.56
487.517	83.56
487.735	69.56
487.953	85.56
488.171	82.56
488.389	77.56
488.607	76.56
488.825	67.56
489.043	93.56
489.261	78.56
489.479	88.56
489.696	80.56
489.914	72.56
490.132	78.56
490.35	79.56
490.568	76.56
490.786	68.56
491.003	80.56
491.221	64.56
491.439	71.56
491.657	87.56
491.874	93.56
492.092	73.56
492.31	83.56
492.527	80.56
492.745	91.56
492.963	88.56
493.18	95.56
493.398	92.56
493.615	76.56
493.833	84.56
494.05	78.56
494.268	76.56
494.485	74.56
494.703	88.56
494.92	77.56
495.138	82.56
495.355	84.56
495.573	99.56
495.79	74.56
496.008	80.56
496.225	86.56
496.442	88.56
496.66	82.56
496.877	73.56
497.094	85.56
497.312	75.56
497.529	77.56
497.746	85.56
497.963	80.56
498.181	88.56
498.398	94.56
498.615	77.56
498.832	86.56
499.049	70.56
499.267	79.56
499.484	94.56
499.701	99.56
499.918	75.56
500.135	72.56
500.352	76.56
500.569	71.56
500.786	82.56
501.003	90.56
501.22	91.56
501.437	84.56
501.654	81.56
501.871	89.56
502.088	73.56
502.305	76.56
502.522	63.56
502.739	74.56
502.956	72.56
503.172	66.56
503.389	82.56
503.606	73.56
503.823	91.56
504.04	82.56
504.256	89.56
504.473	81.56
504.69	88.56
504.907	90.56
505.123	74.56
505.34	85.56
505.557	50.56
505.773	85.56
505.99	92.56
506.207	77.56
506.423	95.56
506.64	86.56
506.856	71.56
507.073	81.56
507.289	71.56
507.506	71.56
507.722	86.56
507.939	75.56
508.155	80.56
508.372	82.56
508.588	75.56
508.805	87.56
509.021	85.56
509.238	72.56
509.454	74.56
509.67	93.56
509.887	85.56
510.103	71.56
510.319	75.56
510.536	83.56
510.752	103.56
510.968	94.56
511.184	72.56
511.401	77.56
511.617	93.56
511.833	76.56
512.049	80.56
512.265	72.56
512.481	91.56
512.698	92.56
512.914	69.56
513.13	91.56
513.346	68.56
513.562	88.56
513.778	82.56
513.994	75.56
514.21	78.56
514.426	79.56
514.642	78.56
514.858	87.56
515.074	97.56
515.29	77.56
515.506	74.56
515.721	87.56
515.937	71.56
516.153	76.56
516.369	94.56
516.585	79.56
516.801	79.56
517.016	88.56
517.232	85.56
517.448	80.56
517.664	108.56
517.879	86.56
518.095	74.56
518.311	92.56
518.527	91.56
518.742	82.56
518.958	79.56
519.173	89.56
519.389	77.56
519.605	80.56
519.82	75.56
520.036	87.56
