Data from Dirtnoheat2_HRD10591_00009.txt Node
Date: Fri Dec 27 15:19:47 EST 2024
User: Yrep
Spectrometer: HR+D1059
Trigger mode: 1
Integration Time (sec): 1.000000E-1
Scans to average: 1
Electric dark correction enabled: true
Nonlinearity correction enabled: false
Boxcar width: 0
XAxis mode: Wavelengths
Number of Pixels in Spectrum: 2048
>>>>>Begin Spectral Data<<<<<
223.165	-0.56
223.4	-0.56
223.635	-0.56
223.869	-24.56
224.104	-20.56
224.338	-21.56
224.573	-27.56
224.808	-18.56
225.042	-16.56
225.277	-6.56
225.511	0.44
225.746	-0.56
225.98	18.44
226.215	13.44
226.449	8.44
226.683	33.44
226.918	31.44
227.152	31.44
227.387	33.44
227.621	38.44
227.856	62.44
228.09	63.44
228.324	68.44
228.559	44.44
228.793	56.44
229.027	58.44
229.262	81.44
229.496	70.44
229.73	62.44
229.964	77.44
230.199	71.44
230.433	72.44
230.667	73.44
230.901	75.44
231.136	83.44
231.37	85.44
231.604	90.44
231.838	85.44
232.072	68.44
232.306	69.44
232.541	93.44
232.775	81.44
233.009	77.44
233.243	88.44
233.477	82.44
233.711	84.44
233.945	80.44
234.179	75.44
234.413	87.44
234.647	83.44
234.881	87.44
235.115	96.44
235.349	79.44
235.583	79.44
235.817	58.44
236.051	81.44
236.285	89.44
236.519	87.44
236.753	90.44
236.987	86.44
237.221	83.44
237.455	55.44
237.689	67.44
237.922	85.44
238.156	59.44
238.39	89.44
238.624	61.44
238.858	72.44
239.091	67.44
239.325	63.44
239.559	65.44
239.793	69.44
240.027	96.44
240.26	63.44
240.494	92.44
240.728	84.44
240.961	83.44
241.195	89.44
241.429	79.44
241.662	86.44
241.896	74.44
242.13	71.44
242.363	71.44
242.597	77.44
242.83	80.44
243.064	69.44
243.298	89.44
243.531	68.44
243.765	91.44
243.998	81.44
244.232	79.44
244.465	68.44
244.699	78.44
244.932	79.44
245.166	87.44
245.399	88.44
245.633	80.44
245.866	80.44
246.099	73.44
246.333	79.44
246.566	70.44
246.8	77.44
247.033	86.44
247.266	87.44
247.5	88.44
247.733	92.44
247.966	74.44
248.2	70.44
248.433	81.44
248.666	77.44
248.899	80.44
249.133	83.44
249.366	89.44
249.599	92.44
249.832	80.44
250.066	86.44
250.299	71.44
250.532	88.44
250.765	92.44
250.998	87.44
251.231	82.44
251.465	80.44
251.698	84.44
251.931	74.44
252.164	70.44
252.397	82.44
252.63	98.44
252.863	71.44
253.096	79.44
253.329	82.44
253.562	80.44
253.795	81.44
254.028	87.44
254.261	69.44
254.494	85.44
254.727	86.44
254.96	93.44
255.193	79.44
255.426	81.44
255.659	81.44
255.892	100.44
256.124	83.44
256.357	81.44
256.59	90.44
256.823	73.44
257.056	79.44
257.289	89.44
257.521	75.44
257.754	80.44
257.987	83.44
258.22	88.44
258.452	82.44
258.685	83.44
258.918	70.44
259.151	66.44
259.383	79.44
259.616	79.44
259.849	89.44
260.081	91.44
260.314	91.44
260.547	64.44
260.779	79.44
261.012	82.44
261.244	73.44
261.477	87.44
261.71	79.44
261.942	72.44
262.175	74.44
262.407	85.44
262.64	85.44
262.872	84.44
263.105	96.44
263.337	83.44
263.57	83.44
263.802	85.44
264.035	72.44
264.267	73.44
264.499	78.44
264.732	80.44
264.964	79.44
265.197	76.44
265.429	85.44
265.661	87.44
265.894	94.44
266.126	82.44
266.358	73.44
266.591	83.44
266.823	92.44
267.055	83.44
267.287	93.44
267.52	97.44
267.752	73.44
267.984	96.44
268.216	85.44
268.448	85.44
268.681	92.44
268.913	73.44
269.145	85.44
269.377	86.44
269.609	63.44
269.841	85.44
270.073	65.44
270.306	61.44
270.538	76.44
270.77	80.44
271.002	69.44
271.234	88.44
271.466	83.44
271.698	91.44
271.93	92.44
272.162	83.44
272.394	81.44
272.626	79.44
272.858	84.44
273.09	90.44
273.322	81.44
273.553	77.44
273.785	78.44
274.017	64.44
274.249	87.44
274.481	95.44
274.713	93.44
274.945	80.44
275.176	85.44
275.408	84.44
275.64	92.44
275.872	77.44
276.104	91.44
276.335	89.44
276.567	102.44
276.799	86.44
277.031	92.44
277.262	84.44
277.494	70.44
277.726	93.44
277.957	89.44
278.189	85.44
278.421	94.44
278.652	87.44
278.884	75.44
279.115	85.44
279.347	87.44
279.579	77.44
279.81	78.44
280.042	88.44
280.273	79.44
280.505	69.44
280.736	81.44
280.968	85.44
281.199	101.44
281.431	88.44
281.662	84.44
281.894	88.44
282.125	89.44
282.356	80.44
282.588	84.44
282.819	82.44
283.051	87.44
283.282	96.44
283.513	98.44
283.745	84.44
283.976	88.44
284.207	78.44
284.439	89.44
284.67	91.44
284.901	73.44
285.132	98.44
285.364	81.44
285.595	91.44
285.826	83.44
286.057	86.44
286.288	97.44
286.52	75.44
286.751	94.44
286.982	90.44
287.213	68.44
287.444	81.44
287.675	92.44
287.906	88.44
288.138	80.44
288.369	72.44
288.6	93.44
288.831	75.44
289.062	92.44
289.293	71.44
289.524	80.44
289.755	77.44
289.986	87.44
290.217	74.44
290.448	85.44
290.679	88.44
290.91	84.44
291.141	81.44
291.371	88.44
291.602	97.44
291.833	84.44
292.064	92.44
292.295	99.44
292.526	77.44
292.757	88.44
292.987	79.44
293.218	85.44
293.449	80.44
293.68	85.44
293.91	84.44
294.141	87.44
294.372	90.44
294.603	78.44
294.833	107.44
295.064	92.44
295.295	84.44
295.525	93.44
295.756	79.44
295.987	85.44
296.217	77.44
296.448	78.44
296.679	75.44
296.909	91.44
297.14	87.44
297.37	89.44
297.601	90.44
297.831	84.44
298.062	99.44
298.292	78.44
298.523	81.44
298.753	95.44
298.984	79.44
299.214	85.44
299.445	90.44
299.675	89.44
299.905	96.44
300.136	90.44
300.366	78.44
300.597	88.44
300.827	94.44
301.057	94.44
301.288	85.44
301.518	88.44
301.748	87.44
301.979	94.44
302.209	91.44
302.439	94.44
302.669	92.44
302.9	86.44
303.13	76.44
303.36	96.44
303.59	85.44
303.82	73.44
304.051	98.44
304.281	82.44
304.511	85.44
304.741	87.44
304.971	79.44
305.201	77.44
305.431	85.44
305.661	88.44
305.891	84.44
306.121	76.44
306.352	67.44
306.582	90.44
306.812	96.44
307.042	95.44
307.272	93.44
307.502	84.44
307.731	93.44
307.961	81.44
308.191	79.44
308.421	78.44
308.651	72.44
308.881	70.44
309.111	77.44
309.341	73.44
309.571	81.44
309.8	83.44
310.03	82.44
310.26	80.44
310.49	81.44
310.72	86.44
310.949	78.44
311.179	78.44
311.409	83.44
311.639	81.44
311.868	77.44
312.098	90.44
312.328	91.44
312.557	103.44
312.787	89.44
313.017	77.44
313.246	87.44
313.476	86.44
313.706	78.44
313.935	87.44
314.165	84.44
314.394	76.44
314.624	80.44
314.853	81.44
315.083	97.44
315.312	92.44
315.542	85.44
315.771	89.44
316.001	83.44
316.23	83.44
316.46	88.44
316.689	89.44
316.919	82.44
317.148	82.44
317.377	104.44
317.607	90.44
317.836	82.44
318.065	81.44
318.295	74.44
318.524	63.44
318.753	73.44
318.983	84.44
319.212	90.44
319.441	88.44
319.67	75.44
319.9	77.44
320.129	86.44
320.358	88.44
320.587	89.44
320.816	93.44
321.046	83.44
321.275	83.44
321.504	73.44
321.733	85.44
321.962	102.44
322.191	89.44
322.42	84.44
322.649	84.44
322.878	90.44
323.108	85.44
323.337	87.44
323.566	87.44
323.795	83.44
324.024	81.44
324.253	81.44
324.482	90.44
324.71	95.44
324.939	98.44
325.168	104.44
325.397	88.44
325.626	93.44
325.855	83.44
326.084	80.44
326.313	94.44
326.542	93.44
326.77	97.44
326.999	87.44
327.228	87.44
327.457	84.44
327.686	92.44
327.914	88.44
328.143	79.44
328.372	80.44
328.6	62.44
328.829	85.44
329.058	87.44
329.287	76.44
329.515	91.44
329.744	82.44
329.972	87.44
330.201	87.44
330.43	99.44
330.658	74.44
330.887	95.44
331.115	105.44
331.344	89.44
331.572	87.44
331.801	76.44
332.03	90.44
332.258	98.44
332.486	88.44
332.715	93.44
332.943	80.44
333.172	81.44
333.4	89.44
333.629	92.44
333.857	98.44
334.085	93.44
334.314	87.44
334.542	76.44
334.771	89.44
334.999	87.44
335.227	85.44
335.455	94.44
335.684	91.44
335.912	93.44
336.14	68.44
336.369	85.44
336.597	91.44
336.825	88.44
337.053	78.44
337.281	75.44
337.51	88.44
337.738	84.44
337.966	87.44
338.194	82.44
338.422	92.44
338.65	84.44
338.878	91.44
339.106	74.44
339.334	104.44
339.562	100.44
339.79	103.44
340.018	100.44
340.246	69.44
340.474	83.44
340.702	89.44
340.93	89.44
341.158	96.44
341.386	80.44
341.614	74.44
341.842	81.44
342.07	97.44
342.298	80.44
342.526	76.44
342.754	79.44
342.981	90.44
343.209	76.44
343.437	97.44
343.665	79.44
343.893	96.44
344.12	85.44
344.348	97.44
344.576	95.44
344.804	94.44
345.031	79.44
345.259	89.44
345.487	94.44
345.714	80.44
345.942	88.44
346.17	90.44
346.397	84.44
346.625	103.44
346.853	86.44
347.08	79.44
347.308	97.44
347.535	84.44
347.763	87.44
347.99	84.44
348.218	89.44
348.445	89.44
348.673	101.44
348.9	95.44
349.128	103.44
349.355	94.44
349.583	89.44
349.81	87.44
350.037	87.44
350.265	83.44
350.492	79.44
350.72	69.44
350.947	87.44
351.174	99.44
351.402	80.44
351.629	95.44
351.856	77.44
352.083	90.44
352.311	85.44
352.538	96.44
352.765	91.44
352.992	91.44
353.22	89.44
353.447	84.44
353.674	88.44
353.901	82.44
354.128	88.44
354.355	82.44
354.583	79.44
354.81	80.44
355.037	73.44
355.264	73.44
355.491	95.44
355.718	98.44
355.945	91.44
356.172	80.44
356.399	96.44
356.626	93.44
356.853	82.44
357.08	75.44
357.307	89.44
357.534	92.44
357.761	89.44
357.988	82.44
358.215	79.44
358.441	87.44
358.668	87.44
358.895	88.44
359.122	96.44
359.349	86.44
359.576	92.44
359.802	74.44
360.029	79.44
360.256	82.44
360.483	90.44
360.709	82.44
360.936	89.44
361.163	78.44
361.39	87.44
361.616	96.44
361.843	110.44
362.07	86.44
362.296	88.44
362.523	85.44
362.749	85.44
362.976	86.44
363.203	89.44
363.429	83.44
363.656	86.44
363.882	83.44
364.109	87.44
364.335	76.44
364.562	87.44
364.788	65.44
365.015	78.44
365.241	89.44
365.468	78.44
365.694	76.44
365.92	81.44
366.147	98.44
366.373	75.44
366.599	93.44
366.826	95.44
367.052	92.44
367.278	93.44
367.505	79.44
367.731	88.44
367.957	93.44
368.184	101.44
368.41	89.44
368.636	89.44
368.862	89.44
369.089	84.44
369.315	82.44
369.541	79.44
369.767	98.44
369.993	97.44
370.219	80.44
370.445	92.44
370.672	85.44
370.898	84.44
371.124	92.44
371.35	93.44
371.576	105.44
371.802	91.44
372.028	89.44
372.254	86.44
372.48	84.44
372.706	80.44
372.932	82.44
373.158	81.44
373.384	85.44
373.61	89.44
373.835	80.44
374.061	82.44
374.287	86.44
374.513	90.44
374.739	84.44
374.965	85.44
375.191	74.44
375.416	91.44
375.642	81.44
375.868	86.44
376.094	79.44
376.319	89.44
376.545	87.44
376.771	96.44
376.997	93.44
377.222	75.44
377.448	87.44
377.674	79.44
377.899	97.44
378.125	80.44
378.35	79.44
378.576	83.44
378.802	93.44
379.027	80.44
379.253	82.44
379.478	73.44
379.704	92.44
379.929	96.44
380.155	99.44
380.38	82.44
380.606	81.44
380.831	86.44
381.057	83.44
381.282	90.44
381.507	80.44
381.733	98.44
381.958	86.44
382.184	76.44
382.409	91.44
382.634	80.44
382.86	91.44
383.085	83.44
383.31	88.44
383.535	84.44
383.761	86.44
383.986	88.44
384.211	73.44
384.436	76.44
384.662	61.44
384.887	76.44
385.112	87.44
385.337	85.44
385.562	83.44
385.787	83.44
386.013	94.44
386.238	90.44
386.463	85.44
386.688	96.44
386.913	95.44
387.138	77.44
387.363	82.44
387.588	87.44
387.813	93.44
388.038	89.44
388.263	83.44
388.488	84.44
388.713	78.44
388.938	69.44
389.163	88.44
389.387	80.44
389.612	75.44
389.837	83.44
390.062	93.44
390.287	88.44
390.512	97.44
390.736	86.44
390.961	69.44
391.186	67.44
391.411	85.44
391.636	71.44
391.86	78.44
392.085	80.44
392.31	93.44
392.534	79.44
392.759	84.44
392.984	88.44
393.208	89.44
393.433	90.44
393.658	90.44
393.882	95.44
394.107	69.44
394.331	98.44
394.556	76.44
394.78	83.44
395.005	84.44
395.229	82.44
395.454	87.44
395.678	79.44
395.903	90.44
396.127	96.44
396.352	82.44
396.576	97.44
396.801	95.44
397.025	99.44
397.249	92.44
397.474	82.44
397.698	77.44
397.922	92.44
398.147	81.44
398.371	81.44
398.595	95.44
398.82	90.44
399.044	91.44
399.268	79.44
399.492	84.44
399.717	80.44
399.941	80.44
400.165	80.44
400.389	84.44
400.613	83.44
400.837	81.44
401.062	87.44
401.286	80.44
401.51	93.44
401.734	75.44
401.958	86.44
402.182	88.44
402.406	84.44
402.63	87.44
402.854	75.44
403.078	89.44
403.302	81.44
403.526	70.44
403.75	84.44
403.974	88.44
404.198	88.44
404.422	90.44
404.645	94.44
404.869	90.44
405.093	82.44
405.317	91.44
405.541	82.44
405.765	75.44
405.988	77.44
406.212	106.44
406.436	89.44
406.66	101.44
406.883	76.44
407.107	74.44
407.331	75.44
407.555	83.44
407.778	91.44
408.002	95.44
408.226	93.44
408.449	81.44
408.673	99.44
408.896	81.44
409.12	96.44
409.344	91.44
409.567	84.44
409.791	75.44
410.014	77.44
410.238	84.44
410.461	87.44
410.685	91.44
410.908	88.44
411.132	75.44
411.355	74.44
411.578	72.44
411.802	79.44
412.025	88.44
412.249	78.44
412.472	86.44
412.695	66.44
412.919	83.44
413.142	84.44
413.365	91.44
413.589	88.44
413.812	72.44
414.035	92.44
414.258	88.44
414.482	87.44
414.705	82.44
414.928	76.44
415.151	84.44
415.374	74.44
415.597	77.44
415.821	91.44
416.044	83.44
416.267	85.44
416.49	76.44
416.713	59.44
416.936	89.44
417.159	90.44
417.382	91.44
417.605	80.44
417.828	90.44
418.051	70.44
418.274	90.44
418.497	87.44
418.72	81.44
418.943	79.44
419.166	75.44
419.389	85.44
419.611	79.44
419.834	81.44
420.057	86.44
420.28	83.44
420.503	85.44
420.726	93.44
420.948	86.44
421.171	86.44
421.394	88.44
421.617	95.44
421.839	74.44
422.062	89.44
422.285	72.44
422.507	89.44
422.73	110.44
422.953	99.44
423.175	81.44
423.398	89.44
423.621	79.44
423.843	83.44
424.066	71.44
424.288	91.44
424.511	79.44
424.733	87.44
424.956	75.44
425.178	75.44
425.401	96.44
425.623	81.44
425.846	90.44
426.068	77.44
426.291	83.44
426.513	75.44
426.735	92.44
426.958	76.44
427.18	81.44
427.402	97.44
427.625	87.44
427.847	100.44
428.069	79.44
428.292	90.44
428.514	82.44
428.736	81.44
428.958	86.44
429.181	87.44
429.403	92.44
429.625	92.44
429.847	82.44
430.069	86.44
430.292	89.44
430.514	99.44
430.736	88.44
430.958	91.44
431.18	67.44
431.402	81.44
431.624	85.44
431.846	100.44
432.068	90.44
432.29	76.44
432.512	74.44
432.734	76.44
432.956	87.44
433.178	81.44
433.4	89.44
433.622	77.44
433.844	89.44
434.066	105.44
434.287	77.44
434.509	91.44
434.731	75.44
434.953	73.44
435.175	99.44
435.397	88.44
435.618	72.44
435.84	81.44
436.062	87.44
436.284	93.44
436.505	85.44
436.727	83.44
436.949	96.44
437.17	92.44
437.392	92.44
437.614	97.44
437.835	87.44
438.057	78.44
438.278	88.44
438.5	104.44
438.721	83.44
438.943	89.44
439.165	83.44
439.386	74.44
439.608	86.44
439.829	82.44
440.05	98.44
440.272	80.44
440.493	90.44
440.715	75.44
440.936	85.44
441.158	71.44
441.379	79.44
441.6	90.44
441.822	95.44
442.043	84.44
442.264	80.44
442.486	88.44
442.707	91.44
442.928	82.44
443.149	103.44
443.371	89.44
443.592	94.44
443.813	101.44
444.034	74.44
444.255	88.44
444.476	88.44
444.698	104.44
444.919	83.44
445.14	174.44
445.361	115.44
445.582	94.44
445.803	92.44
446.024	82.44
446.245	77.44
446.466	79.44
446.687	89.44
446.908	74.44
447.129	90.44
447.35	81.44
447.571	73.44
447.792	82.44
448.013	85.44
448.234	88.44
448.455	75.44
448.675	83.44
448.896	82.44
449.117	85.44
449.338	97.44
449.559	88.44
449.779	88.44
450	100.44
450.221	92.44
450.442	69.44
450.662	73.44
450.883	77.44
451.104	80.44
451.324	85.44
451.545	84.44
451.766	82.44
451.986	85.44
452.207	81.44
452.428	80.44
452.648	93.44
452.869	92.44
453.089	97.44
453.31	81.44
453.53	92.44
453.751	81.44
453.971	81.44
454.192	79.44
454.412	85.44
454.633	70.44
454.853	89.44
455.073	93.44
455.294	71.44
455.514	90.44
455.734	77.44
455.955	70.44
456.175	77.44
456.395	96.44
456.616	91.44
456.836	90.44
457.056	96.44
457.276	90.44
457.497	80.44
457.717	70.44
457.937	75.44
458.157	67.44
458.377	78.44
458.598	88.44
458.818	79.44
459.038	69.44
459.258	78.44
459.478	86.44
459.698	85.44
459.918	78.44
460.138	91.44
460.358	79.44
460.578	100.44
460.798	103.44
461.018	77.44
461.238	79.44
461.458	85.44
461.678	68.44
461.898	78.44
462.118	89.44
462.338	84.44
462.558	86.44
462.777	87.44
462.997	83.44
463.217	79.44
463.437	92.44
463.657	73.44
463.876	80.44
464.096	84.44
464.316	87.44
464.536	91.44
464.755	90.44
464.975	84.44
465.195	104.44
465.414	90.44
465.634	91.44
465.854	75.44
466.073	100.44
466.293	79.44
466.512	80.44
466.732	91.44
466.951	95.44
467.171	85.44
467.391	85.44
467.61	82.44
467.829	83.44
468.049	95.44
468.268	93.44
468.488	84.44
468.707	81.44
468.927	69.44
469.146	93.44
469.365	79.44
469.585	75.44
469.804	75.44
470.023	75.44
470.243	72.44
470.462	89.44
470.681	74.44
470.901	77.44
471.12	85.44
471.339	77.44
471.558	89.44
471.777	81.44
471.997	75.44
472.216	88.44
472.435	75.44
472.654	89.44
472.873	103.44
473.092	75.44
473.311	84.44
473.53	90.44
473.749	95.44
473.968	83.44
474.187	72.44
474.406	76.44
474.625	83.44
474.844	96.44
475.063	80.44
475.282	103.44
475.501	95.44
475.72	92.44
475.939	91.44
476.158	93.44
476.377	90.44
476.596	91.44
476.814	92.44
477.033	87.44
477.252	90.44
477.471	78.44
477.69	78.44
477.908	85.44
478.127	80.44
478.346	76.44
478.564	89.44
478.783	71.44
479.002	75.44
479.22	95.44
479.439	76.44
479.658	70.44
479.876	88.44
480.095	83.44
480.313	89.44
480.532	82.44
480.751	81.44
480.969	75.44
481.188	89.44
481.406	79.44
481.624	84.44
481.843	87.44
482.061	85.44
482.28	89.44
482.498	88.44
482.717	78.44
482.935	93.44
483.153	88.44
483.372	70.44
483.59	99.44
483.808	75.44
484.027	80.44
484.245	99.44
484.463	80.44
484.681	93.44
484.9	81.44
485.118	80.44
485.336	88.44
485.554	89.44
485.772	89.44
485.99	96.44
486.209	84.44
486.427	90.44
486.645	82.44
486.863	95.44
487.081	76.44
487.299	83.44
487.517	80.44
487.735	80.44
487.953	107.44
488.171	102.44
488.389	80.44
488.607	90.44
488.825	91.44
489.043	67.44
489.261	85.44
489.479	95.44
489.696	98.44
489.914	85.44
490.132	92.44
490.35	93.44
490.568	83.44
490.786	97.44
491.003	71.44
491.221	79.44
491.439	86.44
491.657	76.44
491.874	78.44
492.092	81.44
492.31	80.44
492.527	94.44
492.745	88.44
492.963	85.44
493.18	77.44
493.398	88.44
493.615	91.44
493.833	77.44
494.05	69.44
494.268	79.44
494.485	98.44
494.703	91.44
494.92	76.44
495.138	93.44
495.355	83.44
495.573	98.44
495.79	90.44
496.008	91.44
496.225	90.44
496.442	84.44
496.66	95.44
496.877	75.44
497.094	66.44
497.312	103.44
497.529	95.44
497.746	92.44
497.963	90.44
498.181	79.44
498.398	86.44
498.615	77.44
498.832	91.44
499.049	81.44
499.267	89.44
499.484	89.44
499.701	87.44
499.918	88.44
500.135	88.44
500.352	84.44
500.569	85.44
500.786	84.44
501.003	77.44
501.22	77.44
501.437	85.44
501.654	95.44
501.871	86.44
502.088	85.44
502.305	91.44
502.522	80.44
502.739	79.44
502.956	88.44
503.172	73.44
503.389	83.44
503.606	84.44
503.823	88.44
504.04	81.44
504.256	93.44
504.473	87.44
504.69	97.44
504.907	91.44
505.123	83.44
505.34	89.44
505.557	93.44
505.773	100.44
505.99	84.44
506.207	80.44
506.423	87.44
506.64	90.44
506.856	75.44
507.073	75.44
507.289	90.44
507.506	83.44
507.722	81.44
507.939	80.44
508.155	88.44
508.372	88.44
508.588	97.44
508.805	76.44
509.021	90.44
509.238	83.44
509.454	74.44
509.67	71.44
509.887	83.44
510.103	89.44
510.319	88.44
510.536	92.44
510.752	80.44
510.968	100.44
511.184	72.44
511.401	97.44
511.617	89.44
511.833	84.44
512.049	85.44
512.265	94.44
512.481	79.44
512.698	95.44
512.914	96.44
513.13	76.44
513.346	84.44
513.562	82.44
513.778	85.44
513.994	80.44
514.21	91.44
514.426	83.44
514.642	98.44
514.858	89.44
515.074	96.44
515.29	84.44
515.506	87.44
515.721	82.44
515.937	83.44
516.153	84.44
516.369	82.44
516.585	90.44
516.801	86.44
517.016	95.44
517.232	84.44
517.448	91.44
517.664	85.44
517.879	91.44
518.095	88.44
518.311	89.44
518.527	114.44
518.742	85.44
518.958	90.44
519.173	96.44
519.389	83.44
519.605	73.44
