Data from Dirtnoheat2_HRD10591_00020.txt Node
Date: Fri Dec 27 15:19:58 EST 2024
User: Yrep
Spectrometer: HR+D1059
Trigger mode: 1
Integration Time (sec): 1.000000E-1
Scans to average: 1
Electric dark correction enabled: true
Nonlinearity correction enabled: false
Boxcar width: 0
XAxis mode: Wavelengths
Number of Pixels in Spectrum: 2048
>>>>>Begin Spectral Data<<<<<
223.165	-21.69
223.4	-21.69
223.635	-21.69
223.869	-36.69
224.104	-17.69
224.338	-13.69
224.573	-14.69
224.808	-8.69
225.042	-0.69
225.277	-6.69
225.511	-4.69
225.746	0.31
225.98	2.31
226.215	18.31
226.449	23.31
226.683	27.31
226.918	14.31
227.152	39.31
227.387	44.31
227.621	42.31
227.856	35.31
228.09	47.31
228.324	41.31
228.559	57.31
228.793	59.31
229.027	68.31
229.262	65.31
229.496	69.31
229.73	67.31
229.964	73.31
230.199	62.31
230.433	76.31
230.667	76.31
230.901	62.31
231.136	88.31
231.37	69.31
231.604	99.31
231.838	87.31
232.072	89.31
232.306	79.31
232.541	84.31
232.775	82.31
233.009	87.31
233.243	78.31
233.477	73.31
233.711	82.31
233.945	80.31
234.179	95.31
234.413	70.31
234.647	74.31
234.881	76.31
235.115	72.31
235.349	81.31
235.583	73.31
235.817	80.31
236.051	77.31
236.285	83.31
236.519	94.31
236.753	93.31
236.987	90.31
237.221	71.31
237.455	80.31
237.689	82.31
237.922	93.31
238.156	82.31
238.39	77.31
238.624	77.31
238.858	73.31
239.091	85.31
239.325	82.31
239.559	81.31
239.793	71.31
240.027	69.31
240.26	89.31
240.494	82.31
240.728	71.31
240.961	85.31
241.195	78.31
241.429	77.31
241.662	78.31
241.896	71.31
242.13	86.31
242.363	63.31
242.597	87.31
242.83	72.31
243.064	76.31
243.298	76.31
243.531	89.31
243.765	72.31
243.998	68.31
244.232	68.31
244.465	70.31
244.699	74.31
244.932	76.31
245.166	68.31
245.399	75.31
245.633	91.31
245.866	89.31
246.099	52.31
246.333	73.31
246.566	90.31
246.8	69.31
247.033	77.31
247.266	88.31
247.5	83.31
247.733	89.31
247.966	76.31
248.2	86.31
248.433	88.31
248.666	83.31
248.899	84.31
249.133	79.31
249.366	89.31
249.599	94.31
249.832	84.31
250.066	78.31
250.299	89.31
250.532	89.31
250.765	78.31
250.998	80.31
251.231	77.31
251.465	69.31
251.698	74.31
251.931	69.31
252.164	80.31
252.397	87.31
252.63	84.31
252.863	83.31
253.096	88.31
253.329	72.31
253.562	76.31
253.795	85.31
254.028	90.31
254.261	91.31
254.494	76.31
254.727	81.31
254.96	73.31
255.193	59.31
255.426	79.31
255.659	69.31
255.892	85.31
256.124	90.31
256.357	72.31
256.59	83.31
256.823	88.31
257.056	82.31
257.289	83.31
257.521	87.31
257.754	75.31
257.987	64.31
258.22	81.31
258.452	91.31
258.685	91.31
258.918	74.31
259.151	78.31
259.383	73.31
259.616	69.31
259.849	80.31
260.081	77.31
260.314	72.31
260.547	69.31
260.779	73.31
261.012	83.31
261.244	85.31
261.477	91.31
261.71	66.31
261.942	69.31
262.175	83.31
262.407	87.31
262.64	88.31
262.872	79.31
263.105	86.31
263.337	88.31
263.57	70.31
263.802	68.31
264.035	79.31
264.267	81.31
264.499	87.31
264.732	89.31
264.964	77.31
265.197	86.31
265.429	71.31
265.661	89.31
265.894	80.31
266.126	103.31
266.358	100.31
266.591	86.31
266.823	83.31
267.055	72.31
267.287	79.31
267.52	89.31
267.752	75.31
267.984	78.31
268.216	81.31
268.448	86.31
268.681	89.31
268.913	98.31
269.145	88.31
269.377	82.31
269.609	68.31
269.841	86.31
270.073	69.31
270.306	82.31
270.538	81.31
270.77	104.31
271.002	87.31
271.234	83.31
271.466	87.31
271.698	76.31
271.93	89.31
272.162	88.31
272.394	91.31
272.626	77.31
272.858	76.31
273.09	85.31
273.322	95.31
273.553	80.31
273.785	81.31
274.017	78.31
274.249	93.31
274.481	79.31
274.713	72.31
274.945	95.31
275.176	73.31
275.408	95.31
275.64	66.31
275.872	69.31
276.104	86.31
276.335	83.31
276.567	79.31
276.799	76.31
277.031	76.31
277.262	85.31
277.494	87.31
277.726	82.31
277.957	75.31
278.189	68.31
278.421	84.31
278.652	87.31
278.884	89.31
279.115	91.31
279.347	76.31
279.579	95.31
279.81	88.31
280.042	81.31
280.273	91.31
280.505	92.31
280.736	73.31
280.968	83.31
281.199	84.31
281.431	74.31
281.662	80.31
281.894	90.31
282.125	91.31
282.356	78.31
282.588	102.31
282.819	80.31
283.051	84.31
283.282	105.31
283.513	85.31
283.745	92.31
283.976	93.31
284.207	92.31
284.439	76.31
284.67	72.31
284.901	81.31
285.132	79.31
285.364	76.31
285.595	76.31
285.826	79.31
286.057	69.31
286.288	82.31
286.52	84.31
286.751	87.31
286.982	77.31
287.213	90.31
287.444	83.31
287.675	87.31
287.906	77.31
288.138	83.31
288.369	91.31
288.6	81.31
288.831	81.31
289.062	81.31
289.293	85.31
289.524	88.31
289.755	83.31
289.986	77.31
290.217	89.31
290.448	85.31
290.679	77.31
290.91	89.31
291.141	74.31
291.371	93.31
291.602	74.31
291.833	96.31
292.064	87.31
292.295	78.31
292.526	82.31
292.757	92.31
292.987	87.31
293.218	85.31
293.449	95.31
293.68	81.31
293.91	96.31
294.141	84.31
294.372	91.31
294.603	95.31
294.833	83.31
295.064	90.31
295.295	94.31
295.525	92.31
295.756	100.31
295.987	69.31
296.217	74.31
296.448	75.31
296.679	88.31
296.909	87.31
297.14	90.31
297.37	90.31
297.601	96.31
297.831	83.31
298.062	84.31
298.292	88.31
298.523	79.31
298.753	87.31
298.984	83.31
299.214	67.31
299.445	111.31
299.675	87.31
299.905	87.31
300.136	87.31
300.366	102.31
300.597	87.31
300.827	89.31
301.057	82.31
301.288	88.31
301.518	82.31
301.748	80.31
301.979	97.31
302.209	84.31
302.439	92.31
302.669	82.31
302.9	84.31
303.13	87.31
303.36	89.31
303.59	95.31
303.82	87.31
304.051	76.31
304.281	75.31
304.511	97.31
304.741	85.31
304.971	96.31
305.201	77.31
305.431	81.31
305.661	78.31
305.891	95.31
306.121	83.31
306.352	99.31
306.582	90.31
306.812	81.31
307.042	88.31
307.272	74.31
307.502	81.31
307.731	78.31
307.961	88.31
308.191	67.31
308.421	85.31
308.651	97.31
308.881	86.31
309.111	84.31
309.341	75.31
309.571	81.31
309.8	87.31
310.03	92.31
310.26	84.31
310.49	79.31
310.72	94.31
310.949	70.31
311.179	75.31
311.409	84.31
311.639	88.31
311.868	81.31
312.098	87.31
312.328	80.31
312.557	82.31
312.787	88.31
313.017	80.31
313.246	79.31
313.476	90.31
313.706	92.31
313.935	94.31
314.165	94.31
314.394	91.31
314.624	94.31
314.853	94.31
315.083	89.31
315.312	85.31
315.542	84.31
315.771	81.31
316.001	83.31
316.23	74.31
316.46	80.31
316.689	77.31
316.919	73.31
317.148	84.31
317.377	83.31
317.607	87.31
317.836	87.31
318.065	80.31
318.295	91.31
318.524	85.31
318.753	109.31
318.983	84.31
319.212	83.31
319.441	91.31
319.67	84.31
319.9	89.31
320.129	83.31
320.358	73.31
320.587	89.31
320.816	91.31
321.046	79.31
321.275	100.31
321.504	93.31
321.733	88.31
321.962	81.31
322.191	84.31
322.42	75.31
322.649	84.31
322.878	98.31
323.108	90.31
323.337	85.31
323.566	79.31
323.795	79.31
324.024	87.31
324.253	87.31
324.482	78.31
324.71	89.31
324.939	96.31
325.168	82.31
325.397	81.31
325.626	72.31
325.855	79.31
326.084	98.31
326.313	104.31
326.542	88.31
326.77	86.31
326.999	103.31
327.228	94.31
327.457	100.31
327.686	90.31
327.914	94.31
328.143	108.31
328.372	84.31
328.6	81.31
328.829	82.31
329.058	79.31
329.287	82.31
329.515	97.31
329.744	89.31
329.972	74.31
330.201	69.31
330.43	72.31
330.658	80.31
330.887	92.31
331.115	83.31
331.344	91.31
331.572	88.31
331.801	85.31
332.03	91.31
332.258	81.31
332.486	77.31
332.715	83.31
332.943	88.31
333.172	84.31
333.4	88.31
333.629	80.31
333.857	84.31
334.085	77.31
334.314	75.31
334.542	72.31
334.771	77.31
334.999	76.31
335.227	88.31
335.455	87.31
335.684	70.31
335.912	80.31
336.14	88.31
336.369	82.31
336.597	85.31
336.825	87.31
337.053	91.31
337.281	94.31
337.51	74.31
337.738	83.31
337.966	97.31
338.194	83.31
338.422	83.31
338.65	87.31
338.878	81.31
339.106	87.31
339.334	104.31
339.562	81.31
339.79	96.31
340.018	89.31
340.246	84.31
340.474	92.31
340.702	78.31
340.93	80.31
341.158	77.31
341.386	80.31
341.614	101.31
341.842	91.31
342.07	87.31
342.298	97.31
342.526	74.31
342.754	75.31
342.981	70.31
343.209	100.31
343.437	97.31
343.665	85.31
343.893	83.31
344.12	83.31
344.348	86.31
344.576	103.31
344.804	85.31
345.031	90.31
345.259	90.31
345.487	85.31
345.714	85.31
345.942	81.31
346.17	77.31
346.397	84.31
346.625	83.31
346.853	94.31
347.08	72.31
347.308	82.31
347.535	74.31
347.763	83.31
347.99	87.31
348.218	84.31
348.445	90.31
348.673	98.31
348.9	83.31
349.128	97.31
349.355	84.31
349.583	75.31
349.81	75.31
350.037	93.31
350.265	94.31
350.492	91.31
350.72	80.31
350.947	93.31
351.174	66.31
351.402	77.31
351.629	86.31
351.856	74.31
352.083	76.31
352.311	83.31
352.538	80.31
352.765	93.31
352.992	90.31
353.22	104.31
353.447	80.31
353.674	97.31
353.901	89.31
354.128	85.31
354.355	69.31
354.583	95.31
354.81	93.31
355.037	89.31
355.264	96.31
355.491	88.31
355.718	80.31
355.945	89.31
356.172	78.31
356.399	81.31
356.626	95.31
356.853	80.31
357.08	106.31
357.307	93.31
357.534	80.31
357.761	83.31
357.988	78.31
358.215	95.31
358.441	67.31
358.668	77.31
358.895	83.31
359.122	94.31
359.349	89.31
359.576	79.31
359.802	89.31
360.029	86.31
360.256	97.31
360.483	77.31
360.709	77.31
360.936	85.31
361.163	94.31
361.39	90.31
361.616	84.31
361.843	92.31
362.07	88.31
362.296	89.31
362.523	79.31
362.749	85.31
362.976	89.31
363.203	98.31
363.429	85.31
363.656	88.31
363.882	73.31
364.109	76.31
364.335	95.31
364.562	88.31
364.788	82.31
365.015	81.31
365.241	68.31
365.468	84.31
365.694	86.31
365.92	70.31
366.147	86.31
366.373	76.31
366.599	98.31
366.826	79.31
367.052	88.31
367.278	85.31
367.505	72.31
367.731	82.31
367.957	89.31
368.184	94.31
368.41	76.31
368.636	96.31
368.862	88.31
369.089	88.31
369.315	90.31
369.541	90.31
369.767	73.31
369.993	81.31
370.219	74.31
370.445	62.31
370.672	88.31
370.898	84.31
371.124	96.31
371.35	69.31
371.576	81.31
371.802	72.31
372.028	81.31
372.254	82.31
372.48	99.31
372.706	81.31
372.932	75.31
373.158	74.31
373.384	86.31
373.61	92.31
373.835	81.31
374.061	89.31
374.287	86.31
374.513	78.31
374.739	98.31
374.965	84.31
375.191	88.31
375.416	82.31
375.642	81.31
375.868	70.31
376.094	77.31
376.319	73.31
376.545	91.31
376.771	83.31
376.997	77.31
377.222	83.31
377.448	82.31
377.674	75.31
377.899	84.31
378.125	74.31
378.35	81.31
378.576	86.31
378.802	81.31
379.027	82.31
379.253	89.31
379.478	78.31
379.704	90.31
379.929	91.31
380.155	80.31
380.38	89.31
380.606	76.31
380.831	95.31
381.057	96.31
381.282	84.31
381.507	85.31
381.733	80.31
381.958	83.31
382.184	87.31
382.409	96.31
382.634	70.31
382.86	89.31
383.085	92.31
383.31	89.31
383.535	81.31
383.761	79.31
383.986	89.31
384.211	77.31
384.436	72.31
384.662	93.31
384.887	71.31
385.112	77.31
385.337	85.31
385.562	97.31
385.787	85.31
386.013	90.31
386.238	82.31
386.463	80.31
386.688	85.31
386.913	76.31
387.138	84.31
387.363	83.31
387.588	89.31
387.813	109.31
388.038	91.31
388.263	92.31
388.488	78.31
388.713	87.31
388.938	90.31
389.163	77.31
389.387	96.31
389.612	94.31
389.837	91.31
390.062	87.31
390.287	90.31
390.512	89.31
390.736	85.31
390.961	82.31
391.186	74.31
391.411	80.31
391.636	95.31
391.86	97.31
392.085	88.31
392.31	92.31
392.534	81.31
392.759	82.31
392.984	76.31
393.208	93.31
393.433	98.31
393.658	80.31
393.882	64.31
394.107	96.31
394.331	81.31
394.556	87.31
394.78	93.31
395.005	67.31
395.229	89.31
395.454	75.31
395.678	91.31
395.903	91.31
396.127	81.31
396.352	86.31
396.576	84.31
396.801	88.31
397.025	91.31
397.249	87.31
397.474	101.31
397.698	89.31
397.922	81.31
398.147	85.31
398.371	88.31
398.595	81.31
398.82	86.31
399.044	95.31
399.268	84.31
399.492	87.31
399.717	95.31
399.941	96.31
400.165	88.31
400.389	72.31
400.613	96.31
400.837	79.31
401.062	82.31
401.286	76.31
401.51	65.31
401.734	81.31
401.958	79.31
402.182	75.31
402.406	87.31
402.63	81.31
402.854	79.31
403.078	81.31
403.302	99.31
403.526	82.31
403.75	83.31
403.974	81.31
404.198	68.31
404.422	83.31
404.645	88.31
404.869	83.31
405.093	75.31
405.317	79.31
405.541	78.31
405.765	80.31
405.988	87.31
406.212	82.31
406.436	87.31
406.66	73.31
406.883	86.31
407.107	74.31
407.331	73.31
407.555	74.31
407.778	86.31
408.002	76.31
408.226	82.31
408.449	79.31
408.673	79.31
408.896	82.31
409.12	82.31
409.344	78.31
409.567	87.31
409.791	95.31
410.014	75.31
410.238	78.31
410.461	86.31
410.685	92.31
410.908	87.31
411.132	81.31
411.355	87.31
411.578	90.31
411.802	88.31
412.025	87.31
412.249	74.31
412.472	79.31
412.695	82.31
412.919	79.31
413.142	84.31
413.365	99.31
413.589	94.31
413.812	80.31
414.035	83.31
414.258	75.31
414.482	82.31
414.705	80.31
414.928	90.31
415.151	94.31
415.374	85.31
415.597	80.31
415.821	85.31
416.044	92.31
416.267	80.31
416.49	68.31
416.713	75.31
416.936	83.31
417.159	81.31
417.382	98.31
417.605	83.31
417.828	82.31
418.051	77.31
418.274	82.31
418.497	92.31
418.72	86.31
418.943	96.31
419.166	76.31
419.389	90.31
419.611	75.31
419.834	85.31
420.057	93.31
420.28	88.31
420.503	72.31
420.726	85.31
420.948	90.31
421.171	68.31
421.394	66.31
421.617	77.31
421.839	73.31
422.062	85.31
422.285	80.31
422.507	92.31
422.73	86.31
422.953	91.31
423.175	87.31
423.398	85.31
423.621	94.31
423.843	91.31
424.066	76.31
424.288	82.31
424.511	77.31
424.733	72.31
424.956	110.31
425.178	94.31
425.401	78.31
425.623	98.31
425.846	83.31
426.068	85.31
426.291	87.31
426.513	87.31
426.735	84.31
426.958	81.31
427.18	105.31
427.402	94.31
427.625	83.31
427.847	74.31
428.069	93.31
428.292	103.31
428.514	93.31
428.736	91.31
428.958	92.31
429.181	66.31
429.403	79.31
429.625	69.31
429.847	86.31
430.069	79.31
430.292	86.31
430.514	71.31
430.736	80.31
430.958	92.31
431.18	71.31
431.402	65.31
431.624	72.31
431.846	77.31
432.068	88.31
432.29	77.31
432.512	80.31
432.734	73.31
432.956	82.31
433.178	96.31
433.4	81.31
433.622	93.31
433.844	79.31
434.066	60.31
434.287	79.31
434.509	89.31
434.731	92.31
434.953	94.31
435.175	74.31
435.397	87.31
435.618	79.31
435.84	78.31
436.062	78.31
436.284	89.31
436.505	89.31
436.727	83.31
436.949	83.31
437.17	75.31
437.392	77.31
437.614	81.31
437.835	74.31
438.057	68.31
438.278	88.31
438.5	80.31
438.721	90.31
438.943	94.31
439.165	88.31
439.386	91.31
439.608	89.31
439.829	84.31
440.05	85.31
440.272	95.31
440.493	75.31
440.715	73.31
440.936	83.31
441.158	93.31
441.379	72.31
441.6	74.31
441.822	90.31
442.043	92.31
442.264	73.31
442.486	76.31
442.707	90.31
442.928	88.31
443.149	71.31
443.371	80.31
443.592	91.31
443.813	70.31
444.034	89.31
444.255	67.31
444.476	82.31
444.698	87.31
444.919	71.31
445.14	162.31
445.361	125.31
445.582	99.31
445.803	89.31
446.024	83.31
446.245	85.31
446.466	82.31
446.687	88.31
446.908	95.31
447.129	104.31
447.35	73.31
447.571	83.31
447.792	90.31
448.013	81.31
448.234	82.31
448.455	77.31
448.675	93.31
448.896	98.31
449.117	76.31
449.338	85.31
449.559	108.31
449.779	87.31
450	79.31
450.221	71.31
450.442	61.31
450.662	81.31
450.883	97.31
451.104	97.31
451.324	88.31
451.545	96.31
451.766	85.31
451.986	76.31
452.207	77.31
452.428	86.31
452.648	78.31
452.869	83.31
453.089	80.31
453.31	87.31
453.53	96.31
453.751	106.31
453.971	87.31
454.192	89.31
454.412	90.31
454.633	68.31
454.853	80.31
455.073	96.31
455.294	72.31
455.514	81.31
455.734	86.31
455.955	87.31
456.175	84.31
456.395	73.31
456.616	70.31
456.836	89.31
457.056	87.31
457.276	83.31
457.497	79.31
457.717	79.31
457.937	77.31
458.157	77.31
458.377	80.31
458.598	78.31
458.818	87.31
459.038	72.31
459.258	89.31
459.478	68.31
459.698	88.31
459.918	76.31
460.138	84.31
460.358	86.31
460.578	92.31
460.798	93.31
461.018	75.31
461.238	82.31
461.458	79.31
461.678	86.31
461.898	87.31
462.118	91.31
462.338	84.31
462.558	79.31
462.777	93.31
462.997	75.31
463.217	83.31
463.437	80.31
463.657	78.31
463.876	80.31
464.096	78.31
464.316	87.31
464.536	79.31
464.755	86.31
464.975	93.31
465.195	84.31
465.414	84.31
465.634	84.31
465.854	75.31
466.073	84.31
466.293	81.31
466.512	83.31
466.732	85.31
466.951	80.31
467.171	73.31
467.391	79.31
467.61	81.31
467.829	77.31
468.049	79.31
468.268	75.31
468.488	85.31
468.707	70.31
468.927	81.31
469.146	88.31
469.365	91.31
469.585	80.31
469.804	80.31
470.023	90.31
470.243	101.31
470.462	94.31
470.681	79.31
470.901	87.31
471.12	78.31
471.339	75.31
471.558	88.31
471.777	87.31
471.997	80.31
472.216	98.31
472.435	77.31
472.654	85.31
472.873	92.31
473.092	79.31
473.311	77.31
473.53	100.31
473.749	82.31
473.968	92.31
474.187	79.31
474.406	75.31
474.625	87.31
474.844	83.31
475.063	83.31
475.282	90.31
475.501	85.31
475.72	88.31
475.939	75.31
476.158	80.31
476.377	84.31
476.596	73.31
476.814	89.31
477.033	86.31
477.252	85.31
477.471	56.31
477.69	79.31
477.908	94.31
478.127	91.31
478.346	81.31
478.564	83.31
478.783	86.31
479.002	89.31
479.22	79.31
479.439	87.31
479.658	79.31
479.876	94.31
480.095	87.31
480.313	77.31
480.532	83.31
480.751	80.31
480.969	88.31
481.188	92.31
481.406	92.31
481.624	98.31
481.843	81.31
482.061	69.31
482.28	81.31
482.498	88.31
482.717	89.31
482.935	85.31
483.153	76.31
483.372	80.31
483.59	83.31
483.808	87.31
484.027	77.31
484.245	79.31
484.463	73.31
484.681	81.31
484.9	83.31
485.118	93.31
485.336	81.31
485.554	97.31
485.772	73.31
485.99	76.31
486.209	93.31
486.427	90.31
486.645	80.31
486.863	83.31
487.081	77.31
487.299	90.31
487.517	83.31
487.735	83.31
487.953	78.31
488.171	90.31
488.389	91.31
488.607	84.31
488.825	91.31
489.043	80.31
489.261	81.31
489.479	92.31
489.696	64.31
489.914	92.31
490.132	84.31
490.35	66.31
490.568	80.31
490.786	76.31
491.003	93.31
491.221	89.31
491.439	80.31
491.657	86.31
491.874	95.31
492.092	90.31
492.31	73.31
492.527	93.31
492.745	89.31
492.963	89.31
493.18	84.31
493.398	79.31
493.615	77.31
493.833	92.31
494.05	80.31
494.268	95.31
494.485	76.31
494.703	85.31
494.92	78.31
495.138	82.31
495.355	99.31
495.573	88.31
495.79	65.31
496.008	87.31
496.225	97.31
496.442	93.31
496.66	97.31
496.877	88.31
497.094	91.31
497.312	80.31
497.529	100.31
497.746	90.31
497.963	99.31
498.181	88.31
498.398	87.31
498.615	87.31
498.832	81.31
499.049	83.31
499.267	75.31
499.484	91.31
499.701	89.31
499.918	87.31
500.135	91.31
500.352	74.31
500.569	91.31
500.786	89.31
501.003	91.31
501.22	89.31
501.437	83.31
501.654	88.31
501.871	81.31
502.088	88.31
502.305	97.31
502.522	77.31
502.739	85.31
502.956	82.31
503.172	90.31
503.389	81.31
503.606	87.31
503.823	103.31
504.04	83.31
504.256	83.31
504.473	76.31
504.69	76.31
504.907	72.31
505.123	79.31
505.34	81.31
505.557	77.31
505.773	95.31
505.99	76.31
506.207	75.31
506.423	80.31
506.64	93.31
506.856	64.31
507.073	84.31
507.289	91.31
507.506	82.31
507.722	95.31
507.939	85.31
508.155	89.31
508.372	77.31
508.588	80.31
508.805	89.31
509.021	89.31
509.238	88.31
509.454	97.31
509.67	95.31
509.887	79.31
510.103	75.31
510.319	83.31
510.536	93.31
510.752	83.31
510.968	77.31
511.184	69.31
511.401	77.31
511.617	83.31
511.833	84.31
512.049	88.31
512.265	76.31
512.481	86.31
512.698	84.31
512.914	84.31
513.13	82.31
513.346	81.31
513.562	73.31
513.778	81.31
513.994	89.31
514.21	77.31
514.426	85.31
514.642	84.31
514.858	95.31
515.074	76.31
515.29	88.31
515.506	85.31
515.721	77.31
515.937	88.31
516.153	80.31
516.369	79.31
516.585	81.31
516.801	83.31
517.016	90.31
517.232	77.31
517.448	81.31
517.664	93.31
517.879	84.31
518.095	77.31
518.311	86.31
518.527	91.31
518.742	79.31
518.958	89.31
519.173	86.31
519.389	79.31
519.605	64.31
519.82	83.31
