Data from Dirtnoheat2_HRD10591_00007.txt Node
Date: Fri Dec 27 15:19:45 EST 2024
User: Yrep
Spectrometer: HR+D1059
Trigger mode: 1
Integration Time (sec): 1.000000E-1
Scans to average: 1
Electric dark correction enabled: true
Nonlinearity correction enabled: false
Boxcar width: 0
XAxis mode: Wavelengths
Number of Pixels in Spectrum: 2048
>>>>>Begin Spectral Data<<<<<
223.165	-11.38
223.4	-11.38
223.635	-11.38
223.869	-24.38
224.104	-29.38
224.338	-6.38
224.573	-6.38
224.808	-18.38
225.042	-2.38
225.277	1.62
225.511	-4.38
225.746	2.62
225.98	10.62
226.215	16.62
226.449	2.62
226.683	9.62
226.918	14.62
227.152	44.62
227.387	43.62
227.621	33.62
227.856	49.62
228.09	58.62
228.324	44.62
228.559	64.62
228.793	66.62
229.027	66.62
229.262	74.62
229.496	60.62
229.73	68.62
229.964	84.62
230.199	76.62
230.433	76.62
230.667	87.62
230.901	75.62
231.136	84.62
231.37	74.62
231.604	82.62
231.838	75.62
232.072	77.62
232.306	94.62
232.541	91.62
232.775	83.62
233.009	86.62
233.243	80.62
233.477	83.62
233.711	94.62
233.945	90.62
234.179	94.62
234.413	79.62
234.647	87.62
234.881	83.62
235.115	72.62
235.349	84.62
235.583	86.62
235.817	86.62
236.051	79.62
236.285	92.62
236.519	102.62
236.753	81.62
236.987	87.62
237.221	74.62
237.455	80.62
237.689	80.62
237.922	65.62
238.156	70.62
238.39	56.62
238.624	67.62
238.858	67.62
239.091	72.62
239.325	71.62
239.559	82.62
239.793	87.62
240.027	92.62
240.26	89.62
240.494	81.62
240.728	62.62
240.961	93.62
241.195	84.62
241.429	87.62
241.662	75.62
241.896	66.62
242.13	84.62
242.363	77.62
242.597	86.62
242.83	67.62
243.064	79.62
243.298	83.62
243.531	83.62
243.765	79.62
243.998	78.62
244.232	72.62
244.465	82.62
244.699	83.62
244.932	82.62
245.166	90.62
245.399	75.62
245.633	92.62
245.866	76.62
246.099	86.62
246.333	83.62
246.566	82.62
246.8	87.62
247.033	75.62
247.266	87.62
247.5	81.62
247.733	94.62
247.966	82.62
248.2	88.62
248.433	72.62
248.666	69.62
248.899	89.62
249.133	94.62
249.366	62.62
249.599	75.62
249.832	82.62
250.066	77.62
250.299	64.62
250.532	87.62
250.765	78.62
250.998	72.62
251.231	94.62
251.465	76.62
251.698	91.62
251.931	76.62
252.164	72.62
252.397	69.62
252.63	79.62
252.863	72.62
253.096	71.62
253.329	79.62
253.562	60.62
253.795	83.62
254.028	90.62
254.261	86.62
254.494	84.62
254.727	81.62
254.96	91.62
255.193	94.62
255.426	78.62
255.659	81.62
255.892	88.62
256.124	93.62
256.357	76.62
256.59	88.62
256.823	84.62
257.056	78.62
257.289	92.62
257.521	79.62
257.754	91.62
257.987	72.62
258.22	92.62
258.452	78.62
258.685	72.62
258.918	81.62
259.151	89.62
259.383	79.62
259.616	75.62
259.849	70.62
260.081	93.62
260.314	88.62
260.547	75.62
260.779	98.62
261.012	85.62
261.244	94.62
261.477	84.62
261.71	81.62
261.942	82.62
262.175	82.62
262.407	71.62
262.64	91.62
262.872	90.62
263.105	72.62
263.337	86.62
263.57	86.62
263.802	82.62
264.035	87.62
264.267	77.62
264.499	85.62
264.732	84.62
264.964	78.62
265.197	75.62
265.429	80.62
265.661	90.62
265.894	86.62
266.126	91.62
266.358	80.62
266.591	82.62
266.823	87.62
267.055	74.62
267.287	84.62
267.52	92.62
267.752	74.62
267.984	88.62
268.216	98.62
268.448	86.62
268.681	82.62
268.913	88.62
269.145	112.62
269.377	87.62
269.609	98.62
269.841	79.62
270.073	93.62
270.306	87.62
270.538	80.62
270.77	80.62
271.002	81.62
271.234	91.62
271.466	82.62
271.698	83.62
271.93	72.62
272.162	87.62
272.394	80.62
272.626	81.62
272.858	93.62
273.09	65.62
273.322	90.62
273.553	89.62
273.785	86.62
274.017	89.62
274.249	88.62
274.481	78.62
274.713	79.62
274.945	83.62
275.176	96.62
275.408	84.62
275.64	82.62
275.872	84.62
276.104	103.62
276.335	86.62
276.567	80.62
276.799	80.62
277.031	81.62
277.262	81.62
277.494	83.62
277.726	71.62
277.957	87.62
278.189	74.62
278.421	101.62
278.652	81.62
278.884	92.62
279.115	80.62
279.347	89.62
279.579	76.62
279.81	65.62
280.042	82.62
280.273	92.62
280.505	70.62
280.736	79.62
280.968	75.62
281.199	79.62
281.431	97.62
281.662	66.62
281.894	83.62
282.125	71.62
282.356	85.62
282.588	91.62
282.819	91.62
283.051	83.62
283.282	92.62
283.513	87.62
283.745	79.62
283.976	81.62
284.207	76.62
284.439	90.62
284.67	83.62
284.901	86.62
285.132	75.62
285.364	85.62
285.595	77.62
285.826	88.62
286.057	75.62
286.288	82.62
286.52	83.62
286.751	90.62
286.982	101.62
287.213	72.62
287.444	96.62
287.675	97.62
287.906	86.62
288.138	86.62
288.369	91.62
288.6	96.62
288.831	92.62
289.062	95.62
289.293	82.62
289.524	82.62
289.755	71.62
289.986	87.62
290.217	83.62
290.448	89.62
290.679	90.62
290.91	85.62
291.141	80.62
291.371	96.62
291.602	85.62
291.833	90.62
292.064	84.62
292.295	99.62
292.526	89.62
292.757	80.62
292.987	88.62
293.218	90.62
293.449	78.62
293.68	83.62
293.91	84.62
294.141	82.62
294.372	85.62
294.603	91.62
294.833	99.62
295.064	77.62
295.295	93.62
295.525	69.62
295.756	82.62
295.987	82.62
296.217	90.62
296.448	87.62
296.679	91.62
296.909	79.62
297.14	81.62
297.37	90.62
297.601	93.62
297.831	74.62
298.062	96.62
298.292	81.62
298.523	92.62
298.753	95.62
298.984	86.62
299.214	92.62
299.445	87.62
299.675	88.62
299.905	92.62
300.136	92.62
300.366	79.62
300.597	90.62
300.827	90.62
301.057	93.62
301.288	86.62
301.518	75.62
301.748	83.62
301.979	98.62
302.209	97.62
302.439	104.62
302.669	68.62
302.9	78.62
303.13	78.62
303.36	80.62
303.59	86.62
303.82	84.62
304.051	80.62
304.281	97.62
304.511	97.62
304.741	99.62
304.971	83.62
305.201	91.62
305.431	75.62
305.661	86.62
305.891	79.62
306.121	95.62
306.352	79.62
306.582	82.62
306.812	86.62
307.042	94.62
307.272	72.62
307.502	93.62
307.731	88.62
307.961	91.62
308.191	87.62
308.421	95.62
308.651	88.62
308.881	90.62
309.111	99.62
309.341	86.62
309.571	79.62
309.8	78.62
310.03	97.62
310.26	94.62
310.49	94.62
310.72	66.62
310.949	87.62
311.179	87.62
311.409	95.62
311.639	79.62
311.868	89.62
312.098	82.62
312.328	87.62
312.557	82.62
312.787	80.62
313.017	95.62
313.246	76.62
313.476	74.62
313.706	104.62
313.935	87.62
314.165	86.62
314.394	90.62
314.624	83.62
314.853	99.62
315.083	76.62
315.312	89.62
315.542	92.62
315.771	94.62
316.001	86.62
316.23	89.62
316.46	83.62
316.689	86.62
316.919	81.62
317.148	95.62
317.377	98.62
317.607	90.62
317.836	82.62
318.065	92.62
318.295	98.62
318.524	92.62
318.753	97.62
318.983	92.62
319.212	78.62
319.441	74.62
319.67	80.62
319.9	82.62
320.129	90.62
320.358	95.62
320.587	77.62
320.816	82.62
321.046	100.62
321.275	81.62
321.504	88.62
321.733	82.62
321.962	85.62
322.191	94.62
322.42	72.62
322.649	92.62
322.878	83.62
323.108	84.62
323.337	91.62
323.566	91.62
323.795	96.62
324.024	90.62
324.253	81.62
324.482	81.62
324.71	78.62
324.939	93.62
325.168	92.62
325.397	94.62
325.626	82.62
325.855	94.62
326.084	106.62
326.313	88.62
326.542	93.62
326.77	77.62
326.999	88.62
327.228	87.62
327.457	92.62
327.686	95.62
327.914	84.62
328.143	92.62
328.372	95.62
328.6	91.62
328.829	83.62
329.058	85.62
329.287	93.62
329.515	81.62
329.744	86.62
329.972	82.62
330.201	86.62
330.43	87.62
330.658	82.62
330.887	92.62
331.115	91.62
331.344	87.62
331.572	95.62
331.801	92.62
332.03	86.62
332.258	68.62
332.486	88.62
332.715	90.62
332.943	85.62
333.172	86.62
333.4	90.62
333.629	95.62
333.857	87.62
334.085	85.62
334.314	85.62
334.542	94.62
334.771	84.62
334.999	89.62
335.227	80.62
335.455	85.62
335.684	93.62
335.912	82.62
336.14	80.62
336.369	90.62
336.597	86.62
336.825	75.62
337.053	90.62
337.281	81.62
337.51	78.62
337.738	87.62
337.966	87.62
338.194	90.62
338.422	77.62
338.65	86.62
338.878	80.62
339.106	90.62
339.334	83.62
339.562	82.62
339.79	88.62
340.018	84.62
340.246	78.62
340.474	97.62
340.702	88.62
340.93	92.62
341.158	84.62
341.386	78.62
341.614	84.62
341.842	90.62
342.07	81.62
342.298	98.62
342.526	75.62
342.754	79.62
342.981	87.62
343.209	72.62
343.437	88.62
343.665	92.62
343.893	92.62
344.12	96.62
344.348	85.62
344.576	84.62
344.804	82.62
345.031	74.62
345.259	79.62
345.487	82.62
345.714	91.62
345.942	95.62
346.17	104.62
346.397	84.62
346.625	96.62
346.853	82.62
347.08	87.62
347.308	82.62
347.535	74.62
347.763	78.62
347.99	84.62
348.218	84.62
348.445	81.62
348.673	80.62
348.9	91.62
349.128	93.62
349.355	81.62
349.583	85.62
349.81	68.62
350.037	78.62
350.265	87.62
350.492	90.62
350.72	83.62
350.947	102.62
351.174	97.62
351.402	84.62
351.629	92.62
351.856	84.62
352.083	81.62
352.311	88.62
352.538	84.62
352.765	76.62
352.992	83.62
353.22	83.62
353.447	91.62
353.674	85.62
353.901	84.62
354.128	83.62
354.355	74.62
354.583	103.62
354.81	84.62
355.037	79.62
355.264	87.62
355.491	86.62
355.718	95.62
355.945	82.62
356.172	82.62
356.399	80.62
356.626	79.62
356.853	79.62
357.08	93.62
357.307	98.62
357.534	80.62
357.761	91.62
357.988	93.62
358.215	82.62
358.441	87.62
358.668	77.62
358.895	79.62
359.122	81.62
359.349	87.62
359.576	83.62
359.802	86.62
360.029	86.62
360.256	87.62
360.483	79.62
360.709	89.62
360.936	78.62
361.163	74.62
361.39	98.62
361.616	87.62
361.843	94.62
362.07	81.62
362.296	85.62
362.523	78.62
362.749	87.62
362.976	94.62
363.203	76.62
363.429	80.62
363.656	87.62
363.882	79.62
364.109	85.62
364.335	103.62
364.562	96.62
364.788	87.62
365.015	79.62
365.241	72.62
365.468	85.62
365.694	81.62
365.92	78.62
366.147	89.62
366.373	92.62
366.599	76.62
366.826	100.62
367.052	82.62
367.278	87.62
367.505	83.62
367.731	93.62
367.957	96.62
368.184	91.62
368.41	91.62
368.636	89.62
368.862	92.62
369.089	87.62
369.315	78.62
369.541	90.62
369.767	70.62
369.993	93.62
370.219	77.62
370.445	68.62
370.672	74.62
370.898	84.62
371.124	81.62
371.35	82.62
371.576	82.62
371.802	85.62
372.028	84.62
372.254	75.62
372.48	82.62
372.706	83.62
372.932	72.62
373.158	81.62
373.384	76.62
373.61	97.62
373.835	95.62
374.061	87.62
374.287	90.62
374.513	83.62
374.739	75.62
374.965	91.62
375.191	111.62
375.416	94.62
375.642	89.62
375.868	96.62
376.094	72.62
376.319	78.62
376.545	88.62
376.771	90.62
376.997	88.62
377.222	75.62
377.448	90.62
377.674	86.62
377.899	91.62
378.125	88.62
378.35	74.62
378.576	81.62
378.802	100.62
379.027	84.62
379.253	86.62
379.478	92.62
379.704	98.62
379.929	89.62
380.155	83.62
380.38	104.62
380.606	71.62
380.831	97.62
381.057	95.62
381.282	79.62
381.507	87.62
381.733	76.62
381.958	90.62
382.184	82.62
382.409	82.62
382.634	83.62
382.86	82.62
383.085	85.62
383.31	82.62
383.535	82.62
383.761	87.62
383.986	74.62
384.211	73.62
384.436	83.62
384.662	78.62
384.887	88.62
385.112	84.62
385.337	83.62
385.562	90.62
385.787	82.62
386.013	85.62
386.238	74.62
386.463	89.62
386.688	114.62
386.913	78.62
387.138	98.62
387.363	91.62
387.588	84.62
387.813	91.62
388.038	80.62
388.263	88.62
388.488	79.62
388.713	92.62
388.938	83.62
389.163	66.62
389.387	87.62
389.612	87.62
389.837	94.62
390.062	86.62
390.287	75.62
390.512	78.62
390.736	95.62
390.961	84.62
391.186	78.62
391.411	80.62
391.636	87.62
391.86	90.62
392.085	89.62
392.31	82.62
392.534	84.62
392.759	90.62
392.984	95.62
393.208	80.62
393.433	78.62
393.658	101.62
393.882	82.62
394.107	73.62
394.331	82.62
394.556	90.62
394.78	91.62
395.005	98.62
395.229	72.62
395.454	79.62
395.678	90.62
395.903	97.62
396.127	97.62
396.352	84.62
396.576	81.62
396.801	104.62
397.025	91.62
397.249	83.62
397.474	89.62
397.698	88.62
397.922	91.62
398.147	68.62
398.371	82.62
398.595	80.62
398.82	83.62
399.044	87.62
399.268	88.62
399.492	76.62
399.717	81.62
399.941	81.62
400.165	71.62
400.389	94.62
400.613	80.62
400.837	96.62
401.062	81.62
401.286	89.62
401.51	76.62
401.734	89.62
401.958	85.62
402.182	94.62
402.406	74.62
402.63	79.62
402.854	64.62
403.078	83.62
403.302	86.62
403.526	83.62
403.75	97.62
403.974	95.62
404.198	87.62
404.422	82.62
404.645	65.62
404.869	92.62
405.093	80.62
405.317	90.62
405.541	85.62
405.765	93.62
405.988	96.62
406.212	75.62
406.436	80.62
406.66	77.62
406.883	82.62
407.107	79.62
407.331	87.62
407.555	92.62
407.778	83.62
408.002	83.62
408.226	89.62
408.449	82.62
408.673	88.62
408.896	92.62
409.12	87.62
409.344	87.62
409.567	91.62
409.791	72.62
410.014	88.62
410.238	81.62
410.461	94.62
410.685	79.62
410.908	72.62
411.132	94.62
411.355	85.62
411.578	74.62
411.802	82.62
412.025	75.62
412.249	88.62
412.472	80.62
412.695	99.62
412.919	95.62
413.142	82.62
413.365	82.62
413.589	76.62
413.812	90.62
414.035	90.62
414.258	75.62
414.482	78.62
414.705	82.62
414.928	79.62
415.151	87.62
415.374	91.62
415.597	86.62
415.821	89.62
416.044	76.62
416.267	88.62
416.49	88.62
416.713	75.62
416.936	75.62
417.159	93.62
417.382	93.62
417.605	74.62
417.828	93.62
418.051	79.62
418.274	76.62
418.497	88.62
418.72	67.62
418.943	74.62
419.166	87.62
419.389	88.62
419.611	86.62
419.834	87.62
420.057	78.62
420.28	90.62
420.503	88.62
420.726	78.62
420.948	68.62
421.171	81.62
421.394	78.62
421.617	73.62
421.839	92.62
422.062	88.62
422.285	108.62
422.507	114.62
422.73	98.62
422.953	94.62
423.175	77.62
423.398	100.62
423.621	76.62
423.843	68.62
424.066	87.62
424.288	88.62
424.511	86.62
424.733	88.62
424.956	80.62
425.178	86.62
425.401	75.62
425.623	86.62
425.846	83.62
426.068	80.62
426.291	93.62
426.513	77.62
426.735	71.62
426.958	70.62
427.18	74.62
427.402	73.62
427.625	76.62
427.847	84.62
428.069	79.62
428.292	96.62
428.514	86.62
428.736	100.62
428.958	89.62
429.181	74.62
429.403	87.62
429.625	83.62
429.847	88.62
430.069	103.62
430.292	99.62
430.514	88.62
430.736	92.62
430.958	96.62
431.18	74.62
431.402	84.62
431.624	81.62
431.846	83.62
432.068	72.62
432.29	80.62
432.512	80.62
432.734	94.62
432.956	89.62
433.178	85.62
433.4	78.62
433.622	90.62
433.844	97.62
434.066	80.62
434.287	74.62
434.509	86.62
434.731	87.62
434.953	84.62
435.175	64.62
435.397	82.62
435.618	85.62
435.84	90.62
436.062	74.62
436.284	74.62
436.505	91.62
436.727	89.62
436.949	91.62
437.17	63.62
437.392	76.62
437.614	76.62
437.835	66.62
438.057	84.62
438.278	91.62
438.5	80.62
438.721	76.62
438.943	104.62
439.165	89.62
439.386	84.62
439.608	86.62
439.829	82.62
440.05	88.62
440.272	92.62
440.493	76.62
440.715	89.62
440.936	82.62
441.158	82.62
441.379	89.62
441.6	70.62
441.822	91.62
442.043	85.62
442.264	74.62
442.486	82.62
442.707	94.62
442.928	91.62
443.149	92.62
443.371	82.62
443.592	89.62
443.813	99.62
444.034	81.62
444.255	84.62
444.476	84.62
444.698	81.62
444.919	79.62
445.14	149.62
445.361	122.62
445.582	102.62
445.803	97.62
446.024	75.62
446.245	84.62
446.466	89.62
446.687	88.62
446.908	95.62
447.129	86.62
447.35	92.62
447.571	86.62
447.792	82.62
448.013	75.62
448.234	79.62
448.455	91.62
448.675	60.62
448.896	89.62
449.117	80.62
449.338	79.62
449.559	92.62
449.779	94.62
450	88.62
450.221	81.62
450.442	87.62
450.662	77.62
450.883	84.62
451.104	79.62
451.324	68.62
451.545	65.62
451.766	81.62
451.986	82.62
452.207	74.62
452.428	82.62
452.648	84.62
452.869	84.62
453.089	88.62
453.31	78.62
453.53	91.62
453.751	86.62
453.971	86.62
454.192	94.62
454.412	75.62
454.633	84.62
454.853	75.62
455.073	78.62
455.294	73.62
455.514	74.62
455.734	79.62
455.955	89.62
456.175	81.62
456.395	94.62
456.616	77.62
456.836	78.62
457.056	81.62
457.276	84.62
457.497	81.62
457.717	81.62
457.937	95.62
458.157	87.62
458.377	87.62
458.598	80.62
458.818	87.62
459.038	93.62
459.258	88.62
459.478	79.62
459.698	89.62
459.918	97.62
460.138	93.62
460.358	81.62
460.578	93.62
460.798	90.62
461.018	88.62
461.238	91.62
461.458	90.62
461.678	74.62
461.898	81.62
462.118	81.62
462.338	73.62
462.558	87.62
462.777	85.62
462.997	89.62
463.217	73.62
463.437	91.62
463.657	87.62
463.876	89.62
464.096	81.62
464.316	84.62
464.536	84.62
464.755	98.62
464.975	79.62
465.195	81.62
465.414	91.62
465.634	100.62
465.854	86.62
466.073	81.62
466.293	85.62
466.512	86.62
466.732	82.62
466.951	82.62
467.171	95.62
467.391	76.62
467.61	83.62
467.829	76.62
468.049	91.62
468.268	82.62
468.488	90.62
468.707	80.62
468.927	90.62
469.146	72.62
469.365	92.62
469.585	83.62
469.804	93.62
470.023	81.62
470.243	88.62
470.462	101.62
470.681	91.62
470.901	76.62
471.12	87.62
471.339	92.62
471.558	77.62
471.777	78.62
471.997	90.62
472.216	85.62
472.435	86.62
472.654	83.62
472.873	90.62
473.092	80.62
473.311	90.62
473.53	77.62
473.749	73.62
473.968	100.62
474.187	69.62
474.406	92.62
474.625	95.62
474.844	74.62
475.063	93.62
475.282	89.62
475.501	60.62
475.72	93.62
475.939	85.62
476.158	70.62
476.377	92.62
476.596	83.62
476.814	89.62
477.033	84.62
477.252	88.62
477.471	96.62
477.69	76.62
477.908	82.62
478.127	81.62
478.346	78.62
478.564	84.62
478.783	84.62
479.002	78.62
479.22	84.62
479.439	88.62
479.658	94.62
479.876	79.62
480.095	78.62
480.313	80.62
480.532	91.62
480.751	96.62
480.969	67.62
481.188	86.62
481.406	84.62
481.624	89.62
481.843	88.62
482.061	85.62
482.28	82.62
482.498	81.62
482.717	77.62
482.935	94.62
483.153	94.62
483.372	80.62
483.59	84.62
483.808	74.62
484.027	86.62
484.245	76.62
484.463	88.62
484.681	96.62
484.9	77.62
485.118	93.62
485.336	87.62
485.554	87.62
485.772	84.62
485.99	88.62
486.209	77.62
486.427	73.62
486.645	81.62
486.863	73.62
487.081	84.62
487.299	84.62
487.517	93.62
487.735	80.62
487.953	82.62
488.171	98.62
488.389	84.62
488.607	82.62
488.825	75.62
489.043	72.62
489.261	75.62
489.479	82.62
489.696	88.62
489.914	76.62
490.132	80.62
490.35	81.62
490.568	82.62
490.786	88.62
491.003	74.62
491.221	94.62
491.439	92.62
491.657	84.62
491.874	91.62
492.092	74.62
492.31	97.62
492.527	84.62
492.745	94.62
492.963	86.62
493.18	93.62
493.398	83.62
493.615	94.62
493.833	77.62
494.05	84.62
494.268	95.62
494.485	94.62
494.703	84.62
494.92	108.62
495.138	78.62
495.355	100.62
495.573	82.62
495.79	83.62
496.008	83.62
496.225	91.62
496.442	80.62
496.66	86.62
496.877	91.62
497.094	86.62
497.312	71.62
497.529	85.62
497.746	94.62
497.963	93.62
498.181	84.62
498.398	86.62
498.615	77.62
498.832	78.62
499.049	88.62
499.267	92.62
499.484	89.62
499.701	83.62
499.918	90.62
500.135	82.62
500.352	86.62
500.569	91.62
500.786	90.62
501.003	66.62
501.22	82.62
501.437	71.62
501.654	88.62
501.871	80.62
502.088	88.62
502.305	76.62
502.522	76.62
502.739	86.62
502.956	64.62
503.172	81.62
503.389	87.62
503.606	70.62
503.823	64.62
504.04	88.62
504.256	83.62
504.473	81.62
504.69	78.62
504.907	89.62
505.123	69.62
505.34	88.62
505.557	87.62
505.773	83.62
505.99	88.62
506.207	77.62
506.423	87.62
506.64	104.62
506.856	80.62
507.073	85.62
507.289	88.62
507.506	85.62
507.722	80.62
507.939	95.62
508.155	94.62
508.372	76.62
508.588	87.62
508.805	80.62
509.021	89.62
509.238	86.62
509.454	88.62
509.67	83.62
509.887	81.62
510.103	92.62
510.319	82.62
510.536	82.62
510.752	92.62
510.968	92.62
511.184	99.62
511.401	89.62
511.617	87.62
511.833	75.62
512.049	75.62
512.265	87.62
512.481	104.62
512.698	91.62
512.914	84.62
513.13	85.62
513.346	77.62
513.562	87.62
513.778	86.62
513.994	100.62
514.21	93.62
514.426	91.62
514.642	103.62
514.858	90.62
515.074	93.62
515.29	86.62
515.506	80.62
515.721	88.62
515.937	76.62
516.153	82.62
516.369	89.62
516.585	83.62
516.801	97.62
517.016	88.62
517.232	95.62
517.448	80.62
517.664	74.62
517.879	69.62
518.095	75.62
518.311	79.62
518.527	97.62
518.742	72.62
518.958	91.62
519.173	77.62
519.389	88.62
519.605	77.62
519.82	96.62
