Data from Dirtnoheat2_HRD10591_00001.txt Node
Date: Fri Dec 27 15:19:39 EST 2024
User: Yrep
Spectrometer: HR+D1059
Trigger mode: 1
Integration Time (sec): 1.000000E-1
Scans to average: 1
Electric dark correction enabled: true
Nonlinearity correction enabled: false
Boxcar width: 0
XAxis mode: Wavelengths
Number of Pixels in Spectrum: 2048
>>>>>Begin Spectral Data<<<<<
223.165	-18.56
223.4	-18.56
223.635	-18.56
223.869	-32.56
224.104	-26.56
224.338	-3.56
224.573	-17.56
224.808	-16.56
225.042	-11.56
225.277	9.44
225.511	-6.56
225.746	9.44
225.98	13.44
226.215	14.44
226.449	19.44
226.683	18.44
226.918	24.44
227.152	24.44
227.387	39.44
227.621	27.44
227.856	47.44
228.09	45.44
228.324	44.44
228.559	42.44
228.793	64.44
229.027	69.44
229.262	83.44
229.496	66.44
229.73	65.44
229.964	67.44
230.199	72.44
230.433	70.44
230.667	69.44
230.901	70.44
231.136	78.44
231.37	71.44
231.604	81.44
231.838	95.44
232.072	76.44
232.306	74.44
232.541	81.44
232.775	69.44
233.009	85.44
233.243	64.44
233.477	93.44
233.711	75.44
233.945	90.44
234.179	79.44
234.413	95.44
234.647	67.44
234.881	83.44
235.115	77.44
235.349	75.44
235.583	74.44
235.817	84.44
236.051	73.44
236.285	81.44
236.519	69.44
236.753	85.44
236.987	79.44
237.221	80.44
237.455	70.44
237.689	85.44
237.922	70.44
238.156	71.44
238.39	82.44
238.624	79.44
238.858	71.44
239.091	74.44
239.325	72.44
239.559	67.44
239.793	65.44
240.027	78.44
240.26	77.44
240.494	84.44
240.728	79.44
240.961	76.44
241.195	71.44
241.429	61.44
241.662	77.44
241.896	63.44
242.13	71.44
242.363	81.44
242.597	65.44
242.83	66.44
243.064	79.44
243.298	79.44
243.531	66.44
243.765	84.44
243.998	73.44
244.232	72.44
244.465	68.44
244.699	68.44
244.932	77.44
245.166	61.44
245.399	78.44
245.633	76.44
245.866	83.44
246.099	78.44
246.333	71.44
246.566	79.44
246.8	70.44
247.033	71.44
247.266	65.44
247.5	77.44
247.733	65.44
247.966	87.44
248.2	75.44
248.433	86.44
248.666	78.44
248.899	87.44
249.133	66.44
249.366	76.44
249.599	76.44
249.832	68.44
250.066	85.44
250.299	71.44
250.532	86.44
250.765	77.44
250.998	89.44
251.231	60.44
251.465	68.44
251.698	80.44
251.931	68.44
252.164	79.44
252.397	79.44
252.63	69.44
252.863	79.44
253.096	81.44
253.329	93.44
253.562	84.44
253.795	86.44
254.028	85.44
254.261	74.44
254.494	82.44
254.727	89.44
254.96	81.44
255.193	85.44
255.426	70.44
255.659	87.44
255.892	79.44
256.124	78.44
256.357	73.44
256.59	69.44
256.823	71.44
257.056	92.44
257.289	62.44
257.521	82.44
257.754	78.44
257.987	83.44
258.22	73.44
258.452	85.44
258.685	78.44
258.918	80.44
259.151	84.44
259.383	85.44
259.616	70.44
259.849	85.44
260.081	88.44
260.314	73.44
260.547	76.44
260.779	61.44
261.012	78.44
261.244	82.44
261.477	70.44
261.71	79.44
261.942	78.44
262.175	92.44
262.407	76.44
262.64	79.44
262.872	88.44
263.105	71.44
263.337	80.44
263.57	74.44
263.802	72.44
264.035	64.44
264.267	74.44
264.499	76.44
264.732	80.44
264.964	87.44
265.197	75.44
265.429	72.44
265.661	76.44
265.894	72.44
266.126	88.44
266.358	85.44
266.591	75.44
266.823	83.44
267.055	73.44
267.287	75.44
267.52	91.44
267.752	80.44
267.984	81.44
268.216	69.44
268.448	81.44
268.681	75.44
268.913	86.44
269.145	85.44
269.377	96.44
269.609	71.44
269.841	84.44
270.073	72.44
270.306	88.44
270.538	69.44
270.77	80.44
271.002	79.44
271.234	77.44
271.466	76.44
271.698	77.44
271.93	83.44
272.162	81.44
272.394	84.44
272.626	69.44
272.858	78.44
273.09	87.44
273.322	90.44
273.553	86.44
273.785	67.44
274.017	79.44
274.249	73.44
274.481	84.44
274.713	70.44
274.945	77.44
275.176	92.44
275.408	72.44
275.64	87.44
275.872	77.44
276.104	73.44
276.335	77.44
276.567	76.44
276.799	96.44
277.031	66.44
277.262	83.44
277.494	84.44
277.726	74.44
277.957	76.44
278.189	93.44
278.421	79.44
278.652	90.44
278.884	70.44
279.115	96.44
279.347	78.44
279.579	79.44
279.81	72.44
280.042	83.44
280.273	97.44
280.505	83.44
280.736	78.44
280.968	77.44
281.199	80.44
281.431	76.44
281.662	91.44
281.894	84.44
282.125	87.44
282.356	91.44
282.588	70.44
282.819	83.44
283.051	77.44
283.282	75.44
283.513	87.44
283.745	87.44
283.976	89.44
284.207	83.44
284.439	84.44
284.67	79.44
284.901	90.44
285.132	87.44
285.364	89.44
285.595	75.44
285.826	80.44
286.057	87.44
286.288	87.44
286.52	77.44
286.751	89.44
286.982	86.44
287.213	74.44
287.444	83.44
287.675	86.44
287.906	76.44
288.138	91.44
288.369	85.44
288.6	83.44
288.831	80.44
289.062	75.44
289.293	73.44
289.524	88.44
289.755	85.44
289.986	84.44
290.217	76.44
290.448	85.44
290.679	70.44
290.91	84.44
291.141	69.44
291.371	87.44
291.602	91.44
291.833	97.44
292.064	78.44
292.295	88.44
292.526	90.44
292.757	83.44
292.987	92.44
293.218	77.44
293.449	92.44
293.68	89.44
293.91	84.44
294.141	83.44
294.372	76.44
294.603	84.44
294.833	91.44
295.064	75.44
295.295	79.44
295.525	89.44
295.756	74.44
295.987	82.44
296.217	86.44
296.448	85.44
296.679	89.44
296.909	85.44
297.14	79.44
297.37	69.44
297.601	78.44
297.831	81.44
298.062	83.44
298.292	85.44
298.523	74.44
298.753	87.44
298.984	91.44
299.214	85.44
299.445	84.44
299.675	73.44
299.905	83.44
300.136	94.44
300.366	81.44
300.597	91.44
300.827	79.44
301.057	78.44
301.288	78.44
301.518	89.44
301.748	84.44
301.979	104.44
302.209	81.44
302.439	80.44
302.669	70.44
302.9	74.44
303.13	71.44
303.36	67.44
303.59	79.44
303.82	90.44
304.051	88.44
304.281	73.44
304.511	100.44
304.741	89.44
304.971	85.44
305.201	92.44
305.431	91.44
305.661	86.44
305.891	76.44
306.121	83.44
306.352	91.44
306.582	99.44
306.812	101.44
307.042	79.44
307.272	79.44
307.502	92.44
307.731	91.44
307.961	85.44
308.191	88.44
308.421	72.44
308.651	72.44
308.881	76.44
309.111	86.44
309.341	87.44
309.571	77.44
309.8	78.44
310.03	89.44
310.26	83.44
310.49	63.44
310.72	92.44
310.949	81.44
311.179	91.44
311.409	82.44
311.639	90.44
311.868	80.44
312.098	79.44
312.328	80.44
312.557	95.44
312.787	75.44
313.017	96.44
313.246	87.44
313.476	79.44
313.706	80.44
313.935	75.44
314.165	72.44
314.394	71.44
314.624	79.44
314.853	97.44
315.083	87.44
315.312	84.44
315.542	75.44
315.771	90.44
316.001	83.44
316.23	101.44
316.46	93.44
316.689	72.44
316.919	83.44
317.148	73.44
317.377	90.44
317.607	101.44
317.836	73.44
318.065	74.44
318.295	86.44
318.524	76.44
318.753	94.44
318.983	79.44
319.212	79.44
319.441	87.44
319.67	73.44
319.9	69.44
320.129	76.44
320.358	81.44
320.587	74.44
320.816	88.44
321.046	88.44
321.275	88.44
321.504	90.44
321.733	81.44
321.962	82.44
322.191	69.44
322.42	76.44
322.649	76.44
322.878	78.44
323.108	90.44
323.337	97.44
323.566	83.44
323.795	84.44
324.024	86.44
324.253	89.44
324.482	82.44
324.71	92.44
324.939	87.44
325.168	80.44
325.397	79.44
325.626	78.44
325.855	93.44
326.084	84.44
326.313	96.44
326.542	89.44
326.77	86.44
326.999	70.44
327.228	97.44
327.457	82.44
327.686	68.44
327.914	77.44
328.143	89.44
328.372	79.44
328.6	69.44
328.829	72.44
329.058	76.44
329.287	87.44
329.515	77.44
329.744	91.44
329.972	95.44
330.201	89.44
330.43	82.44
330.658	91.44
330.887	87.44
331.115	82.44
331.344	85.44
331.572	74.44
331.801	87.44
332.03	82.44
332.258	88.44
332.486	84.44
332.715	88.44
332.943	84.44
333.172	79.44
333.4	76.44
333.629	96.44
333.857	93.44
334.085	90.44
334.314	92.44
334.542	88.44
334.771	81.44
334.999	82.44
335.227	79.44
335.455	89.44
335.684	99.44
335.912	94.44
336.14	105.44
336.369	99.44
336.597	84.44
336.825	81.44
337.053	77.44
337.281	74.44
337.51	92.44
337.738	101.44
337.966	83.44
338.194	83.44
338.422	83.44
338.65	87.44
338.878	85.44
339.106	75.44
339.334	89.44
339.562	83.44
339.79	76.44
340.018	88.44
340.246	83.44
340.474	83.44
340.702	80.44
340.93	85.44
341.158	92.44
341.386	78.44
341.614	75.44
341.842	68.44
342.07	79.44
342.298	87.44
342.526	86.44
342.754	85.44
342.981	90.44
343.209	83.44
343.437	101.44
343.665	83.44
343.893	88.44
344.12	90.44
344.348	91.44
344.576	81.44
344.804	81.44
345.031	84.44
345.259	79.44
345.487	87.44
345.714	75.44
345.942	99.44
346.17	78.44
346.397	88.44
346.625	89.44
346.853	87.44
347.08	78.44
347.308	88.44
347.535	79.44
347.763	84.44
347.99	90.44
348.218	89.44
348.445	88.44
348.673	86.44
348.9	87.44
349.128	81.44
349.355	93.44
349.583	103.44
349.81	78.44
350.037	77.44
350.265	78.44
350.492	75.44
350.72	79.44
350.947	82.44
351.174	88.44
351.402	87.44
351.629	86.44
351.856	80.44
352.083	69.44
352.311	108.44
352.538	92.44
352.765	85.44
352.992	86.44
353.22	79.44
353.447	69.44
353.674	91.44
353.901	90.44
354.128	93.44
354.355	84.44
354.583	86.44
354.81	90.44
355.037	87.44
355.264	60.44
355.491	90.44
355.718	86.44
355.945	80.44
356.172	63.44
356.399	78.44
356.626	75.44
356.853	87.44
357.08	83.44
357.307	90.44
357.534	69.44
357.761	79.44
357.988	87.44
358.215	85.44
358.441	90.44
358.668	86.44
358.895	87.44
359.122	85.44
359.349	95.44
359.576	83.44
359.802	80.44
360.029	75.44
360.256	89.44
360.483	82.44
360.709	90.44
360.936	80.44
361.163	84.44
361.39	79.44
361.616	89.44
361.843	95.44
362.07	84.44
362.296	97.44
362.523	90.44
362.749	84.44
362.976	99.44
363.203	85.44
363.429	85.44
363.656	95.44
363.882	90.44
364.109	90.44
364.335	87.44
364.562	89.44
364.788	75.44
365.015	77.44
365.241	87.44
365.468	88.44
365.694	78.44
365.92	97.44
366.147	84.44
366.373	80.44
366.599	78.44
366.826	85.44
367.052	79.44
367.278	88.44
367.505	94.44
367.731	92.44
367.957	83.44
368.184	90.44
368.41	98.44
368.636	88.44
368.862	82.44
369.089	104.44
369.315	69.44
369.541	94.44
369.767	77.44
369.993	64.44
370.219	74.44
370.445	76.44
370.672	85.44
370.898	85.44
371.124	76.44
371.35	77.44
371.576	71.44
371.802	90.44
372.028	86.44
372.254	72.44
372.48	84.44
372.706	76.44
372.932	91.44
373.158	76.44
373.384	97.44
373.61	93.44
373.835	92.44
374.061	86.44
374.287	81.44
374.513	72.44
374.739	80.44
374.965	75.44
375.191	76.44
375.416	72.44
375.642	80.44
375.868	95.44
376.094	72.44
376.319	100.44
376.545	90.44
376.771	87.44
376.997	76.44
377.222	75.44
377.448	83.44
377.674	90.44
377.899	87.44
378.125	77.44
378.35	84.44
378.576	84.44
378.802	86.44
379.027	80.44
379.253	88.44
379.478	88.44
379.704	71.44
379.929	76.44
380.155	91.44
380.38	80.44
380.606	80.44
380.831	81.44
381.057	84.44
381.282	76.44
381.507	85.44
381.733	87.44
381.958	88.44
382.184	72.44
382.409	85.44
382.634	86.44
382.86	84.44
383.085	75.44
383.31	83.44
383.535	77.44
383.761	83.44
383.986	85.44
384.211	66.44
384.436	69.44
384.662	80.44
384.887	76.44
385.112	84.44
385.337	89.44
385.562	77.44
385.787	83.44
386.013	89.44
386.238	72.44
386.463	79.44
386.688	101.44
386.913	81.44
387.138	97.44
387.363	92.44
387.588	88.44
387.813	77.44
388.038	86.44
388.263	79.44
388.488	90.44
388.713	75.44
388.938	80.44
389.163	78.44
389.387	65.44
389.612	70.44
389.837	79.44
390.062	78.44
390.287	70.44
390.512	80.44
390.736	68.44
390.961	75.44
391.186	84.44
391.411	74.44
391.636	80.44
391.86	85.44
392.085	88.44
392.31	83.44
392.534	87.44
392.759	87.44
392.984	94.44
393.208	111.44
393.433	107.44
393.658	79.44
393.882	81.44
394.107	78.44
394.331	82.44
394.556	78.44
394.78	86.44
395.005	93.44
395.229	75.44
395.454	79.44
395.678	85.44
395.903	69.44
396.127	80.44
396.352	89.44
396.576	88.44
396.801	105.44
397.025	104.44
397.249	67.44
397.474	92.44
397.698	100.44
397.922	83.44
398.147	84.44
398.371	102.44
398.595	93.44
398.82	87.44
399.044	74.44
399.268	91.44
399.492	83.44
399.717	88.44
399.941	74.44
400.165	70.44
400.389	84.44
400.613	82.44
400.837	76.44
401.062	89.44
401.286	91.44
401.51	85.44
401.734	85.44
401.958	78.44
402.182	86.44
402.406	93.44
402.63	75.44
402.854	85.44
403.078	85.44
403.302	91.44
403.526	85.44
403.75	91.44
403.974	91.44
404.198	89.44
404.422	74.44
404.645	67.44
404.869	71.44
405.093	70.44
405.317	87.44
405.541	76.44
405.765	81.44
405.988	74.44
406.212	74.44
406.436	93.44
406.66	83.44
406.883	81.44
407.107	94.44
407.331	91.44
407.555	85.44
407.778	87.44
408.002	82.44
408.226	73.44
408.449	80.44
408.673	71.44
408.896	85.44
409.12	75.44
409.344	68.44
409.567	86.44
409.791	85.44
410.014	74.44
410.238	74.44
410.461	90.44
410.685	86.44
410.908	86.44
411.132	78.44
411.355	73.44
411.578	83.44
411.802	72.44
412.025	76.44
412.249	80.44
412.472	79.44
412.695	84.44
412.919	73.44
413.142	75.44
413.365	83.44
413.589	83.44
413.812	82.44
414.035	87.44
414.258	75.44
414.482	94.44
414.705	96.44
414.928	76.44
415.151	75.44
415.374	78.44
415.597	91.44
415.821	82.44
416.044	90.44
416.267	69.44
416.49	70.44
416.713	89.44
416.936	88.44
417.159	84.44
417.382	90.44
417.605	81.44
417.828	95.44
418.051	91.44
418.274	89.44
418.497	82.44
418.72	75.44
418.943	79.44
419.166	74.44
419.389	75.44
419.611	92.44
419.834	73.44
420.057	84.44
420.28	89.44
420.503	72.44
420.726	91.44
420.948	75.44
421.171	82.44
421.394	75.44
421.617	86.44
421.839	89.44
422.062	93.44
422.285	82.44
422.507	107.44
422.73	95.44
422.953	113.44
423.175	105.44
423.398	85.44
423.621	89.44
423.843	72.44
424.066	111.44
424.288	96.44
424.511	82.44
424.733	94.44
424.956	77.44
425.178	84.44
425.401	80.44
425.623	66.44
425.846	79.44
426.068	83.44
426.291	74.44
426.513	72.44
426.735	86.44
426.958	77.44
427.18	87.44
427.402	75.44
427.625	77.44
427.847	78.44
428.069	83.44
428.292	74.44
428.514	85.44
428.736	89.44
428.958	84.44
429.181	89.44
429.403	90.44
429.625	89.44
429.847	74.44
430.069	64.44
430.292	100.44
430.514	105.44
430.736	87.44
430.958	83.44
431.18	80.44
431.402	79.44
431.624	93.44
431.846	81.44
432.068	96.44
432.29	82.44
432.512	97.44
432.734	83.44
432.956	86.44
433.178	73.44
433.4	75.44
433.622	97.44
433.844	86.44
434.066	85.44
434.287	65.44
434.509	77.44
434.731	92.44
434.953	93.44
435.175	82.44
435.397	87.44
435.618	93.44
435.84	89.44
436.062	83.44
436.284	74.44
436.505	70.44
436.727	77.44
436.949	76.44
437.17	81.44
437.392	89.44
437.614	83.44
437.835	81.44
438.057	72.44
438.278	94.44
438.5	85.44
438.721	64.44
438.943	95.44
439.165	96.44
439.386	76.44
439.608	69.44
439.829	84.44
440.05	87.44
440.272	89.44
440.493	86.44
440.715	81.44
440.936	74.44
441.158	86.44
441.379	86.44
441.6	90.44
441.822	69.44
442.043	84.44
442.264	88.44
442.486	80.44
442.707	96.44
442.928	63.44
443.149	85.44
443.371	96.44
443.592	88.44
443.813	108.44
444.034	77.44
444.255	94.44
444.476	89.44
444.698	77.44
444.919	76.44
445.14	140.44
445.361	129.44
445.582	96.44
445.803	91.44
446.024	82.44
446.245	90.44
446.466	83.44
446.687	71.44
446.908	80.44
447.129	92.44
447.35	85.44
447.571	83.44
447.792	77.44
448.013	89.44
448.234	73.44
448.455	82.44
448.675	71.44
448.896	77.44
449.117	107.44
449.338	81.44
449.559	86.44
449.779	75.44
450	87.44
450.221	76.44
450.442	85.44
450.662	90.44
450.883	79.44
451.104	90.44
451.324	94.44
451.545	78.44
451.766	93.44
451.986	78.44
452.207	87.44
452.428	92.44
452.648	74.44
452.869	73.44
453.089	72.44
453.31	70.44
453.53	80.44
453.751	90.44
453.971	91.44
454.192	86.44
454.412	66.44
454.633	76.44
454.853	64.44
455.073	86.44
455.294	95.44
455.514	90.44
455.734	75.44
455.955	81.44
456.175	69.44
456.395	78.44
456.616	79.44
456.836	78.44
457.056	81.44
457.276	89.44
457.497	80.44
457.717	79.44
457.937	79.44
458.157	100.44
458.377	90.44
458.598	81.44
458.818	87.44
459.038	92.44
459.258	77.44
459.478	87.44
459.698	71.44
459.918	70.44
460.138	87.44
460.358	84.44
460.578	65.44
460.798	102.44
461.018	89.44
461.238	83.44
461.458	80.44
461.678	72.44
461.898	76.44
462.118	71.44
462.338	74.44
462.558	89.44
462.777	82.44
462.997	84.44
463.217	84.44
463.437	59.44
463.657	79.44
463.876	79.44
464.096	76.44
464.316	81.44
464.536	83.44
464.755	72.44
464.975	93.44
465.195	75.44
465.414	79.44
465.634	81.44
465.854	77.44
466.073	73.44
466.293	80.44
466.512	79.44
466.732	77.44
466.951	87.44
467.171	77.44
467.391	80.44
467.61	81.44
467.829	86.44
468.049	86.44
468.268	83.44
468.488	90.44
468.707	72.44
468.927	91.44
469.146	81.44
469.365	82.44
469.585	96.44
469.804	72.44
470.023	79.44
470.243	88.44
470.462	86.44
470.681	80.44
470.901	85.44
471.12	86.44
471.339	73.44
471.558	88.44
471.777	82.44
471.997	85.44
472.216	95.44
472.435	83.44
472.654	72.44
472.873	75.44
473.092	71.44
473.311	70.44
473.53	87.44
473.749	72.44
473.968	77.44
474.187	75.44
474.406	89.44
474.625	91.44
474.844	92.44
475.063	69.44
475.282	78.44
475.501	70.44
475.72	102.44
475.939	84.44
476.158	90.44
476.377	82.44
476.596	77.44
476.814	87.44
477.033	81.44
477.252	82.44
477.471	79.44
477.69	74.44
477.908	78.44
478.127	93.44
478.346	83.44
478.564	69.44
478.783	79.44
479.002	85.44
479.22	87.44
479.439	73.44
479.658	87.44
479.876	87.44
480.095	89.44
480.313	89.44
480.532	92.44
480.751	86.44
480.969	101.44
481.188	86.44
481.406	78.44
481.624	88.44
481.843	97.44
482.061	90.44
482.28	86.44
482.498	83.44
482.717	74.44
482.935	86.44
483.153	87.44
483.372	85.44
483.59	85.44
483.808	89.44
484.027	80.44
484.245	75.44
484.463	76.44
484.681	79.44
484.9	78.44
485.118	76.44
485.336	83.44
485.554	85.44
485.772	103.44
485.99	81.44
486.209	89.44
486.427	76.44
486.645	86.44
486.863	95.44
487.081	83.44
487.299	87.44
487.517	86.44
487.735	87.44
487.953	94.44
488.171	97.44
488.389	77.44
488.607	80.44
488.825	90.44
489.043	74.44
489.261	80.44
489.479	91.44
489.696	79.44
489.914	85.44
490.132	110.44
490.35	80.44
490.568	71.44
490.786	79.44
491.003	76.44
491.221	76.44
491.439	86.44
491.657	78.44
491.874	80.44
492.092	85.44
492.31	75.44
492.527	83.44
492.745	95.44
492.963	83.44
493.18	71.44
493.398	85.44
493.615	73.44
493.833	88.44
494.05	80.44
494.268	78.44
494.485	89.44
494.703	83.44
494.92	78.44
495.138	93.44
495.355	75.44
495.573	85.44
495.79	82.44
496.008	88.44
496.225	91.44
496.442	92.44
496.66	74.44
496.877	83.44
497.094	90.44
497.312	84.44
497.529	91.44
497.746	66.44
497.963	86.44
498.181	85.44
498.398	86.44
498.615	86.44
498.832	79.44
499.049	87.44
499.267	71.44
499.484	96.44
499.701	72.44
499.918	89.44
500.135	80.44
500.352	88.44
500.569	86.44
500.786	87.44
501.003	89.44
501.22	92.44
501.437	92.44
501.654	69.44
501.871	88.44
502.088	90.44
502.305	80.44
502.522	81.44
502.739	84.44
502.956	80.44
503.172	89.44
503.389	78.44
503.606	79.44
503.823	86.44
504.04	83.44
504.256	95.44
504.473	86.44
504.69	91.44
504.907	90.44
505.123	92.44
505.34	77.44
505.557	79.44
505.773	79.44
505.99	76.44
506.207	69.44
506.423	93.44
506.64	70.44
506.856	72.44
507.073	84.44
507.289	81.44
507.506	69.44
507.722	80.44
507.939	86.44
508.155	83.44
508.372	89.44
508.588	94.44
508.805	67.44
509.021	87.44
509.238	90.44
509.454	76.44
509.67	80.44
509.887	89.44
510.103	86.44
510.319	77.44
510.536	88.44
510.752	85.44
510.968	72.44
511.184	67.44
511.401	83.44
511.617	76.44
511.833	70.44
512.049	73.44
512.265	84.44
512.481	80.44
512.698	81.44
512.914	85.44
513.13	74.44
513.346	81.44
513.562	75.44
513.778	88.44
513.994	76.44
514.21	79.44
514.426	86.44
514.642	86.44
514.858	89.44
515.074	90.44
515.29	87.44
515.506	84.44
515.721	74.44
515.937	96.44
516.153	76.44
516.369	87.44
516.585	74.44
516.801	91.44
517.016	80.44
517.232	71.44
517.448	88.44
517.664	84.44
517.879	81.44
518.095	75.44
518.311	81.44
518.527	78.44
518.742	92.44
518.958	85.44
519.173	90.44
519.389	77.44
519.605	73.44
519.82	76.44
