Data from Dirtnoheat2_HRD10591_00016.txt Node
Date: Fri Dec 27 15:19:54 EST 2024
User: Yrep
Spectrometer: HR+D1059
Trigger mode: 1
Integration Time (sec): 1.000000E-1
Scans to average: 1
Electric dark correction enabled: true
Nonlinearity correction enabled: false
Boxcar width: 0
XAxis mode: Wavelengths
Number of Pixels in Spectrum: 2048
>>>>>Begin Spectral Data<<<<<
223.165	-17.5
223.4	-17.5
223.635	-17.5
223.869	-18.5
224.104	-21.5
224.338	-11.5
224.573	-12.5
224.808	-4.5
225.042	-10.5
225.277	-25.5
225.511	7.5
225.746	1.5
225.98	3.5
226.215	20.5
226.449	18.5
226.683	20.5
226.918	13.5
227.152	36.5
227.387	38.5
227.621	24.5
227.856	33.5
228.09	47.5
228.324	56.5
228.559	56.5
228.793	56.5
229.027	57.5
229.262	72.5
229.496	59.5
229.73	72.5
229.964	79.5
230.199	77.5
230.433	67.5
230.667	72.5
230.901	80.5
231.136	81.5
231.37	81.5
231.604	83.5
231.838	85.5
232.072	67.5
232.306	77.5
232.541	72.5
232.775	82.5
233.009	84.5
233.243	71.5
233.477	92.5
233.711	79.5
233.945	75.5
234.179	78.5
234.413	74.5
234.647	67.5
234.881	74.5
235.115	89.5
235.349	77.5
235.583	76.5
235.817	80.5
236.051	70.5
236.285	91.5
236.519	83.5
236.753	75.5
236.987	85.5
237.221	85.5
237.455	82.5
237.689	74.5
237.922	66.5
238.156	68.5
238.39	83.5
238.624	76.5
238.858	64.5
239.091	73.5
239.325	58.5
239.559	76.5
239.793	80.5
240.027	77.5
240.26	78.5
240.494	74.5
240.728	60.5
240.961	70.5
241.195	78.5
241.429	78.5
241.662	76.5
241.896	81.5
242.13	74.5
242.363	77.5
242.597	61.5
242.83	68.5
243.064	68.5
243.298	74.5
243.531	79.5
243.765	79.5
243.998	92.5
244.232	69.5
244.465	80.5
244.699	83.5
244.932	83.5
245.166	78.5
245.399	86.5
245.633	77.5
245.866	78.5
246.099	71.5
246.333	63.5
246.566	68.5
246.8	76.5
247.033	71.5
247.266	83.5
247.5	78.5
247.733	79.5
247.966	73.5
248.2	76.5
248.433	73.5
248.666	88.5
248.899	87.5
249.133	84.5
249.366	71.5
249.599	68.5
249.832	84.5
250.066	80.5
250.299	79.5
250.532	94.5
250.765	81.5
250.998	72.5
251.231	82.5
251.465	73.5
251.698	69.5
251.931	73.5
252.164	80.5
252.397	76.5
252.63	73.5
252.863	82.5
253.096	80.5
253.329	72.5
253.562	74.5
253.795	81.5
254.028	88.5
254.261	84.5
254.494	103.5
254.727	74.5
254.96	71.5
255.193	73.5
255.426	68.5
255.659	72.5
255.892	76.5
256.124	85.5
256.357	79.5
256.59	88.5
256.823	87.5
257.056	71.5
257.289	82.5
257.521	84.5
257.754	89.5
257.987	92.5
258.22	94.5
258.452	73.5
258.685	78.5
258.918	85.5
259.151	80.5
259.383	81.5
259.616	89.5
259.849	86.5
260.081	82.5
260.314	79.5
260.547	62.5
260.779	69.5
261.012	72.5
261.244	74.5
261.477	86.5
261.71	84.5
261.942	90.5
262.175	90.5
262.407	67.5
262.64	78.5
262.872	92.5
263.105	86.5
263.337	72.5
263.57	74.5
263.802	81.5
264.035	86.5
264.267	76.5
264.499	79.5
264.732	70.5
264.964	78.5
265.197	67.5
265.429	88.5
265.661	80.5
265.894	80.5
266.126	89.5
266.358	81.5
266.591	90.5
266.823	77.5
267.055	84.5
267.287	71.5
267.52	81.5
267.752	64.5
267.984	79.5
268.216	77.5
268.448	80.5
268.681	87.5
268.913	84.5
269.145	80.5
269.377	80.5
269.609	85.5
269.841	81.5
270.073	74.5
270.306	75.5
270.538	79.5
270.77	75.5
271.002	78.5
271.234	71.5
271.466	71.5
271.698	72.5
271.93	73.5
272.162	88.5
272.394	85.5
272.626	82.5
272.858	79.5
273.09	86.5
273.322	84.5
273.553	85.5
273.785	73.5
274.017	76.5
274.249	95.5
274.481	88.5
274.713	76.5
274.945	85.5
275.176	92.5
275.408	86.5
275.64	83.5
275.872	88.5
276.104	86.5
276.335	83.5
276.567	77.5
276.799	70.5
277.031	80.5
277.262	89.5
277.494	66.5
277.726	72.5
277.957	78.5
278.189	80.5
278.421	93.5
278.652	87.5
278.884	89.5
279.115	78.5
279.347	78.5
279.579	90.5
279.81	87.5
280.042	70.5
280.273	79.5
280.505	71.5
280.736	84.5
280.968	84.5
281.199	81.5
281.431	91.5
281.662	95.5
281.894	97.5
282.125	82.5
282.356	74.5
282.588	75.5
282.819	80.5
283.051	82.5
283.282	74.5
283.513	85.5
283.745	70.5
283.976	91.5
284.207	82.5
284.439	88.5
284.67	90.5
284.901	87.5
285.132	86.5
285.364	81.5
285.595	91.5
285.826	76.5
286.057	79.5
286.288	82.5
286.52	90.5
286.751	74.5
286.982	89.5
287.213	80.5
287.444	80.5
287.675	102.5
287.906	86.5
288.138	73.5
288.369	76.5
288.6	85.5
288.831	78.5
289.062	93.5
289.293	87.5
289.524	84.5
289.755	91.5
289.986	82.5
290.217	83.5
290.448	94.5
290.679	79.5
290.91	92.5
291.141	77.5
291.371	92.5
291.602	92.5
291.833	82.5
292.064	85.5
292.295	82.5
292.526	95.5
292.757	92.5
292.987	83.5
293.218	83.5
293.449	90.5
293.68	90.5
293.91	81.5
294.141	90.5
294.372	87.5
294.603	84.5
294.833	76.5
295.064	79.5
295.295	86.5
295.525	79.5
295.756	87.5
295.987	86.5
296.217	82.5
296.448	85.5
296.679	93.5
296.909	81.5
297.14	83.5
297.37	98.5
297.601	94.5
297.831	93.5
298.062	77.5
298.292	82.5
298.523	67.5
298.753	98.5
298.984	82.5
299.214	90.5
299.445	80.5
299.675	80.5
299.905	76.5
300.136	89.5
300.366	82.5
300.597	82.5
300.827	79.5
301.057	88.5
301.288	74.5
301.518	78.5
301.748	80.5
301.979	98.5
302.209	87.5
302.439	80.5
302.669	82.5
302.9	70.5
303.13	92.5
303.36	80.5
303.59	86.5
303.82	82.5
304.051	85.5
304.281	86.5
304.511	88.5
304.741	85.5
304.971	88.5
305.201	90.5
305.431	77.5
305.661	75.5
305.891	83.5
306.121	83.5
306.352	86.5
306.582	86.5
306.812	95.5
307.042	85.5
307.272	78.5
307.502	70.5
307.731	76.5
307.961	85.5
308.191	91.5
308.421	75.5
308.651	92.5
308.881	73.5
309.111	84.5
309.341	63.5
309.571	82.5
309.8	88.5
310.03	89.5
310.26	86.5
310.49	100.5
310.72	81.5
310.949	78.5
311.179	84.5
311.409	80.5
311.639	86.5
311.868	85.5
312.098	85.5
312.328	83.5
312.557	99.5
312.787	87.5
313.017	76.5
313.246	94.5
313.476	84.5
313.706	87.5
313.935	82.5
314.165	95.5
314.394	84.5
314.624	91.5
314.853	87.5
315.083	85.5
315.312	97.5
315.542	87.5
315.771	86.5
316.001	84.5
316.23	76.5
316.46	81.5
316.689	91.5
316.919	78.5
317.148	94.5
317.377	83.5
317.607	69.5
317.836	72.5
318.065	89.5
318.295	84.5
318.524	89.5
318.753	76.5
318.983	89.5
319.212	80.5
319.441	80.5
319.67	90.5
319.9	97.5
320.129	83.5
320.358	93.5
320.587	88.5
320.816	93.5
321.046	70.5
321.275	100.5
321.504	78.5
321.733	93.5
321.962	77.5
322.191	90.5
322.42	72.5
322.649	86.5
322.878	86.5
323.108	87.5
323.337	98.5
323.566	90.5
323.795	81.5
324.024	92.5
324.253	83.5
324.482	81.5
324.71	84.5
324.939	78.5
325.168	76.5
325.397	89.5
325.626	91.5
325.855	86.5
326.084	82.5
326.313	92.5
326.542	77.5
326.77	94.5
326.999	73.5
327.228	84.5
327.457	78.5
327.686	90.5
327.914	90.5
328.143	92.5
328.372	83.5
328.6	86.5
328.829	91.5
329.058	94.5
329.287	88.5
329.515	88.5
329.744	81.5
329.972	75.5
330.201	84.5
330.43	77.5
330.658	73.5
330.887	85.5
331.115	98.5
331.344	82.5
331.572	66.5
331.801	77.5
332.03	83.5
332.258	90.5
332.486	87.5
332.715	89.5
332.943	98.5
333.172	78.5
333.4	82.5
333.629	84.5
333.857	82.5
334.085	87.5
334.314	91.5
334.542	81.5
334.771	74.5
334.999	77.5
335.227	75.5
335.455	91.5
335.684	85.5
335.912	87.5
336.14	86.5
336.369	92.5
336.597	95.5
336.825	82.5
337.053	73.5
337.281	93.5
337.51	78.5
337.738	77.5
337.966	74.5
338.194	84.5
338.422	66.5
338.65	96.5
338.878	86.5
339.106	83.5
339.334	90.5
339.562	82.5
339.79	76.5
340.018	74.5
340.246	73.5
340.474	89.5
340.702	79.5
340.93	96.5
341.158	83.5
341.386	92.5
341.614	79.5
341.842	89.5
342.07	73.5
342.298	81.5
342.526	78.5
342.754	97.5
342.981	80.5
343.209	70.5
343.437	102.5
343.665	76.5
343.893	96.5
344.12	114.5
344.348	59.5
344.576	96.5
344.804	88.5
345.031	77.5
345.259	85.5
345.487	80.5
345.714	78.5
345.942	74.5
346.17	78.5
346.397	72.5
346.625	78.5
346.853	84.5
347.08	74.5
347.308	78.5
347.535	82.5
347.763	80.5
347.99	81.5
348.218	88.5
348.445	92.5
348.673	88.5
348.9	92.5
349.128	92.5
349.355	83.5
349.583	76.5
349.81	69.5
350.037	85.5
350.265	95.5
350.492	70.5
350.72	84.5
350.947	75.5
351.174	82.5
351.402	74.5
351.629	87.5
351.856	80.5
352.083	92.5
352.311	81.5
352.538	74.5
352.765	74.5
352.992	87.5
353.22	86.5
353.447	87.5
353.674	87.5
353.901	104.5
354.128	88.5
354.355	93.5
354.583	95.5
354.81	75.5
355.037	66.5
355.264	81.5
355.491	76.5
355.718	94.5
355.945	73.5
356.172	80.5
356.399	79.5
356.626	83.5
356.853	78.5
357.08	92.5
357.307	81.5
357.534	92.5
357.761	82.5
357.988	76.5
358.215	75.5
358.441	81.5
358.668	96.5
358.895	83.5
359.122	81.5
359.349	97.5
359.576	89.5
359.802	93.5
360.029	73.5
360.256	69.5
360.483	87.5
360.709	73.5
360.936	100.5
361.163	82.5
361.39	78.5
361.616	69.5
361.843	78.5
362.07	83.5
362.296	75.5
362.523	81.5
362.749	91.5
362.976	79.5
363.203	80.5
363.429	95.5
363.656	81.5
363.882	74.5
364.109	67.5
364.335	76.5
364.562	92.5
364.788	92.5
365.015	70.5
365.241	72.5
365.468	87.5
365.694	86.5
365.92	95.5
366.147	80.5
366.373	69.5
366.599	86.5
366.826	73.5
367.052	90.5
367.278	92.5
367.505	82.5
367.731	91.5
367.957	80.5
368.184	85.5
368.41	92.5
368.636	79.5
368.862	85.5
369.089	80.5
369.315	97.5
369.541	82.5
369.767	82.5
369.993	89.5
370.219	90.5
370.445	82.5
370.672	92.5
370.898	90.5
371.124	83.5
371.35	81.5
371.576	73.5
371.802	91.5
372.028	77.5
372.254	89.5
372.48	81.5
372.706	99.5
372.932	81.5
373.158	78.5
373.384	78.5
373.61	66.5
373.835	81.5
374.061	76.5
374.287	87.5
374.513	86.5
374.739	93.5
374.965	88.5
375.191	75.5
375.416	85.5
375.642	90.5
375.868	90.5
376.094	79.5
376.319	85.5
376.545	69.5
376.771	72.5
376.997	81.5
377.222	88.5
377.448	67.5
377.674	70.5
377.899	77.5
378.125	83.5
378.35	71.5
378.576	91.5
378.802	84.5
379.027	76.5
379.253	79.5
379.478	83.5
379.704	87.5
379.929	83.5
380.155	88.5
380.38	81.5
380.606	72.5
380.831	76.5
381.057	88.5
381.282	81.5
381.507	77.5
381.733	89.5
381.958	75.5
382.184	77.5
382.409	75.5
382.634	86.5
382.86	74.5
383.085	95.5
383.31	82.5
383.535	76.5
383.761	79.5
383.986	72.5
384.211	83.5
384.436	78.5
384.662	84.5
384.887	104.5
385.112	80.5
385.337	82.5
385.562	93.5
385.787	80.5
386.013	73.5
386.238	86.5
386.463	89.5
386.688	95.5
386.913	86.5
387.138	77.5
387.363	76.5
387.588	86.5
387.813	83.5
388.038	92.5
388.263	85.5
388.488	89.5
388.713	83.5
388.938	84.5
389.163	76.5
389.387	90.5
389.612	84.5
389.837	79.5
390.062	89.5
390.287	76.5
390.512	90.5
390.736	80.5
390.961	87.5
391.186	90.5
391.411	71.5
391.636	78.5
391.86	74.5
392.085	69.5
392.31	75.5
392.534	79.5
392.759	69.5
392.984	95.5
393.208	83.5
393.433	95.5
393.658	101.5
393.882	72.5
394.107	74.5
394.331	83.5
394.556	79.5
394.78	77.5
395.005	62.5
395.229	82.5
395.454	78.5
395.678	69.5
395.903	86.5
396.127	98.5
396.352	76.5
396.576	79.5
396.801	88.5
397.025	93.5
397.249	84.5
397.474	86.5
397.698	65.5
397.922	86.5
398.147	72.5
398.371	72.5
398.595	80.5
398.82	76.5
399.044	90.5
399.268	75.5
399.492	72.5
399.717	84.5
399.941	83.5
400.165	89.5
400.389	78.5
400.613	80.5
400.837	84.5
401.062	90.5
401.286	75.5
401.51	88.5
401.734	80.5
401.958	79.5
402.182	72.5
402.406	74.5
402.63	76.5
402.854	81.5
403.078	88.5
403.302	92.5
403.526	72.5
403.75	73.5
403.974	81.5
404.198	81.5
404.422	80.5
404.645	86.5
404.869	83.5
405.093	91.5
405.317	79.5
405.541	75.5
405.765	79.5
405.988	64.5
406.212	82.5
406.436	76.5
406.66	85.5
406.883	63.5
407.107	69.5
407.331	81.5
407.555	86.5
407.778	74.5
408.002	76.5
408.226	71.5
408.449	75.5
408.673	86.5
408.896	85.5
409.12	78.5
409.344	93.5
409.567	83.5
409.791	88.5
410.014	86.5
410.238	74.5
410.461	65.5
410.685	73.5
410.908	100.5
411.132	73.5
411.355	70.5
411.578	72.5
411.802	73.5
412.025	69.5
412.249	84.5
412.472	77.5
412.695	75.5
412.919	79.5
413.142	92.5
413.365	87.5
413.589	66.5
413.812	92.5
414.035	90.5
414.258	79.5
414.482	73.5
414.705	63.5
414.928	90.5
415.151	84.5
415.374	77.5
415.597	78.5
415.821	69.5
416.044	71.5
416.267	84.5
416.49	79.5
416.713	82.5
416.936	87.5
417.159	86.5
417.382	82.5
417.605	74.5
417.828	96.5
418.051	86.5
418.274	81.5
418.497	78.5
418.72	75.5
418.943	78.5
419.166	70.5
419.389	94.5
419.611	69.5
419.834	73.5
420.057	86.5
420.28	63.5
420.503	85.5
420.726	83.5
420.948	75.5
421.171	104.5
421.394	88.5
421.617	89.5
421.839	84.5
422.062	82.5
422.285	81.5
422.507	95.5
422.73	101.5
422.953	94.5
423.175	74.5
423.398	77.5
423.621	77.5
423.843	87.5
424.066	87.5
424.288	84.5
424.511	81.5
424.733	69.5
424.956	96.5
425.178	87.5
425.401	88.5
425.623	76.5
425.846	87.5
426.068	97.5
426.291	79.5
426.513	71.5
426.735	70.5
426.958	75.5
427.18	89.5
427.402	97.5
427.625	83.5
427.847	82.5
428.069	70.5
428.292	77.5
428.514	89.5
428.736	90.5
428.958	81.5
429.181	77.5
429.403	83.5
429.625	88.5
429.847	82.5
430.069	75.5
430.292	93.5
430.514	86.5
430.736	79.5
430.958	87.5
431.18	65.5
431.402	99.5
431.624	97.5
431.846	89.5
432.068	78.5
432.29	77.5
432.512	81.5
432.734	90.5
432.956	86.5
433.178	73.5
433.4	83.5
433.622	80.5
433.844	77.5
434.066	82.5
434.287	84.5
434.509	80.5
434.731	80.5
434.953	68.5
435.175	65.5
435.397	86.5
435.618	76.5
435.84	84.5
436.062	79.5
436.284	67.5
436.505	88.5
436.727	81.5
436.949	72.5
437.17	74.5
437.392	74.5
437.614	71.5
437.835	86.5
438.057	97.5
438.278	81.5
438.5	69.5
438.721	76.5
438.943	79.5
439.165	75.5
439.386	98.5
439.608	76.5
439.829	75.5
440.05	78.5
440.272	84.5
440.493	74.5
440.715	82.5
440.936	66.5
441.158	61.5
441.379	72.5
441.6	83.5
441.822	85.5
442.043	80.5
442.264	78.5
442.486	74.5
442.707	75.5
442.928	81.5
443.149	87.5
443.371	95.5
443.592	80.5
443.813	77.5
444.034	78.5
444.255	78.5
444.476	74.5
444.698	72.5
444.919	79.5
445.14	155.5
445.361	110.5
445.582	96.5
445.803	73.5
446.024	79.5
446.245	83.5
446.466	76.5
446.687	77.5
446.908	78.5
447.129	86.5
447.35	87.5
447.571	66.5
447.792	80.5
448.013	86.5
448.234	96.5
448.455	68.5
448.675	91.5
448.896	82.5
449.117	89.5
449.338	71.5
449.559	82.5
449.779	78.5
450	77.5
450.221	70.5
450.442	74.5
450.662	72.5
450.883	76.5
451.104	88.5
451.324	85.5
451.545	85.5
451.766	72.5
451.986	68.5
452.207	73.5
452.428	87.5
452.648	86.5
452.869	65.5
453.089	70.5
453.31	61.5
453.53	72.5
453.751	79.5
453.971	65.5
454.192	85.5
454.412	78.5
454.633	80.5
454.853	85.5
455.073	83.5
455.294	75.5
455.514	73.5
455.734	80.5
455.955	80.5
456.175	85.5
456.395	76.5
456.616	64.5
456.836	79.5
457.056	70.5
457.276	75.5
457.497	84.5
457.717	79.5
457.937	76.5
458.157	77.5
458.377	67.5
458.598	87.5
458.818	88.5
459.038	64.5
459.258	69.5
459.478	78.5
459.698	86.5
459.918	74.5
460.138	85.5
460.358	66.5
460.578	91.5
460.798	80.5
461.018	86.5
461.238	95.5
461.458	84.5
461.678	70.5
461.898	66.5
462.118	71.5
462.338	77.5
462.558	87.5
462.777	75.5
462.997	84.5
463.217	74.5
463.437	72.5
463.657	84.5
463.876	78.5
464.096	82.5
464.316	85.5
464.536	73.5
464.755	75.5
464.975	81.5
465.195	102.5
465.414	90.5
465.634	100.5
465.854	75.5
466.073	91.5
466.293	66.5
466.512	75.5
466.732	68.5
466.951	89.5
467.171	67.5
467.391	93.5
467.61	67.5
467.829	88.5
468.049	78.5
468.268	66.5
468.488	75.5
468.707	79.5
468.927	77.5
469.146	80.5
469.365	83.5
469.585	81.5
469.804	88.5
470.023	89.5
470.243	96.5
470.462	88.5
470.681	57.5
470.901	78.5
471.12	77.5
471.339	85.5
471.558	84.5
471.777	90.5
471.997	79.5
472.216	75.5
472.435	83.5
472.654	86.5
472.873	83.5
473.092	82.5
473.311	79.5
473.53	82.5
473.749	92.5
473.968	86.5
474.187	81.5
474.406	79.5
474.625	92.5
474.844	78.5
475.063	74.5
475.282	82.5
475.501	67.5
475.72	85.5
475.939	80.5
476.158	63.5
476.377	75.5
476.596	85.5
476.814	69.5
477.033	77.5
477.252	79.5
477.471	81.5
477.69	76.5
477.908	77.5
478.127	81.5
478.346	80.5
478.564	71.5
478.783	73.5
479.002	74.5
479.22	70.5
479.439	85.5
479.658	83.5
479.876	78.5
480.095	80.5
480.313	86.5
480.532	71.5
480.751	80.5
480.969	72.5
481.188	80.5
481.406	74.5
481.624	61.5
481.843	71.5
482.061	80.5
482.28	88.5
482.498	83.5
482.717	93.5
482.935	79.5
483.153	73.5
483.372	76.5
483.59	86.5
483.808	84.5
484.027	83.5
484.245	79.5
484.463	75.5
484.681	77.5
484.9	71.5
485.118	76.5
485.336	75.5
485.554	86.5
485.772	89.5
485.99	92.5
486.209	93.5
486.427	89.5
486.645	74.5
486.863	84.5
487.081	90.5
487.299	74.5
487.517	88.5
487.735	74.5
487.953	66.5
488.171	76.5
488.389	77.5
488.607	80.5
488.825	94.5
489.043	65.5
489.261	92.5
489.479	88.5
489.696	82.5
489.914	78.5
490.132	89.5
490.35	83.5
490.568	88.5
490.786	101.5
491.003	68.5
491.221	70.5
491.439	83.5
491.657	80.5
491.874	76.5
492.092	80.5
492.31	81.5
492.527	56.5
492.745	80.5
492.963	81.5
493.18	96.5
493.398	97.5
493.615	69.5
493.833	74.5
494.05	84.5
494.268	91.5
494.485	93.5
494.703	78.5
494.92	71.5
495.138	83.5
495.355	87.5
495.573	87.5
495.79	86.5
496.008	88.5
496.225	80.5
496.442	88.5
496.66	88.5
496.877	77.5
497.094	89.5
497.312	79.5
497.529	72.5
497.746	81.5
497.963	84.5
498.181	76.5
498.398	71.5
498.615	80.5
498.832	88.5
499.049	81.5
499.267	89.5
499.484	78.5
499.701	70.5
499.918	79.5
500.135	83.5
500.352	70.5
500.569	91.5
500.786	97.5
501.003	75.5
501.22	79.5
501.437	80.5
501.654	81.5
501.871	78.5
502.088	99.5
502.305	84.5
502.522	93.5
502.739	81.5
502.956	76.5
503.172	90.5
503.389	85.5
503.606	71.5
503.823	84.5
504.04	96.5
504.256	82.5
504.473	70.5
504.69	81.5
504.907	92.5
505.123	79.5
505.34	78.5
505.557	81.5
505.773	74.5
505.99	90.5
506.207	65.5
506.423	88.5
506.64	85.5
506.856	86.5
507.073	95.5
507.289	86.5
507.506	81.5
507.722	90.5
507.939	68.5
508.155	71.5
508.372	80.5
508.588	80.5
508.805	71.5
509.021	78.5
509.238	79.5
509.454	86.5
509.67	71.5
509.887	98.5
510.103	85.5
510.319	94.5
510.536	75.5
510.752	80.5
510.968	79.5
511.184	91.5
511.401	82.5
511.617	89.5
511.833	84.5
512.049	79.5
512.265	86.5
512.481	95.5
512.698	73.5
512.914	75.5
513.13	81.5
513.346	83.5
513.562	84.5
513.778	72.5
513.994	78.5
514.21	92.5
514.426	75.5
514.642	76.5
514.858	90.5
515.074	81.5
515.29	86.5
515.506	85.5
515.721	91.5
515.937	106.5
516.153	78.5
516.369	89.5
516.585	88.5
516.801	81.5
517.016	73.5
517.232	94.5
517.448	81.5
517.664	80.5
517.879	84.5
518.095	93.5
518.311	89.5
518.527	79.5
518.742	84.5
518.958	86.5
519.173	94.5
519.389	88.5
519.605	82.5
519.82	78.5
520.036	82.5
520.251	72.5
520.467	78.5
520.682	82.5
520.898	83.5
521.113	90.5
521.329	84.5
521.544	74.5
521.76	86.5
521.975	94.5
522.19	79.5
522.406	81.5
522.621	74.5
522.836	77.5
523.052	85.5
523.267	78.5
523.482	87.5
523.698	80.5
523.913	82.5
524.128	91.5
524.343	70.5
524.559	96.5
524.774	91.5
524.989	89.5
525.204	89.5
525.419	71.5
525.634	77.5
525.849	85.5
526.064	81.5
526.28	84.5
526.495	80.5
526.71	92.5
526.925	82.5
527.14	93.5
527.355	90.5
527.57	86.5
527.785	91.5
527.999	79.5
528.214	77.5
528.429	101.5
528.644	91.5
528.859	89.5
529.074	79.5
529.289	81.5
529.503	93.5
529.718	83.5
529.933	85.5
530.148	89.5
530.363	78.5
530.577	75.5
530.792	71.5
531.007	100.5
531.221	72.5
531.436	69.5
531.651	91.5
531.865	91.5
532.08	85.5
532.295	79.5
532.509	79.5
532.724	85.5
532.938	80.5
533.153	79.5
533.367	77.5
533.582	105.5
533.796	90.5
534.011	84.5
534.225	88.5
534.44	89.5
534.654	90.5
534.868	82.5
535.083	78.5
535.297	95.5
535.511	92.5
535.726	66.5
535.94	87.5
536.154	83.5
536.369	87.5
536.583	74.5
536.797	85.5
537.011	73.5
537.225	75.5
537.44	76.5
537.654	81.5
537.868	82.5
538.082	80.5
538.296	74.5
538.51	82.5
538.724	102.5
538.938	80.5
539.153	80.5
539.367	83.5
539.581	82.5
539.795	88.5
540.009	95.5
540.222	81.5
