Data from Uncirc_1983_H10_HRD10591_00089.txt Node
Date: Wed Jan 03 12:25:49 EST 2024
User: Yrep
Spectrometer: HR+D1059
Trigger mode: 1
Integration Time (sec): 1.000000E-1
Scans to average: 1
Electric dark correction enabled: true
Nonlinearity correction enabled: false
Boxcar width: 0
XAxis mode: Wavelengths
Number of Pixels in Spectrum: 2048
>>>>>Begin Spectral Data<<<<<
223.165	-22.75
223.4	-22.75
223.635	-22.75
223.869	-18.75
224.104	-15.75
224.338	-12.75
224.573	4.25
224.808	2.25
225.042	-8.75
225.277	-7.75
225.511	-12.75
225.746	11.25
225.98	2.25
226.215	15.25
226.449	4.25
226.683	18.25
226.918	18.25
227.152	23.25
227.387	25.25
227.621	43.25
227.856	53.25
228.09	49.25
228.324	64.25
228.559	48.25
228.793	49.25
229.027	55.25
229.262	68.25
229.496	75.25
229.73	88.25
229.964	90.25
230.199	91.25
230.433	73.25
230.667	69.25
230.901	76.25
231.136	91.25
231.37	73.25
231.604	81.25
231.838	88.25
232.072	79.25
232.306	76.25
232.541	86.25
232.775	78.25
233.009	67.25
233.243	89.25
233.477	86.25
233.711	80.25
233.945	84.25
234.179	84.25
234.413	94.25
234.647	83.25
234.881	84.25
235.115	83.25
235.349	71.25
235.583	88.25
235.817	86.25
236.051	73.25
236.285	72.25
236.519	67.25
236.753	73.25
236.987	80.25
237.221	77.25
237.455	88.25
237.689	80.25
237.922	87.25
238.156	82.25
238.39	76.25
238.624	72.25
238.858	63.25
239.091	67.25
239.325	85.25
239.559	84.25
239.793	81.25
240.027	70.25
240.26	70.25
240.494	77.25
240.728	72.25
240.961	74.25
241.195	57.25
241.429	73.25
241.662	68.25
241.896	63.25
242.13	72.25
242.363	70.25
242.597	86.25
242.83	74.25
243.064	68.25
243.298	71.25
243.531	75.25
243.765	85.25
243.998	86.25
244.232	96.25
244.465	76.25
244.699	74.25
244.932	84.25
245.166	68.25
245.399	82.25
245.633	73.25
245.866	74.25
246.099	87.25
246.333	78.25
246.566	80.25
246.8	74.25
247.033	74.25
247.266	80.25
247.5	78.25
247.733	70.25
247.966	84.25
248.2	94.25
248.433	91.25
248.666	72.25
248.899	90.25
249.133	87.25
249.366	90.25
249.599	101.25
249.832	84.25
250.066	78.25
250.299	79.25
250.532	72.25
250.765	80.25
250.998	68.25
251.231	74.25
251.465	78.25
251.698	78.25
251.931	79.25
252.164	68.25
252.397	82.25
252.63	67.25
252.863	74.25
253.096	75.25
253.329	85.25
253.562	82.25
253.795	74.25
254.028	80.25
254.261	87.25
254.494	82.25
254.727	78.25
254.96	71.25
255.193	85.25
255.426	71.25
255.659	86.25
255.892	75.25
256.124	82.25
256.357	96.25
256.59	88.25
256.823	78.25
257.056	83.25
257.289	92.25
257.521	81.25
257.754	79.25
257.987	72.25
258.22	91.25
258.452	80.25
258.685	88.25
258.918	81.25
259.151	78.25
259.383	78.25
259.616	79.25
259.849	88.25
260.081	92.25
260.314	80.25
260.547	77.25
260.779	70.25
261.012	79.25
261.244	72.25
261.477	92.25
261.71	106.25
261.942	107.25
262.175	121.25
262.407	78.25
262.64	96.25
262.872	96.25
263.105	85.25
263.337	87.25
263.57	88.25
263.802	103.25
264.035	76.25
264.267	87.25
264.499	68.25
264.732	90.25
264.964	83.25
265.197	70.25
265.429	66.25
265.661	82.25
265.894	72.25
266.126	88.25
266.358	89.25
266.591	97.25
266.823	74.25
267.055	76.25
267.287	96.25
267.52	75.25
267.752	91.25
267.984	80.25
268.216	84.25
268.448	69.25
268.681	88.25
268.913	87.25
269.145	82.25
269.377	83.25
269.609	83.25
269.841	76.25
270.073	81.25
270.306	98.25
270.538	79.25
270.77	88.25
271.002	84.25
271.234	87.25
271.466	92.25
271.698	92.25
271.93	91.25
272.162	84.25
272.394	80.25
272.626	90.25
272.858	81.25
273.09	78.25
273.322	84.25
273.553	95.25
273.785	81.25
274.017	90.25
274.249	87.25
274.481	79.25
274.713	75.25
274.945	108.25
275.176	75.25
275.408	95.25
275.64	88.25
275.872	83.25
276.104	86.25
276.335	91.25
276.567	78.25
276.799	96.25
277.031	92.25
277.262	85.25
277.494	87.25
277.726	80.25
277.957	86.25
278.189	82.25
278.421	91.25
278.652	89.25
278.884	79.25
279.115	86.25
279.347	74.25
279.579	72.25
279.81	81.25
280.042	88.25
280.273	85.25
280.505	77.25
280.736	76.25
280.968	72.25
281.199	90.25
281.431	83.25
281.662	75.25
281.894	78.25
282.125	94.25
282.356	117.25
282.588	139.25
282.819	118.25
283.051	83.25
283.282	90.25
283.513	91.25
283.745	77.25
283.976	79.25
284.207	78.25
284.439	76.25
284.67	76.25
284.901	88.25
285.132	98.25
285.364	86.25
285.595	90.25
285.826	90.25
286.057	90.25
286.288	85.25
286.52	83.25
286.751	95.25
286.982	86.25
287.213	89.25
287.444	99.25
287.675	99.25
287.906	76.25
288.138	91.25
288.369	99.25
288.6	98.25
288.831	89.25
289.062	83.25
289.293	73.25
289.524	82.25
289.755	68.25
289.986	88.25
290.217	90.25
290.448	84.25
290.679	97.25
290.91	84.25
291.141	80.25
291.371	92.25
291.602	71.25
291.833	91.25
292.064	75.25
292.295	75.25
292.526	69.25
292.757	90.25
292.987	95.25
293.218	86.25
293.449	81.25
293.68	94.25
293.91	88.25
294.141	98.25
294.372	80.25
294.603	74.25
294.833	92.25
295.064	85.25
295.295	92.25
295.525	83.25
295.756	113.25
295.987	116.25
296.217	145.25
296.448	118.25
296.679	106.25
296.909	98.25
297.14	90.25
297.37	105.25
297.601	83.25
297.831	88.25
298.062	96.25
298.292	105.25
298.523	86.25
298.753	75.25
298.984	92.25
299.214	79.25
299.445	92.25
299.675	100.25
299.905	88.25
300.136	98.25
300.366	72.25
300.597	85.25
300.827	81.25
301.057	88.25
301.288	96.25
301.518	99.25
301.748	91.25
301.979	94.25
302.209	82.25
302.439	75.25
302.669	96.25
302.9	88.25
303.13	80.25
303.36	97.25
303.59	105.25
303.82	111.25
304.051	87.25
304.281	95.25
304.511	86.25
304.741	84.25
304.971	90.25
305.201	87.25
305.431	92.25
305.661	93.25
305.891	81.25
306.121	101.25
306.352	97.25
306.582	120.25
306.812	106.25
307.042	102.25
307.272	93.25
307.502	94.25
307.731	102.25
307.961	79.25
308.191	102.25
308.421	87.25
308.651	96.25
308.881	80.25
309.111	95.25
309.341	104.25
309.571	108.25
309.8	86.25
310.03	94.25
310.26	89.25
310.49	99.25
310.72	106.25
310.949	114.25
311.179	101.25
311.409	84.25
311.639	94.25
311.868	101.25
312.098	90.25
312.328	82.25
312.557	84.25
312.787	107.25
313.017	101.25
313.246	100.25
313.476	90.25
313.706	100.25
313.935	82.25
314.165	86.25
314.394	94.25
314.624	88.25
314.853	92.25
315.083	95.25
315.312	99.25
315.542	95.25
315.771	95.25
316.001	99.25
316.23	84.25
316.46	90.25
316.689	96.25
316.919	84.25
317.148	91.25
317.377	87.25
317.607	101.25
317.836	81.25
318.065	70.25
318.295	104.25
318.524	90.25
318.753	97.25
318.983	84.25
319.212	90.25
319.441	119.25
319.67	97.25
319.9	85.25
320.129	83.25
320.358	94.25
320.587	89.25
320.816	106.25
321.046	110.25
321.275	98.25
321.504	108.25
321.733	99.25
321.962	96.25
322.191	104.25
322.42	119.25
322.649	114.25
322.878	123.25
323.108	113.25
323.337	126.25
323.566	128.25
323.795	159.25
324.024	228.25
324.253	393.25
324.482	859.25
324.71	1833.25
324.939	2416.25
325.168	875.25
325.397	266.25
325.626	153.25
325.855	134.25
326.084	123.25
326.313	139.25
326.542	162.25
326.77	252.25
326.999	456.25
327.228	998.25
327.457	1882.25
327.686	1504.25
327.914	404.25
328.143	206.25
328.372	160.25
328.6	125.25
328.829	119.25
329.058	116.25
329.287	114.25
329.515	113.25
329.744	111.25
329.972	107.25
330.201	142.25
330.43	163.25
330.658	142.25
330.887	131.25
331.115	102.25
331.344	98.25
331.572	100.25
331.801	115.25
332.03	113.25
332.258	99.25
332.486	87.25
332.715	94.25
332.943	90.25
333.172	115.25
333.4	111.25
333.629	124.25
333.857	115.25
334.085	118.25
334.314	144.25
334.542	179.25
334.771	154.25
334.999	112.25
335.227	104.25
335.455	92.25
335.684	108.25
335.912	90.25
336.14	102.25
336.369	85.25
336.597	91.25
336.825	91.25
337.053	105.25
337.281	106.25
337.51	93.25
337.738	94.25
337.966	86.25
338.194	90.25
338.422	97.25
338.65	98.25
338.878	83.25
339.106	86.25
339.334	87.25
339.562	86.25
339.79	107.25
340.018	92.25
340.246	95.25
340.474	102.25
340.702	93.25
340.93	90.25
341.158	86.25
341.386	92.25
341.614	106.25
341.842	111.25
342.07	76.25
342.298	97.25
342.526	100.25
342.754	80.25
342.981	86.25
343.209	83.25
343.437	96.25
343.665	78.25
343.893	92.25
344.12	92.25
344.348	72.25
344.576	91.25
344.804	107.25
345.031	101.25
345.259	86.25
345.487	99.25
345.714	105.25
345.942	98.25
346.17	88.25
346.397	94.25
346.625	98.25
346.853	80.25
347.08	101.25
347.308	80.25
347.535	107.25
347.763	100.25
347.99	97.25
348.218	103.25
348.445	118.25
348.673	106.25
348.9	96.25
349.128	88.25
349.355	107.25
349.583	92.25
349.81	91.25
350.037	93.25
350.265	102.25
350.492	97.25
350.72	116.25
350.947	112.25
351.174	120.25
351.402	102.25
351.629	107.25
351.856	109.25
352.083	111.25
352.311	111.25
352.538	105.25
352.765	99.25
352.992	119.25
353.22	106.25
353.447	92.25
353.674	96.25
353.901	107.25
354.128	84.25
354.355	93.25
354.583	78.25
354.81	87.25
355.037	102.25
355.264	84.25
355.491	84.25
355.718	97.25
355.945	106.25
356.172	97.25
356.399	86.25
356.626	88.25
356.853	91.25
357.08	98.25
357.307	88.25
357.534	85.25
357.761	87.25
357.988	93.25
358.215	102.25
358.441	100.25
358.668	99.25
358.895	84.25
359.122	83.25
359.349	102.25
359.576	99.25
359.802	99.25
360.029	100.25
360.256	108.25
360.483	100.25
360.709	85.25
360.936	87.25
361.163	83.25
361.39	89.25
361.616	91.25
361.843	74.25
362.07	93.25
362.296	96.25
362.523	91.25
362.749	93.25
362.976	113.25
363.203	105.25
363.429	79.25
363.656	87.25
363.882	98.25
364.109	107.25
364.335	91.25
364.562	89.25
364.788	86.25
365.015	97.25
365.241	89.25
365.468	111.25
365.694	109.25
365.92	87.25
366.147	79.25
366.373	91.25
366.599	93.25
366.826	86.25
367.052	71.25
367.278	98.25
367.505	82.25
367.731	100.25
367.957	83.25
368.184	96.25
368.41	97.25
368.636	97.25
368.862	121.25
369.089	107.25
369.315	108.25
369.541	91.25
369.767	90.25
369.993	84.25
370.219	82.25
370.445	84.25
370.672	94.25
370.898	87.25
371.124	98.25
371.35	91.25
371.576	90.25
371.802	91.25
372.028	88.25
372.254	90.25
372.48	79.25
372.706	83.25
372.932	98.25
373.158	81.25
373.384	101.25
373.61	95.25
373.835	90.25
374.061	99.25
374.287	96.25
374.513	87.25
374.739	92.25
374.965	89.25
375.191	90.25
375.416	94.25
375.642	90.25
375.868	87.25
376.094	100.25
376.319	90.25
376.545	88.25
376.771	93.25
376.997	95.25
377.222	101.25
377.448	80.25
377.674	96.25
377.899	99.25
378.125	85.25
378.35	90.25
378.576	78.25
378.802	87.25
379.027	96.25
379.253	87.25
379.478	103.25
379.704	84.25
379.929	92.25
380.155	107.25
380.38	87.25
380.606	82.25
380.831	89.25
381.057	91.25
381.282	95.25
381.507	89.25
381.733	96.25
381.958	109.25
382.184	102.25
382.409	109.25
382.634	101.25
382.86	98.25
383.085	79.25
383.31	94.25
383.535	94.25
383.761	88.25
383.986	91.25
384.211	91.25
384.436	90.25
384.662	107.25
384.887	94.25
385.112	103.25
385.337	88.25
385.562	95.25
385.787	107.25
386.013	99.25
386.238	104.25
386.463	103.25
386.688	101.25
386.913	99.25
387.138	101.25
387.363	95.25
387.588	102.25
387.813	102.25
388.038	91.25
388.263	104.25
388.488	106.25
388.713	93.25
388.938	97.25
389.163	105.25
389.387	90.25
389.612	101.25
389.837	90.25
390.062	94.25
390.287	69.25
390.512	87.25
390.736	105.25
390.961	89.25
391.186	89.25
391.411	106.25
391.636	86.25
391.86	78.25
392.085	76.25
392.31	83.25
392.534	100.25
392.759	91.25
392.984	87.25
393.208	89.25
393.433	102.25
393.658	99.25
393.882	83.25
394.107	87.25
394.331	86.25
394.556	74.25
394.78	78.25
395.005	78.25
395.229	83.25
395.454	87.25
395.678	80.25
395.903	94.25
396.127	85.25
396.352	87.25
396.576	76.25
396.801	98.25
397.025	98.25
397.249	101.25
397.474	98.25
397.698	87.25
397.922	76.25
398.147	87.25
398.371	99.25
398.595	94.25
398.82	90.25
399.044	96.25
399.268	94.25
399.492	82.25
399.717	87.25
399.941	95.25
400.165	98.25
400.389	99.25
400.613	103.25
400.837	88.25
401.062	68.25
401.286	100.25
401.51	96.25
401.734	85.25
401.958	96.25
402.182	128.25
402.406	160.25
402.63	104.25
402.854	97.25
403.078	97.25
403.302	94.25
403.526	96.25
403.75	98.25
403.974	87.25
404.198	93.25
404.422	89.25
404.645	90.25
404.869	92.25
405.093	103.25
405.317	117.25
405.541	111.25
405.765	107.25
405.988	115.25
406.212	186.25
406.436	252.25
406.66	157.25
406.883	104.25
407.107	102.25
407.331	84.25
407.555	100.25
407.778	89.25
408.002	83.25
408.226	103.25
408.449	89.25
408.673	99.25
408.896	87.25
409.12	95.25
409.344	96.25
409.567	87.25
409.791	90.25
410.014	98.25
410.238	86.25
410.461	83.25
410.685	88.25
410.908	90.25
411.132	105.25
411.355	91.25
411.578	81.25
411.802	83.25
412.025	88.25
412.249	94.25
412.472	91.25
412.695	99.25
412.919	81.25
413.142	91.25
413.365	99.25
413.589	90.25
413.812	85.25
414.035	67.25
414.258	83.25
414.482	85.25
414.705	84.25
414.928	110.25
415.151	92.25
415.374	105.25
415.597	88.25
415.821	88.25
416.044	88.25
416.267	95.25
416.49	90.25
416.713	93.25
416.936	95.25
417.159	95.25
417.382	86.25
417.605	92.25
417.828	100.25
418.051	96.25
418.274	91.25
418.497	90.25
418.72	92.25
418.943	89.25
419.166	98.25
419.389	94.25
419.611	92.25
419.834	95.25
420.057	91.25
420.28	84.25
420.503	80.25
420.726	93.25
420.948	98.25
421.171	95.25
421.394	87.25
421.617	98.25
421.839	92.25
422.062	89.25
422.285	100.25
422.507	103.25
422.73	100.25
422.953	87.25
423.175	95.25
423.398	74.25
423.621	91.25
423.843	90.25
424.066	92.25
424.288	78.25
424.511	78.25
424.733	109.25
424.956	103.25
425.178	96.25
425.401	88.25
425.623	106.25
425.846	93.25
426.068	96.25
426.291	96.25
426.513	92.25
426.735	100.25
426.958	91.25
427.18	103.25
427.402	137.25
427.625	167.25
427.847	138.25
428.069	111.25
428.292	86.25
428.514	91.25
428.736	75.25
428.958	81.25
429.181	89.25
429.403	99.25
429.625	97.25
429.847	97.25
430.069	96.25
430.292	100.25
430.514	72.25
430.736	95.25
430.958	72.25
431.18	91.25
431.402	73.25
431.624	97.25
431.846	95.25
432.068	90.25
432.29	75.25
432.512	86.25
432.734	76.25
432.956	97.25
433.178	103.25
433.4	95.25
433.622	82.25
433.844	85.25
434.066	88.25
434.287	94.25
434.509	82.25
434.731	100.25
434.953	91.25
435.175	89.25
435.397	91.25
435.618	78.25
435.84	115.25
436.062	124.25
436.284	122.25
436.505	85.25
436.727	103.25
436.949	101.25
437.17	76.25
437.392	90.25
437.614	89.25
437.835	110.25
438.057	122.25
438.278	113.25
438.5	103.25
438.721	131.25
438.943	105.25
439.165	83.25
439.386	84.25
439.608	97.25
439.829	93.25
440.05	125.25
440.272	125.25
440.493	107.25
440.715	86.25
440.936	91.25
441.158	98.25
441.379	74.25
441.6	73.25
441.822	103.25
442.043	90.25
442.264	100.25
442.486	99.25
442.707	96.25
442.928	111.25
443.149	147.25
443.371	115.25
443.592	115.25
443.813	120.25
444.034	106.25
444.255	90.25
444.476	108.25
444.698	90.25
444.919	102.25
445.14	128.25
445.361	109.25
445.582	117.25
445.803	143.25
446.024	137.25
446.245	115.25
446.466	113.25
446.687	87.25
446.908	96.25
447.129	82.25
447.35	85.25
447.571	103.25
447.792	109.25
448.013	92.25
448.234	107.25
448.455	100.25
448.675	122.25
448.896	123.25
449.117	90.25
449.338	80.25
449.559	118.25
449.779	133.25
450	88.25
450.221	66.25
450.442	94.25
450.662	101.25
450.883	92.25
451.104	108.25
451.324	97.25
451.545	92.25
451.766	86.25
451.986	89.25
452.207	93.25
452.428	89.25
452.648	102.25
452.869	119.25
453.089	107.25
453.31	118.25
453.53	91.25
453.751	98.25
453.971	124.25
454.192	107.25
454.412	95.25
454.633	90.25
454.853	85.25
455.073	83.25
455.294	76.25
455.514	106.25
455.734	94.25
455.955	89.25
456.175	87.25
456.395	95.25
456.616	84.25
456.836	88.25
457.056	98.25
457.276	88.25
457.497	74.25
457.717	86.25
457.937	79.25
458.157	100.25
458.377	102.25
458.598	101.25
458.818	161.25
459.038	149.25
459.258	104.25
459.478	97.25
459.698	96.25
459.918	88.25
460.138	97.25
460.358	94.25
460.578	72.25
460.798	85.25
461.018	97.25
461.238	83.25
461.458	75.25
461.678	90.25
461.898	74.25
462.118	83.25
462.338	92.25
462.558	90.25
462.777	77.25
462.997	82.25
463.217	78.25
463.437	90.25
463.657	102.25
463.876	83.25
464.096	108.25
464.316	91.25
464.536	108.25
464.755	96.25
464.975	110.25
465.195	172.25
465.414	174.25
465.634	95.25
465.854	94.25
466.073	89.25
466.293	90.25
466.512	89.25
466.732	95.25
466.951	90.25
467.171	88.25
467.391	103.25
467.61	111.25
467.829	94.25
468.049	100.25
468.268	129.25
468.488	80.25
468.707	80.25
468.927	68.25
469.146	82.25
469.365	92.25
469.585	84.25
469.804	83.25
470.023	108.25
470.243	88.25
470.462	103.25
470.681	115.25
470.901	87.25
471.12	83.25
471.339	83.25
471.558	95.25
471.777	93.25
471.997	112.25
472.216	143.25
472.435	192.25
472.654	110.25
472.873	90.25
473.092	92.25
473.311	88.25
473.53	88.25
473.749	73.25
473.968	82.25
474.187	91.25
474.406	89.25
474.625	102.25
474.844	89.25
475.063	89.25
475.282	99.25
475.501	84.25
475.72	99.25
475.939	73.25
476.158	90.25
476.377	70.25
476.596	84.25
476.814	99.25
477.033	95.25
477.252	89.25
477.471	71.25
477.69	82.25
477.908	90.25
478.127	84.25
478.346	82.25
478.564	91.25
478.783	102.25
479.002	80.25
479.22	83.25
479.439	102.25
479.658	96.25
479.876	106.25
480.095	96.25
480.313	91.25
480.532	104.25
480.751	101.25
480.969	149.25
481.188	288.25
481.406	210.25
481.624	107.25
481.843	91.25
482.061	73.25
482.28	88.25
482.498	91.25
482.717	100.25
482.935	82.25
483.153	104.25
483.372	97.25
483.59	79.25
483.808	80.25
484.027	102.25
484.245	96.25
484.463	107.25
484.681	106.25
484.9	104.25
485.118	96.25
485.336	93.25
485.554	104.25
485.772	105.25
485.99	98.25
486.209	96.25
486.427	111.25
486.645	122.25
486.863	104.25
487.081	101.25
487.299	95.25
487.517	109.25
487.735	83.25
487.953	88.25
488.171	99.25
488.389	90.25
488.607	110.25
488.825	96.25
489.043	84.25
489.261	101.25
489.479	87.25
489.696	86.25
489.914	88.25
490.132	81.25
490.35	96.25
490.568	88.25
490.786	83.25
491.003	66.25
491.221	94.25
491.439	94.25
491.657	88.25
491.874	100.25
492.092	101.25
492.31	80.25
492.527	92.25
492.745	90.25
492.963	105.25
493.18	88.25
493.398	101.25
493.615	95.25
493.833	92.25
494.05	89.25
494.268	93.25
494.485	89.25
494.703	91.25
494.92	93.25
495.138	90.25
495.355	84.25
495.573	94.25
495.79	81.25
496.008	102.25
496.225	92.25
496.442	90.25
496.66	96.25
496.877	74.25
497.094	96.25
497.312	110.25
497.529	76.25
497.746	87.25
497.963	89.25
498.181	73.25
498.398	99.25
498.615	110.25
498.832	112.25
499.049	94.25
499.267	92.25
499.484	92.25
499.701	95.25
499.918	80.25
500.135	88.25
500.352	89.25
500.569	76.25
500.786	102.25
501.003	88.25
501.22	82.25
501.437	79.25
501.654	84.25
501.871	99.25
502.088	83.25
502.305	92.25
502.522	87.25
502.739	93.25
502.956	90.25
503.172	97.25
503.389	111.25
503.606	108.25
503.823	90.25
504.04	98.25
504.256	87.25
504.473	109.25
504.69	89.25
504.907	102.25
505.123	84.25
505.34	93.25
505.557	87.25
505.773	99.25
505.99	100.25
506.207	80.25
506.423	90.25
506.64	97.25
506.856	98.25
507.073	81.25
507.289	88.25
507.506	102.25
507.722	113.25
507.939	115.25
508.155	100.25
508.372	81.25
508.588	72.25
508.805	94.25
509.021	100.25
509.238	96.25
509.454	90.25
509.67	83.25
509.887	106.25
510.103	130.25
510.319	239.25
510.536	836.25
510.752	2798.25
510.968	739.25
511.184	158.25
511.401	114.25
511.617	98.25
511.833	95.25
512.049	100.25
512.265	102.25
512.481	91.25
512.698	80.25
512.914	101.25
513.13	85.25
513.346	78.25
513.562	92.25
513.778	96.25
513.994	103.25
514.21	109.25
514.426	109.25
514.642	127.25
514.858	145.25
515.074	181.25
515.29	514.25
