Data from Uncirc_1983_H10_HRD10591_00055.txt Node
Date: Wed Jan 03 12:25:43 EST 2024
User: Yrep
Spectrometer: HR+D1059
Trigger mode: 1
Integration Time (sec): 1.000000E-1
Scans to average: 1
Electric dark correction enabled: true
Nonlinearity correction enabled: false
Boxcar width: 0
XAxis mode: Wavelengths
Number of Pixels in Spectrum: 2048
>>>>>Begin Spectral Data<<<<<
223.165	-13.62
223.4	-13.62
223.635	-13.62
223.869	-8.62
224.104	-22.62
224.338	-9.62
224.573	-22.62
224.808	-13.62
225.042	-9.62
225.277	-12.62
225.511	-1.62
225.746	6.38
225.98	1.38
226.215	7.38
226.449	12.38
226.683	30.38
226.918	20.38
227.152	36.38
227.387	39.38
227.621	34.38
227.856	47.38
228.09	46.38
228.324	33.38
228.559	50.38
228.793	55.38
229.027	66.38
229.262	59.38
229.496	63.38
229.73	75.38
229.964	88.38
230.199	85.38
230.433	69.38
230.667	71.38
230.901	59.38
231.136	75.38
231.37	80.38
231.604	79.38
231.838	73.38
232.072	75.38
232.306	81.38
232.541	70.38
232.775	73.38
233.009	96.38
233.243	89.38
233.477	88.38
233.711	72.38
233.945	83.38
234.179	87.38
234.413	75.38
234.647	80.38
234.881	86.38
235.115	66.38
235.349	88.38
235.583	74.38
235.817	82.38
236.051	64.38
236.285	71.38
236.519	82.38
236.753	80.38
236.987	80.38
237.221	75.38
237.455	75.38
237.689	72.38
237.922	72.38
238.156	79.38
238.39	82.38
238.624	70.38
238.858	68.38
239.091	70.38
239.325	81.38
239.559	75.38
239.793	65.38
240.027	85.38
240.26	81.38
240.494	86.38
240.728	64.38
240.961	82.38
241.195	74.38
241.429	72.38
241.662	75.38
241.896	80.38
242.13	67.38
242.363	58.38
242.597	78.38
242.83	70.38
243.064	64.38
243.298	63.38
243.531	79.38
243.765	73.38
243.998	68.38
244.232	71.38
244.465	79.38
244.699	80.38
244.932	86.38
245.166	81.38
245.399	84.38
245.633	72.38
245.866	80.38
246.099	81.38
246.333	81.38
246.566	67.38
246.8	72.38
247.033	71.38
247.266	76.38
247.5	75.38
247.733	86.38
247.966	81.38
248.2	76.38
248.433	80.38
248.666	72.38
248.899	78.38
249.133	100.38
249.366	91.38
249.599	72.38
249.832	72.38
250.066	73.38
250.299	80.38
250.532	91.38
250.765	62.38
250.998	65.38
251.231	72.38
251.465	84.38
251.698	93.38
251.931	84.38
252.164	87.38
252.397	85.38
252.63	80.38
252.863	86.38
253.096	84.38
253.329	86.38
253.562	70.38
253.795	84.38
254.028	89.38
254.261	94.38
254.494	82.38
254.727	84.38
254.96	82.38
255.193	76.38
255.426	84.38
255.659	75.38
255.892	82.38
256.124	91.38
256.357	75.38
256.59	82.38
256.823	75.38
257.056	84.38
257.289	80.38
257.521	78.38
257.754	54.38
257.987	66.38
258.22	89.38
258.452	75.38
258.685	73.38
258.918	86.38
259.151	80.38
259.383	76.38
259.616	81.38
259.849	88.38
260.081	85.38
260.314	84.38
260.547	74.38
260.779	76.38
261.012	71.38
261.244	78.38
261.477	86.38
261.71	91.38
261.942	98.38
262.175	119.38
262.407	101.38
262.64	76.38
262.872	75.38
263.105	84.38
263.337	97.38
263.57	83.38
263.802	85.38
264.035	82.38
264.267	90.38
264.499	72.38
264.732	82.38
264.964	84.38
265.197	85.38
265.429	88.38
265.661	62.38
265.894	72.38
266.126	73.38
266.358	86.38
266.591	86.38
266.823	106.38
267.055	89.38
267.287	92.38
267.52	86.38
267.752	79.38
267.984	78.38
268.216	88.38
268.448	82.38
268.681	78.38
268.913	72.38
269.145	75.38
269.377	91.38
269.609	76.38
269.841	82.38
270.073	78.38
270.306	86.38
270.538	75.38
270.77	74.38
271.002	84.38
271.234	72.38
271.466	76.38
271.698	88.38
271.93	75.38
272.162	82.38
272.394	86.38
272.626	84.38
272.858	67.38
273.09	83.38
273.322	82.38
273.553	74.38
273.785	92.38
274.017	84.38
274.249	59.38
274.481	99.38
274.713	76.38
274.945	75.38
275.176	83.38
275.408	89.38
275.64	66.38
275.872	72.38
276.104	82.38
276.335	73.38
276.567	90.38
276.799	110.38
277.031	90.38
277.262	85.38
277.494	81.38
277.726	87.38
277.957	73.38
278.189	80.38
278.421	83.38
278.652	102.38
278.884	94.38
279.115	85.38
279.347	86.38
279.579	83.38
279.81	88.38
280.042	86.38
280.273	81.38
280.505	93.38
280.736	75.38
280.968	75.38
281.199	83.38
281.431	92.38
281.662	92.38
281.894	84.38
282.125	86.38
282.356	103.38
282.588	121.38
282.819	104.38
283.051	85.38
283.282	89.38
283.513	91.38
283.745	90.38
283.976	72.38
284.207	89.38
284.439	79.38
284.67	94.38
284.901	74.38
285.132	84.38
285.364	82.38
285.595	71.38
285.826	72.38
286.057	86.38
286.288	99.38
286.52	74.38
286.751	80.38
286.982	82.38
287.213	91.38
287.444	85.38
287.675	81.38
287.906	86.38
288.138	81.38
288.369	91.38
288.6	89.38
288.831	90.38
289.062	86.38
289.293	93.38
289.524	95.38
289.755	90.38
289.986	81.38
290.217	72.38
290.448	83.38
290.679	88.38
290.91	77.38
291.141	78.38
291.371	87.38
291.602	95.38
291.833	75.38
292.064	87.38
292.295	87.38
292.526	71.38
292.757	81.38
292.987	86.38
293.218	85.38
293.449	85.38
293.68	89.38
293.91	93.38
294.141	92.38
294.372	83.38
294.603	80.38
294.833	90.38
295.064	88.38
295.295	84.38
295.525	95.38
295.756	106.38
295.987	112.38
296.217	122.38
296.448	113.38
296.679	79.38
296.909	82.38
297.14	84.38
297.37	101.38
297.601	91.38
297.831	96.38
298.062	86.38
298.292	86.38
298.523	95.38
298.753	92.38
298.984	90.38
299.214	90.38
299.445	84.38
299.675	86.38
299.905	88.38
300.136	83.38
300.366	101.38
300.597	87.38
300.827	73.38
301.057	85.38
301.288	96.38
301.518	98.38
301.748	86.38
301.979	95.38
302.209	87.38
302.439	89.38
302.669	79.38
302.9	86.38
303.13	78.38
303.36	87.38
303.59	88.38
303.82	106.38
304.051	85.38
304.281	86.38
304.511	92.38
304.741	79.38
304.971	84.38
305.201	92.38
305.431	84.38
305.661	74.38
305.891	83.38
306.121	98.38
306.352	86.38
306.582	95.38
306.812	91.38
307.042	81.38
307.272	92.38
307.502	102.38
307.731	90.38
307.961	97.38
308.191	99.38
308.421	79.38
308.651	100.38
308.881	85.38
309.111	106.38
309.341	101.38
309.571	87.38
309.8	111.38
310.03	106.38
310.26	86.38
310.49	100.38
310.72	98.38
310.949	96.38
311.179	96.38
311.409	97.38
311.639	96.38
311.868	88.38
312.098	87.38
312.328	82.38
312.557	98.38
312.787	102.38
313.017	92.38
313.246	77.38
313.476	96.38
313.706	92.38
313.935	96.38
314.165	86.38
314.394	101.38
314.624	96.38
314.853	85.38
315.083	96.38
315.312	91.38
315.542	76.38
315.771	89.38
316.001	89.38
316.23	98.38
316.46	84.38
316.689	96.38
316.919	100.38
317.148	86.38
317.377	81.38
317.607	95.38
317.836	94.38
318.065	92.38
318.295	90.38
318.524	89.38
318.753	82.38
318.983	95.38
319.212	92.38
319.441	96.38
319.67	93.38
319.9	97.38
320.129	78.38
320.358	87.38
320.587	92.38
320.816	92.38
321.046	89.38
321.275	103.38
321.504	81.38
321.733	102.38
321.962	101.38
322.191	95.38
322.42	93.38
322.649	101.38
322.878	121.38
323.108	105.38
323.337	119.38
323.566	129.38
323.795	147.38
324.024	188.38
324.253	345.38
324.482	712.38
324.71	1492.38
324.939	1998.38
325.168	726.38
325.397	237.38
325.626	120.38
325.855	117.38
326.084	118.38
326.313	130.38
326.542	126.38
326.77	211.38
326.999	401.38
327.228	823.38
327.457	1541.38
327.686	1173.38
327.914	347.38
328.143	186.38
328.372	139.38
328.6	105.38
328.829	111.38
329.058	110.38
329.287	123.38
329.515	102.38
329.744	90.38
329.972	91.38
330.201	103.38
330.43	109.38
330.658	104.38
330.887	122.38
331.115	98.38
331.344	108.38
331.572	90.38
331.801	107.38
332.03	92.38
332.258	91.38
332.486	84.38
332.715	91.38
332.943	86.38
333.172	95.38
333.4	107.38
333.629	110.38
333.857	106.38
334.085	111.38
334.314	113.38
334.542	102.38
334.771	127.38
334.999	105.38
335.227	95.38
335.455	80.38
335.684	98.38
335.912	100.38
336.14	91.38
336.369	88.38
336.597	103.38
336.825	90.38
337.053	84.38
337.281	88.38
337.51	90.38
337.738	86.38
337.966	107.38
338.194	82.38
338.422	93.38
338.65	96.38
338.878	102.38
339.106	101.38
339.334	86.38
339.562	92.38
339.79	88.38
340.018	79.38
340.246	92.38
340.474	88.38
340.702	92.38
340.93	94.38
341.158	97.38
341.386	92.38
341.614	94.38
341.842	83.38
342.07	107.38
342.298	79.38
342.526	74.38
342.754	84.38
342.981	88.38
343.209	87.38
343.437	92.38
343.665	104.38
343.893	104.38
344.12	87.38
344.348	83.38
344.576	88.38
344.804	92.38
345.031	85.38
345.259	83.38
345.487	85.38
345.714	99.38
345.942	91.38
346.17	108.38
346.397	103.38
346.625	86.38
346.853	83.38
347.08	100.38
347.308	96.38
347.535	85.38
347.763	100.38
347.99	94.38
348.218	111.38
348.445	110.38
348.673	95.38
348.9	100.38
349.128	103.38
349.355	85.38
349.583	97.38
349.81	100.38
350.037	95.38
350.265	103.38
350.492	105.38
350.72	95.38
350.947	95.38
351.174	105.38
351.402	105.38
351.629	96.38
351.856	104.38
352.083	96.38
352.311	111.38
352.538	81.38
352.765	117.38
352.992	112.38
353.22	102.38
353.447	105.38
353.674	98.38
353.901	94.38
354.128	102.38
354.355	95.38
354.583	97.38
354.81	87.38
355.037	90.38
355.264	86.38
355.491	85.38
355.718	98.38
355.945	95.38
356.172	82.38
356.399	100.38
356.626	86.38
356.853	101.38
357.08	98.38
357.307	78.38
357.534	93.38
357.761	90.38
357.988	97.38
358.215	100.38
358.441	87.38
358.668	94.38
358.895	81.38
359.122	83.38
359.349	89.38
359.576	91.38
359.802	106.38
360.029	107.38
360.256	108.38
360.483	89.38
360.709	80.38
360.936	92.38
361.163	91.38
361.39	85.38
361.616	89.38
361.843	94.38
362.07	75.38
362.296	89.38
362.523	96.38
362.749	82.38
362.976	84.38
363.203	100.38
363.429	86.38
363.656	63.38
363.882	87.38
364.109	95.38
364.335	85.38
364.562	91.38
364.788	96.38
365.015	79.38
365.241	88.38
365.468	91.38
365.694	97.38
365.92	87.38
366.147	92.38
366.373	86.38
366.599	101.38
366.826	102.38
367.052	82.38
367.278	88.38
367.505	91.38
367.731	91.38
367.957	87.38
368.184	89.38
368.41	87.38
368.636	98.38
368.862	119.38
369.089	93.38
369.315	94.38
369.541	88.38
369.767	87.38
369.993	90.38
370.219	103.38
370.445	92.38
370.672	85.38
370.898	98.38
371.124	94.38
371.35	89.38
371.576	83.38
371.802	82.38
372.028	72.38
372.254	91.38
372.48	82.38
372.706	80.38
372.932	86.38
373.158	96.38
373.384	90.38
373.61	88.38
373.835	74.38
374.061	90.38
374.287	96.38
374.513	96.38
374.739	87.38
374.965	87.38
375.191	97.38
375.416	83.38
375.642	74.38
375.868	95.38
376.094	82.38
376.319	87.38
376.545	81.38
376.771	84.38
376.997	84.38
377.222	100.38
377.448	90.38
377.674	72.38
377.899	74.38
378.125	82.38
378.35	87.38
378.576	90.38
378.802	97.38
379.027	89.38
379.253	107.38
379.478	80.38
379.704	95.38
379.929	85.38
380.155	86.38
380.38	95.38
380.606	99.38
380.831	96.38
381.057	83.38
381.282	86.38
381.507	94.38
381.733	88.38
381.958	85.38
382.184	100.38
382.409	97.38
382.634	106.38
382.86	92.38
383.085	107.38
383.31	99.38
383.535	90.38
383.761	99.38
383.986	101.38
384.211	94.38
384.436	111.38
384.662	90.38
384.887	99.38
385.112	102.38
385.337	103.38
385.562	100.38
385.787	108.38
386.013	107.38
386.238	112.38
386.463	98.38
386.688	96.38
386.913	88.38
387.138	87.38
387.363	94.38
387.588	105.38
387.813	101.38
388.038	106.38
388.263	100.38
388.488	107.38
388.713	91.38
388.938	91.38
389.163	81.38
389.387	94.38
389.612	102.38
389.837	87.38
390.062	112.38
390.287	74.38
390.512	74.38
390.736	86.38
390.961	100.38
391.186	85.38
391.411	99.38
391.636	98.38
391.86	91.38
392.085	88.38
392.31	86.38
392.534	88.38
392.759	92.38
392.984	102.38
393.208	88.38
393.433	85.38
393.658	90.38
393.882	66.38
394.107	84.38
394.331	72.38
394.556	69.38
394.78	73.38
395.005	73.38
395.229	83.38
395.454	100.38
395.678	93.38
395.903	73.38
396.127	94.38
396.352	96.38
396.576	92.38
396.801	103.38
397.025	96.38
397.249	86.38
397.474	96.38
397.698	74.38
397.922	87.38
398.147	74.38
398.371	98.38
398.595	90.38
398.82	82.38
399.044	95.38
399.268	94.38
399.492	96.38
399.717	95.38
399.941	91.38
400.165	89.38
400.389	86.38
400.613	78.38
400.837	88.38
401.062	89.38
401.286	83.38
401.51	78.38
401.734	106.38
401.958	82.38
402.182	129.38
402.406	137.38
402.63	101.38
402.854	100.38
403.078	108.38
403.302	86.38
403.526	95.38
403.75	100.38
403.974	75.38
404.198	84.38
404.422	90.38
404.645	80.38
404.869	76.38
405.093	94.38
405.317	100.38
405.541	102.38
405.765	91.38
405.988	105.38
406.212	158.38
406.436	207.38
406.66	121.38
406.883	77.38
407.107	90.38
407.331	89.38
407.555	93.38
407.778	97.38
408.002	101.38
408.226	100.38
408.449	88.38
408.673	89.38
408.896	87.38
409.12	90.38
409.344	91.38
409.567	87.38
409.791	95.38
410.014	96.38
410.238	99.38
410.461	106.38
410.685	95.38
410.908	104.38
411.132	104.38
411.355	106.38
411.578	99.38
411.802	87.38
412.025	77.38
412.249	71.38
412.472	87.38
412.695	93.38
412.919	86.38
413.142	89.38
413.365	90.38
413.589	72.38
413.812	74.38
414.035	84.38
414.258	99.38
414.482	101.38
414.705	99.38
414.928	105.38
415.151	104.38
415.374	82.38
415.597	81.38
415.821	100.38
416.044	94.38
416.267	77.38
416.49	96.38
416.713	100.38
416.936	86.38
417.159	80.38
417.382	94.38
417.605	76.38
417.828	107.38
418.051	96.38
418.274	97.38
418.497	98.38
418.72	85.38
418.943	90.38
419.166	88.38
419.389	88.38
419.611	73.38
419.834	86.38
420.057	102.38
420.28	92.38
420.503	94.38
420.726	82.38
420.948	97.38
421.171	100.38
421.394	94.38
421.617	87.38
421.839	88.38
422.062	97.38
422.285	86.38
422.507	94.38
422.73	98.38
422.953	97.38
423.175	99.38
423.398	100.38
423.621	87.38
423.843	78.38
424.066	90.38
424.288	87.38
424.511	91.38
424.733	103.38
424.956	100.38
425.178	100.38
425.401	105.38
425.623	84.38
425.846	90.38
426.068	74.38
426.291	94.38
426.513	92.38
426.735	81.38
426.958	91.38
427.18	108.38
427.402	128.38
427.625	137.38
427.847	111.38
428.069	116.38
428.292	76.38
428.514	73.38
428.736	72.38
428.958	87.38
429.181	83.38
429.403	95.38
429.625	89.38
429.847	91.38
430.069	91.38
430.292	80.38
430.514	93.38
430.736	90.38
430.958	98.38
431.18	86.38
431.402	89.38
431.624	90.38
431.846	76.38
432.068	91.38
432.29	99.38
432.512	100.38
432.734	89.38
432.956	96.38
433.178	98.38
433.4	92.38
433.622	88.38
433.844	88.38
434.066	101.38
434.287	94.38
434.509	99.38
434.731	75.38
434.953	96.38
435.175	88.38
435.397	86.38
435.618	84.38
435.84	87.38
436.062	107.38
436.284	106.38
436.505	98.38
436.727	92.38
436.949	97.38
437.17	97.38
437.392	82.38
437.614	89.38
437.835	97.38
438.057	106.38
438.278	101.38
438.5	106.38
438.721	115.38
438.943	100.38
439.165	86.38
439.386	95.38
439.608	86.38
439.829	106.38
440.05	107.38
440.272	123.38
440.493	95.38
440.715	88.38
440.936	112.38
441.158	83.38
441.379	84.38
441.6	90.38
441.822	97.38
442.043	94.38
442.264	112.38
442.486	97.38
442.707	89.38
442.928	106.38
443.149	125.38
443.371	119.38
443.592	104.38
443.813	102.38
444.034	104.38
444.255	82.38
444.476	84.38
444.698	67.38
444.919	101.38
445.14	144.38
445.361	123.38
445.582	122.38
445.803	137.38
446.024	120.38
446.245	122.38
446.466	118.38
446.687	98.38
446.908	79.38
447.129	73.38
447.35	72.38
447.571	81.38
447.792	85.38
448.013	98.38
448.234	114.38
448.455	108.38
448.675	113.38
448.896	116.38
449.117	91.38
449.338	100.38
449.559	129.38
449.779	139.38
450	104.38
450.221	102.38
450.442	87.38
450.662	76.38
450.883	111.38
451.104	96.38
451.324	83.38
451.545	73.38
451.766	83.38
451.986	84.38
452.207	83.38
452.428	91.38
452.648	87.38
452.869	100.38
453.089	103.38
453.31	99.38
453.53	93.38
453.751	104.38
453.971	102.38
454.192	102.38
454.412	76.38
454.633	94.38
454.853	98.38
455.073	89.38
455.294	72.38
455.514	99.38
455.734	82.38
455.955	100.38
456.175	90.38
456.395	82.38
456.616	97.38
456.836	84.38
457.056	79.38
457.276	80.38
457.497	86.38
457.717	90.38
457.937	79.38
458.157	80.38
458.377	90.38
458.598	109.38
458.818	130.38
459.038	143.38
459.258	99.38
459.478	87.38
459.698	96.38
459.918	91.38
460.138	82.38
460.358	89.38
460.578	92.38
460.798	95.38
461.018	87.38
461.238	72.38
461.458	88.38
461.678	73.38
461.898	80.38
462.118	92.38
462.338	91.38
462.558	80.38
462.777	87.38
462.997	88.38
463.217	81.38
463.437	90.38
463.657	88.38
463.876	89.38
464.096	90.38
464.316	82.38
464.536	90.38
464.755	99.38
464.975	107.38
465.195	144.38
465.414	126.38
465.634	104.38
465.854	87.38
466.073	72.38
466.293	96.38
466.512	74.38
466.732	82.38
466.951	96.38
467.171	93.38
467.391	90.38
467.61	104.38
467.829	107.38
468.049	105.38
468.268	92.38
468.488	90.38
468.707	84.38
468.927	75.38
469.146	97.38
469.365	98.38
469.585	101.38
469.804	95.38
470.023	91.38
470.243	96.38
470.462	103.38
470.681	105.38
470.901	91.38
471.12	98.38
471.339	90.38
471.558	89.38
471.777	90.38
471.997	100.38
472.216	97.38
472.435	108.38
472.654	97.38
472.873	96.38
473.092	90.38
473.311	99.38
473.53	88.38
473.749	86.38
473.968	103.38
474.187	98.38
474.406	88.38
474.625	90.38
474.844	95.38
475.063	90.38
475.282	89.38
475.501	72.38
475.72	87.38
475.939	86.38
476.158	98.38
476.377	79.38
476.596	84.38
476.814	84.38
477.033	105.38
477.252	80.38
477.471	80.38
477.69	95.38
477.908	86.38
478.127	83.38
478.346	86.38
478.564	86.38
478.783	81.38
479.002	76.38
479.22	84.38
479.439	99.38
479.658	100.38
479.876	90.38
480.095	102.38
480.313	97.38
480.532	90.38
480.751	86.38
480.969	86.38
481.188	146.38
481.406	118.38
481.624	101.38
481.843	72.38
482.061	84.38
482.28	85.38
482.498	94.38
482.717	76.38
482.935	78.38
483.153	82.38
483.372	95.38
483.59	101.38
483.808	90.38
484.027	94.38
484.245	91.38
484.463	105.38
484.681	92.38
484.9	87.38
485.118	75.38
485.336	101.38
485.554	96.38
485.772	105.38
485.99	95.38
486.209	94.38
486.427	99.38
486.645	97.38
486.863	108.38
487.081	99.38
487.299	78.38
487.517	94.38
487.735	80.38
487.953	84.38
488.171	92.38
488.389	77.38
488.607	87.38
488.825	79.38
489.043	98.38
489.261	94.38
489.479	82.38
489.696	108.38
489.914	96.38
490.132	73.38
490.35	90.38
490.568	83.38
490.786	97.38
491.003	99.38
491.221	98.38
491.439	81.38
491.657	90.38
491.874	91.38
492.092	91.38
492.31	99.38
492.527	94.38
492.745	92.38
492.963	104.38
493.18	85.38
493.398	90.38
493.615	99.38
493.833	91.38
494.05	92.38
494.268	69.38
494.485	90.38
494.703	86.38
494.92	79.38
495.138	79.38
495.355	100.38
495.573	113.38
495.79	96.38
496.008	82.38
496.225	86.38
496.442	83.38
496.66	90.38
496.877	92.38
497.094	106.38
497.312	88.38
497.529	93.38
497.746	78.38
497.963	74.38
498.181	98.38
498.398	99.38
498.615	118.38
498.832	99.38
499.049	98.38
499.267	88.38
499.484	91.38
499.701	99.38
499.918	98.38
500.135	100.38
500.352	84.38
500.569	87.38
500.786	89.38
501.003	84.38
501.22	94.38
501.437	82.38
501.654	91.38
501.871	101.38
502.088	107.38
502.305	82.38
502.522	101.38
502.739	84.38
502.956	88.38
503.172	69.38
503.389	106.38
503.606	99.38
503.823	101.38
504.04	94.38
504.256	90.38
504.473	91.38
504.69	90.38
504.907	94.38
505.123	86.38
505.34	83.38
505.557	93.38
505.773	76.38
505.99	92.38
506.207	88.38
506.423	99.38
506.64	90.38
506.856	85.38
507.073	83.38
507.289	96.38
507.506	95.38
507.722	105.38
507.939	106.38
508.155	100.38
508.372	92.38
508.588	97.38
508.805	100.38
509.021	94.38
509.238	108.38
509.454	101.38
509.67	112.38
509.887	106.38
510.103	128.38
510.319	209.38
510.536	690.38
510.752	2109.38
510.968	592.38
511.184	138.38
511.401	107.38
511.617	99.38
511.833	104.38
512.049	103.38
512.265	66.38
512.481	83.38
512.698	91.38
512.914	86.38
513.13	102.38
513.346	85.38
513.562	105.38
513.778	94.38
513.994	96.38
514.21	94.38
514.426	103.38
514.642	122.38
514.858	102.38
515.074	146.38
515.29	385.38
515.506	1251.38
515.721	456.38
515.937	139.38
