Data from Uncirc_1983_H10_HRD10591_00080.txt Node
Date: Wed Jan 03 12:25:48 EST 2024
User: Yrep
Spectrometer: HR+D1059
Trigger mode: 1
Integration Time (sec): 1.000000E-1
Scans to average: 1
Electric dark correction enabled: true
Nonlinearity correction enabled: false
Boxcar width: 0
XAxis mode: Wavelengths
Number of Pixels in Spectrum: 2048
>>>>>Begin Spectral Data<<<<<
223.165	-24.5
223.4	-24.5
223.635	-24.5
223.869	-27.5
224.104	-12.5
224.338	-14.5
224.573	0.5
224.808	-14.5
225.042	-14.5
225.277	-11.5
225.511	-4.5
225.746	-4.5
225.98	10.5
226.215	3.5
226.449	21.5
226.683	29.5
226.918	34.5
227.152	28.5
227.387	26.5
227.621	39.5
227.856	49.5
228.09	41.5
228.324	56.5
228.559	61.5
228.793	53.5
229.027	60.5
229.262	83.5
229.496	79.5
229.73	70.5
229.964	71.5
230.199	80.5
230.433	67.5
230.667	81.5
230.901	79.5
231.136	74.5
231.37	86.5
231.604	84.5
231.838	76.5
232.072	89.5
232.306	78.5
232.541	74.5
232.775	69.5
233.009	88.5
233.243	86.5
233.477	86.5
233.711	76.5
233.945	81.5
234.179	68.5
234.413	81.5
234.647	80.5
234.881	89.5
235.115	77.5
235.349	65.5
235.583	65.5
235.817	82.5
236.051	83.5
236.285	70.5
236.519	71.5
236.753	79.5
236.987	70.5
237.221	83.5
237.455	79.5
237.689	63.5
237.922	73.5
238.156	64.5
238.39	76.5
238.624	77.5
238.858	73.5
239.091	61.5
239.325	83.5
239.559	97.5
239.793	74.5
240.027	79.5
240.26	72.5
240.494	63.5
240.728	81.5
240.961	89.5
241.195	77.5
241.429	88.5
241.662	53.5
241.896	73.5
242.13	64.5
242.363	81.5
242.597	87.5
242.83	78.5
243.064	78.5
243.298	79.5
243.531	80.5
243.765	77.5
243.998	79.5
244.232	78.5
244.465	82.5
244.699	74.5
244.932	72.5
245.166	96.5
245.399	81.5
245.633	63.5
245.866	83.5
246.099	64.5
246.333	71.5
246.566	67.5
246.8	67.5
247.033	69.5
247.266	71.5
247.5	55.5
247.733	54.5
247.966	81.5
248.2	72.5
248.433	64.5
248.666	88.5
248.899	93.5
249.133	86.5
249.366	96.5
249.599	87.5
249.832	64.5
250.066	77.5
250.299	79.5
250.532	90.5
250.765	79.5
250.998	82.5
251.231	69.5
251.465	72.5
251.698	70.5
251.931	84.5
252.164	85.5
252.397	76.5
252.63	85.5
252.863	82.5
253.096	73.5
253.329	85.5
253.562	69.5
253.795	71.5
254.028	71.5
254.261	82.5
254.494	85.5
254.727	87.5
254.96	83.5
255.193	83.5
255.426	87.5
255.659	80.5
255.892	83.5
256.124	74.5
256.357	73.5
256.59	71.5
256.823	69.5
257.056	69.5
257.289	99.5
257.521	87.5
257.754	74.5
257.987	84.5
258.22	69.5
258.452	65.5
258.685	79.5
258.918	85.5
259.151	85.5
259.383	92.5
259.616	82.5
259.849	75.5
260.081	74.5
260.314	65.5
260.547	75.5
260.779	71.5
261.012	91.5
261.244	79.5
261.477	84.5
261.71	86.5
261.942	96.5
262.175	111.5
262.407	66.5
262.64	68.5
262.872	75.5
263.105	71.5
263.337	81.5
263.57	87.5
263.802	93.5
264.035	85.5
264.267	79.5
264.499	90.5
264.732	81.5
264.964	75.5
265.197	97.5
265.429	71.5
265.661	80.5
265.894	72.5
266.126	83.5
266.358	66.5
266.591	76.5
266.823	74.5
267.055	79.5
267.287	82.5
267.52	81.5
267.752	88.5
267.984	77.5
268.216	74.5
268.448	90.5
268.681	86.5
268.913	81.5
269.145	95.5
269.377	81.5
269.609	70.5
269.841	78.5
270.073	96.5
270.306	85.5
270.538	89.5
270.77	75.5
271.002	73.5
271.234	75.5
271.466	80.5
271.698	87.5
271.93	93.5
272.162	92.5
272.394	77.5
272.626	79.5
272.858	89.5
273.09	96.5
273.322	91.5
273.553	102.5
273.785	86.5
274.017	81.5
274.249	98.5
274.481	67.5
274.713	79.5
274.945	90.5
275.176	75.5
275.408	75.5
275.64	96.5
275.872	91.5
276.104	81.5
276.335	93.5
276.567	99.5
276.799	113.5
277.031	110.5
277.262	87.5
277.494	81.5
277.726	77.5
277.957	75.5
278.189	86.5
278.421	87.5
278.652	99.5
278.884	90.5
279.115	83.5
279.347	84.5
279.579	82.5
279.81	75.5
280.042	82.5
280.273	94.5
280.505	87.5
280.736	81.5
280.968	90.5
281.199	74.5
281.431	97.5
281.662	92.5
281.894	80.5
282.125	98.5
282.356	111.5
282.588	145.5
282.819	105.5
283.051	96.5
283.282	89.5
283.513	93.5
283.745	84.5
283.976	85.5
284.207	75.5
284.439	84.5
284.67	83.5
284.901	71.5
285.132	92.5
285.364	85.5
285.595	95.5
285.826	90.5
286.057	95.5
286.288	68.5
286.52	88.5
286.751	88.5
286.982	91.5
287.213	86.5
287.444	98.5
287.675	91.5
287.906	92.5
288.138	83.5
288.369	86.5
288.6	80.5
288.831	83.5
289.062	103.5
289.293	82.5
289.524	88.5
289.755	106.5
289.986	82.5
290.217	83.5
290.448	81.5
290.679	80.5
290.91	86.5
291.141	97.5
291.371	87.5
291.602	81.5
291.833	83.5
292.064	78.5
292.295	71.5
292.526	87.5
292.757	94.5
292.987	102.5
293.218	78.5
293.449	90.5
293.68	95.5
293.91	85.5
294.141	83.5
294.372	93.5
294.603	83.5
294.833	72.5
295.064	84.5
295.295	87.5
295.525	90.5
295.756	93.5
295.987	100.5
296.217	121.5
296.448	119.5
296.679	86.5
296.909	86.5
297.14	84.5
297.37	86.5
297.601	78.5
297.831	97.5
298.062	112.5
298.292	82.5
298.523	83.5
298.753	95.5
298.984	81.5
299.214	81.5
299.445	80.5
299.675	91.5
299.905	92.5
300.136	90.5
300.366	90.5
300.597	88.5
300.827	85.5
301.057	96.5
301.288	106.5
301.518	92.5
301.748	81.5
301.979	92.5
302.209	87.5
302.439	111.5
302.669	88.5
302.9	87.5
303.13	82.5
303.36	89.5
303.59	93.5
303.82	99.5
304.051	91.5
304.281	90.5
304.511	91.5
304.741	81.5
304.971	90.5
305.201	75.5
305.431	90.5
305.661	90.5
305.891	85.5
306.121	101.5
306.352	96.5
306.582	103.5
306.812	85.5
307.042	94.5
307.272	93.5
307.502	91.5
307.731	94.5
307.961	94.5
308.191	79.5
308.421	85.5
308.651	89.5
308.881	79.5
309.111	95.5
309.341	90.5
309.571	101.5
309.8	111.5
310.03	86.5
310.26	93.5
310.49	88.5
310.72	102.5
310.949	96.5
311.179	106.5
311.409	91.5
311.639	95.5
311.868	91.5
312.098	88.5
312.328	74.5
312.557	91.5
312.787	94.5
313.017	90.5
313.246	90.5
313.476	91.5
313.706	98.5
313.935	87.5
314.165	98.5
314.394	106.5
314.624	91.5
314.853	87.5
315.083	81.5
315.312	90.5
315.542	91.5
315.771	77.5
316.001	96.5
316.23	99.5
316.46	87.5
316.689	85.5
316.919	84.5
317.148	99.5
317.377	115.5
317.607	86.5
317.836	92.5
318.065	99.5
318.295	91.5
318.524	88.5
318.753	86.5
318.983	102.5
319.212	91.5
319.441	112.5
319.67	114.5
319.9	97.5
320.129	103.5
320.358	93.5
320.587	95.5
320.816	83.5
321.046	91.5
321.275	87.5
321.504	90.5
321.733	83.5
321.962	90.5
322.191	99.5
322.42	99.5
322.649	94.5
322.878	99.5
323.108	115.5
323.337	115.5
323.566	131.5
323.795	133.5
324.024	183.5
324.253	342.5
324.482	709.5
324.71	1491.5
324.939	1931.5
325.168	709.5
325.397	229.5
325.626	136.5
325.855	116.5
326.084	113.5
326.313	136.5
326.542	146.5
326.77	209.5
326.999	410.5
327.228	799.5
327.457	1513.5
327.686	1210.5
327.914	335.5
328.143	179.5
328.372	150.5
328.6	125.5
328.829	111.5
329.058	115.5
329.287	102.5
329.515	101.5
329.744	99.5
329.972	100.5
330.201	111.5
330.43	137.5
330.658	125.5
330.887	118.5
331.115	110.5
331.344	93.5
331.572	97.5
331.801	99.5
332.03	99.5
332.258	79.5
332.486	91.5
332.715	86.5
332.943	86.5
333.172	75.5
333.4	104.5
333.629	90.5
333.857	116.5
334.085	105.5
334.314	118.5
334.542	141.5
334.771	145.5
334.999	101.5
335.227	94.5
335.455	114.5
335.684	95.5
335.912	87.5
336.14	94.5
336.369	97.5
336.597	85.5
336.825	85.5
337.053	98.5
337.281	81.5
337.51	74.5
337.738	84.5
337.966	101.5
338.194	95.5
338.422	98.5
338.65	110.5
338.878	106.5
339.106	93.5
339.334	91.5
339.562	87.5
339.79	89.5
340.018	97.5
340.246	91.5
340.474	89.5
340.702	80.5
340.93	90.5
341.158	75.5
341.386	102.5
341.614	102.5
341.842	88.5
342.07	88.5
342.298	94.5
342.526	96.5
342.754	86.5
342.981	92.5
343.209	88.5
343.437	86.5
343.665	87.5
343.893	84.5
344.12	85.5
344.348	80.5
344.576	111.5
344.804	93.5
345.031	102.5
345.259	107.5
345.487	97.5
345.714	94.5
345.942	81.5
346.17	84.5
346.397	93.5
346.625	86.5
346.853	82.5
347.08	73.5
347.308	97.5
347.535	83.5
347.763	102.5
347.99	82.5
348.218	101.5
348.445	101.5
348.673	111.5
348.9	90.5
349.128	89.5
349.355	97.5
349.583	83.5
349.81	102.5
350.037	81.5
350.265	89.5
350.492	97.5
350.72	90.5
350.947	99.5
351.174	92.5
351.402	96.5
351.629	104.5
351.856	98.5
352.083	88.5
352.311	103.5
352.538	97.5
352.765	97.5
352.992	118.5
353.22	102.5
353.447	85.5
353.674	99.5
353.901	101.5
354.128	100.5
354.355	89.5
354.583	102.5
354.81	87.5
355.037	98.5
355.264	93.5
355.491	88.5
355.718	101.5
355.945	83.5
356.172	86.5
356.399	100.5
356.626	90.5
356.853	93.5
357.08	98.5
357.307	87.5
357.534	93.5
357.761	85.5
357.988	95.5
358.215	83.5
358.441	81.5
358.668	93.5
358.895	97.5
359.122	92.5
359.349	92.5
359.576	84.5
359.802	94.5
360.029	90.5
360.256	103.5
360.483	92.5
360.709	85.5
360.936	84.5
361.163	75.5
361.39	89.5
361.616	93.5
361.843	83.5
362.07	91.5
362.296	109.5
362.523	98.5
362.749	89.5
362.976	85.5
363.203	83.5
363.429	77.5
363.656	81.5
363.882	90.5
364.109	95.5
364.335	97.5
364.562	96.5
364.788	87.5
365.015	80.5
365.241	99.5
365.468	96.5
365.694	102.5
365.92	101.5
366.147	86.5
366.373	98.5
366.599	87.5
366.826	79.5
367.052	100.5
367.278	89.5
367.505	85.5
367.731	101.5
367.957	84.5
368.184	94.5
368.41	91.5
368.636	100.5
368.862	121.5
369.089	100.5
369.315	97.5
369.541	83.5
369.767	95.5
369.993	84.5
370.219	90.5
370.445	75.5
370.672	83.5
370.898	92.5
371.124	94.5
371.35	81.5
371.576	69.5
371.802	95.5
372.028	90.5
372.254	83.5
372.48	66.5
372.706	78.5
372.932	87.5
373.158	84.5
373.384	83.5
373.61	73.5
373.835	90.5
374.061	80.5
374.287	81.5
374.513	91.5
374.739	83.5
374.965	82.5
375.191	86.5
375.416	91.5
375.642	82.5
375.868	94.5
376.094	87.5
376.319	81.5
376.545	74.5
376.771	84.5
376.997	89.5
377.222	98.5
377.448	87.5
377.674	98.5
377.899	104.5
378.125	86.5
378.35	83.5
378.576	86.5
378.802	89.5
379.027	84.5
379.253	98.5
379.478	91.5
379.704	95.5
379.929	101.5
380.155	85.5
380.38	84.5
380.606	82.5
380.831	86.5
381.057	97.5
381.282	91.5
381.507	100.5
381.733	88.5
381.958	97.5
382.184	90.5
382.409	104.5
382.634	100.5
382.86	88.5
383.085	91.5
383.31	88.5
383.535	97.5
383.761	80.5
383.986	75.5
384.211	79.5
384.436	90.5
384.662	84.5
384.887	97.5
385.112	101.5
385.337	89.5
385.562	93.5
385.787	107.5
386.013	110.5
386.238	114.5
386.463	90.5
386.688	98.5
386.913	99.5
387.138	105.5
387.363	101.5
387.588	93.5
387.813	93.5
388.038	91.5
388.263	113.5
388.488	90.5
388.713	81.5
388.938	90.5
389.163	85.5
389.387	92.5
389.612	88.5
389.837	83.5
390.062	103.5
390.287	90.5
390.512	77.5
390.736	80.5
390.961	90.5
391.186	88.5
391.411	99.5
391.636	95.5
391.86	73.5
392.085	84.5
392.31	79.5
392.534	85.5
392.759	89.5
392.984	79.5
393.208	94.5
393.433	85.5
393.658	97.5
393.882	74.5
394.107	86.5
394.331	98.5
394.556	82.5
394.78	91.5
395.005	97.5
395.229	79.5
395.454	79.5
395.678	94.5
395.903	87.5
396.127	81.5
396.352	71.5
396.576	97.5
396.801	85.5
397.025	83.5
397.249	79.5
397.474	72.5
397.698	75.5
397.922	78.5
398.147	81.5
398.371	79.5
398.595	99.5
398.82	93.5
399.044	77.5
399.268	80.5
399.492	79.5
399.717	86.5
399.941	85.5
400.165	85.5
400.389	83.5
400.613	97.5
400.837	77.5
401.062	77.5
401.286	94.5
401.51	101.5
401.734	98.5
401.958	101.5
402.182	109.5
402.406	144.5
402.63	106.5
402.854	84.5
403.078	81.5
403.302	75.5
403.526	92.5
403.75	80.5
403.974	81.5
404.198	83.5
404.422	79.5
404.645	99.5
404.869	88.5
405.093	93.5
405.317	78.5
405.541	99.5
405.765	95.5
405.988	118.5
406.212	161.5
406.436	199.5
406.66	144.5
406.883	101.5
407.107	77.5
407.331	98.5
407.555	85.5
407.778	89.5
408.002	100.5
408.226	91.5
408.449	81.5
408.673	89.5
408.896	89.5
409.12	85.5
409.344	81.5
409.567	81.5
409.791	88.5
410.014	95.5
410.238	89.5
410.461	83.5
410.685	106.5
410.908	97.5
411.132	107.5
411.355	92.5
411.578	89.5
411.802	85.5
412.025	94.5
412.249	93.5
412.472	83.5
412.695	90.5
412.919	84.5
413.142	88.5
413.365	86.5
413.589	94.5
413.812	85.5
414.035	89.5
414.258	85.5
414.482	104.5
414.705	99.5
414.928	94.5
415.151	90.5
415.374	101.5
415.597	73.5
415.821	88.5
416.044	84.5
416.267	93.5
416.49	87.5
416.713	95.5
416.936	78.5
417.159	69.5
417.382	87.5
417.605	94.5
417.828	84.5
418.051	83.5
418.274	92.5
418.497	81.5
418.72	80.5
418.943	98.5
419.166	94.5
419.389	74.5
419.611	95.5
419.834	90.5
420.057	81.5
420.28	90.5
420.503	101.5
420.726	93.5
420.948	67.5
421.171	84.5
421.394	97.5
421.617	85.5
421.839	85.5
422.062	91.5
422.285	97.5
422.507	98.5
422.73	98.5
422.953	101.5
423.175	87.5
423.398	99.5
423.621	93.5
423.843	96.5
424.066	89.5
424.288	80.5
424.511	85.5
424.733	103.5
424.956	99.5
425.178	100.5
425.401	98.5
425.623	90.5
425.846	82.5
426.068	83.5
426.291	107.5
426.513	91.5
426.735	81.5
426.958	88.5
427.18	111.5
427.402	133.5
427.625	151.5
427.847	118.5
428.069	128.5
428.292	94.5
428.514	72.5
428.736	81.5
428.958	82.5
429.181	82.5
429.403	92.5
429.625	97.5
429.847	99.5
430.069	106.5
430.292	98.5
430.514	78.5
430.736	76.5
430.958	82.5
431.18	80.5
431.402	93.5
431.624	83.5
431.846	74.5
432.068	92.5
432.29	75.5
432.512	88.5
432.734	77.5
432.956	91.5
433.178	95.5
433.4	107.5
433.622	86.5
433.844	89.5
434.066	104.5
434.287	98.5
434.509	72.5
434.731	96.5
434.953	88.5
435.175	89.5
435.397	89.5
435.618	85.5
435.84	89.5
436.062	124.5
436.284	109.5
436.505	107.5
436.727	107.5
436.949	95.5
437.17	94.5
437.392	95.5
437.614	90.5
437.835	101.5
438.057	123.5
438.278	114.5
438.5	100.5
438.721	109.5
438.943	101.5
439.165	105.5
439.386	95.5
439.608	93.5
439.829	95.5
440.05	109.5
440.272	131.5
440.493	100.5
440.715	86.5
440.936	75.5
441.158	91.5
441.379	101.5
441.6	92.5
441.822	99.5
442.043	95.5
442.264	94.5
442.486	96.5
442.707	95.5
442.928	97.5
443.149	117.5
443.371	117.5
443.592	115.5
443.813	114.5
444.034	112.5
444.255	82.5
444.476	66.5
444.698	91.5
444.919	93.5
445.14	130.5
445.361	126.5
445.582	111.5
445.803	117.5
446.024	126.5
446.245	122.5
446.466	115.5
446.687	83.5
446.908	81.5
447.129	86.5
447.35	78.5
447.571	89.5
447.792	89.5
448.013	98.5
448.234	105.5
448.455	95.5
448.675	98.5
448.896	105.5
449.117	101.5
449.338	90.5
449.559	126.5
449.779	137.5
450	101.5
450.221	79.5
450.442	80.5
450.662	96.5
450.883	106.5
451.104	114.5
451.324	98.5
451.545	87.5
451.766	94.5
451.986	82.5
452.207	85.5
452.428	87.5
452.648	87.5
452.869	94.5
453.089	108.5
453.31	115.5
453.53	92.5
453.751	85.5
453.971	90.5
454.192	91.5
454.412	77.5
454.633	88.5
454.853	85.5
455.073	81.5
455.294	79.5
455.514	97.5
455.734	96.5
455.955	70.5
456.175	79.5
456.395	89.5
456.616	74.5
456.836	83.5
457.056	77.5
457.276	85.5
457.497	69.5
457.717	87.5
457.937	89.5
458.157	85.5
458.377	86.5
458.598	98.5
458.818	143.5
459.038	124.5
459.258	92.5
459.478	89.5
459.698	91.5
459.918	71.5
460.138	87.5
460.358	90.5
460.578	73.5
460.798	86.5
461.018	96.5
461.238	81.5
461.458	85.5
461.678	75.5
461.898	96.5
462.118	81.5
462.338	78.5
462.558	97.5
462.777	76.5
462.997	81.5
463.217	85.5
463.437	83.5
463.657	88.5
463.876	96.5
464.096	79.5
464.316	82.5
464.536	105.5
464.755	91.5
464.975	108.5
465.195	155.5
465.414	143.5
465.634	98.5
465.854	91.5
466.073	78.5
466.293	86.5
466.512	93.5
466.732	73.5
466.951	79.5
467.171	90.5
467.391	87.5
467.61	99.5
467.829	102.5
468.049	93.5
468.268	98.5
468.488	82.5
468.707	69.5
468.927	80.5
469.146	83.5
469.365	85.5
469.585	85.5
469.804	94.5
470.023	95.5
470.243	85.5
470.462	99.5
470.681	105.5
470.901	87.5
471.12	92.5
471.339	90.5
471.558	74.5
471.777	91.5
471.997	100.5
472.216	114.5
472.435	148.5
472.654	95.5
472.873	93.5
473.092	86.5
473.311	90.5
473.53	71.5
473.749	95.5
473.968	84.5
474.187	100.5
474.406	86.5
474.625	84.5
474.844	84.5
475.063	85.5
475.282	95.5
475.501	80.5
475.72	86.5
475.939	97.5
476.158	96.5
476.377	73.5
476.596	85.5
476.814	85.5
477.033	81.5
477.252	89.5
477.471	78.5
477.69	81.5
477.908	72.5
478.127	101.5
478.346	102.5
478.564	94.5
478.783	92.5
479.002	84.5
479.22	94.5
479.439	102.5
479.658	93.5
479.876	109.5
480.095	91.5
480.313	101.5
480.532	89.5
480.751	99.5
480.969	110.5
481.188	235.5
481.406	160.5
481.624	102.5
481.843	77.5
482.061	93.5
482.28	83.5
482.498	83.5
482.717	102.5
482.935	81.5
483.153	85.5
483.372	105.5
483.59	92.5
483.808	74.5
484.027	92.5
484.245	81.5
484.463	88.5
484.681	101.5
484.9	85.5
485.118	94.5
485.336	86.5
485.554	90.5
485.772	86.5
485.99	100.5
486.209	81.5
486.427	99.5
486.645	95.5
486.863	107.5
487.081	93.5
487.299	93.5
487.517	96.5
487.735	85.5
487.953	83.5
488.171	94.5
488.389	107.5
488.607	103.5
488.825	92.5
489.043	89.5
489.261	89.5
489.479	89.5
489.696	94.5
489.914	93.5
490.132	88.5
490.35	97.5
490.568	83.5
490.786	79.5
491.003	80.5
491.221	89.5
491.439	85.5
491.657	85.5
491.874	84.5
492.092	82.5
492.31	81.5
492.527	91.5
492.745	86.5
492.963	95.5
493.18	85.5
493.398	85.5
493.615	105.5
493.833	97.5
494.05	87.5
494.268	85.5
494.485	82.5
494.703	92.5
494.92	101.5
495.138	90.5
495.355	86.5
495.573	80.5
495.79	79.5
496.008	97.5
496.225	85.5
496.442	73.5
496.66	85.5
496.877	89.5
497.094	73.5
497.312	93.5
497.529	93.5
497.746	95.5
497.963	104.5
498.181	89.5
498.398	94.5
498.615	115.5
498.832	107.5
499.049	95.5
499.267	75.5
499.484	94.5
499.701	87.5
499.918	86.5
500.135	85.5
500.352	88.5
500.569	89.5
500.786	80.5
501.003	89.5
501.22	83.5
501.437	74.5
501.654	87.5
501.871	111.5
502.088	88.5
502.305	86.5
502.522	87.5
502.739	102.5
502.956	81.5
503.172	87.5
503.389	95.5
503.606	117.5
503.823	81.5
504.04	87.5
504.256	86.5
504.473	83.5
504.69	94.5
504.907	103.5
505.123	102.5
505.34	84.5
505.557	83.5
505.773	99.5
505.99	93.5
506.207	86.5
506.423	84.5
506.64	90.5
506.856	86.5
507.073	89.5
507.289	101.5
507.506	103.5
507.722	106.5
507.939	106.5
508.155	97.5
508.372	73.5
508.588	87.5
508.805	96.5
509.021	77.5
509.238	88.5
509.454	94.5
509.67	99.5
509.887	94.5
510.103	122.5
510.319	201.5
510.536	695.5
510.752	2206.5
510.968	578.5
511.184	153.5
511.401	119.5
511.617	95.5
511.833	89.5
512.049	96.5
512.265	98.5
512.481	86.5
512.698	89.5
512.914	82.5
513.13	96.5
513.346	94.5
513.562	90.5
513.778	88.5
513.994	90.5
514.21	104.5
514.426	106.5
514.642	110.5
514.858	118.5
515.074	145.5
515.29	425.5
515.506	1313.5
515.721	486.5
515.937	141.5
516.153	102.5
516.369	87.5
516.585	105.5
516.801	97.5
517.016	98.5
517.232	99.5
517.448	89.5
517.664	87.5
517.879	75.5
518.095	98.5
518.311	97.5
518.527	96.5
518.742	78.5
518.958	82.5
519.173	94.5
519.389	91.5
519.605	106.5
519.82	96.5
520.036	99.5
520.251	117.5
520.467	107.5
520.682	107.5
520.898	102.5
521.113	112.5
521.329	128.5
521.544	174.5
521.76	523.5
521.975	2227.5
522.19	1282.5
522.406	287.5
522.621	119.5
522.836	100.5
523.052	107.5
523.267	101.5
523.482	87.5
523.698	92.5
523.913	116.5
524.128	94.5
524.343	92.5
524.559	88.5
524.774	97.5
524.989	77.5
525.204	101.5
525.419	94.5
525.634	95.5
525.849	73.5
526.064	77.5
526.28	94.5
526.495	89.5
526.71	95.5
526.925	73.5
527.14	93.5
527.355	70.5
527.57	90.5
527.785	75.5
527.999	99.5
528.214	92.5
528.429	103.5
528.644	84.5
528.859	80.5
529.074	96.5
529.289	106.5
529.503	162.5
529.718	89.5
529.933	87.5
530.148	78.5
530.363	100.5
530.577	95.5
530.792	85.5
531.007	98.5
531.221	78.5
531.436	81.5
531.651	98.5
531.865	81.5
532.08	88.5
532.295	105.5
532.509	81.5
532.724	95.5
532.938	96.5
533.153	96.5
533.367	110.5
533.582	106.5
533.796	95.5
534.011	83.5
534.225	84.5
534.44	99.5
534.654	94.5
534.868	109.5
535.083	104.5
535.297	90.5
535.511	101.5
535.726	95.5
535.94	83.5
536.154	98.5
536.369	87.5
