Data from Uncirc_1983_H10_HRD10591_00088.txt Node
Date: Wed Jan 03 12:25:49 EST 2024
User: Yrep
Spectrometer: HR+D1059
Trigger mode: 1
Integration Time (sec): 1.000000E-1
Scans to average: 1
Electric dark correction enabled: true
Nonlinearity correction enabled: false
Boxcar width: 0
XAxis mode: Wavelengths
Number of Pixels in Spectrum: 2048
>>>>>Begin Spectral Data<<<<<
223.165	-23.12
223.4	-23.12
223.635	-23.12
223.869	-23.12
224.104	-13.12
224.338	-13.12
224.573	-10.12
224.808	-19.12
225.042	10.88
225.277	-7.12
225.511	-0.12
225.746	-1.12
225.98	11.88
226.215	1.88
226.449	4.88
226.683	11.88
226.918	27.88
227.152	40.88
227.387	26.88
227.621	37.88
227.856	51.88
228.09	56.88
228.324	48.88
228.559	53.88
228.793	56.88
229.027	70.88
229.262	70.88
229.496	67.88
229.73	83.88
229.964	82.88
230.199	73.88
230.433	78.88
230.667	64.88
230.901	79.88
231.136	80.88
231.37	73.88
231.604	75.88
231.838	81.88
232.072	97.88
232.306	67.88
232.541	65.88
232.775	75.88
233.009	85.88
233.243	76.88
233.477	72.88
233.711	87.88
233.945	86.88
234.179	79.88
234.413	72.88
234.647	87.88
234.881	74.88
235.115	70.88
235.349	76.88
235.583	69.88
235.817	71.88
236.051	78.88
236.285	80.88
236.519	79.88
236.753	61.88
236.987	81.88
237.221	68.88
237.455	80.88
237.689	74.88
237.922	62.88
238.156	72.88
238.39	76.88
238.624	70.88
238.858	76.88
239.091	83.88
239.325	71.88
239.559	81.88
239.793	56.88
240.027	65.88
240.26	80.88
240.494	78.88
240.728	56.88
240.961	76.88
241.195	88.88
241.429	54.88
241.662	84.88
241.896	87.88
242.13	73.88
242.363	78.88
242.597	76.88
242.83	77.88
243.064	78.88
243.298	73.88
243.531	87.88
243.765	87.88
243.998	85.88
244.232	87.88
244.465	84.88
244.699	70.88
244.932	74.88
245.166	73.88
245.399	62.88
245.633	78.88
245.866	72.88
246.099	75.88
246.333	83.88
246.566	79.88
246.8	81.88
247.033	62.88
247.266	75.88
247.5	78.88
247.733	80.88
247.966	78.88
248.2	76.88
248.433	83.88
248.666	83.88
248.899	75.88
249.133	88.88
249.366	103.88
249.599	100.88
249.832	86.88
250.066	87.88
250.299	82.88
250.532	85.88
250.765	65.88
250.998	88.88
251.231	66.88
251.465	82.88
251.698	71.88
251.931	64.88
252.164	88.88
252.397	103.88
252.63	87.88
252.863	73.88
253.096	78.88
253.329	75.88
253.562	85.88
253.795	75.88
254.028	73.88
254.261	84.88
254.494	82.88
254.727	96.88
254.96	85.88
255.193	83.88
255.426	85.88
255.659	86.88
255.892	81.88
256.124	81.88
256.357	88.88
256.59	65.88
256.823	82.88
257.056	78.88
257.289	83.88
257.521	76.88
257.754	80.88
257.987	89.88
258.22	91.88
258.452	73.88
258.685	89.88
258.918	78.88
259.151	80.88
259.383	84.88
259.616	74.88
259.849	86.88
260.081	88.88
260.314	80.88
260.547	75.88
260.779	82.88
261.012	79.88
261.244	81.88
261.477	77.88
261.71	89.88
261.942	107.88
262.175	114.88
262.407	86.88
262.64	87.88
262.872	83.88
263.105	79.88
263.337	81.88
263.57	90.88
263.802	91.88
264.035	79.88
264.267	82.88
264.499	83.88
264.732	89.88
264.964	94.88
265.197	90.88
265.429	82.88
265.661	86.88
265.894	85.88
266.126	80.88
266.358	82.88
266.591	80.88
266.823	81.88
267.055	88.88
267.287	68.88
267.52	67.88
267.752	87.88
267.984	92.88
268.216	79.88
268.448	67.88
268.681	92.88
268.913	89.88
269.145	82.88
269.377	84.88
269.609	76.88
269.841	97.88
270.073	90.88
270.306	91.88
270.538	85.88
270.77	80.88
271.002	82.88
271.234	81.88
271.466	82.88
271.698	79.88
271.93	84.88
272.162	93.88
272.394	76.88
272.626	84.88
272.858	85.88
273.09	64.88
273.322	84.88
273.553	72.88
273.785	80.88
274.017	95.88
274.249	93.88
274.481	72.88
274.713	76.88
274.945	98.88
275.176	88.88
275.408	90.88
275.64	72.88
275.872	78.88
276.104	87.88
276.335	78.88
276.567	106.88
276.799	98.88
277.031	92.88
277.262	87.88
277.494	95.88
277.726	81.88
277.957	89.88
278.189	80.88
278.421	88.88
278.652	86.88
278.884	69.88
279.115	86.88
279.347	66.88
279.579	70.88
279.81	83.88
280.042	80.88
280.273	91.88
280.505	94.88
280.736	86.88
280.968	84.88
281.199	85.88
281.431	84.88
281.662	94.88
281.894	91.88
282.125	103.88
282.356	118.88
282.588	127.88
282.819	96.88
283.051	82.88
283.282	109.88
283.513	89.88
283.745	94.88
283.976	80.88
284.207	103.88
284.439	86.88
284.67	88.88
284.901	102.88
285.132	82.88
285.364	90.88
285.595	85.88
285.826	82.88
286.057	94.88
286.288	67.88
286.52	95.88
286.751	87.88
286.982	75.88
287.213	100.88
287.444	90.88
287.675	90.88
287.906	91.88
288.138	94.88
288.369	90.88
288.6	95.88
288.831	99.88
289.062	82.88
289.293	87.88
289.524	66.88
289.755	92.88
289.986	84.88
290.217	80.88
290.448	84.88
290.679	90.88
290.91	82.88
291.141	90.88
291.371	92.88
291.602	83.88
291.833	86.88
292.064	99.88
292.295	83.88
292.526	96.88
292.757	81.88
292.987	91.88
293.218	85.88
293.449	81.88
293.68	90.88
293.91	73.88
294.141	83.88
294.372	92.88
294.603	86.88
294.833	87.88
295.064	78.88
295.295	88.88
295.525	98.88
295.756	87.88
295.987	118.88
296.217	138.88
296.448	113.88
296.679	108.88
296.909	107.88
297.14	97.88
297.37	85.88
297.601	98.88
297.831	84.88
298.062	78.88
298.292	87.88
298.523	98.88
298.753	87.88
298.984	78.88
299.214	87.88
299.445	79.88
299.675	85.88
299.905	89.88
300.136	83.88
300.366	95.88
300.597	87.88
300.827	90.88
301.057	90.88
301.288	113.88
301.518	92.88
301.748	99.88
301.979	78.88
302.209	92.88
302.439	90.88
302.669	92.88
302.9	79.88
303.13	97.88
303.36	86.88
303.59	96.88
303.82	101.88
304.051	95.88
304.281	71.88
304.511	93.88
304.741	78.88
304.971	76.88
305.201	75.88
305.431	98.88
305.661	104.88
305.891	83.88
306.121	90.88
306.352	91.88
306.582	113.88
306.812	96.88
307.042	105.88
307.272	106.88
307.502	92.88
307.731	107.88
307.961	97.88
308.191	88.88
308.421	84.88
308.651	96.88
308.881	103.88
309.111	83.88
309.341	99.88
309.571	103.88
309.8	95.88
310.03	103.88
310.26	103.88
310.49	99.88
310.72	87.88
310.949	91.88
311.179	95.88
311.409	99.88
311.639	101.88
311.868	88.88
312.098	79.88
312.328	95.88
312.557	96.88
312.787	113.88
313.017	88.88
313.246	95.88
313.476	90.88
313.706	89.88
313.935	89.88
314.165	97.88
314.394	94.88
314.624	96.88
314.853	100.88
315.083	80.88
315.312	84.88
315.542	92.88
315.771	86.88
316.001	89.88
316.23	97.88
316.46	89.88
316.689	93.88
316.919	90.88
317.148	102.88
317.377	90.88
317.607	91.88
317.836	103.88
318.065	87.88
318.295	91.88
318.524	93.88
318.753	99.88
318.983	104.88
319.212	92.88
319.441	103.88
319.67	108.88
319.9	107.88
320.129	105.88
320.358	89.88
320.587	96.88
320.816	90.88
321.046	111.88
321.275	111.88
321.504	76.88
321.733	96.88
321.962	111.88
322.191	103.88
322.42	110.88
322.649	107.88
322.878	103.88
323.108	115.88
323.337	126.88
323.566	122.88
323.795	146.88
324.024	167.88
324.253	340.88
324.482	765.88
324.71	1529.88
324.939	2018.88
325.168	762.88
325.397	240.88
325.626	146.88
325.855	127.88
326.084	110.88
326.313	122.88
326.542	149.88
326.77	203.88
326.999	416.88
327.228	835.88
327.457	1531.88
327.686	1260.88
327.914	345.88
328.143	184.88
328.372	148.88
328.6	124.88
328.829	127.88
329.058	118.88
329.287	126.88
329.515	113.88
329.744	107.88
329.972	102.88
330.201	116.88
330.43	145.88
330.658	130.88
330.887	137.88
331.115	106.88
331.344	92.88
331.572	90.88
331.801	121.88
332.03	95.88
332.258	88.88
332.486	92.88
332.715	85.88
332.943	85.88
333.172	97.88
333.4	93.88
333.629	120.88
333.857	119.88
334.085	112.88
334.314	130.88
334.542	146.88
334.771	147.88
334.999	105.88
335.227	80.88
335.455	98.88
335.684	104.88
335.912	98.88
336.14	101.88
336.369	97.88
336.597	100.88
336.825	100.88
337.053	76.88
337.281	94.88
337.51	96.88
337.738	89.88
337.966	77.88
338.194	80.88
338.422	100.88
338.65	81.88
338.878	94.88
339.106	90.88
339.334	98.88
339.562	70.88
339.79	98.88
340.018	96.88
340.246	92.88
340.474	91.88
340.702	92.88
340.93	100.88
341.158	87.88
341.386	97.88
341.614	90.88
341.842	105.88
342.07	81.88
342.298	84.88
342.526	82.88
342.754	95.88
342.981	95.88
343.209	90.88
343.437	98.88
343.665	92.88
343.893	95.88
344.12	82.88
344.348	80.88
344.576	86.88
344.804	95.88
345.031	100.88
345.259	92.88
345.487	85.88
345.714	83.88
345.942	88.88
346.17	95.88
346.397	91.88
346.625	94.88
346.853	88.88
347.08	90.88
347.308	94.88
347.535	92.88
347.763	88.88
347.99	102.88
348.218	98.88
348.445	102.88
348.673	101.88
348.9	97.88
349.128	90.88
349.355	111.88
349.583	97.88
349.81	95.88
350.037	100.88
350.265	102.88
350.492	106.88
350.72	98.88
350.947	99.88
351.174	98.88
351.402	100.88
351.629	101.88
351.856	100.88
352.083	108.88
352.311	119.88
352.538	103.88
352.765	99.88
352.992	126.88
353.22	107.88
353.447	113.88
353.674	98.88
353.901	86.88
354.128	97.88
354.355	108.88
354.583	85.88
354.81	93.88
355.037	84.88
355.264	87.88
355.491	89.88
355.718	100.88
355.945	80.88
356.172	105.88
356.399	102.88
356.626	97.88
356.853	82.88
357.08	89.88
357.307	91.88
357.534	90.88
357.761	99.88
357.988	80.88
358.215	94.88
358.441	93.88
358.668	91.88
358.895	90.88
359.122	84.88
359.349	82.88
359.576	98.88
359.802	85.88
360.029	97.88
360.256	92.88
360.483	98.88
360.709	99.88
360.936	102.88
361.163	95.88
361.39	101.88
361.616	100.88
361.843	109.88
362.07	105.88
362.296	92.88
362.523	86.88
362.749	81.88
362.976	84.88
363.203	106.88
363.429	78.88
363.656	88.88
363.882	75.88
364.109	83.88
364.335	93.88
364.562	82.88
364.788	99.88
365.015	86.88
365.241	107.88
365.468	106.88
365.694	95.88
365.92	103.88
366.147	96.88
366.373	86.88
366.599	87.88
366.826	78.88
367.052	76.88
367.278	87.88
367.505	89.88
367.731	89.88
367.957	98.88
368.184	87.88
368.41	90.88
368.636	116.88
368.862	107.88
369.089	99.88
369.315	94.88
369.541	93.88
369.767	88.88
369.993	86.88
370.219	93.88
370.445	86.88
370.672	75.88
370.898	86.88
371.124	89.88
371.35	98.88
371.576	107.88
371.802	73.88
372.028	87.88
372.254	99.88
372.48	85.88
372.706	89.88
372.932	96.88
373.158	95.88
373.384	95.88
373.61	103.88
373.835	81.88
374.061	87.88
374.287	87.88
374.513	89.88
374.739	90.88
374.965	90.88
375.191	88.88
375.416	89.88
375.642	80.88
375.868	96.88
376.094	73.88
376.319	88.88
376.545	76.88
376.771	88.88
376.997	102.88
377.222	91.88
377.448	90.88
377.674	86.88
377.899	86.88
378.125	91.88
378.35	93.88
378.576	78.88
378.802	90.88
379.027	97.88
379.253	92.88
379.478	94.88
379.704	86.88
379.929	82.88
380.155	94.88
380.38	87.88
380.606	84.88
380.831	96.88
381.057	91.88
381.282	90.88
381.507	102.88
381.733	104.88
381.958	87.88
382.184	92.88
382.409	99.88
382.634	106.88
382.86	94.88
383.085	105.88
383.31	103.88
383.535	88.88
383.761	92.88
383.986	96.88
384.211	102.88
384.436	79.88
384.662	88.88
384.887	89.88
385.112	82.88
385.337	111.88
385.562	102.88
385.787	98.88
386.013	106.88
386.238	99.88
386.463	95.88
386.688	97.88
386.913	107.88
387.138	106.88
387.363	101.88
387.588	100.88
387.813	89.88
388.038	102.88
388.263	110.88
388.488	94.88
388.713	99.88
388.938	85.88
389.163	87.88
389.387	84.88
389.612	96.88
389.837	96.88
390.062	104.88
390.287	98.88
390.512	97.88
390.736	76.88
390.961	107.88
391.186	102.88
391.411	104.88
391.636	89.88
391.86	85.88
392.085	96.88
392.31	87.88
392.534	89.88
392.759	76.88
392.984	78.88
393.208	86.88
393.433	89.88
393.658	81.88
393.882	71.88
394.107	90.88
394.331	68.88
394.556	80.88
394.78	86.88
395.005	101.88
395.229	76.88
395.454	82.88
395.678	93.88
395.903	91.88
396.127	91.88
396.352	87.88
396.576	82.88
396.801	86.88
397.025	93.88
397.249	95.88
397.474	87.88
397.698	81.88
397.922	75.88
398.147	68.88
398.371	75.88
398.595	89.88
398.82	80.88
399.044	78.88
399.268	76.88
399.492	86.88
399.717	84.88
399.941	88.88
400.165	95.88
400.389	88.88
400.613	81.88
400.837	80.88
401.062	71.88
401.286	81.88
401.51	84.88
401.734	92.88
401.958	98.88
402.182	132.88
402.406	158.88
402.63	88.88
402.854	89.88
403.078	81.88
403.302	98.88
403.526	95.88
403.75	105.88
403.974	99.88
404.198	78.88
404.422	98.88
404.645	84.88
404.869	91.88
405.093	80.88
405.317	103.88
405.541	90.88
405.765	88.88
405.988	107.88
406.212	163.88
406.436	208.88
406.66	134.88
406.883	91.88
407.107	106.88
407.331	91.88
407.555	97.88
407.778	94.88
408.002	83.88
408.226	82.88
408.449	95.88
408.673	88.88
408.896	103.88
409.12	78.88
409.344	93.88
409.567	84.88
409.791	87.88
410.014	96.88
410.238	94.88
410.461	97.88
410.685	86.88
410.908	102.88
411.132	92.88
411.355	100.88
411.578	86.88
411.802	74.88
412.025	89.88
412.249	88.88
412.472	94.88
412.695	95.88
412.919	89.88
413.142	99.88
413.365	81.88
413.589	74.88
413.812	89.88
414.035	90.88
414.258	104.88
414.482	79.88
414.705	99.88
414.928	88.88
415.151	99.88
415.374	94.88
415.597	79.88
415.821	78.88
416.044	80.88
416.267	90.88
416.49	89.88
416.713	85.88
416.936	87.88
417.159	86.88
417.382	72.88
417.605	86.88
417.828	97.88
418.051	93.88
418.274	98.88
418.497	89.88
418.72	82.88
418.943	88.88
419.166	90.88
419.389	94.88
419.611	70.88
419.834	91.88
420.057	91.88
420.28	86.88
420.503	88.88
420.726	87.88
420.948	75.88
421.171	95.88
421.394	99.88
421.617	75.88
421.839	84.88
422.062	100.88
422.285	93.88
422.507	92.88
422.73	98.88
422.953	109.88
423.175	94.88
423.398	83.88
423.621	95.88
423.843	92.88
424.066	82.88
424.288	91.88
424.511	98.88
424.733	90.88
424.956	101.88
425.178	107.88
425.401	88.88
425.623	102.88
425.846	73.88
426.068	83.88
426.291	88.88
426.513	96.88
426.735	91.88
426.958	89.88
427.18	101.88
427.402	128.88
427.625	161.88
427.847	129.88
428.069	120.88
428.292	100.88
428.514	82.88
428.736	81.88
428.958	89.88
429.181	98.88
429.403	91.88
429.625	79.88
429.847	95.88
430.069	92.88
430.292	80.88
430.514	91.88
430.736	79.88
430.958	94.88
431.18	91.88
431.402	80.88
431.624	88.88
431.846	72.88
432.068	100.88
432.29	74.88
432.512	98.88
432.734	91.88
432.956	82.88
433.178	104.88
433.4	103.88
433.622	90.88
433.844	74.88
434.066	84.88
434.287	88.88
434.509	89.88
434.731	82.88
434.953	90.88
435.175	83.88
435.397	87.88
435.618	89.88
435.84	102.88
436.062	118.88
436.284	93.88
436.505	100.88
436.727	103.88
436.949	97.88
437.17	83.88
437.392	106.88
437.614	84.88
437.835	102.88
438.057	111.88
438.278	112.88
438.5	106.88
438.721	107.88
438.943	99.88
439.165	95.88
439.386	93.88
439.608	75.88
439.829	104.88
440.05	118.88
440.272	127.88
440.493	91.88
440.715	96.88
440.936	86.88
441.158	78.88
441.379	89.88
441.6	94.88
441.822	95.88
442.043	95.88
442.264	92.88
442.486	101.88
442.707	71.88
442.928	100.88
443.149	123.88
443.371	134.88
443.592	100.88
443.813	102.88
444.034	104.88
444.255	95.88
444.476	87.88
444.698	80.88
444.919	84.88
445.14	130.88
445.361	109.88
445.582	97.88
445.803	121.88
446.024	125.88
446.245	113.88
446.466	90.88
446.687	88.88
446.908	91.88
447.129	92.88
447.35	84.88
447.571	92.88
447.792	84.88
448.013	88.88
448.234	106.88
448.455	92.88
448.675	106.88
448.896	105.88
449.117	106.88
449.338	101.88
449.559	127.88
449.779	123.88
450	88.88
450.221	88.88
450.442	80.88
450.662	91.88
450.883	107.88
451.104	106.88
451.324	89.88
451.545	94.88
451.766	95.88
451.986	83.88
452.207	77.88
452.428	80.88
452.648	105.88
452.869	115.88
453.089	116.88
453.31	109.88
453.53	99.88
453.751	85.88
453.971	104.88
454.192	105.88
454.412	91.88
454.633	86.88
454.853	82.88
455.073	78.88
455.294	100.88
455.514	89.88
455.734	86.88
455.955	90.88
456.175	70.88
456.395	83.88
456.616	88.88
456.836	94.88
457.056	77.88
457.276	92.88
457.497	85.88
457.717	75.88
457.937	96.88
458.157	90.88
458.377	79.88
458.598	100.88
458.818	136.88
459.038	134.88
459.258	107.88
459.478	101.88
459.698	88.88
459.918	87.88
460.138	90.88
460.358	82.88
460.578	85.88
460.798	84.88
461.018	97.88
461.238	74.88
461.458	88.88
461.678	75.88
461.898	74.88
462.118	94.88
462.338	93.88
462.558	81.88
462.777	79.88
462.997	80.88
463.217	71.88
463.437	82.88
463.657	80.88
463.876	84.88
464.096	98.88
464.316	79.88
464.536	98.88
464.755	98.88
464.975	96.88
465.195	162.88
465.414	143.88
465.634	85.88
465.854	91.88
466.073	95.88
466.293	83.88
466.512	76.88
466.732	94.88
466.951	89.88
467.171	82.88
467.391	83.88
467.61	99.88
467.829	99.88
468.049	111.88
468.268	116.88
468.488	94.88
468.707	84.88
468.927	76.88
469.146	90.88
469.365	90.88
469.585	98.88
469.804	91.88
470.023	99.88
470.243	88.88
470.462	94.88
470.681	112.88
470.901	87.88
471.12	85.88
471.339	77.88
471.558	92.88
471.777	84.88
471.997	101.88
472.216	135.88
472.435	175.88
472.654	101.88
472.873	79.88
473.092	72.88
473.311	91.88
473.53	69.88
473.749	90.88
473.968	97.88
474.187	95.88
474.406	88.88
474.625	79.88
474.844	74.88
475.063	88.88
475.282	79.88
475.501	88.88
475.72	97.88
475.939	94.88
476.158	84.88
476.377	81.88
476.596	86.88
476.814	92.88
477.033	87.88
477.252	85.88
477.471	74.88
477.69	82.88
477.908	96.88
478.127	85.88
478.346	88.88
478.564	93.88
478.783	100.88
479.002	94.88
479.22	93.88
479.439	91.88
479.658	100.88
479.876	96.88
480.095	94.88
480.313	83.88
480.532	93.88
480.751	96.88
480.969	130.88
481.188	281.88
481.406	204.88
481.624	90.88
481.843	95.88
482.061	89.88
482.28	100.88
482.498	87.88
482.717	88.88
482.935	93.88
483.153	96.88
483.372	101.88
483.59	104.88
483.808	96.88
484.027	92.88
484.245	72.88
484.463	73.88
484.681	88.88
484.9	100.88
485.118	99.88
485.336	91.88
485.554	96.88
485.772	97.88
485.99	104.88
486.209	92.88
486.427	103.88
486.645	110.88
486.863	106.88
487.081	102.88
487.299	94.88
487.517	82.88
487.735	91.88
487.953	92.88
488.171	83.88
488.389	87.88
488.607	90.88
488.825	92.88
489.043	98.88
489.261	93.88
489.479	84.88
489.696	81.88
489.914	85.88
490.132	72.88
490.35	98.88
490.568	105.88
490.786	94.88
491.003	78.88
491.221	102.88
491.439	87.88
491.657	96.88
491.874	105.88
492.092	92.88
492.31	106.88
492.527	98.88
492.745	83.88
492.963	96.88
493.18	82.88
493.398	108.88
493.615	94.88
493.833	98.88
494.05	90.88
494.268	89.88
494.485	96.88
494.703	82.88
494.92	89.88
495.138	100.88
495.355	87.88
495.573	90.88
495.79	98.88
496.008	100.88
496.225	95.88
496.442	105.88
496.66	94.88
496.877	111.88
497.094	92.88
497.312	94.88
497.529	84.88
497.746	79.88
497.963	81.88
498.181	105.88
498.398	94.88
498.615	99.88
498.832	104.88
499.049	85.88
499.267	89.88
499.484	92.88
499.701	91.88
499.918	95.88
500.135	78.88
500.352	90.88
500.569	93.88
500.786	94.88
501.003	99.88
501.22	91.88
501.437	97.88
501.654	92.88
501.871	100.88
502.088	104.88
502.305	94.88
502.522	101.88
502.739	105.88
502.956	103.88
503.172	96.88
503.389	95.88
503.606	91.88
503.823	98.88
504.04	91.88
504.256	80.88
504.473	88.88
504.69	111.88
504.907	98.88
505.123	84.88
505.34	75.88
505.557	73.88
505.773	87.88
505.99	87.88
506.207	79.88
506.423	92.88
506.64	90.88
506.856	91.88
507.073	89.88
507.289	101.88
507.506	100.88
507.722	93.88
507.939	102.88
508.155	89.88
508.372	91.88
508.588	99.88
508.805	105.88
509.021	97.88
509.238	107.88
509.454	86.88
509.67	107.88
509.887	98.88
510.103	113.88
510.319	227.88
510.536	750.88
510.752	2386.88
510.968	651.88
511.184	144.88
511.401	108.88
511.617	97.88
511.833	99.88
512.049	88.88
512.265	94.88
512.481	103.88
512.698	100.88
512.914	85.88
513.13	98.88
513.346	90.88
513.562	103.88
513.778	109.88
513.994	91.88
514.21	87.88
514.426	112.88
514.642	132.88
514.858	130.88
515.074	155.88
515.29	445.88
515.506	1414.88
515.721	531.88
515.937	148.88
