Data from Uncirc_1983_H10_HRD10591_00025.txt Node
Date: Wed Jan 03 12:25:37 EST 2024
User: Yrep
Spectrometer: HR+D1059
Trigger mode: 1
Integration Time (sec): 1.000000E-1
Scans to average: 1
Electric dark correction enabled: true
Nonlinearity correction enabled: false
Boxcar width: 0
XAxis mode: Wavelengths
Number of Pixels in Spectrum: 2048
>>>>>Begin Spectral Data<<<<<
223.165	-18.06
223.4	-18.06
223.635	-18.06
223.869	-24.06
224.104	-20.06
224.338	-17.06
224.573	-18.06
224.808	-6.06
225.042	-11.06
225.277	-6.06
225.511	9.94
225.746	-4.06
225.98	13.94
226.215	5.94
226.449	13.94
226.683	18.94
226.918	21.94
227.152	39.94
227.387	43.94
227.621	36.94
227.856	41.94
228.09	43.94
228.324	51.94
228.559	50.94
228.793	41.94
229.027	72.94
229.262	68.94
229.496	68.94
229.73	86.94
229.964	77.94
230.199	66.94
230.433	65.94
230.667	80.94
230.901	63.94
231.136	77.94
231.37	81.94
231.604	66.94
231.838	67.94
232.072	81.94
232.306	81.94
232.541	63.94
232.775	71.94
233.009	75.94
233.243	81.94
233.477	80.94
233.711	71.94
233.945	74.94
234.179	86.94
234.413	71.94
234.647	84.94
234.881	81.94
235.115	71.94
235.349	81.94
235.583	85.94
235.817	81.94
236.051	74.94
236.285	66.94
236.519	73.94
236.753	82.94
236.987	83.94
237.221	91.94
237.455	92.94
237.689	81.94
237.922	73.94
238.156	69.94
238.39	73.94
238.624	63.94
238.858	61.94
239.091	71.94
239.325	67.94
239.559	74.94
239.793	72.94
240.027	75.94
240.26	69.94
240.494	75.94
240.728	86.94
240.961	83.94
241.195	63.94
241.429	74.94
241.662	75.94
241.896	74.94
242.13	75.94
242.363	69.94
242.597	66.94
242.83	78.94
243.064	66.94
243.298	78.94
243.531	74.94
243.765	81.94
243.998	93.94
244.232	78.94
244.465	70.94
244.699	71.94
244.932	72.94
245.166	73.94
245.399	55.94
245.633	74.94
245.866	68.94
246.099	74.94
246.333	81.94
246.566	78.94
246.8	73.94
247.033	87.94
247.266	72.94
247.5	82.94
247.733	71.94
247.966	60.94
248.2	79.94
248.433	86.94
248.666	82.94
248.899	81.94
249.133	70.94
249.366	91.94
249.599	93.94
249.832	86.94
250.066	85.94
250.299	73.94
250.532	62.94
250.765	78.94
250.998	82.94
251.231	75.94
251.465	81.94
251.698	73.94
251.931	83.94
252.164	71.94
252.397	79.94
252.63	67.94
252.863	78.94
253.096	80.94
253.329	82.94
253.562	77.94
253.795	77.94
254.028	73.94
254.261	79.94
254.494	74.94
254.727	69.94
254.96	81.94
255.193	75.94
255.426	69.94
255.659	64.94
255.892	83.94
256.124	78.94
256.357	74.94
256.59	88.94
256.823	63.94
257.056	79.94
257.289	88.94
257.521	74.94
257.754	91.94
257.987	79.94
258.22	82.94
258.452	78.94
258.685	84.94
258.918	79.94
259.151	65.94
259.383	70.94
259.616	95.94
259.849	68.94
260.081	78.94
260.314	77.94
260.547	78.94
260.779	101.94
261.012	82.94
261.244	78.94
261.477	87.94
261.71	96.94
261.942	96.94
262.175	113.94
262.407	90.94
262.64	83.94
262.872	82.94
263.105	73.94
263.337	89.94
263.57	77.94
263.802	74.94
264.035	69.94
264.267	91.94
264.499	71.94
264.732	68.94
264.964	89.94
265.197	77.94
265.429	74.94
265.661	85.94
265.894	81.94
266.126	85.94
266.358	82.94
266.591	80.94
266.823	94.94
267.055	89.94
267.287	85.94
267.52	74.94
267.752	92.94
267.984	82.94
268.216	95.94
268.448	100.94
268.681	79.94
268.913	79.94
269.145	78.94
269.377	84.94
269.609	81.94
269.841	89.94
270.073	83.94
270.306	87.94
270.538	69.94
270.77	95.94
271.002	63.94
271.234	93.94
271.466	91.94
271.698	79.94
271.93	77.94
272.162	79.94
272.394	79.94
272.626	71.94
272.858	79.94
273.09	72.94
273.322	84.94
273.553	82.94
273.785	77.94
274.017	79.94
274.249	73.94
274.481	75.94
274.713	95.94
274.945	89.94
275.176	72.94
275.408	86.94
275.64	85.94
275.872	82.94
276.104	95.94
276.335	91.94
276.567	83.94
276.799	102.94
277.031	102.94
277.262	93.94
277.494	90.94
277.726	81.94
277.957	93.94
278.189	75.94
278.421	85.94
278.652	96.94
278.884	77.94
279.115	96.94
279.347	91.94
279.579	74.94
279.81	84.94
280.042	82.94
280.273	78.94
280.505	82.94
280.736	91.94
280.968	65.94
281.199	89.94
281.431	89.94
281.662	94.94
281.894	77.94
282.125	86.94
282.356	107.94
282.588	124.94
282.819	100.94
283.051	82.94
283.282	91.94
283.513	91.94
283.745	83.94
283.976	83.94
284.207	89.94
284.439	83.94
284.67	96.94
284.901	95.94
285.132	94.94
285.364	79.94
285.595	107.94
285.826	79.94
286.057	86.94
286.288	80.94
286.52	92.94
286.751	77.94
286.982	81.94
287.213	71.94
287.444	69.94
287.675	93.94
287.906	92.94
288.138	101.94
288.369	82.94
288.6	100.94
288.831	79.94
289.062	94.94
289.293	88.94
289.524	82.94
289.755	86.94
289.986	78.94
290.217	84.94
290.448	83.94
290.679	99.94
290.91	88.94
291.141	77.94
291.371	75.94
291.602	103.94
291.833	74.94
292.064	88.94
292.295	89.94
292.526	90.94
292.757	85.94
292.987	91.94
293.218	79.94
293.449	84.94
293.68	105.94
293.91	79.94
294.141	79.94
294.372	97.94
294.603	64.94
294.833	88.94
295.064	88.94
295.295	92.94
295.525	74.94
295.756	114.94
295.987	105.94
296.217	131.94
296.448	111.94
296.679	95.94
296.909	85.94
297.14	82.94
297.37	89.94
297.601	86.94
297.831	85.94
298.062	81.94
298.292	79.94
298.523	75.94
298.753	85.94
298.984	87.94
299.214	86.94
299.445	79.94
299.675	88.94
299.905	103.94
300.136	89.94
300.366	93.94
300.597	95.94
300.827	102.94
301.057	103.94
301.288	98.94
301.518	94.94
301.748	87.94
301.979	88.94
302.209	77.94
302.439	93.94
302.669	91.94
302.9	86.94
303.13	75.94
303.36	101.94
303.59	105.94
303.82	102.94
304.051	101.94
304.281	99.94
304.511	95.94
304.741	94.94
304.971	83.94
305.201	83.94
305.431	90.94
305.661	102.94
305.891	87.94
306.121	90.94
306.352	105.94
306.582	89.94
306.812	97.94
307.042	92.94
307.272	89.94
307.502	78.94
307.731	84.94
307.961	105.94
308.191	87.94
308.421	89.94
308.651	79.94
308.881	82.94
309.111	93.94
309.341	80.94
309.571	88.94
309.8	88.94
310.03	101.94
310.26	95.94
310.49	110.94
310.72	99.94
310.949	87.94
311.179	98.94
311.409	84.94
311.639	95.94
311.868	96.94
312.098	96.94
312.328	96.94
312.557	91.94
312.787	87.94
313.017	96.94
313.246	93.94
313.476	102.94
313.706	86.94
313.935	90.94
314.165	104.94
314.394	87.94
314.624	85.94
314.853	79.94
315.083	102.94
315.312	84.94
315.542	86.94
315.771	91.94
316.001	94.94
316.23	79.94
316.46	71.94
316.689	88.94
316.919	79.94
317.148	83.94
317.377	99.94
317.607	97.94
317.836	85.94
318.065	102.94
318.295	108.94
318.524	79.94
318.753	96.94
318.983	95.94
319.212	86.94
319.441	109.94
319.67	111.94
319.9	94.94
320.129	94.94
320.358	94.94
320.587	92.94
320.816	91.94
321.046	105.94
321.275	89.94
321.504	98.94
321.733	103.94
321.962	90.94
322.191	108.94
322.42	93.94
322.649	101.94
322.878	93.94
323.108	117.94
323.337	115.94
323.566	134.94
323.795	149.94
324.024	177.94
324.253	341.94
324.482	715.94
324.71	1476.94
324.939	1930.94
325.168	723.94
325.397	215.94
325.626	138.94
325.855	121.94
326.084	113.94
326.313	124.94
326.542	150.94
326.77	206.94
326.999	382.94
327.228	792.94
327.457	1516.94
327.686	1216.94
327.914	348.94
328.143	175.94
328.372	144.94
328.6	128.94
328.829	103.94
329.058	118.94
329.287	103.94
329.515	101.94
329.744	104.94
329.972	91.94
330.201	88.94
330.43	104.94
330.658	108.94
330.887	128.94
331.115	115.94
331.344	89.94
331.572	107.94
331.801	98.94
332.03	99.94
332.258	100.94
332.486	90.94
332.715	92.94
332.943	78.94
333.172	94.94
333.4	81.94
333.629	86.94
333.857	117.94
334.085	99.94
334.314	99.94
334.542	97.94
334.771	103.94
334.999	96.94
335.227	93.94
335.455	95.94
335.684	92.94
335.912	86.94
336.14	91.94
336.369	110.94
336.597	98.94
336.825	96.94
337.053	96.94
337.281	91.94
337.51	104.94
337.738	103.94
337.966	105.94
338.194	87.94
338.422	92.94
338.65	83.94
338.878	85.94
339.106	93.94
339.334	95.94
339.562	86.94
339.79	87.94
340.018	79.94
340.246	95.94
340.474	106.94
340.702	96.94
340.93	94.94
341.158	73.94
341.386	74.94
341.614	91.94
341.842	93.94
342.07	90.94
342.298	82.94
342.526	93.94
342.754	82.94
342.981	86.94
343.209	91.94
343.437	88.94
343.665	91.94
343.893	85.94
344.12	103.94
344.348	106.94
344.576	95.94
344.804	86.94
345.031	89.94
345.259	93.94
345.487	98.94
345.714	99.94
345.942	91.94
346.17	82.94
346.397	92.94
346.625	93.94
346.853	102.94
347.08	95.94
347.308	93.94
347.535	102.94
347.763	102.94
347.99	93.94
348.218	86.94
348.445	95.94
348.673	100.94
348.9	93.94
349.128	85.94
349.355	104.94
349.583	96.94
349.81	82.94
350.037	94.94
350.265	92.94
350.492	86.94
350.72	104.94
350.947	103.94
351.174	99.94
351.402	94.94
351.629	109.94
351.856	93.94
352.083	99.94
352.311	101.94
352.538	106.94
352.765	106.94
352.992	111.94
353.22	99.94
353.447	95.94
353.674	97.94
353.901	106.94
354.128	88.94
354.355	92.94
354.583	95.94
354.81	103.94
355.037	88.94
355.264	114.94
355.491	91.94
355.718	87.94
355.945	95.94
356.172	101.94
356.399	111.94
356.626	103.94
356.853	98.94
357.08	100.94
357.307	93.94
357.534	87.94
357.761	88.94
357.988	103.94
358.215	105.94
358.441	101.94
358.668	84.94
358.895	89.94
359.122	84.94
359.349	90.94
359.576	87.94
359.802	82.94
360.029	101.94
360.256	93.94
360.483	79.94
360.709	69.94
360.936	92.94
361.163	90.94
361.39	93.94
361.616	102.94
361.843	97.94
362.07	79.94
362.296	101.94
362.523	79.94
362.749	96.94
362.976	83.94
363.203	79.94
363.429	81.94
363.656	93.94
363.882	90.94
364.109	70.94
364.335	84.94
364.562	85.94
364.788	104.94
365.015	93.94
365.241	97.94
365.468	92.94
365.694	97.94
365.92	87.94
366.147	88.94
366.373	86.94
366.599	87.94
366.826	93.94
367.052	69.94
367.278	93.94
367.505	105.94
367.731	92.94
367.957	101.94
368.184	89.94
368.41	95.94
368.636	101.94
368.862	107.94
369.089	120.94
369.315	99.94
369.541	81.94
369.767	95.94
369.993	80.94
370.219	92.94
370.445	95.94
370.672	86.94
370.898	89.94
371.124	87.94
371.35	81.94
371.576	79.94
371.802	93.94
372.028	82.94
372.254	95.94
372.48	87.94
372.706	78.94
372.932	84.94
373.158	82.94
373.384	93.94
373.61	91.94
373.835	92.94
374.061	78.94
374.287	103.94
374.513	98.94
374.739	80.94
374.965	88.94
375.191	81.94
375.416	99.94
375.642	85.94
375.868	93.94
376.094	98.94
376.319	92.94
376.545	101.94
376.771	83.94
376.997	90.94
377.222	83.94
377.448	87.94
377.674	81.94
377.899	90.94
378.125	102.94
378.35	97.94
378.576	84.94
378.802	78.94
379.027	87.94
379.253	87.94
379.478	97.94
379.704	81.94
379.929	91.94
380.155	109.94
380.38	98.94
380.606	102.94
380.831	94.94
381.057	83.94
381.282	98.94
381.507	97.94
381.733	95.94
381.958	83.94
382.184	97.94
382.409	99.94
382.634	91.94
382.86	97.94
383.085	98.94
383.31	88.94
383.535	107.94
383.761	91.94
383.986	98.94
384.211	96.94
384.436	112.94
384.662	93.94
384.887	99.94
385.112	96.94
385.337	110.94
385.562	93.94
385.787	107.94
386.013	98.94
386.238	115.94
386.463	104.94
386.688	108.94
386.913	97.94
387.138	106.94
387.363	113.94
387.588	97.94
387.813	100.94
388.038	100.94
388.263	115.94
388.488	130.94
388.713	103.94
388.938	101.94
389.163	93.94
389.387	105.94
389.612	97.94
389.837	90.94
390.062	89.94
390.287	89.94
390.512	91.94
390.736	94.94
390.961	83.94
391.186	111.94
391.411	106.94
391.636	103.94
391.86	79.94
392.085	78.94
392.31	92.94
392.534	87.94
392.759	84.94
392.984	88.94
393.208	91.94
393.433	106.94
393.658	92.94
393.882	82.94
394.107	82.94
394.331	88.94
394.556	88.94
394.78	69.94
395.005	87.94
395.229	89.94
395.454	95.94
395.678	95.94
395.903	75.94
396.127	102.94
396.352	85.94
396.576	70.94
396.801	96.94
397.025	104.94
397.249	98.94
397.474	81.94
397.698	82.94
397.922	82.94
398.147	83.94
398.371	88.94
398.595	94.94
398.82	87.94
399.044	83.94
399.268	96.94
399.492	83.94
399.717	87.94
399.941	88.94
400.165	78.94
400.389	92.94
400.613	84.94
400.837	91.94
401.062	88.94
401.286	82.94
401.51	90.94
401.734	105.94
401.958	89.94
402.182	123.94
402.406	147.94
402.63	113.94
402.854	81.94
403.078	88.94
403.302	83.94
403.526	95.94
403.75	94.94
403.974	85.94
404.198	93.94
404.422	74.94
404.645	84.94
404.869	85.94
405.093	88.94
405.317	103.94
405.541	91.94
405.765	87.94
405.988	113.94
406.212	157.94
406.436	192.94
406.66	107.94
406.883	96.94
407.107	96.94
407.331	87.94
407.555	91.94
407.778	101.94
408.002	84.94
408.226	87.94
408.449	81.94
408.673	96.94
408.896	92.94
409.12	91.94
409.344	81.94
409.567	82.94
409.791	77.94
410.014	106.94
410.238	106.94
410.461	87.94
410.685	97.94
410.908	98.94
411.132	78.94
411.355	96.94
411.578	105.94
411.802	88.94
412.025	90.94
412.249	97.94
412.472	94.94
412.695	88.94
412.919	95.94
413.142	83.94
413.365	93.94
413.589	83.94
413.812	71.94
414.035	90.94
414.258	82.94
414.482	91.94
414.705	75.94
414.928	94.94
415.151	91.94
415.374	85.94
415.597	98.94
415.821	83.94
416.044	85.94
416.267	91.94
416.49	92.94
416.713	77.94
416.936	70.94
417.159	81.94
417.382	103.94
417.605	87.94
417.828	104.94
418.051	79.94
418.274	89.94
418.497	91.94
418.72	91.94
418.943	112.94
419.166	91.94
419.389	88.94
419.611	97.94
419.834	96.94
420.057	74.94
420.28	82.94
420.503	89.94
420.726	92.94
420.948	101.94
421.171	89.94
421.394	95.94
421.617	98.94
421.839	97.94
422.062	81.94
422.285	87.94
422.507	82.94
422.73	100.94
422.953	94.94
423.175	86.94
423.398	86.94
423.621	82.94
423.843	94.94
424.066	74.94
424.288	93.94
424.511	81.94
424.733	91.94
424.956	112.94
425.178	92.94
425.401	99.94
425.623	80.94
425.846	93.94
426.068	67.94
426.291	84.94
426.513	90.94
426.735	89.94
426.958	88.94
427.18	87.94
427.402	132.94
427.625	148.94
427.847	119.94
428.069	98.94
428.292	69.94
428.514	93.94
428.736	98.94
428.958	90.94
429.181	83.94
429.403	81.94
429.625	87.94
429.847	93.94
430.069	90.94
430.292	83.94
430.514	73.94
430.736	92.94
430.958	89.94
431.18	96.94
431.402	72.94
431.624	90.94
431.846	78.94
432.068	90.94
432.29	75.94
432.512	80.94
432.734	91.94
432.956	73.94
433.178	96.94
433.4	87.94
433.622	68.94
433.844	78.94
434.066	81.94
434.287	77.94
434.509	93.94
434.731	94.94
434.953	78.94
435.175	95.94
435.397	89.94
435.618	88.94
435.84	102.94
436.062	116.94
436.284	99.94
436.505	103.94
436.727	75.94
436.949	94.94
437.17	82.94
437.392	86.94
437.614	92.94
437.835	89.94
438.057	98.94
438.278	102.94
438.5	101.94
438.721	107.94
438.943	95.94
439.165	93.94
439.386	77.94
439.608	83.94
439.829	90.94
440.05	106.94
440.272	129.94
440.493	100.94
440.715	79.94
440.936	81.94
441.158	86.94
441.379	81.94
441.6	99.94
441.822	82.94
442.043	82.94
442.264	96.94
442.486	116.94
442.707	103.94
442.928	86.94
443.149	115.94
443.371	120.94
443.592	97.94
443.813	100.94
444.034	100.94
444.255	92.94
444.476	82.94
444.698	83.94
444.919	91.94
445.14	122.94
445.361	111.94
445.582	101.94
445.803	125.94
446.024	122.94
446.245	128.94
446.466	93.94
446.687	88.94
446.908	97.94
447.129	79.94
447.35	110.94
447.571	71.94
447.792	92.94
448.013	89.94
448.234	98.94
448.455	108.94
448.675	107.94
448.896	103.94
449.117	89.94
449.338	107.94
449.559	118.94
449.779	115.94
450	94.94
450.221	81.94
450.442	86.94
450.662	91.94
450.883	94.94
451.104	103.94
451.324	86.94
451.545	81.94
451.766	89.94
451.986	88.94
452.207	96.94
452.428	87.94
452.648	101.94
452.869	102.94
453.089	102.94
453.31	117.94
453.53	98.94
453.751	90.94
453.971	104.94
454.192	115.94
454.412	85.94
454.633	96.94
454.853	94.94
455.073	97.94
455.294	94.94
455.514	96.94
455.734	89.94
455.955	85.94
456.175	84.94
456.395	67.94
456.616	89.94
456.836	85.94
457.056	91.94
457.276	82.94
457.497	85.94
457.717	80.94
457.937	82.94
458.157	94.94
458.377	88.94
458.598	98.94
458.818	120.94
459.038	137.94
459.258	106.94
459.478	81.94
459.698	83.94
459.918	105.94
460.138	91.94
460.358	105.94
460.578	82.94
460.798	88.94
461.018	94.94
461.238	91.94
461.458	80.94
461.678	87.94
461.898	81.94
462.118	69.94
462.338	81.94
462.558	90.94
462.777	71.94
462.997	77.94
463.217	94.94
463.437	73.94
463.657	81.94
463.876	95.94
464.096	90.94
464.316	106.94
464.536	98.94
464.755	95.94
464.975	80.94
465.195	143.94
465.414	138.94
465.634	93.94
465.854	84.94
466.073	97.94
466.293	93.94
466.512	85.94
466.732	92.94
466.951	95.94
467.171	85.94
467.391	101.94
467.61	98.94
467.829	104.94
468.049	93.94
468.268	77.94
468.488	81.94
468.707	98.94
468.927	72.94
469.146	82.94
469.365	82.94
469.585	74.94
469.804	102.94
470.023	97.94
470.243	101.94
470.462	102.94
470.681	110.94
470.901	81.94
471.12	96.94
471.339	82.94
471.558	103.94
471.777	72.94
471.997	81.94
472.216	91.94
472.435	96.94
472.654	81.94
472.873	82.94
473.092	71.94
473.311	87.94
473.53	82.94
473.749	79.94
473.968	91.94
474.187	86.94
474.406	95.94
474.625	82.94
474.844	91.94
475.063	96.94
475.282	86.94
475.501	94.94
475.72	95.94
475.939	75.94
476.158	85.94
476.377	77.94
476.596	83.94
476.814	85.94
477.033	77.94
477.252	86.94
477.471	84.94
477.69	94.94
477.908	93.94
478.127	77.94
478.346	76.94
478.564	87.94
478.783	83.94
479.002	92.94
479.22	86.94
479.439	89.94
479.658	94.94
479.876	98.94
480.095	101.94
480.313	83.94
480.532	68.94
480.751	93.94
480.969	96.94
481.188	93.94
481.406	101.94
481.624	95.94
481.843	84.94
482.061	100.94
482.28	97.94
482.498	89.94
482.717	85.94
482.935	89.94
483.153	91.94
483.372	94.94
483.59	79.94
483.808	80.94
484.027	85.94
484.245	102.94
484.463	80.94
484.681	90.94
484.9	88.94
485.118	100.94
485.336	88.94
485.554	98.94
485.772	99.94
485.99	107.94
486.209	102.94
486.427	96.94
486.645	111.94
486.863	111.94
487.081	93.94
487.299	109.94
487.517	98.94
487.735	84.94
487.953	106.94
488.171	86.94
488.389	93.94
488.607	105.94
488.825	94.94
489.043	90.94
489.261	87.94
489.479	89.94
489.696	79.94
489.914	79.94
490.132	66.94
490.35	81.94
490.568	73.94
490.786	89.94
491.003	82.94
491.221	84.94
491.439	81.94
491.657	95.94
491.874	85.94
492.092	101.94
492.31	87.94
492.527	83.94
492.745	93.94
492.963	72.94
493.18	85.94
493.398	86.94
493.615	95.94
493.833	93.94
494.05	83.94
494.268	72.94
494.485	87.94
494.703	90.94
494.92	85.94
495.138	79.94
495.355	74.94
495.573	91.94
495.79	102.94
496.008	89.94
496.225	90.94
496.442	98.94
496.66	98.94
496.877	99.94
497.094	88.94
497.312	85.94
497.529	95.94
497.746	90.94
497.963	64.94
498.181	89.94
498.398	93.94
498.615	110.94
498.832	114.94
499.049	102.94
499.267	105.94
499.484	91.94
499.701	84.94
499.918	85.94
500.135	88.94
500.352	95.94
500.569	87.94
500.786	91.94
501.003	110.94
501.22	94.94
501.437	93.94
501.654	80.94
501.871	86.94
502.088	94.94
502.305	97.94
502.522	89.94
502.739	80.94
502.956	96.94
503.172	95.94
503.389	91.94
503.606	102.94
503.823	95.94
504.04	98.94
504.256	96.94
504.473	91.94
504.69	81.94
504.907	91.94
505.123	88.94
505.34	102.94
505.557	79.94
505.773	97.94
505.99	102.94
506.207	94.94
506.423	95.94
506.64	103.94
506.856	91.94
507.073	83.94
507.289	89.94
507.506	94.94
507.722	106.94
507.939	121.94
508.155	98.94
508.372	87.94
508.588	88.94
508.805	95.94
509.021	83.94
509.238	90.94
509.454	89.94
509.67	95.94
509.887	105.94
510.103	118.94
510.319	207.94
510.536	704.94
510.752	2170.94
510.968	609.94
511.184	129.94
511.401	96.94
511.617	82.94
511.833	91.94
512.049	92.94
512.265	101.94
512.481	92.94
512.698	92.94
512.914	91.94
513.13	77.94
513.346	86.94
513.562	100.94
513.778	97.94
513.994	80.94
514.21	112.94
514.426	103.94
514.642	125.94
514.858	121.94
515.074	145.94
515.29	391.94
515.506	1280.94
515.721	465.94
515.937	143.94
516.153	123.94
516.369	97.94
