Data from Uncirc_1983_H10_HRD10591_00078.txt Node
Date: Wed Jan 03 12:25:47 EST 2024
User: Yrep
Spectrometer: HR+D1059
Trigger mode: 1
Integration Time (sec): 1.000000E-1
Scans to average: 1
Electric dark correction enabled: true
Nonlinearity correction enabled: false
Boxcar width: 0
XAxis mode: Wavelengths
Number of Pixels in Spectrum: 2048
>>>>>Begin Spectral Data<<<<<
223.165	-2.94
223.4	-2.94
223.635	-2.94
223.869	-12.94
224.104	-27.94
224.338	-7.94
224.573	-19.94
224.808	-14.94
225.042	-10.94
225.277	-8.94
225.511	3.06
225.746	6.06
225.98	10.06
226.215	19.06
226.449	4.06
226.683	20.06
226.918	20.06
227.152	24.06
227.387	36.06
227.621	34.06
227.856	37.06
228.09	34.06
228.324	48.06
228.559	58.06
228.793	57.06
229.027	60.06
229.262	56.06
229.496	56.06
229.73	87.06
229.964	89.06
230.199	62.06
230.433	70.06
230.667	78.06
230.901	68.06
231.136	65.06
231.37	81.06
231.604	69.06
231.838	66.06
232.072	91.06
232.306	98.06
232.541	71.06
232.775	73.06
233.009	74.06
233.243	76.06
233.477	78.06
233.711	86.06
233.945	76.06
234.179	81.06
234.413	88.06
234.647	86.06
234.881	94.06
235.115	76.06
235.349	84.06
235.583	84.06
235.817	84.06
236.051	84.06
236.285	71.06
236.519	77.06
236.753	80.06
236.987	67.06
237.221	84.06
237.455	86.06
237.689	78.06
237.922	84.06
238.156	72.06
238.39	81.06
238.624	76.06
238.858	76.06
239.091	72.06
239.325	87.06
239.559	86.06
239.793	86.06
240.027	69.06
240.26	80.06
240.494	80.06
240.728	72.06
240.961	74.06
241.195	76.06
241.429	89.06
241.662	71.06
241.896	70.06
242.13	70.06
242.363	68.06
242.597	71.06
242.83	76.06
243.064	64.06
243.298	73.06
243.531	76.06
243.765	73.06
243.998	73.06
244.232	96.06
244.465	85.06
244.699	84.06
244.932	81.06
245.166	80.06
245.399	56.06
245.633	63.06
245.866	63.06
246.099	75.06
246.333	76.06
246.566	84.06
246.8	92.06
247.033	77.06
247.266	67.06
247.5	69.06
247.733	67.06
247.966	70.06
248.2	78.06
248.433	73.06
248.666	65.06
248.899	56.06
249.133	78.06
249.366	85.06
249.599	82.06
249.832	78.06
250.066	76.06
250.299	80.06
250.532	72.06
250.765	76.06
250.998	74.06
251.231	78.06
251.465	92.06
251.698	68.06
251.931	64.06
252.164	95.06
252.397	65.06
252.63	68.06
252.863	76.06
253.096	93.06
253.329	76.06
253.562	56.06
253.795	82.06
254.028	82.06
254.261	69.06
254.494	76.06
254.727	82.06
254.96	84.06
255.193	68.06
255.426	70.06
255.659	68.06
255.892	78.06
256.124	80.06
256.357	78.06
256.59	89.06
256.823	86.06
257.056	86.06
257.289	71.06
257.521	67.06
257.754	82.06
257.987	78.06
258.22	80.06
258.452	80.06
258.685	78.06
258.918	73.06
259.151	72.06
259.383	62.06
259.616	80.06
259.849	85.06
260.081	92.06
260.314	79.06
260.547	93.06
260.779	88.06
261.012	76.06
261.244	103.06
261.477	80.06
261.71	85.06
261.942	113.06
262.175	107.06
262.407	83.06
262.64	93.06
262.872	84.06
263.105	82.06
263.337	86.06
263.57	78.06
263.802	71.06
264.035	74.06
264.267	74.06
264.499	78.06
264.732	81.06
264.964	81.06
265.197	83.06
265.429	82.06
265.661	80.06
265.894	80.06
266.126	90.06
266.358	88.06
266.591	87.06
266.823	82.06
267.055	78.06
267.287	82.06
267.52	88.06
267.752	92.06
267.984	71.06
268.216	78.06
268.448	82.06
268.681	76.06
268.913	80.06
269.145	81.06
269.377	65.06
269.609	83.06
269.841	84.06
270.073	77.06
270.306	74.06
270.538	74.06
270.77	77.06
271.002	78.06
271.234	72.06
271.466	80.06
271.698	79.06
271.93	87.06
272.162	76.06
272.394	82.06
272.626	87.06
272.858	86.06
273.09	80.06
273.322	89.06
273.553	71.06
273.785	84.06
274.017	92.06
274.249	79.06
274.481	76.06
274.713	81.06
274.945	76.06
275.176	86.06
275.408	105.06
275.64	88.06
275.872	66.06
276.104	72.06
276.335	76.06
276.567	84.06
276.799	101.06
277.031	97.06
277.262	82.06
277.494	94.06
277.726	74.06
277.957	88.06
278.189	84.06
278.421	89.06
278.652	80.06
278.884	80.06
279.115	73.06
279.347	79.06
279.579	73.06
279.81	81.06
280.042	79.06
280.273	79.06
280.505	83.06
280.736	82.06
280.968	89.06
281.199	82.06
281.431	95.06
281.662	82.06
281.894	96.06
282.125	100.06
282.356	103.06
282.588	126.06
282.819	95.06
283.051	102.06
283.282	93.06
283.513	82.06
283.745	79.06
283.976	78.06
284.207	75.06
284.439	78.06
284.67	87.06
284.901	88.06
285.132	81.06
285.364	87.06
285.595	74.06
285.826	73.06
286.057	66.06
286.288	82.06
286.52	64.06
286.751	83.06
286.982	94.06
287.213	92.06
287.444	96.06
287.675	83.06
287.906	98.06
288.138	95.06
288.369	106.06
288.6	99.06
288.831	84.06
289.062	96.06
289.293	87.06
289.524	87.06
289.755	79.06
289.986	84.06
290.217	81.06
290.448	72.06
290.679	82.06
290.91	80.06
291.141	98.06
291.371	78.06
291.602	85.06
291.833	87.06
292.064	75.06
292.295	104.06
292.526	80.06
292.757	73.06
292.987	82.06
293.218	93.06
293.449	79.06
293.68	95.06
293.91	89.06
294.141	89.06
294.372	89.06
294.603	93.06
294.833	89.06
295.064	85.06
295.295	96.06
295.525	98.06
295.756	85.06
295.987	102.06
296.217	133.06
296.448	121.06
296.679	86.06
296.909	89.06
297.14	101.06
297.37	101.06
297.601	85.06
297.831	92.06
298.062	85.06
298.292	76.06
298.523	84.06
298.753	81.06
298.984	80.06
299.214	90.06
299.445	91.06
299.675	79.06
299.905	93.06
300.136	81.06
300.366	77.06
300.597	88.06
300.827	84.06
301.057	88.06
301.288	98.06
301.518	77.06
301.748	90.06
301.979	93.06
302.209	82.06
302.439	98.06
302.669	84.06
302.9	87.06
303.13	76.06
303.36	99.06
303.59	99.06
303.82	91.06
304.051	84.06
304.281	82.06
304.511	84.06
304.741	88.06
304.971	85.06
305.201	88.06
305.431	92.06
305.661	89.06
305.891	76.06
306.121	88.06
306.352	93.06
306.582	91.06
306.812	93.06
307.042	92.06
307.272	101.06
307.502	89.06
307.731	99.06
307.961	93.06
308.191	86.06
308.421	84.06
308.651	85.06
308.881	100.06
309.111	83.06
309.341	96.06
309.571	100.06
309.8	97.06
310.03	95.06
310.26	95.06
310.49	94.06
310.72	89.06
310.949	103.06
311.179	93.06
311.409	88.06
311.639	84.06
311.868	87.06
312.098	98.06
312.328	100.06
312.557	90.06
312.787	97.06
313.017	87.06
313.246	73.06
313.476	86.06
313.706	99.06
313.935	87.06
314.165	96.06
314.394	102.06
314.624	100.06
314.853	92.06
315.083	105.06
315.312	99.06
315.542	96.06
315.771	97.06
316.001	86.06
316.23	84.06
316.46	76.06
316.689	99.06
316.919	98.06
317.148	102.06
317.377	92.06
317.607	88.06
317.836	84.06
318.065	87.06
318.295	85.06
318.524	72.06
318.753	101.06
318.983	80.06
319.212	98.06
319.441	106.06
319.67	85.06
319.9	96.06
320.129	102.06
320.358	84.06
320.587	92.06
320.816	111.06
321.046	102.06
321.275	105.06
321.504	109.06
321.733	92.06
321.962	97.06
322.191	92.06
322.42	93.06
322.649	104.06
322.878	99.06
323.108	99.06
323.337	116.06
323.566	114.06
323.795	143.06
324.024	184.06
324.253	363.06
324.482	723.06
324.71	1432.06
324.939	1892.06
325.168	690.06
325.397	227.06
325.626	130.06
325.855	132.06
326.084	113.06
326.313	129.06
326.542	130.06
326.77	208.06
326.999	404.06
327.228	833.06
327.457	1501.06
327.686	1185.06
327.914	331.06
328.143	184.06
328.372	143.06
328.6	108.06
328.829	100.06
329.058	112.06
329.287	116.06
329.515	107.06
329.744	95.06
329.972	99.06
330.201	133.06
330.43	147.06
330.658	133.06
330.887	113.06
331.115	96.06
331.344	93.06
331.572	85.06
331.801	97.06
332.03	94.06
332.258	96.06
332.486	89.06
332.715	75.06
332.943	82.06
333.172	90.06
333.4	102.06
333.629	98.06
333.857	105.06
334.085	95.06
334.314	118.06
334.542	143.06
334.771	136.06
334.999	120.06
335.227	93.06
335.455	92.06
335.684	98.06
335.912	81.06
336.14	89.06
336.369	90.06
336.597	96.06
336.825	95.06
337.053	85.06
337.281	84.06
337.51	89.06
337.738	97.06
337.966	89.06
338.194	83.06
338.422	93.06
338.65	85.06
338.878	76.06
339.106	88.06
339.334	88.06
339.562	84.06
339.79	92.06
340.018	95.06
340.246	85.06
340.474	85.06
340.702	94.06
340.93	95.06
341.158	82.06
341.386	92.06
341.614	97.06
341.842	84.06
342.07	93.06
342.298	94.06
342.526	82.06
342.754	74.06
342.981	82.06
343.209	86.06
343.437	110.06
343.665	83.06
343.893	78.06
344.12	73.06
344.348	89.06
344.576	82.06
344.804	77.06
345.031	88.06
345.259	89.06
345.487	82.06
345.714	95.06
345.942	77.06
346.17	96.06
346.397	112.06
346.625	89.06
346.853	90.06
347.08	93.06
347.308	98.06
347.535	97.06
347.763	103.06
347.99	108.06
348.218	97.06
348.445	95.06
348.673	99.06
348.9	81.06
349.128	106.06
349.355	82.06
349.583	90.06
349.81	96.06
350.037	79.06
350.265	91.06
350.492	103.06
350.72	105.06
350.947	97.06
351.174	111.06
351.402	94.06
351.629	106.06
351.856	96.06
352.083	94.06
352.311	95.06
352.538	93.06
352.765	94.06
352.992	104.06
353.22	93.06
353.447	84.06
353.674	86.06
353.901	92.06
354.128	81.06
354.355	86.06
354.583	89.06
354.81	90.06
355.037	90.06
355.264	86.06
355.491	91.06
355.718	98.06
355.945	90.06
356.172	102.06
356.399	94.06
356.626	89.06
356.853	84.06
357.08	81.06
357.307	89.06
357.534	79.06
357.761	85.06
357.988	89.06
358.215	96.06
358.441	86.06
358.668	93.06
358.895	89.06
359.122	84.06
359.349	85.06
359.576	90.06
359.802	77.06
360.029	94.06
360.256	105.06
360.483	83.06
360.709	83.06
360.936	96.06
361.163	94.06
361.39	67.06
361.616	84.06
361.843	85.06
362.07	93.06
362.296	99.06
362.523	81.06
362.749	80.06
362.976	98.06
363.203	82.06
363.429	91.06
363.656	78.06
363.882	81.06
364.109	94.06
364.335	92.06
364.562	87.06
364.788	99.06
365.015	89.06
365.241	98.06
365.468	115.06
365.694	92.06
365.92	88.06
366.147	87.06
366.373	83.06
366.599	83.06
366.826	85.06
367.052	81.06
367.278	74.06
367.505	85.06
367.731	80.06
367.957	87.06
368.184	85.06
368.41	97.06
368.636	107.06
368.862	104.06
369.089	103.06
369.315	90.06
369.541	83.06
369.767	89.06
369.993	97.06
370.219	89.06
370.445	86.06
370.672	92.06
370.898	85.06
371.124	79.06
371.35	76.06
371.576	80.06
371.802	91.06
372.028	84.06
372.254	80.06
372.48	83.06
372.706	77.06
372.932	91.06
373.158	96.06
373.384	74.06
373.61	87.06
373.835	83.06
374.061	84.06
374.287	84.06
374.513	100.06
374.739	76.06
374.965	80.06
375.191	87.06
375.416	80.06
375.642	97.06
375.868	90.06
376.094	84.06
376.319	101.06
376.545	74.06
376.771	78.06
376.997	78.06
377.222	80.06
377.448	93.06
377.674	81.06
377.899	95.06
378.125	79.06
378.35	90.06
378.576	73.06
378.802	80.06
379.027	83.06
379.253	89.06
379.478	97.06
379.704	87.06
379.929	89.06
380.155	89.06
380.38	84.06
380.606	83.06
380.831	93.06
381.057	102.06
381.282	92.06
381.507	99.06
381.733	87.06
381.958	87.06
382.184	89.06
382.409	91.06
382.634	98.06
382.86	91.06
383.085	86.06
383.31	94.06
383.535	87.06
383.761	88.06
383.986	94.06
384.211	97.06
384.436	101.06
384.662	92.06
384.887	108.06
385.112	83.06
385.337	87.06
385.562	77.06
385.787	88.06
386.013	98.06
386.238	107.06
386.463	85.06
386.688	106.06
386.913	86.06
387.138	91.06
387.363	94.06
387.588	85.06
387.813	100.06
388.038	89.06
388.263	93.06
388.488	105.06
388.713	101.06
388.938	85.06
389.163	92.06
389.387	82.06
389.612	86.06
389.837	78.06
390.062	87.06
390.287	98.06
390.512	93.06
390.736	93.06
390.961	81.06
391.186	88.06
391.411	82.06
391.636	80.06
391.86	93.06
392.085	77.06
392.31	83.06
392.534	80.06
392.759	75.06
392.984	77.06
393.208	81.06
393.433	94.06
393.658	78.06
393.882	84.06
394.107	78.06
394.331	94.06
394.556	73.06
394.78	84.06
395.005	100.06
395.229	72.06
395.454	70.06
395.678	77.06
395.903	97.06
396.127	87.06
396.352	78.06
396.576	89.06
396.801	69.06
397.025	84.06
397.249	79.06
397.474	85.06
397.698	89.06
397.922	96.06
398.147	71.06
398.371	76.06
398.595	78.06
398.82	85.06
399.044	80.06
399.268	95.06
399.492	82.06
399.717	98.06
399.941	86.06
400.165	78.06
400.389	87.06
400.613	94.06
400.837	81.06
401.062	87.06
401.286	76.06
401.51	82.06
401.734	86.06
401.958	94.06
402.182	110.06
402.406	132.06
402.63	113.06
402.854	83.06
403.078	72.06
403.302	82.06
403.526	81.06
403.75	80.06
403.974	94.06
404.198	78.06
404.422	86.06
404.645	71.06
404.869	86.06
405.093	66.06
405.317	86.06
405.541	92.06
405.765	103.06
405.988	107.06
406.212	158.06
406.436	222.06
406.66	137.06
406.883	97.06
407.107	92.06
407.331	88.06
407.555	80.06
407.778	93.06
408.002	73.06
408.226	71.06
408.449	90.06
408.673	82.06
408.896	81.06
409.12	104.06
409.344	81.06
409.567	86.06
409.791	81.06
410.014	89.06
410.238	85.06
410.461	80.06
410.685	87.06
410.908	95.06
411.132	93.06
411.355	87.06
411.578	89.06
411.802	105.06
412.025	76.06
412.249	87.06
412.472	89.06
412.695	90.06
412.919	82.06
413.142	84.06
413.365	86.06
413.589	87.06
413.812	94.06
414.035	81.06
414.258	82.06
414.482	88.06
414.705	87.06
414.928	87.06
415.151	78.06
415.374	90.06
415.597	90.06
415.821	81.06
416.044	80.06
416.267	94.06
416.49	78.06
416.713	83.06
416.936	94.06
417.159	84.06
417.382	94.06
417.605	93.06
417.828	97.06
418.051	89.06
418.274	86.06
418.497	74.06
418.72	89.06
418.943	81.06
419.166	87.06
419.389	98.06
419.611	82.06
419.834	85.06
420.057	98.06
420.28	92.06
420.503	74.06
420.726	87.06
420.948	67.06
421.171	69.06
421.394	92.06
421.617	88.06
421.839	85.06
422.062	86.06
422.285	92.06
422.507	88.06
422.73	120.06
422.953	90.06
423.175	95.06
423.398	81.06
423.621	80.06
423.843	81.06
424.066	80.06
424.288	77.06
424.511	90.06
424.733	90.06
424.956	87.06
425.178	81.06
425.401	99.06
425.623	97.06
425.846	91.06
426.068	85.06
426.291	81.06
426.513	80.06
426.735	84.06
426.958	96.06
427.18	111.06
427.402	123.06
427.625	144.06
427.847	131.06
428.069	100.06
428.292	77.06
428.514	73.06
428.736	91.06
428.958	82.06
429.181	69.06
429.403	57.06
429.625	82.06
429.847	80.06
430.069	81.06
430.292	84.06
430.514	84.06
430.736	76.06
430.958	84.06
431.18	83.06
431.402	66.06
431.624	80.06
431.846	80.06
432.068	74.06
432.29	77.06
432.512	73.06
432.734	64.06
432.956	80.06
433.178	93.06
433.4	84.06
433.622	98.06
433.844	90.06
434.066	92.06
434.287	82.06
434.509	79.06
434.731	94.06
434.953	90.06
435.175	73.06
435.397	84.06
435.618	89.06
435.84	91.06
436.062	112.06
436.284	96.06
436.505	96.06
436.727	97.06
436.949	88.06
437.17	81.06
437.392	88.06
437.614	85.06
437.835	117.06
438.057	97.06
438.278	92.06
438.5	104.06
438.721	105.06
438.943	109.06
439.165	69.06
439.386	89.06
439.608	82.06
439.829	87.06
440.05	98.06
440.272	113.06
440.493	85.06
440.715	77.06
440.936	75.06
441.158	89.06
441.379	82.06
441.6	94.06
441.822	92.06
442.043	88.06
442.264	93.06
442.486	88.06
442.707	81.06
442.928	88.06
443.149	121.06
443.371	117.06
443.592	121.06
443.813	105.06
444.034	108.06
444.255	95.06
444.476	83.06
444.698	76.06
444.919	84.06
445.14	143.06
445.361	109.06
445.582	110.06
445.803	113.06
446.024	112.06
446.245	113.06
446.466	95.06
446.687	87.06
446.908	78.06
447.129	88.06
447.35	82.06
447.571	82.06
447.792	85.06
448.013	83.06
448.234	112.06
448.455	97.06
448.675	93.06
448.896	115.06
449.117	106.06
449.338	104.06
449.559	106.06
449.779	123.06
450	72.06
450.221	88.06
450.442	86.06
450.662	96.06
450.883	98.06
451.104	92.06
451.324	88.06
451.545	76.06
451.766	84.06
451.986	72.06
452.207	66.06
452.428	86.06
452.648	95.06
452.869	95.06
453.089	105.06
453.31	99.06
453.53	92.06
453.751	70.06
453.971	84.06
454.192	92.06
454.412	83.06
454.633	94.06
454.853	72.06
455.073	95.06
455.294	97.06
455.514	75.06
455.734	85.06
455.955	92.06
456.175	76.06
456.395	89.06
456.616	95.06
456.836	84.06
457.056	92.06
457.276	92.06
457.497	80.06
457.717	76.06
457.937	78.06
458.157	76.06
458.377	87.06
458.598	104.06
458.818	138.06
459.038	153.06
459.258	122.06
459.478	84.06
459.698	90.06
459.918	81.06
460.138	64.06
460.358	88.06
460.578	73.06
460.798	83.06
461.018	84.06
461.238	89.06
461.458	87.06
461.678	69.06
461.898	95.06
462.118	80.06
462.338	82.06
462.558	79.06
462.777	74.06
462.997	74.06
463.217	92.06
463.437	86.06
463.657	75.06
463.876	86.06
464.096	84.06
464.316	84.06
464.536	89.06
464.755	91.06
464.975	84.06
465.195	152.06
465.414	124.06
465.634	94.06
465.854	79.06
466.073	91.06
466.293	89.06
466.512	88.06
466.732	84.06
466.951	76.06
467.171	90.06
467.391	81.06
467.61	88.06
467.829	93.06
468.049	98.06
468.268	103.06
468.488	89.06
468.707	86.06
468.927	66.06
469.146	84.06
469.365	95.06
469.585	77.06
469.804	87.06
470.023	92.06
470.243	80.06
470.462	95.06
470.681	95.06
470.901	98.06
471.12	85.06
471.339	80.06
471.558	79.06
471.777	86.06
471.997	91.06
472.216	103.06
472.435	164.06
472.654	98.06
472.873	93.06
473.092	70.06
473.311	80.06
473.53	76.06
473.749	85.06
473.968	78.06
474.187	97.06
474.406	91.06
474.625	82.06
474.844	81.06
475.063	99.06
475.282	84.06
475.501	82.06
475.72	96.06
475.939	87.06
476.158	76.06
476.377	103.06
476.596	96.06
476.814	88.06
477.033	84.06
477.252	84.06
477.471	89.06
477.69	86.06
477.908	72.06
478.127	78.06
478.346	82.06
478.564	84.06
478.783	100.06
479.002	88.06
479.22	90.06
479.439	102.06
479.658	103.06
479.876	102.06
480.095	90.06
480.313	89.06
480.532	90.06
480.751	83.06
480.969	126.06
481.188	229.06
481.406	167.06
481.624	98.06
481.843	84.06
482.061	89.06
482.28	92.06
482.498	85.06
482.717	68.06
482.935	81.06
483.153	76.06
483.372	85.06
483.59	85.06
483.808	71.06
484.027	84.06
484.245	86.06
484.463	78.06
484.681	84.06
484.9	93.06
485.118	75.06
485.336	89.06
485.554	97.06
485.772	94.06
485.99	110.06
486.209	89.06
486.427	93.06
486.645	89.06
486.863	102.06
487.081	86.06
487.299	86.06
487.517	112.06
487.735	100.06
487.953	91.06
488.171	79.06
488.389	98.06
488.607	100.06
488.825	82.06
489.043	82.06
489.261	86.06
489.479	107.06
489.696	91.06
489.914	87.06
490.132	96.06
490.35	71.06
490.568	86.06
490.786	86.06
491.003	85.06
491.221	84.06
491.439	90.06
491.657	100.06
491.874	86.06
492.092	80.06
492.31	102.06
492.527	70.06
492.745	81.06
492.963	86.06
493.18	98.06
493.398	76.06
493.615	96.06
493.833	79.06
494.05	96.06
494.268	86.06
494.485	75.06
494.703	80.06
494.92	78.06
495.138	79.06
495.355	94.06
495.573	89.06
495.79	82.06
496.008	97.06
496.225	74.06
496.442	84.06
496.66	83.06
496.877	97.06
497.094	93.06
497.312	83.06
497.529	86.06
497.746	88.06
497.963	93.06
498.181	76.06
498.398	79.06
498.615	91.06
498.832	98.06
499.049	85.06
499.267	82.06
499.484	92.06
499.701	98.06
499.918	93.06
500.135	97.06
500.352	87.06
500.569	100.06
500.786	94.06
501.003	96.06
501.22	80.06
501.437	88.06
501.654	90.06
501.871	103.06
502.088	86.06
502.305	85.06
502.522	92.06
502.739	87.06
502.956	90.06
503.172	91.06
503.389	88.06
503.606	85.06
503.823	81.06
504.04	97.06
504.256	88.06
504.473	79.06
504.69	84.06
504.907	68.06
505.123	96.06
505.34	92.06
505.557	88.06
505.773	91.06
505.99	94.06
506.207	81.06
506.423	81.06
506.64	95.06
506.856	93.06
507.073	80.06
507.289	93.06
507.506	98.06
507.722	105.06
507.939	112.06
508.155	92.06
508.372	96.06
508.588	83.06
508.805	78.06
509.021	94.06
509.238	120.06
509.454	82.06
509.67	111.06
509.887	91.06
510.103	125.06
510.319	198.06
510.536	686.06
510.752	2225.06
510.968	608.06
511.184	145.06
511.401	106.06
511.617	89.06
511.833	71.06
512.049	91.06
512.265	104.06
512.481	90.06
512.698	99.06
512.914	88.06
513.13	93.06
513.346	90.06
513.562	97.06
513.778	101.06
513.994	94.06
514.21	95.06
514.426	104.06
514.642	125.06
514.858	113.06
515.074	149.06
515.29	401.06
515.506	1321.06
515.721	484.06
515.937	136.06
516.153	114.06
516.369	118.06
516.585	89.06
516.801	104.06
517.016	92.06
517.232	80.06
517.448	85.06
