Data from Uncirc_1983_H10_HRD10591_00022.txt Node
Date: Wed Jan 03 12:25:36 EST 2024
User: Yrep
Spectrometer: HR+D1059
Trigger mode: 1
Integration Time (sec): 1.000000E-1
Scans to average: 1
Electric dark correction enabled: true
Nonlinearity correction enabled: false
Boxcar width: 0
XAxis mode: Wavelengths
Number of Pixels in Spectrum: 2048
>>>>>Begin Spectral Data<<<<<
223.165	-16.81
223.4	-16.81
223.635	-16.81
223.869	-25.81
224.104	-22.81
224.338	-23.81
224.573	-8.81
224.808	-20.81
225.042	-0.81
225.277	-0.81
225.511	-9.81
225.746	11.19
225.98	0.19
226.215	12.19
226.449	21.19
226.683	26.19
226.918	18.19
227.152	41.19
227.387	38.19
227.621	44.19
227.856	46.19
228.09	49.19
228.324	53.19
228.559	49.19
228.793	61.19
229.027	70.19
229.262	73.19
229.496	67.19
229.73	72.19
229.964	89.19
230.199	71.19
230.433	60.19
230.667	72.19
230.901	66.19
231.136	90.19
231.37	75.19
231.604	66.19
231.838	79.19
232.072	76.19
232.306	74.19
232.541	93.19
232.775	84.19
233.009	90.19
233.243	86.19
233.477	83.19
233.711	94.19
233.945	73.19
234.179	72.19
234.413	88.19
234.647	75.19
234.881	82.19
235.115	74.19
235.349	73.19
235.583	72.19
235.817	89.19
236.051	80.19
236.285	63.19
236.519	72.19
236.753	71.19
236.987	76.19
237.221	86.19
237.455	76.19
237.689	80.19
237.922	71.19
238.156	70.19
238.39	72.19
238.624	63.19
238.858	74.19
239.091	70.19
239.325	68.19
239.559	91.19
239.793	69.19
240.027	68.19
240.26	65.19
240.494	90.19
240.728	86.19
240.961	73.19
241.195	96.19
241.429	66.19
241.662	83.19
241.896	80.19
242.13	62.19
242.363	78.19
242.597	83.19
242.83	73.19
243.064	73.19
243.298	83.19
243.531	78.19
243.765	69.19
243.998	80.19
244.232	93.19
244.465	83.19
244.699	73.19
244.932	68.19
245.166	85.19
245.399	67.19
245.633	78.19
245.866	76.19
246.099	67.19
246.333	74.19
246.566	74.19
246.8	75.19
247.033	71.19
247.266	79.19
247.5	84.19
247.733	68.19
247.966	82.19
248.2	82.19
248.433	72.19
248.666	75.19
248.899	82.19
249.133	91.19
249.366	85.19
249.599	94.19
249.832	88.19
250.066	85.19
250.299	83.19
250.532	66.19
250.765	73.19
250.998	71.19
251.231	84.19
251.465	72.19
251.698	79.19
251.931	77.19
252.164	91.19
252.397	72.19
252.63	84.19
252.863	87.19
253.096	96.19
253.329	91.19
253.562	83.19
253.795	89.19
254.028	88.19
254.261	53.19
254.494	65.19
254.727	74.19
254.96	71.19
255.193	79.19
255.426	80.19
255.659	85.19
255.892	84.19
256.124	71.19
256.357	80.19
256.59	89.19
256.823	78.19
257.056	72.19
257.289	90.19
257.521	87.19
257.754	90.19
257.987	77.19
258.22	81.19
258.452	71.19
258.685	66.19
258.918	73.19
259.151	78.19
259.383	81.19
259.616	83.19
259.849	78.19
260.081	80.19
260.314	72.19
260.547	76.19
260.779	71.19
261.012	88.19
261.244	69.19
261.477	81.19
261.71	86.19
261.942	120.19
262.175	106.19
262.407	82.19
262.64	82.19
262.872	72.19
263.105	91.19
263.337	82.19
263.57	93.19
263.802	87.19
264.035	73.19
264.267	65.19
264.499	78.19
264.732	78.19
264.964	78.19
265.197	83.19
265.429	90.19
265.661	82.19
265.894	85.19
266.126	72.19
266.358	71.19
266.591	90.19
266.823	90.19
267.055	75.19
267.287	86.19
267.52	88.19
267.752	72.19
267.984	88.19
268.216	82.19
268.448	78.19
268.681	97.19
268.913	83.19
269.145	87.19
269.377	82.19
269.609	82.19
269.841	82.19
270.073	76.19
270.306	83.19
270.538	77.19
270.77	78.19
271.002	79.19
271.234	75.19
271.466	84.19
271.698	92.19
271.93	73.19
272.162	72.19
272.394	88.19
272.626	89.19
272.858	75.19
273.09	71.19
273.322	89.19
273.553	90.19
273.785	86.19
274.017	86.19
274.249	87.19
274.481	82.19
274.713	86.19
274.945	78.19
275.176	76.19
275.408	92.19
275.64	83.19
275.872	88.19
276.104	86.19
276.335	96.19
276.567	87.19
276.799	82.19
277.031	95.19
277.262	88.19
277.494	84.19
277.726	82.19
277.957	83.19
278.189	82.19
278.421	86.19
278.652	75.19
278.884	69.19
279.115	94.19
279.347	75.19
279.579	65.19
279.81	92.19
280.042	94.19
280.273	64.19
280.505	96.19
280.736	82.19
280.968	79.19
281.199	74.19
281.431	66.19
281.662	74.19
281.894	75.19
282.125	106.19
282.356	95.19
282.588	126.19
282.819	114.19
283.051	82.19
283.282	92.19
283.513	86.19
283.745	89.19
283.976	96.19
284.207	88.19
284.439	75.19
284.67	79.19
284.901	117.19
285.132	102.19
285.364	90.19
285.595	81.19
285.826	87.19
286.057	91.19
286.288	96.19
286.52	92.19
286.751	83.19
286.982	81.19
287.213	98.19
287.444	91.19
287.675	102.19
287.906	100.19
288.138	72.19
288.369	90.19
288.6	89.19
288.831	86.19
289.062	84.19
289.293	80.19
289.524	99.19
289.755	101.19
289.986	86.19
290.217	76.19
290.448	95.19
290.679	71.19
290.91	90.19
291.141	86.19
291.371	74.19
291.602	74.19
291.833	81.19
292.064	98.19
292.295	82.19
292.526	88.19
292.757	87.19
292.987	81.19
293.218	80.19
293.449	90.19
293.68	98.19
293.91	87.19
294.141	87.19
294.372	91.19
294.603	103.19
294.833	100.19
295.064	90.19
295.295	84.19
295.525	90.19
295.756	90.19
295.987	105.19
296.217	118.19
296.448	113.19
296.679	100.19
296.909	89.19
297.14	79.19
297.37	83.19
297.601	101.19
297.831	88.19
298.062	88.19
298.292	85.19
298.523	93.19
298.753	90.19
298.984	82.19
299.214	69.19
299.445	94.19
299.675	86.19
299.905	100.19
300.136	86.19
300.366	99.19
300.597	87.19
300.827	104.19
301.057	98.19
301.288	94.19
301.518	87.19
301.748	80.19
301.979	94.19
302.209	91.19
302.439	98.19
302.669	87.19
302.9	83.19
303.13	82.19
303.36	84.19
303.59	92.19
303.82	106.19
304.051	95.19
304.281	83.19
304.511	97.19
304.741	93.19
304.971	86.19
305.201	92.19
305.431	92.19
305.661	99.19
305.891	94.19
306.121	84.19
306.352	89.19
306.582	94.19
306.812	90.19
307.042	94.19
307.272	101.19
307.502	95.19
307.731	118.19
307.961	103.19
308.191	96.19
308.421	92.19
308.651	91.19
308.881	83.19
309.111	88.19
309.341	84.19
309.571	93.19
309.8	75.19
310.03	84.19
310.26	104.19
310.49	93.19
310.72	99.19
310.949	103.19
311.179	84.19
311.409	96.19
311.639	91.19
311.868	98.19
312.098	102.19
312.328	93.19
312.557	98.19
312.787	92.19
313.017	93.19
313.246	91.19
313.476	91.19
313.706	82.19
313.935	101.19
314.165	96.19
314.394	92.19
314.624	92.19
314.853	99.19
315.083	89.19
315.312	86.19
315.542	81.19
315.771	83.19
316.001	100.19
316.23	94.19
316.46	75.19
316.689	94.19
316.919	91.19
317.148	92.19
317.377	89.19
317.607	95.19
317.836	83.19
318.065	94.19
318.295	88.19
318.524	84.19
318.753	81.19
318.983	89.19
319.212	83.19
319.441	89.19
319.67	103.19
319.9	86.19
320.129	98.19
320.358	101.19
320.587	89.19
320.816	102.19
321.046	105.19
321.275	95.19
321.504	82.19
321.733	102.19
321.962	95.19
322.191	102.19
322.42	106.19
322.649	116.19
322.878	101.19
323.108	96.19
323.337	103.19
323.566	118.19
323.795	142.19
324.024	180.19
324.253	336.19
324.482	708.19
324.71	1444.19
324.939	1939.19
325.168	711.19
325.397	226.19
325.626	134.19
325.855	109.19
326.084	120.19
326.313	131.19
326.542	144.19
326.77	216.19
326.999	392.19
327.228	806.19
327.457	1444.19
327.686	1174.19
327.914	335.19
328.143	168.19
328.372	121.19
328.6	98.19
328.829	109.19
329.058	118.19
329.287	118.19
329.515	107.19
329.744	102.19
329.972	86.19
330.201	108.19
330.43	96.19
330.658	112.19
330.887	107.19
331.115	112.19
331.344	102.19
331.572	90.19
331.801	106.19
332.03	93.19
332.258	100.19
332.486	94.19
332.715	88.19
332.943	100.19
333.172	86.19
333.4	86.19
333.629	105.19
333.857	108.19
334.085	107.19
334.314	72.19
334.542	88.19
334.771	100.19
334.999	93.19
335.227	99.19
335.455	88.19
335.684	95.19
335.912	83.19
336.14	90.19
336.369	103.19
336.597	88.19
336.825	87.19
337.053	104.19
337.281	106.19
337.51	88.19
337.738	96.19
337.966	108.19
338.194	112.19
338.422	118.19
338.65	80.19
338.878	89.19
339.106	90.19
339.334	95.19
339.562	92.19
339.79	107.19
340.018	86.19
340.246	87.19
340.474	92.19
340.702	98.19
340.93	92.19
341.158	97.19
341.386	90.19
341.614	99.19
341.842	99.19
342.07	79.19
342.298	101.19
342.526	90.19
342.754	86.19
342.981	99.19
343.209	83.19
343.437	91.19
343.665	75.19
343.893	95.19
344.12	89.19
344.348	104.19
344.576	101.19
344.804	102.19
345.031	89.19
345.259	96.19
345.487	107.19
345.714	98.19
345.942	96.19
346.17	103.19
346.397	97.19
346.625	85.19
346.853	90.19
347.08	84.19
347.308	90.19
347.535	101.19
347.763	97.19
347.99	99.19
348.218	82.19
348.445	108.19
348.673	101.19
348.9	89.19
349.128	98.19
349.355	98.19
349.583	97.19
349.81	82.19
350.037	87.19
350.265	102.19
350.492	105.19
350.72	95.19
350.947	96.19
351.174	104.19
351.402	102.19
351.629	89.19
351.856	78.19
352.083	95.19
352.311	95.19
352.538	94.19
352.765	112.19
352.992	113.19
353.22	113.19
353.447	95.19
353.674	104.19
353.901	94.19
354.128	98.19
354.355	97.19
354.583	103.19
354.81	110.19
355.037	97.19
355.264	96.19
355.491	91.19
355.718	99.19
355.945	106.19
356.172	106.19
356.399	102.19
356.626	91.19
356.853	102.19
357.08	84.19
357.307	87.19
357.534	82.19
357.761	92.19
357.988	111.19
358.215	103.19
358.441	102.19
358.668	103.19
358.895	82.19
359.122	82.19
359.349	84.19
359.576	86.19
359.802	86.19
360.029	104.19
360.256	98.19
360.483	98.19
360.709	95.19
360.936	102.19
361.163	103.19
361.39	82.19
361.616	96.19
361.843	78.19
362.07	91.19
362.296	82.19
362.523	90.19
362.749	83.19
362.976	86.19
363.203	93.19
363.429	92.19
363.656	75.19
363.882	74.19
364.109	103.19
364.335	90.19
364.562	85.19
364.788	91.19
365.015	99.19
365.241	88.19
365.468	96.19
365.694	84.19
365.92	86.19
366.147	71.19
366.373	94.19
366.599	80.19
366.826	95.19
367.052	86.19
367.278	96.19
367.505	90.19
367.731	91.19
367.957	86.19
368.184	90.19
368.41	94.19
368.636	108.19
368.862	120.19
369.089	106.19
369.315	91.19
369.541	73.19
369.767	76.19
369.993	92.19
370.219	88.19
370.445	97.19
370.672	82.19
370.898	108.19
371.124	96.19
371.35	86.19
371.576	78.19
371.802	96.19
372.028	84.19
372.254	89.19
372.48	81.19
372.706	82.19
372.932	96.19
373.158	99.19
373.384	88.19
373.61	100.19
373.835	89.19
374.061	89.19
374.287	92.19
374.513	92.19
374.739	90.19
374.965	88.19
375.191	81.19
375.416	97.19
375.642	106.19
375.868	87.19
376.094	87.19
376.319	89.19
376.545	75.19
376.771	72.19
376.997	82.19
377.222	102.19
377.448	87.19
377.674	94.19
377.899	96.19
378.125	94.19
378.35	97.19
378.576	90.19
378.802	87.19
379.027	90.19
379.253	96.19
379.478	102.19
379.704	105.19
379.929	90.19
380.155	101.19
380.38	92.19
380.606	103.19
380.831	96.19
381.057	107.19
381.282	112.19
381.507	101.19
381.733	93.19
381.958	99.19
382.184	101.19
382.409	94.19
382.634	111.19
382.86	90.19
383.085	114.19
383.31	97.19
383.535	98.19
383.761	95.19
383.986	98.19
384.211	95.19
384.436	95.19
384.662	104.19
384.887	91.19
385.112	84.19
385.337	94.19
385.562	107.19
385.787	109.19
386.013	107.19
386.238	116.19
386.463	98.19
386.688	122.19
386.913	112.19
387.138	108.19
387.363	119.19
387.588	75.19
387.813	91.19
388.038	93.19
388.263	102.19
388.488	107.19
388.713	101.19
388.938	103.19
389.163	90.19
389.387	100.19
389.612	88.19
389.837	88.19
390.062	88.19
390.287	103.19
390.512	86.19
390.736	97.19
390.961	95.19
391.186	90.19
391.411	99.19
391.636	89.19
391.86	96.19
392.085	67.19
392.31	82.19
392.534	86.19
392.759	73.19
392.984	86.19
393.208	91.19
393.433	98.19
393.658	88.19
393.882	95.19
394.107	93.19
394.331	104.19
394.556	82.19
394.78	100.19
395.005	92.19
395.229	83.19
395.454	88.19
395.678	79.19
395.903	89.19
396.127	95.19
396.352	86.19
396.576	89.19
396.801	103.19
397.025	99.19
397.249	99.19
397.474	95.19
397.698	76.19
397.922	86.19
398.147	96.19
398.371	72.19
398.595	91.19
398.82	83.19
399.044	80.19
399.268	82.19
399.492	90.19
399.717	78.19
399.941	95.19
400.165	89.19
400.389	95.19
400.613	93.19
400.837	90.19
401.062	82.19
401.286	83.19
401.51	78.19
401.734	80.19
401.958	88.19
402.182	106.19
402.406	140.19
402.63	107.19
402.854	102.19
403.078	90.19
403.302	84.19
403.526	87.19
403.75	90.19
403.974	83.19
404.198	89.19
404.422	92.19
404.645	88.19
404.869	86.19
405.093	74.19
405.317	86.19
405.541	90.19
405.765	82.19
405.988	116.19
406.212	160.19
406.436	176.19
406.66	134.19
406.883	96.19
407.107	92.19
407.331	95.19
407.555	92.19
407.778	94.19
408.002	87.19
408.226	76.19
408.449	93.19
408.673	98.19
408.896	89.19
409.12	86.19
409.344	81.19
409.567	75.19
409.791	84.19
410.014	93.19
410.238	91.19
410.461	88.19
410.685	82.19
410.908	95.19
411.132	107.19
411.355	96.19
411.578	103.19
411.802	81.19
412.025	81.19
412.249	80.19
412.472	99.19
412.695	103.19
412.919	96.19
413.142	86.19
413.365	78.19
413.589	85.19
413.812	84.19
414.035	89.19
414.258	94.19
414.482	84.19
414.705	92.19
414.928	98.19
415.151	100.19
415.374	90.19
415.597	87.19
415.821	91.19
416.044	86.19
416.267	82.19
416.49	99.19
416.713	87.19
416.936	87.19
417.159	91.19
417.382	102.19
417.605	80.19
417.828	74.19
418.051	79.19
418.274	92.19
418.497	86.19
418.72	92.19
418.943	75.19
419.166	92.19
419.389	89.19
419.611	75.19
419.834	92.19
420.057	99.19
420.28	90.19
420.503	90.19
420.726	84.19
420.948	88.19
421.171	81.19
421.394	78.19
421.617	80.19
421.839	79.19
422.062	90.19
422.285	81.19
422.507	107.19
422.73	106.19
422.953	91.19
423.175	88.19
423.398	97.19
423.621	88.19
423.843	80.19
424.066	91.19
424.288	79.19
424.511	97.19
424.733	82.19
424.956	97.19
425.178	109.19
425.401	99.19
425.623	83.19
425.846	81.19
426.068	75.19
426.291	81.19
426.513	107.19
426.735	87.19
426.958	73.19
427.18	105.19
427.402	112.19
427.625	128.19
427.847	114.19
428.069	110.19
428.292	90.19
428.514	85.19
428.736	90.19
428.958	80.19
429.181	86.19
429.403	87.19
429.625	81.19
429.847	99.19
430.069	95.19
430.292	78.19
430.514	80.19
430.736	89.19
430.958	78.19
431.18	82.19
431.402	85.19
431.624	90.19
431.846	66.19
432.068	85.19
432.29	78.19
432.512	86.19
432.734	82.19
432.956	91.19
433.178	91.19
433.4	93.19
433.622	92.19
433.844	96.19
434.066	80.19
434.287	89.19
434.509	96.19
434.731	95.19
434.953	89.19
435.175	98.19
435.397	89.19
435.618	87.19
435.84	114.19
436.062	119.19
436.284	96.19
436.505	102.19
436.727	110.19
436.949	88.19
437.17	95.19
437.392	87.19
437.614	90.19
437.835	100.19
438.057	122.19
438.278	94.19
438.5	90.19
438.721	122.19
438.943	97.19
439.165	84.19
439.386	88.19
439.608	90.19
439.829	91.19
440.05	110.19
440.272	127.19
440.493	79.19
440.715	83.19
440.936	92.19
441.158	74.19
441.379	82.19
441.6	92.19
441.822	79.19
442.043	90.19
442.264	102.19
442.486	94.19
442.707	97.19
442.928	104.19
443.149	119.19
443.371	121.19
443.592	99.19
443.813	103.19
444.034	98.19
444.255	93.19
444.476	68.19
444.698	85.19
444.919	95.19
445.14	132.19
445.361	110.19
445.582	115.19
445.803	128.19
446.024	99.19
446.245	118.19
446.466	99.19
446.687	95.19
446.908	79.19
447.129	90.19
447.35	89.19
447.571	95.19
447.792	91.19
448.013	89.19
448.234	112.19
448.455	75.19
448.675	105.19
448.896	95.19
449.117	102.19
449.338	101.19
449.559	116.19
449.779	102.19
450	100.19
450.221	77.19
450.442	75.19
450.662	86.19
450.883	84.19
451.104	103.19
451.324	91.19
451.545	89.19
451.766	92.19
451.986	79.19
452.207	80.19
452.428	78.19
452.648	77.19
452.869	95.19
453.089	118.19
453.31	103.19
453.53	96.19
453.751	88.19
453.971	88.19
454.192	105.19
454.412	91.19
454.633	79.19
454.853	91.19
455.073	78.19
455.294	87.19
455.514	100.19
455.734	72.19
455.955	100.19
456.175	77.19
456.395	87.19
456.616	78.19
456.836	87.19
457.056	84.19
457.276	87.19
457.497	92.19
457.717	85.19
457.937	82.19
458.157	88.19
458.377	93.19
458.598	111.19
458.818	143.19
459.038	155.19
459.258	98.19
459.478	96.19
459.698	88.19
459.918	89.19
460.138	82.19
460.358	80.19
460.578	77.19
460.798	86.19
461.018	86.19
461.238	85.19
461.458	89.19
461.678	103.19
461.898	83.19
462.118	90.19
462.338	88.19
462.558	100.19
462.777	78.19
462.997	79.19
463.217	90.19
463.437	85.19
463.657	98.19
463.876	102.19
464.096	65.19
464.316	99.19
464.536	98.19
464.755	86.19
464.975	99.19
465.195	148.19
465.414	134.19
465.634	83.19
465.854	80.19
466.073	83.19
466.293	68.19
466.512	82.19
466.732	75.19
466.951	89.19
467.171	89.19
467.391	92.19
467.61	93.19
467.829	77.19
468.049	95.19
468.268	86.19
468.488	90.19
468.707	95.19
468.927	87.19
469.146	68.19
469.365	89.19
469.585	76.19
469.804	87.19
470.023	80.19
470.243	87.19
470.462	100.19
470.681	103.19
470.901	95.19
471.12	82.19
471.339	92.19
471.558	93.19
471.777	110.19
471.997	110.19
472.216	81.19
472.435	75.19
472.654	71.19
472.873	90.19
473.092	94.19
473.311	71.19
473.53	90.19
473.749	73.19
473.968	71.19
474.187	101.19
474.406	82.19
474.625	78.19
474.844	86.19
475.063	74.19
475.282	92.19
475.501	90.19
475.72	73.19
475.939	86.19
476.158	100.19
476.377	85.19
476.596	72.19
476.814	83.19
477.033	91.19
477.252	91.19
477.471	91.19
477.69	59.19
477.908	88.19
478.127	72.19
478.346	87.19
478.564	91.19
478.783	96.19
479.002	90.19
479.22	90.19
479.439	83.19
479.658	100.19
479.876	88.19
480.095	100.19
480.313	83.19
480.532	94.19
480.751	95.19
480.969	85.19
481.188	117.19
481.406	92.19
481.624	90.19
481.843	84.19
482.061	87.19
482.28	85.19
482.498	81.19
482.717	90.19
482.935	89.19
483.153	87.19
483.372	88.19
483.59	79.19
483.808	93.19
484.027	86.19
484.245	89.19
484.463	101.19
484.681	85.19
484.9	73.19
485.118	81.19
485.336	91.19
485.554	97.19
485.772	100.19
485.99	93.19
486.209	108.19
486.427	102.19
486.645	115.19
486.863	95.19
487.081	91.19
487.299	102.19
487.517	81.19
487.735	92.19
487.953	98.19
488.171	95.19
488.389	94.19
488.607	106.19
488.825	105.19
489.043	96.19
489.261	93.19
489.479	89.19
489.696	93.19
489.914	95.19
490.132	94.19
490.35	87.19
490.568	72.19
490.786	90.19
491.003	91.19
491.221	94.19
491.439	82.19
491.657	69.19
491.874	98.19
492.092	86.19
492.31	96.19
492.527	87.19
492.745	92.19
492.963	84.19
493.18	102.19
493.398	99.19
493.615	103.19
493.833	97.19
494.05	95.19
494.268	99.19
494.485	89.19
494.703	92.19
494.92	88.19
495.138	92.19
495.355	71.19
495.573	90.19
495.79	85.19
496.008	96.19
496.225	94.19
496.442	89.19
496.66	91.19
496.877	80.19
497.094	94.19
497.312	89.19
497.529	83.19
497.746	107.19
497.963	82.19
498.181	86.19
498.398	84.19
498.615	87.19
498.832	103.19
499.049	84.19
499.267	94.19
499.484	96.19
499.701	91.19
499.918	83.19
500.135	79.19
500.352	88.19
500.569	87.19
500.786	83.19
501.003	100.19
501.22	102.19
501.437	82.19
501.654	94.19
501.871	90.19
502.088	99.19
502.305	86.19
502.522	96.19
502.739	83.19
502.956	86.19
503.172	89.19
503.389	110.19
503.606	91.19
503.823	92.19
504.04	86.19
504.256	92.19
504.473	96.19
504.69	97.19
504.907	81.19
505.123	75.19
505.34	87.19
505.557	80.19
505.773	90.19
505.99	85.19
506.207	87.19
506.423	84.19
506.64	76.19
506.856	93.19
507.073	101.19
507.289	88.19
507.506	87.19
507.722	110.19
507.939	100.19
508.155	78.19
508.372	96.19
508.588	85.19
508.805	81.19
509.021	96.19
509.238	99.19
509.454	103.19
509.67	82.19
509.887	106.19
510.103	123.19
510.319	178.19
510.536	646.19
510.752	1942.19
510.968	550.19
511.184	140.19
511.401	99.19
511.617	92.19
511.833	91.19
512.049	84.19
512.265	69.19
512.481	73.19
512.698	84.19
512.914	84.19
513.13	98.19
513.346	98.19
513.562	93.19
513.778	88.19
513.994	86.19
514.21	104.19
514.426	113.19
514.642	111.19
514.858	111.19
515.074	130.19
515.29	361.19
515.506	1110.19
515.721	410.19
515.937	127.19
516.153	88.19
516.369	99.19
