Data from Uncirc_1983_H10_HRD10591_00030.txt Node
Date: Wed Jan 03 12:25:38 EST 2024
User: Yrep
Spectrometer: HR+D1059
Trigger mode: 1
Integration Time (sec): 1.000000E-1
Scans to average: 1
Electric dark correction enabled: true
Nonlinearity correction enabled: false
Boxcar width: 0
XAxis mode: Wavelengths
Number of Pixels in Spectrum: 2048
>>>>>Begin Spectral Data<<<<<
223.165	-22.06
223.4	-22.06
223.635	-22.06
223.869	-30.06
224.104	-26.06
224.338	-9.06
224.573	-22.06
224.808	-14.06
225.042	3.94
225.277	-7.06
225.511	1.94
225.746	19.94
225.98	9.94
226.215	11.94
226.449	12.94
226.683	17.94
226.918	23.94
227.152	27.94
227.387	31.94
227.621	55.94
227.856	36.94
228.09	53.94
228.324	42.94
228.559	51.94
228.793	71.94
229.027	68.94
229.262	73.94
229.496	72.94
229.73	74.94
229.964	97.94
230.199	87.94
230.433	74.94
230.667	68.94
230.901	71.94
231.136	78.94
231.37	89.94
231.604	66.94
231.838	71.94
232.072	79.94
232.306	89.94
232.541	84.94
232.775	80.94
233.009	83.94
233.243	74.94
233.477	79.94
233.711	58.94
233.945	86.94
234.179	76.94
234.413	65.94
234.647	89.94
234.881	85.94
235.115	79.94
235.349	92.94
235.583	73.94
235.817	87.94
236.051	90.94
236.285	78.94
236.519	67.94
236.753	87.94
236.987	77.94
237.221	74.94
237.455	74.94
237.689	83.94
237.922	80.94
238.156	87.94
238.39	73.94
238.624	67.94
238.858	81.94
239.091	89.94
239.325	75.94
239.559	79.94
239.793	72.94
240.027	77.94
240.26	77.94
240.494	72.94
240.728	79.94
240.961	74.94
241.195	77.94
241.429	59.94
241.662	75.94
241.896	73.94
242.13	70.94
242.363	75.94
242.597	87.94
242.83	81.94
243.064	61.94
243.298	85.94
243.531	72.94
243.765	79.94
243.998	85.94
244.232	77.94
244.465	87.94
244.699	78.94
244.932	77.94
245.166	82.94
245.399	81.94
245.633	71.94
245.866	85.94
246.099	71.94
246.333	79.94
246.566	67.94
246.8	77.94
247.033	78.94
247.266	81.94
247.5	61.94
247.733	103.94
247.966	80.94
248.2	91.94
248.433	86.94
248.666	77.94
248.899	83.94
249.133	71.94
249.366	80.94
249.599	79.94
249.832	89.94
250.066	82.94
250.299	83.94
250.532	71.94
250.765	63.94
250.998	75.94
251.231	60.94
251.465	74.94
251.698	67.94
251.931	65.94
252.164	84.94
252.397	81.94
252.63	74.94
252.863	77.94
253.096	83.94
253.329	72.94
253.562	64.94
253.795	72.94
254.028	82.94
254.261	73.94
254.494	80.94
254.727	81.94
254.96	83.94
255.193	60.94
255.426	87.94
255.659	83.94
255.892	73.94
256.124	72.94
256.357	73.94
256.59	82.94
256.823	83.94
257.056	89.94
257.289	74.94
257.521	89.94
257.754	61.94
257.987	81.94
258.22	69.94
258.452	79.94
258.685	87.94
258.918	71.94
259.151	84.94
259.383	79.94
259.616	82.94
259.849	67.94
260.081	75.94
260.314	79.94
260.547	73.94
260.779	73.94
261.012	81.94
261.244	88.94
261.477	95.94
261.71	83.94
261.942	103.94
262.175	120.94
262.407	81.94
262.64	105.94
262.872	94.94
263.105	84.94
263.337	81.94
263.57	100.94
263.802	77.94
264.035	85.94
264.267	79.94
264.499	90.94
264.732	95.94
264.964	75.94
265.197	75.94
265.429	76.94
265.661	85.94
265.894	81.94
266.126	82.94
266.358	81.94
266.591	72.94
266.823	95.94
267.055	85.94
267.287	88.94
267.52	77.94
267.752	77.94
267.984	89.94
268.216	75.94
268.448	80.94
268.681	81.94
268.913	86.94
269.145	85.94
269.377	84.94
269.609	90.94
269.841	83.94
270.073	99.94
270.306	77.94
270.538	69.94
270.77	93.94
271.002	81.94
271.234	77.94
271.466	81.94
271.698	81.94
271.93	74.94
272.162	67.94
272.394	80.94
272.626	72.94
272.858	87.94
273.09	89.94
273.322	87.94
273.553	87.94
273.785	89.94
274.017	67.94
274.249	81.94
274.481	85.94
274.713	73.94
274.945	86.94
275.176	77.94
275.408	91.94
275.64	91.94
275.872	83.94
276.104	81.94
276.335	86.94
276.567	87.94
276.799	102.94
277.031	97.94
277.262	94.94
277.494	97.94
277.726	83.94
277.957	82.94
278.189	73.94
278.421	93.94
278.652	79.94
278.884	72.94
279.115	89.94
279.347	83.94
279.579	98.94
279.81	72.94
280.042	71.94
280.273	81.94
280.505	80.94
280.736	90.94
280.968	89.94
281.199	71.94
281.431	86.94
281.662	73.94
281.894	87.94
282.125	88.94
282.356	105.94
282.588	127.94
282.819	117.94
283.051	87.94
283.282	86.94
283.513	89.94
283.745	88.94
283.976	91.94
284.207	86.94
284.439	70.94
284.67	83.94
284.901	93.94
285.132	74.94
285.364	73.94
285.595	82.94
285.826	81.94
286.057	100.94
286.288	85.94
286.52	80.94
286.751	81.94
286.982	89.94
287.213	90.94
287.444	80.94
287.675	79.94
287.906	97.94
288.138	85.94
288.369	72.94
288.6	87.94
288.831	81.94
289.062	77.94
289.293	77.94
289.524	93.94
289.755	88.94
289.986	65.94
290.217	83.94
290.448	104.94
290.679	88.94
290.91	77.94
291.141	92.94
291.371	97.94
291.602	90.94
291.833	87.94
292.064	96.94
292.295	78.94
292.526	81.94
292.757	90.94
292.987	98.94
293.218	88.94
293.449	96.94
293.68	93.94
293.91	87.94
294.141	92.94
294.372	74.94
294.603	81.94
294.833	67.94
295.064	96.94
295.295	96.94
295.525	80.94
295.756	81.94
295.987	111.94
296.217	119.94
296.448	108.94
296.679	91.94
296.909	91.94
297.14	85.94
297.37	85.94
297.601	76.94
297.831	85.94
298.062	85.94
298.292	89.94
298.523	86.94
298.753	101.94
298.984	77.94
299.214	78.94
299.445	89.94
299.675	94.94
299.905	89.94
300.136	88.94
300.366	88.94
300.597	82.94
300.827	96.94
301.057	79.94
301.288	104.94
301.518	83.94
301.748	94.94
301.979	99.94
302.209	83.94
302.439	93.94
302.669	83.94
302.9	84.94
303.13	90.94
303.36	91.94
303.59	94.94
303.82	106.94
304.051	83.94
304.281	115.94
304.511	90.94
304.741	91.94
304.971	78.94
305.201	89.94
305.431	89.94
305.661	100.94
305.891	91.94
306.121	75.94
306.352	97.94
306.582	96.94
306.812	75.94
307.042	89.94
307.272	80.94
307.502	98.94
307.731	91.94
307.961	91.94
308.191	78.94
308.421	80.94
308.651	86.94
308.881	86.94
309.111	107.94
309.341	74.94
309.571	89.94
309.8	99.94
310.03	92.94
310.26	101.94
310.49	94.94
310.72	99.94
310.949	92.94
311.179	96.94
311.409	96.94
311.639	96.94
311.868	91.94
312.098	85.94
312.328	89.94
312.557	94.94
312.787	104.94
313.017	87.94
313.246	98.94
313.476	83.94
313.706	95.94
313.935	78.94
314.165	94.94
314.394	106.94
314.624	99.94
314.853	90.94
315.083	103.94
315.312	69.94
315.542	99.94
315.771	95.94
316.001	90.94
316.23	89.94
316.46	81.94
316.689	78.94
316.919	89.94
317.148	93.94
317.377	106.94
317.607	93.94
317.836	102.94
318.065	97.94
318.295	89.94
318.524	93.94
318.753	87.94
318.983	97.94
319.212	104.94
319.441	98.94
319.67	110.94
319.9	90.94
320.129	84.94
320.358	93.94
320.587	100.94
320.816	89.94
321.046	97.94
321.275	82.94
321.504	91.94
321.733	105.94
321.962	90.94
322.191	100.94
322.42	99.94
322.649	104.94
322.878	95.94
323.108	105.94
323.337	122.94
323.566	121.94
323.795	133.94
324.024	197.94
324.253	377.94
324.482	786.94
324.71	1615.94
324.939	2137.94
325.168	783.94
325.397	213.94
325.626	146.94
325.855	148.94
326.084	120.94
326.313	133.94
326.542	136.94
326.77	222.94
326.999	433.94
327.228	886.94
327.457	1675.94
327.686	1303.94
327.914	325.94
328.143	176.94
328.372	137.94
328.6	117.94
328.829	98.94
329.058	117.94
329.287	109.94
329.515	99.94
329.744	96.94
329.972	94.94
330.201	109.94
330.43	104.94
330.658	100.94
330.887	111.94
331.115	117.94
331.344	99.94
331.572	100.94
331.801	93.94
332.03	90.94
332.258	100.94
332.486	97.94
332.715	94.94
332.943	86.94
333.172	102.94
333.4	82.94
333.629	100.94
333.857	96.94
334.085	98.94
334.314	89.94
334.542	97.94
334.771	107.94
334.999	90.94
335.227	102.94
335.455	97.94
335.684	91.94
335.912	100.94
336.14	85.94
336.369	94.94
336.597	93.94
336.825	81.94
337.053	106.94
337.281	82.94
337.51	93.94
337.738	91.94
337.966	101.94
338.194	98.94
338.422	104.94
338.65	84.94
338.878	79.94
339.106	81.94
339.334	77.94
339.562	84.94
339.79	82.94
340.018	97.94
340.246	102.94
340.474	89.94
340.702	88.94
340.93	85.94
341.158	91.94
341.386	77.94
341.614	94.94
341.842	93.94
342.07	87.94
342.298	88.94
342.526	85.94
342.754	90.94
342.981	80.94
343.209	81.94
343.437	80.94
343.665	98.94
343.893	79.94
344.12	87.94
344.348	87.94
344.576	91.94
344.804	89.94
345.031	88.94
345.259	95.94
345.487	106.94
345.714	78.94
345.942	78.94
346.17	94.94
346.397	94.94
346.625	89.94
346.853	81.94
347.08	74.94
347.308	98.94
347.535	92.94
347.763	93.94
347.99	93.94
348.218	99.94
348.445	110.94
348.673	88.94
348.9	100.94
349.128	98.94
349.355	87.94
349.583	91.94
349.81	88.94
350.037	82.94
350.265	97.94
350.492	83.94
350.72	99.94
350.947	100.94
351.174	106.94
351.402	110.94
351.629	102.94
351.856	109.94
352.083	97.94
352.311	97.94
352.538	91.94
352.765	96.94
352.992	109.94
353.22	99.94
353.447	97.94
353.674	96.94
353.901	85.94
354.128	95.94
354.355	86.94
354.583	89.94
354.81	86.94
355.037	93.94
355.264	89.94
355.491	88.94
355.718	81.94
355.945	109.94
356.172	84.94
356.399	99.94
356.626	79.94
356.853	77.94
357.08	101.94
357.307	78.94
357.534	89.94
357.761	96.94
357.988	99.94
358.215	86.94
358.441	97.94
358.668	94.94
358.895	87.94
359.122	94.94
359.349	81.94
359.576	93.94
359.802	107.94
360.029	111.94
360.256	117.94
360.483	96.94
360.709	86.94
360.936	72.94
361.163	85.94
361.39	81.94
361.616	82.94
361.843	91.94
362.07	77.94
362.296	99.94
362.523	89.94
362.749	92.94
362.976	80.94
363.203	90.94
363.429	93.94
363.656	97.94
363.882	84.94
364.109	87.94
364.335	86.94
364.562	87.94
364.788	87.94
365.015	80.94
365.241	89.94
365.468	108.94
365.694	115.94
365.92	97.94
366.147	101.94
366.373	82.94
366.599	97.94
366.826	97.94
367.052	93.94
367.278	93.94
367.505	78.94
367.731	89.94
367.957	85.94
368.184	85.94
368.41	102.94
368.636	122.94
368.862	114.94
369.089	98.94
369.315	89.94
369.541	97.94
369.767	93.94
369.993	73.94
370.219	99.94
370.445	67.94
370.672	74.94
370.898	87.94
371.124	78.94
371.35	89.94
371.576	77.94
371.802	83.94
372.028	96.94
372.254	86.94
372.48	75.94
372.706	88.94
372.932	85.94
373.158	86.94
373.384	83.94
373.61	80.94
373.835	87.94
374.061	87.94
374.287	92.94
374.513	89.94
374.739	83.94
374.965	84.94
375.191	83.94
375.416	82.94
375.642	92.94
375.868	76.94
376.094	81.94
376.319	90.94
376.545	103.94
376.771	85.94
376.997	88.94
377.222	85.94
377.448	90.94
377.674	98.94
377.899	93.94
378.125	98.94
378.35	102.94
378.576	94.94
378.802	75.94
379.027	105.94
379.253	99.94
379.478	83.94
379.704	84.94
379.929	89.94
380.155	84.94
380.38	106.94
380.606	102.94
380.831	106.94
381.057	98.94
381.282	96.94
381.507	106.94
381.733	98.94
381.958	105.94
382.184	90.94
382.409	79.94
382.634	111.94
382.86	96.94
383.085	105.94
383.31	107.94
383.535	99.94
383.761	105.94
383.986	97.94
384.211	94.94
384.436	87.94
384.662	91.94
384.887	104.94
385.112	113.94
385.337	99.94
385.562	85.94
385.787	99.94
386.013	100.94
386.238	117.94
386.463	108.94
386.688	96.94
386.913	97.94
387.138	116.94
387.363	92.94
387.588	93.94
387.813	91.94
388.038	112.94
388.263	106.94
388.488	102.94
388.713	85.94
388.938	92.94
389.163	90.94
389.387	95.94
389.612	84.94
389.837	96.94
390.062	100.94
390.287	91.94
390.512	83.94
390.736	78.94
390.961	80.94
391.186	88.94
391.411	103.94
391.636	88.94
391.86	78.94
392.085	88.94
392.31	65.94
392.534	84.94
392.759	93.94
392.984	83.94
393.208	96.94
393.433	103.94
393.658	87.94
393.882	80.94
394.107	82.94
394.331	93.94
394.556	77.94
394.78	85.94
395.005	78.94
395.229	85.94
395.454	82.94
395.678	67.94
395.903	77.94
396.127	103.94
396.352	86.94
396.576	94.94
396.801	98.94
397.025	74.94
397.249	87.94
397.474	85.94
397.698	81.94
397.922	91.94
398.147	76.94
398.371	93.94
398.595	90.94
398.82	90.94
399.044	87.94
399.268	77.94
399.492	82.94
399.717	94.94
399.941	92.94
400.165	90.94
400.389	90.94
400.613	74.94
400.837	79.94
401.062	78.94
401.286	83.94
401.51	101.94
401.734	89.94
401.958	90.94
402.182	122.94
402.406	153.94
402.63	105.94
402.854	90.94
403.078	74.94
403.302	79.94
403.526	89.94
403.75	91.94
403.974	97.94
404.198	94.94
404.422	88.94
404.645	83.94
404.869	91.94
405.093	107.94
405.317	87.94
405.541	92.94
405.765	85.94
405.988	107.94
406.212	174.94
406.436	204.94
406.66	137.94
406.883	94.94
407.107	91.94
407.331	89.94
407.555	87.94
407.778	110.94
408.002	85.94
408.226	99.94
408.449	94.94
408.673	74.94
408.896	97.94
409.12	91.94
409.344	94.94
409.567	94.94
409.791	102.94
410.014	96.94
410.238	93.94
410.461	90.94
410.685	101.94
410.908	92.94
411.132	108.94
411.355	81.94
411.578	89.94
411.802	82.94
412.025	95.94
412.249	91.94
412.472	92.94
412.695	85.94
412.919	82.94
413.142	77.94
413.365	74.94
413.589	85.94
413.812	89.94
414.035	89.94
414.258	89.94
414.482	82.94
414.705	85.94
414.928	96.94
415.151	89.94
415.374	84.94
415.597	66.94
415.821	94.94
416.044	103.94
416.267	84.94
416.49	80.94
416.713	95.94
416.936	89.94
417.159	72.94
417.382	86.94
417.605	84.94
417.828	90.94
418.051	105.94
418.274	78.94
418.497	103.94
418.72	78.94
418.943	81.94
419.166	89.94
419.389	73.94
419.611	83.94
419.834	82.94
420.057	88.94
420.28	82.94
420.503	75.94
420.726	97.94
420.948	91.94
421.171	91.94
421.394	93.94
421.617	98.94
421.839	86.94
422.062	81.94
422.285	83.94
422.507	91.94
422.73	110.94
422.953	94.94
423.175	96.94
423.398	86.94
423.621	87.94
423.843	71.94
424.066	88.94
424.288	83.94
424.511	74.94
424.733	94.94
424.956	89.94
425.178	98.94
425.401	98.94
425.623	82.94
425.846	86.94
426.068	72.94
426.291	63.94
426.513	81.94
426.735	87.94
426.958	86.94
427.18	93.94
427.402	127.94
427.625	149.94
427.847	132.94
428.069	85.94
428.292	92.94
428.514	80.94
428.736	92.94
428.958	86.94
429.181	81.94
429.403	92.94
429.625	78.94
429.847	73.94
430.069	112.94
430.292	81.94
430.514	81.94
430.736	87.94
430.958	84.94
431.18	97.94
431.402	77.94
431.624	86.94
431.846	98.94
432.068	85.94
432.29	71.94
432.512	89.94
432.734	94.94
432.956	85.94
433.178	91.94
433.4	99.94
433.622	96.94
433.844	88.94
434.066	88.94
434.287	81.94
434.509	88.94
434.731	83.94
434.953	85.94
435.175	77.94
435.397	88.94
435.618	97.94
435.84	96.94
436.062	128.94
436.284	107.94
436.505	104.94
436.727	101.94
436.949	92.94
437.17	70.94
437.392	90.94
437.614	98.94
437.835	110.94
438.057	111.94
438.278	100.94
438.5	94.94
438.721	118.94
438.943	106.94
439.165	90.94
439.386	91.94
439.608	76.94
439.829	93.94
440.05	106.94
440.272	134.94
440.493	97.94
440.715	96.94
440.936	86.94
441.158	86.94
441.379	102.94
441.6	67.94
441.822	96.94
442.043	77.94
442.264	89.94
442.486	98.94
442.707	91.94
442.928	104.94
443.149	120.94
443.371	113.94
443.592	103.94
443.813	111.94
444.034	93.94
444.255	83.94
444.476	90.94
444.698	80.94
444.919	87.94
445.14	130.94
445.361	106.94
445.582	110.94
445.803	133.94
446.024	119.94
446.245	129.94
446.466	111.94
446.687	99.94
446.908	98.94
447.129	97.94
447.35	102.94
447.571	99.94
447.792	82.94
448.013	91.94
448.234	98.94
448.455	99.94
448.675	98.94
448.896	112.94
449.117	99.94
449.338	113.94
449.559	117.94
449.779	127.94
450	92.94
450.221	89.94
450.442	71.94
450.662	98.94
450.883	90.94
451.104	115.94
451.324	71.94
451.545	86.94
451.766	75.94
451.986	85.94
452.207	79.94
452.428	96.94
452.648	111.94
452.869	101.94
453.089	101.94
453.31	112.94
453.53	93.94
453.751	96.94
453.971	101.94
454.192	107.94
454.412	90.94
454.633	71.94
454.853	76.94
455.073	93.94
455.294	79.94
455.514	100.94
455.734	92.94
455.955	74.94
456.175	90.94
456.395	83.94
456.616	87.94
456.836	90.94
457.056	67.94
457.276	86.94
457.497	81.94
457.717	86.94
457.937	72.94
458.157	94.94
458.377	74.94
458.598	88.94
458.818	136.94
459.038	148.94
459.258	103.94
459.478	93.94
459.698	85.94
459.918	86.94
460.138	78.94
460.358	60.94
460.578	85.94
460.798	102.94
461.018	83.94
461.238	85.94
461.458	80.94
461.678	87.94
461.898	82.94
462.118	82.94
462.338	82.94
462.558	95.94
462.777	82.94
462.997	90.94
463.217	81.94
463.437	84.94
463.657	82.94
463.876	97.94
464.096	82.94
464.316	88.94
464.536	97.94
464.755	79.94
464.975	95.94
465.195	149.94
465.414	133.94
465.634	89.94
465.854	75.94
466.073	79.94
466.293	89.94
466.512	82.94
466.732	79.94
466.951	86.94
467.171	80.94
467.391	91.94
467.61	115.94
467.829	87.94
468.049	93.94
468.268	87.94
468.488	101.94
468.707	89.94
468.927	82.94
469.146	69.94
469.365	76.94
469.585	73.94
469.804	77.94
470.023	91.94
470.243	91.94
470.462	115.94
470.681	91.94
470.901	79.94
471.12	87.94
471.339	83.94
471.558	79.94
471.777	82.94
471.997	90.94
472.216	87.94
472.435	90.94
472.654	86.94
472.873	104.94
473.092	78.94
473.311	97.94
473.53	81.94
473.749	81.94
473.968	86.94
474.187	95.94
474.406	83.94
474.625	86.94
474.844	85.94
475.063	83.94
475.282	81.94
475.501	82.94
475.72	104.94
475.939	89.94
476.158	84.94
476.377	92.94
476.596	87.94
476.814	89.94
477.033	82.94
477.252	72.94
477.471	89.94
477.69	94.94
477.908	95.94
478.127	92.94
478.346	83.94
478.564	83.94
478.783	92.94
479.002	71.94
479.22	87.94
479.439	109.94
479.658	96.94
479.876	80.94
480.095	93.94
480.313	108.94
480.532	77.94
480.751	83.94
480.969	73.94
481.188	101.94
481.406	86.94
481.624	96.94
481.843	85.94
482.061	90.94
482.28	94.94
482.498	81.94
482.717	66.94
482.935	71.94
483.153	79.94
483.372	84.94
483.59	81.94
483.808	85.94
484.027	113.94
484.245	93.94
484.463	72.94
484.681	82.94
484.9	81.94
485.118	100.94
485.336	90.94
485.554	106.94
485.772	104.94
485.99	97.94
486.209	80.94
486.427	97.94
486.645	106.94
486.863	93.94
487.081	90.94
487.299	85.94
487.517	98.94
487.735	89.94
487.953	102.94
488.171	98.94
488.389	87.94
488.607	98.94
488.825	95.94
489.043	88.94
489.261	87.94
489.479	85.94
489.696	83.94
489.914	80.94
490.132	80.94
490.35	75.94
490.568	71.94
490.786	99.94
491.003	97.94
491.221	92.94
491.439	95.94
491.657	75.94
491.874	83.94
492.092	95.94
492.31	85.94
492.527	98.94
492.745	97.94
492.963	84.94
493.18	93.94
493.398	90.94
493.615	92.94
493.833	93.94
494.05	81.94
494.268	79.94
494.485	88.94
494.703	97.94
494.92	86.94
495.138	79.94
495.355	88.94
495.573	76.94
495.79	88.94
496.008	116.94
496.225	90.94
496.442	101.94
496.66	96.94
496.877	100.94
497.094	87.94
497.312	83.94
497.529	87.94
497.746	90.94
497.963	77.94
498.181	81.94
498.398	94.94
498.615	111.94
498.832	94.94
499.049	81.94
499.267	97.94
499.484	74.94
499.701	89.94
499.918	100.94
500.135	85.94
500.352	101.94
500.569	88.94
500.786	106.94
501.003	95.94
501.22	80.94
501.437	86.94
501.654	86.94
501.871	81.94
502.088	85.94
502.305	95.94
502.522	80.94
502.739	96.94
502.956	94.94
503.172	104.94
503.389	83.94
503.606	103.94
503.823	86.94
504.04	87.94
504.256	94.94
504.473	90.94
504.69	75.94
504.907	93.94
505.123	89.94
505.34	74.94
505.557	87.94
505.773	86.94
505.99	87.94
506.207	72.94
506.423	85.94
506.64	85.94
506.856	92.94
507.073	88.94
507.289	69.94
507.506	89.94
507.722	118.94
507.939	97.94
508.155	108.94
508.372	104.94
508.588	104.94
508.805	109.94
509.021	99.94
509.238	102.94
509.454	103.94
509.67	76.94
509.887	92.94
510.103	120.94
510.319	208.94
510.536	706.94
510.752	2328.94
510.968	627.94
511.184	144.94
511.401	93.94
511.617	92.94
511.833	95.94
512.049	85.94
512.265	86.94
512.481	93.94
512.698	84.94
512.914	81.94
513.13	93.94
513.346	85.94
513.562	82.94
513.778	99.94
513.994	107.94
514.21	98.94
514.426	110.94
514.642	131.94
514.858	103.94
515.074	147.94
515.29	428.94
515.506	1383.94
515.721	497.94
515.937	153.94
516.153	101.94
516.369	92.94
516.585	91.94
516.801	93.94
