Data from Uncirc_1983_H10_HRD10591_00038.txt Node
Date: Wed Jan 03 12:25:39 EST 2024
User: Yrep
Spectrometer: HR+D1059
Trigger mode: 1
Integration Time (sec): 1.000000E-1
Scans to average: 1
Electric dark correction enabled: true
Nonlinearity correction enabled: false
Boxcar width: 0
XAxis mode: Wavelengths
Number of Pixels in Spectrum: 2048
>>>>>Begin Spectral Data<<<<<
223.165	-13.75
223.4	-13.75
223.635	-13.75
223.869	-24.75
224.104	-13.75
224.338	-11.75
224.573	-14.75
224.808	-21.75
225.042	-11.75
225.277	-12.75
225.511	0.25
225.746	-2.75
225.98	8.25
226.215	10.25
226.449	19.25
226.683	28.25
226.918	28.25
227.152	33.25
227.387	42.25
227.621	32.25
227.856	58.25
228.09	46.25
228.324	51.25
228.559	66.25
228.793	58.25
229.027	47.25
229.262	67.25
229.496	67.25
229.73	65.25
229.964	78.25
230.199	70.25
230.433	84.25
230.667	82.25
230.901	85.25
231.136	81.25
231.37	77.25
231.604	77.25
231.838	87.25
232.072	83.25
232.306	88.25
232.541	89.25
232.775	75.25
233.009	108.25
233.243	90.25
233.477	82.25
233.711	84.25
233.945	74.25
234.179	73.25
234.413	88.25
234.647	82.25
234.881	80.25
235.115	88.25
235.349	78.25
235.583	74.25
235.817	72.25
236.051	70.25
236.285	67.25
236.519	75.25
236.753	84.25
236.987	92.25
237.221	82.25
237.455	70.25
237.689	80.25
237.922	80.25
238.156	77.25
238.39	82.25
238.624	77.25
238.858	80.25
239.091	68.25
239.325	68.25
239.559	79.25
239.793	82.25
240.027	73.25
240.26	73.25
240.494	73.25
240.728	82.25
240.961	85.25
241.195	75.25
241.429	76.25
241.662	81.25
241.896	80.25
242.13	87.25
242.363	82.25
242.597	82.25
242.83	92.25
243.064	70.25
243.298	70.25
243.531	80.25
243.765	86.25
243.998	92.25
244.232	75.25
244.465	82.25
244.699	76.25
244.932	74.25
245.166	69.25
245.399	83.25
245.633	87.25
245.866	92.25
246.099	81.25
246.333	80.25
246.566	76.25
246.8	77.25
247.033	91.25
247.266	84.25
247.5	84.25
247.733	66.25
247.966	80.25
248.2	70.25
248.433	68.25
248.666	67.25
248.899	68.25
249.133	88.25
249.366	90.25
249.599	90.25
249.832	73.25
250.066	76.25
250.299	80.25
250.532	85.25
250.765	65.25
250.998	80.25
251.231	96.25
251.465	72.25
251.698	62.25
251.931	82.25
252.164	91.25
252.397	72.25
252.63	82.25
252.863	70.25
253.096	69.25
253.329	76.25
253.562	86.25
253.795	77.25
254.028	78.25
254.261	76.25
254.494	72.25
254.727	82.25
254.96	90.25
255.193	92.25
255.426	77.25
255.659	77.25
255.892	83.25
256.124	82.25
256.357	87.25
256.59	92.25
256.823	78.25
257.056	75.25
257.289	94.25
257.521	92.25
257.754	90.25
257.987	77.25
258.22	94.25
258.452	80.25
258.685	77.25
258.918	80.25
259.151	83.25
259.383	84.25
259.616	80.25
259.849	83.25
260.081	82.25
260.314	86.25
260.547	89.25
260.779	74.25
261.012	78.25
261.244	80.25
261.477	87.25
261.71	83.25
261.942	93.25
262.175	96.25
262.407	92.25
262.64	83.25
262.872	85.25
263.105	75.25
263.337	83.25
263.57	79.25
263.802	105.25
264.035	88.25
264.267	86.25
264.499	84.25
264.732	89.25
264.964	96.25
265.197	91.25
265.429	81.25
265.661	98.25
265.894	72.25
266.126	77.25
266.358	82.25
266.591	74.25
266.823	87.25
267.055	80.25
267.287	93.25
267.52	88.25
267.752	80.25
267.984	85.25
268.216	89.25
268.448	89.25
268.681	85.25
268.913	90.25
269.145	90.25
269.377	85.25
269.609	84.25
269.841	78.25
270.073	88.25
270.306	90.25
270.538	92.25
270.77	93.25
271.002	75.25
271.234	72.25
271.466	88.25
271.698	91.25
271.93	88.25
272.162	73.25
272.394	81.25
272.626	98.25
272.858	80.25
273.09	99.25
273.322	82.25
273.553	90.25
273.785	83.25
274.017	87.25
274.249	69.25
274.481	88.25
274.713	90.25
274.945	90.25
275.176	88.25
275.408	91.25
275.64	82.25
275.872	78.25
276.104	90.25
276.335	78.25
276.567	105.25
276.799	102.25
277.031	100.25
277.262	97.25
277.494	92.25
277.726	80.25
277.957	97.25
278.189	92.25
278.421	78.25
278.652	80.25
278.884	99.25
279.115	90.25
279.347	84.25
279.579	96.25
279.81	78.25
280.042	89.25
280.273	76.25
280.505	89.25
280.736	82.25
280.968	84.25
281.199	85.25
281.431	90.25
281.662	93.25
281.894	80.25
282.125	81.25
282.356	110.25
282.588	126.25
282.819	123.25
283.051	91.25
283.282	84.25
283.513	105.25
283.745	104.25
283.976	100.25
284.207	81.25
284.439	84.25
284.67	80.25
284.901	92.25
285.132	89.25
285.364	85.25
285.595	102.25
285.826	88.25
286.057	78.25
286.288	79.25
286.52	73.25
286.751	84.25
286.982	86.25
287.213	92.25
287.444	72.25
287.675	86.25
287.906	86.25
288.138	105.25
288.369	92.25
288.6	78.25
288.831	93.25
289.062	83.25
289.293	92.25
289.524	82.25
289.755	74.25
289.986	91.25
290.217	92.25
290.448	84.25
290.679	78.25
290.91	84.25
291.141	88.25
291.371	90.25
291.602	94.25
291.833	96.25
292.064	80.25
292.295	85.25
292.526	84.25
292.757	87.25
292.987	80.25
293.218	81.25
293.449	104.25
293.68	96.25
293.91	69.25
294.141	86.25
294.372	102.25
294.603	78.25
294.833	87.25
295.064	97.25
295.295	89.25
295.525	94.25
295.756	94.25
295.987	115.25
296.217	128.25
296.448	128.25
296.679	76.25
296.909	90.25
297.14	79.25
297.37	92.25
297.601	96.25
297.831	85.25
298.062	96.25
298.292	84.25
298.523	96.25
298.753	105.25
298.984	90.25
299.214	96.25
299.445	84.25
299.675	88.25
299.905	106.25
300.136	76.25
300.366	82.25
300.597	95.25
300.827	96.25
301.057	93.25
301.288	86.25
301.518	102.25
301.748	91.25
301.979	96.25
302.209	90.25
302.439	84.25
302.669	98.25
302.9	109.25
303.13	77.25
303.36	88.25
303.59	99.25
303.82	102.25
304.051	82.25
304.281	85.25
304.511	87.25
304.741	89.25
304.971	92.25
305.201	92.25
305.431	91.25
305.661	83.25
305.891	96.25
306.121	89.25
306.352	100.25
306.582	106.25
306.812	91.25
307.042	103.25
307.272	95.25
307.502	98.25
307.731	94.25
307.961	72.25
308.191	89.25
308.421	97.25
308.651	91.25
308.881	89.25
309.111	95.25
309.341	98.25
309.571	75.25
309.8	114.25
310.03	107.25
310.26	96.25
310.49	97.25
310.72	105.25
310.949	94.25
311.179	79.25
311.409	85.25
311.639	95.25
311.868	82.25
312.098	93.25
312.328	89.25
312.557	96.25
312.787	97.25
313.017	92.25
313.246	99.25
313.476	81.25
313.706	102.25
313.935	112.25
314.165	85.25
314.394	102.25
314.624	94.25
314.853	99.25
315.083	85.25
315.312	90.25
315.542	90.25
315.771	88.25
316.001	85.25
316.23	84.25
316.46	77.25
316.689	84.25
316.919	86.25
317.148	90.25
317.377	85.25
317.607	104.25
317.836	92.25
318.065	99.25
318.295	84.25
318.524	81.25
318.753	89.25
318.983	94.25
319.212	85.25
319.441	96.25
319.67	84.25
319.9	93.25
320.129	89.25
320.358	96.25
320.587	86.25
320.816	94.25
321.046	94.25
321.275	97.25
321.504	98.25
321.733	97.25
321.962	92.25
322.191	91.25
322.42	100.25
322.649	84.25
322.878	104.25
323.108	106.25
323.337	115.25
323.566	109.25
323.795	124.25
324.024	200.25
324.253	342.25
324.482	744.25
324.71	1444.25
324.939	1923.25
325.168	705.25
325.397	220.25
325.626	128.25
325.855	114.25
326.084	128.25
326.313	147.25
326.542	125.25
326.77	208.25
326.999	395.25
327.228	800.25
327.457	1484.25
327.686	1213.25
327.914	332.25
328.143	197.25
328.372	125.25
328.6	115.25
328.829	98.25
329.058	120.25
329.287	120.25
329.515	89.25
329.744	108.25
329.972	94.25
330.201	100.25
330.43	103.25
330.658	115.25
330.887	120.25
331.115	108.25
331.344	99.25
331.572	96.25
331.801	103.25
332.03	105.25
332.258	88.25
332.486	85.25
332.715	87.25
332.943	98.25
333.172	102.25
333.4	84.25
333.629	92.25
333.857	110.25
334.085	101.25
334.314	95.25
334.542	99.25
334.771	93.25
334.999	96.25
335.227	100.25
335.455	92.25
335.684	83.25
335.912	100.25
336.14	82.25
336.369	89.25
336.597	100.25
336.825	87.25
337.053	103.25
337.281	97.25
337.51	102.25
337.738	96.25
337.966	91.25
338.194	91.25
338.422	101.25
338.65	86.25
338.878	94.25
339.106	86.25
339.334	77.25
339.562	84.25
339.79	84.25
340.018	88.25
340.246	91.25
340.474	93.25
340.702	85.25
340.93	80.25
341.158	86.25
341.386	95.25
341.614	85.25
341.842	85.25
342.07	102.25
342.298	94.25
342.526	84.25
342.754	104.25
342.981	92.25
343.209	90.25
343.437	106.25
343.665	84.25
343.893	94.25
344.12	87.25
344.348	86.25
344.576	85.25
344.804	78.25
345.031	80.25
345.259	92.25
345.487	101.25
345.714	84.25
345.942	83.25
346.17	90.25
346.397	90.25
346.625	89.25
346.853	97.25
347.08	98.25
347.308	100.25
347.535	104.25
347.763	96.25
347.99	91.25
348.218	84.25
348.445	91.25
348.673	108.25
348.9	97.25
349.128	92.25
349.355	85.25
349.583	82.25
349.81	92.25
350.037	98.25
350.265	97.25
350.492	89.25
350.72	101.25
350.947	84.25
351.174	95.25
351.402	90.25
351.629	89.25
351.856	95.25
352.083	114.25
352.311	89.25
352.538	102.25
352.765	104.25
352.992	97.25
353.22	116.25
353.447	84.25
353.674	107.25
353.901	108.25
354.128	99.25
354.355	107.25
354.583	112.25
354.81	102.25
355.037	87.25
355.264	104.25
355.491	94.25
355.718	86.25
355.945	97.25
356.172	107.25
356.399	103.25
356.626	78.25
356.853	80.25
357.08	86.25
357.307	94.25
357.534	87.25
357.761	92.25
357.988	98.25
358.215	100.25
358.441	86.25
358.668	100.25
358.895	97.25
359.122	78.25
359.349	85.25
359.576	92.25
359.802	100.25
360.029	107.25
360.256	98.25
360.483	102.25
360.709	90.25
360.936	89.25
361.163	101.25
361.39	100.25
361.616	92.25
361.843	89.25
362.07	87.25
362.296	94.25
362.523	106.25
362.749	100.25
362.976	101.25
363.203	91.25
363.429	92.25
363.656	96.25
363.882	73.25
364.109	96.25
364.335	108.25
364.562	100.25
364.788	91.25
365.015	80.25
365.241	96.25
365.468	99.25
365.694	110.25
365.92	110.25
366.147	88.25
366.373	86.25
366.599	88.25
366.826	84.25
367.052	91.25
367.278	88.25
367.505	96.25
367.731	100.25
367.957	84.25
368.184	93.25
368.41	106.25
368.636	111.25
368.862	108.25
369.089	98.25
369.315	97.25
369.541	95.25
369.767	105.25
369.993	91.25
370.219	90.25
370.445	77.25
370.672	77.25
370.898	98.25
371.124	85.25
371.35	72.25
371.576	78.25
371.802	84.25
372.028	80.25
372.254	93.25
372.48	103.25
372.706	80.25
372.932	80.25
373.158	80.25
373.384	77.25
373.61	96.25
373.835	90.25
374.061	90.25
374.287	100.25
374.513	96.25
374.739	113.25
374.965	94.25
375.191	72.25
375.416	94.25
375.642	98.25
375.868	89.25
376.094	87.25
376.319	84.25
376.545	87.25
376.771	92.25
376.997	93.25
377.222	100.25
377.448	100.25
377.674	88.25
377.899	100.25
378.125	85.25
378.35	90.25
378.576	84.25
378.802	76.25
379.027	89.25
379.253	95.25
379.478	88.25
379.704	89.25
379.929	94.25
380.155	88.25
380.38	99.25
380.606	91.25
380.831	98.25
381.057	98.25
381.282	81.25
381.507	93.25
381.733	100.25
381.958	96.25
382.184	103.25
382.409	101.25
382.634	93.25
382.86	93.25
383.085	86.25
383.31	98.25
383.535	108.25
383.761	91.25
383.986	83.25
384.211	84.25
384.436	88.25
384.662	100.25
384.887	84.25
385.112	82.25
385.337	97.25
385.562	88.25
385.787	99.25
386.013	101.25
386.238	108.25
386.463	99.25
386.688	109.25
386.913	101.25
387.138	107.25
387.363	98.25
387.588	110.25
387.813	97.25
388.038	101.25
388.263	117.25
388.488	113.25
388.713	88.25
388.938	102.25
389.163	90.25
389.387	100.25
389.612	110.25
389.837	96.25
390.062	75.25
390.287	95.25
390.512	100.25
390.736	97.25
390.961	88.25
391.186	90.25
391.411	98.25
391.636	93.25
391.86	92.25
392.085	82.25
392.31	91.25
392.534	89.25
392.759	95.25
392.984	82.25
393.208	76.25
393.433	105.25
393.658	92.25
393.882	98.25
394.107	94.25
394.331	93.25
394.556	96.25
394.78	86.25
395.005	94.25
395.229	86.25
395.454	78.25
395.678	87.25
395.903	88.25
396.127	97.25
396.352	90.25
396.576	92.25
396.801	93.25
397.025	87.25
397.249	83.25
397.474	78.25
397.698	92.25
397.922	85.25
398.147	75.25
398.371	77.25
398.595	88.25
398.82	75.25
399.044	82.25
399.268	89.25
399.492	85.25
399.717	102.25
399.941	96.25
400.165	99.25
400.389	90.25
400.613	85.25
400.837	94.25
401.062	102.25
401.286	95.25
401.51	95.25
401.734	98.25
401.958	106.25
402.182	110.25
402.406	135.25
402.63	103.25
402.854	93.25
403.078	82.25
403.302	87.25
403.526	85.25
403.75	85.25
403.974	88.25
404.198	74.25
404.422	89.25
404.645	94.25
404.869	91.25
405.093	88.25
405.317	89.25
405.541	85.25
405.765	90.25
405.988	108.25
406.212	156.25
406.436	200.25
406.66	124.25
406.883	100.25
407.107	102.25
407.331	99.25
407.555	102.25
407.778	101.25
408.002	91.25
408.226	89.25
408.449	101.25
408.673	103.25
408.896	92.25
409.12	107.25
409.344	96.25
409.567	98.25
409.791	82.25
410.014	81.25
410.238	93.25
410.461	96.25
410.685	101.25
410.908	87.25
411.132	98.25
411.355	84.25
411.578	99.25
411.802	92.25
412.025	91.25
412.249	86.25
412.472	75.25
412.695	89.25
412.919	91.25
413.142	69.25
413.365	96.25
413.589	98.25
413.812	91.25
414.035	95.25
414.258	84.25
414.482	81.25
414.705	83.25
414.928	99.25
415.151	83.25
415.374	93.25
415.597	94.25
415.821	86.25
416.044	76.25
416.267	90.25
416.49	83.25
416.713	89.25
416.936	81.25
417.159	90.25
417.382	85.25
417.605	84.25
417.828	84.25
418.051	89.25
418.274	96.25
418.497	104.25
418.72	84.25
418.943	86.25
419.166	91.25
419.389	99.25
419.611	83.25
419.834	84.25
420.057	90.25
420.28	88.25
420.503	74.25
420.726	90.25
420.948	82.25
421.171	92.25
421.394	87.25
421.617	77.25
421.839	84.25
422.062	74.25
422.285	91.25
422.507	109.25
422.73	106.25
422.953	80.25
423.175	87.25
423.398	81.25
423.621	92.25
423.843	102.25
424.066	80.25
424.288	88.25
424.511	77.25
424.733	97.25
424.956	98.25
425.178	102.25
425.401	85.25
425.623	109.25
425.846	82.25
426.068	93.25
426.291	79.25
426.513	97.25
426.735	85.25
426.958	94.25
427.18	95.25
427.402	117.25
427.625	138.25
427.847	119.25
428.069	89.25
428.292	101.25
428.514	95.25
428.736	86.25
428.958	79.25
429.181	91.25
429.403	98.25
429.625	92.25
429.847	100.25
430.069	98.25
430.292	81.25
430.514	87.25
430.736	83.25
430.958	80.25
431.18	86.25
431.402	76.25
431.624	84.25
431.846	84.25
432.068	89.25
432.29	90.25
432.512	86.25
432.734	82.25
432.956	91.25
433.178	88.25
433.4	100.25
433.622	92.25
433.844	90.25
434.066	89.25
434.287	86.25
434.509	93.25
434.731	97.25
434.953	106.25
435.175	84.25
435.397	92.25
435.618	98.25
435.84	104.25
436.062	113.25
436.284	107.25
436.505	100.25
436.727	103.25
436.949	92.25
437.17	91.25
437.392	82.25
437.614	102.25
437.835	98.25
438.057	107.25
438.278	110.25
438.5	112.25
438.721	115.25
438.943	107.25
439.165	91.25
439.386	88.25
439.608	93.25
439.829	102.25
440.05	111.25
440.272	133.25
440.493	87.25
440.715	90.25
440.936	92.25
441.158	91.25
441.379	92.25
441.6	87.25
441.822	90.25
442.043	94.25
442.264	107.25
442.486	81.25
442.707	98.25
442.928	84.25
443.149	120.25
443.371	119.25
443.592	102.25
443.813	94.25
444.034	101.25
444.255	105.25
444.476	83.25
444.698	84.25
444.919	84.25
445.14	141.25
445.361	136.25
445.582	94.25
445.803	131.25
446.024	101.25
446.245	113.25
446.466	106.25
446.687	86.25
446.908	94.25
447.129	97.25
447.35	91.25
447.571	96.25
447.792	101.25
448.013	103.25
448.234	100.25
448.455	110.25
448.675	103.25
448.896	108.25
449.117	110.25
449.338	90.25
449.559	108.25
449.779	129.25
450	80.25
450.221	101.25
450.442	77.25
450.662	105.25
450.883	101.25
451.104	102.25
451.324	100.25
451.545	76.25
451.766	71.25
451.986	98.25
452.207	90.25
452.428	89.25
452.648	101.25
452.869	105.25
453.089	119.25
453.31	117.25
453.53	102.25
453.751	93.25
453.971	111.25
454.192	103.25
454.412	81.25
454.633	94.25
454.853	75.25
455.073	105.25
455.294	86.25
455.514	80.25
455.734	96.25
455.955	98.25
456.175	80.25
456.395	91.25
456.616	86.25
456.836	78.25
457.056	110.25
457.276	93.25
457.497	81.25
457.717	75.25
457.937	85.25
458.157	88.25
458.377	88.25
458.598	103.25
458.818	125.25
459.038	150.25
459.258	102.25
459.478	72.25
459.698	90.25
459.918	78.25
460.138	80.25
460.358	92.25
460.578	83.25
460.798	91.25
461.018	93.25
461.238	92.25
461.458	85.25
461.678	84.25
461.898	94.25
462.118	94.25
462.338	98.25
462.558	92.25
462.777	85.25
462.997	100.25
463.217	80.25
463.437	83.25
463.657	93.25
463.876	92.25
464.096	91.25
464.316	95.25
464.536	97.25
464.755	104.25
464.975	103.25
465.195	138.25
465.414	161.25
465.634	102.25
465.854	91.25
466.073	98.25
466.293	98.25
466.512	94.25
466.732	90.25
466.951	84.25
467.171	86.25
467.391	65.25
467.61	103.25
467.829	100.25
468.049	94.25
468.268	97.25
468.488	102.25
468.707	88.25
468.927	82.25
469.146	83.25
469.365	92.25
469.585	84.25
469.804	86.25
470.023	88.25
470.243	91.25
470.462	100.25
470.681	108.25
470.901	97.25
471.12	88.25
471.339	87.25
471.558	76.25
471.777	84.25
471.997	89.25
472.216	96.25
472.435	90.25
472.654	97.25
472.873	94.25
473.092	80.25
473.311	96.25
473.53	89.25
473.749	85.25
473.968	81.25
474.187	105.25
474.406	94.25
474.625	86.25
474.844	96.25
475.063	96.25
475.282	87.25
475.501	86.25
475.72	86.25
475.939	101.25
476.158	90.25
476.377	87.25
476.596	102.25
476.814	105.25
477.033	95.25
477.252	94.25
477.471	92.25
477.69	94.25
477.908	84.25
478.127	96.25
478.346	78.25
478.564	99.25
478.783	98.25
479.002	104.25
479.22	80.25
479.439	93.25
479.658	104.25
479.876	98.25
480.095	88.25
480.313	93.25
480.532	107.25
480.751	99.25
480.969	96.25
481.188	110.25
481.406	109.25
481.624	98.25
481.843	93.25
482.061	84.25
482.28	86.25
482.498	83.25
482.717	83.25
482.935	101.25
483.153	88.25
483.372	88.25
483.59	99.25
483.808	80.25
484.027	104.25
484.245	94.25
484.463	93.25
484.681	76.25
484.9	84.25
485.118	84.25
485.336	101.25
485.554	85.25
485.772	106.25
485.99	91.25
486.209	104.25
486.427	92.25
486.645	97.25
486.863	116.25
487.081	112.25
487.299	93.25
487.517	88.25
487.735	96.25
487.953	99.25
488.171	98.25
488.389	100.25
488.607	86.25
488.825	80.25
489.043	100.25
489.261	104.25
489.479	100.25
489.696	86.25
489.914	82.25
490.132	93.25
490.35	80.25
490.568	77.25
490.786	101.25
491.003	84.25
491.221	84.25
491.439	109.25
491.657	115.25
491.874	87.25
492.092	90.25
492.31	90.25
492.527	84.25
492.745	96.25
492.963	89.25
493.18	89.25
493.398	87.25
493.615	94.25
493.833	102.25
494.05	88.25
494.268	83.25
494.485	95.25
494.703	86.25
494.92	93.25
495.138	84.25
495.355	97.25
495.573	88.25
495.79	96.25
496.008	86.25
496.225	94.25
496.442	90.25
496.66	93.25
496.877	96.25
497.094	105.25
497.312	90.25
497.529	91.25
497.746	88.25
497.963	97.25
498.181	92.25
498.398	96.25
498.615	105.25
498.832	92.25
499.049	93.25
499.267	94.25
499.484	85.25
499.701	89.25
499.918	92.25
500.135	93.25
500.352	87.25
500.569	90.25
500.786	88.25
501.003	96.25
501.22	85.25
501.437	97.25
501.654	86.25
501.871	96.25
502.088	84.25
502.305	78.25
502.522	84.25
502.739	75.25
502.956	85.25
503.172	96.25
503.389	104.25
503.606	100.25
503.823	86.25
504.04	102.25
504.256	98.25
504.473	93.25
504.69	89.25
504.907	101.25
505.123	92.25
505.34	103.25
505.557	97.25
505.773	92.25
505.99	96.25
506.207	85.25
506.423	90.25
506.64	84.25
506.856	91.25
507.073	92.25
507.289	85.25
507.506	90.25
507.722	85.25
507.939	111.25
508.155	98.25
508.372	84.25
508.588	93.25
508.805	94.25
509.021	87.25
509.238	100.25
509.454	110.25
509.67	104.25
509.887	92.25
510.103	121.25
510.319	194.25
510.536	679.25
510.752	2080.25
510.968	580.25
511.184	162.25
511.401	117.25
511.617	96.25
511.833	95.25
512.049	84.25
512.265	88.25
512.481	92.25
512.698	86.25
512.914	88.25
513.13	101.25
513.346	105.25
513.562	84.25
513.778	114.25
513.994	103.25
514.21	93.25
514.426	120.25
514.642	123.25
514.858	123.25
515.074	145.25
515.29	371.25
515.506	1198.25
515.721	436.25
515.937	132.25
