Data from Uncirc_1983_H10_HRD10591_00072.txt Node
Date: Wed Jan 03 12:25:46 EST 2024
User: Yrep
Spectrometer: HR+D1059
Trigger mode: 1
Integration Time (sec): 1.000000E-1
Scans to average: 1
Electric dark correction enabled: true
Nonlinearity correction enabled: false
Boxcar width: 0
XAxis mode: Wavelengths
Number of Pixels in Spectrum: 2048
>>>>>Begin Spectral Data<<<<<
223.165	-15.88
223.4	-15.88
223.635	-15.88
223.869	-15.88
224.104	-15.88
224.338	-7.88
224.573	-17.88
224.808	-17.88
225.042	-1.88
225.277	-2.88
225.511	-7.88
225.746	1.12
225.98	6.12
226.215	20.12
226.449	21.12
226.683	21.12
226.918	17.12
227.152	17.12
227.387	34.12
227.621	30.12
227.856	37.12
228.09	37.12
228.324	59.12
228.559	45.12
228.793	158.12
229.027	412.12
229.262	511.12
229.496	565.12
229.73	746.12
229.964	737.12
230.199	518.12
230.433	465.12
230.667	449.12
230.901	421.12
231.136	416.12
231.37	424.12
231.604	450.12
231.838	444.12
232.072	445.12
232.306	468.12
232.541	470.12
232.775	451.12
233.009	474.12
233.243	461.12
233.477	457.12
233.711	461.12
233.945	466.12
234.179	474.12
234.413	503.12
234.647	498.12
234.881	508.12
235.115	515.12
235.349	534.12
235.583	555.12
235.817	575.12
236.051	585.12
236.285	602.12
236.519	613.12
236.753	668.12
236.987	861.12
237.221	1270.12
237.455	1384.12
237.689	854.12
237.922	701.12
238.156	668.12
238.39	658.12
238.624	644.12
238.858	627.12
239.091	654.12
239.325	638.12
239.559	660.12
239.793	669.12
240.027	747.12
240.26	857.12
240.494	893.12
240.728	896.12
240.961	861.12
241.195	802.12
241.429	755.12
241.662	738.12
241.896	758.12
242.13	781.12
242.363	755.12
242.597	783.12
242.83	817.12
243.064	845.12
243.298	799.12
243.531	828.12
243.765	825.12
243.998	822.12
244.232	825.12
244.465	867.12
244.699	893.12
244.932	920.12
245.166	891.12
245.399	911.12
245.633	880.12
245.866	913.12
246.099	954.12
246.333	949.12
246.566	922.12
246.8	988.12
247.033	1002.12
247.266	1038.12
247.5	1057.12
247.733	1122.12
247.966	1131.12
248.2	1129.12
248.433	1140.12
248.666	1217.12
248.899	1301.12
249.133	1373.12
249.366	1366.12
249.599	1296.12
249.832	1211.12
250.066	1223.12
250.299	1286.12
250.532	1399.12
250.765	1555.12
250.998	1656.12
251.231	1613.12
251.465	1431.12
251.698	1396.12
251.931	1411.12
252.164	1393.12
252.397	1390.12
252.63	1446.12
252.863	1514.12
253.096	1634.12
253.329	1671.12
253.562	1623.12
253.795	1504.12
254.028	1529.12
254.261	1580.12
254.494	1742.12
254.727	2021.12
254.96	2099.12
255.193	1887.12
255.426	1719.12
255.659	1674.12
255.892	1676.12
256.124	1795.12
256.357	1771.12
256.59	1639.12
256.823	1565.12
257.056	1499.12
257.289	1521.12
257.521	1527.12
257.754	1540.12
257.987	1510.12
258.22	1533.12
258.452	1536.12
258.685	1553.12
258.918	1559.12
259.151	1588.12
259.383	1647.12
259.616	1667.12
259.849	1728.12
260.081	1832.12
260.314	2033.12
260.547	1933.12
260.779	1809.12
261.012	1742.12
261.244	1675.12
261.477	1646.12
261.71	1639.12
261.942	1709.12
262.175	1719.12
262.407	1657.12
262.64	1621.12
262.872	1611.12
263.105	1613.12
263.337	1598.12
263.57	1653.12
263.802	1632.12
264.035	1650.12
264.267	1601.12
264.499	1651.12
264.732	1670.12
264.964	1640.12
265.197	1654.12
265.429	1658.12
265.661	1685.12
265.894	1700.12
266.126	1692.12
266.358	1699.12
266.591	1765.12
266.823	1847.12
267.055	1817.12
267.287	1819.12
267.52	1758.12
267.752	1807.12
267.984	1805.12
268.216	1900.12
268.448	1885.12
268.681	1976.12
268.913	2081.12
269.145	2229.12
269.377	2305.12
269.609	2255.12
269.841	2167.12
270.073	2276.12
270.306	2498.12
270.538	2668.12
270.77	2517.12
271.002	2429.12
271.234	2334.12
271.466	2485.12
271.698	2596.12
271.93	2595.12
272.162	2617.12
272.394	2518.12
272.626	2459.12
272.858	2309.12
273.09	2233.12
273.322	2212.12
273.553	2185.12
273.785	2215.12
274.017	2167.12
274.249	2211.12
274.481	2182.12
274.713	2191.12
274.945	2231.12
275.176	2267.12
275.408	2233.12
275.64	2201.12
275.872	2219.12
276.104	2253.12
276.335	2243.12
276.567	2322.12
276.799	2447.12
277.031	2695.12
277.262	2758.12
277.494	2709.12
277.726	2559.12
277.957	2434.12
278.189	2406.12
278.421	2355.12
278.652	2333.12
278.884	2306.12
279.115	2306.12
279.347	2349.12
279.579	2305.12
279.81	2381.12
280.042	2362.12
280.273	2381.12
280.505	2401.12
280.736	2371.12
280.968	2422.12
281.199	2394.12
281.431	2433.12
281.662	2436.12
281.894	2474.12
282.125	2483.12
282.356	2582.12
282.588	2743.12
282.819	2605.12
283.051	2537.12
283.282	2485.12
283.513	2513.12
283.745	2608.12
283.976	2614.12
284.207	2643.12
284.439	2577.12
284.67	2588.12
284.901	2632.12
285.132	2577.12
285.364	2587.12
285.595	2605.12
285.826	2642.12
286.057	2647.12
286.288	2629.12
286.52	2669.12
286.751	2741.12
286.982	2672.12
287.213	2662.12
287.444	2739.12
287.675	2725.12
287.906	2798.12
288.138	2904.12
288.369	2843.12
288.6	2798.12
288.831	2819.12
289.062	2851.12
289.293	2783.12
289.524	2785.12
289.755	2779.12
289.986	2790.12
290.217	2771.12
290.448	2773.12
290.679	2758.12
290.91	2814.12
291.141	2778.12
291.371	2778.12
291.602	2802.12
291.833	2749.12
292.064	2775.12
292.295	2788.12
292.526	2804.12
292.757	2816.12
292.987	2810.12
293.218	2777.12
293.449	2853.12
293.68	2826.12
293.91	2822.12
294.141	2836.12
294.372	2849.12
294.603	2863.12
294.833	2848.12
295.064	2875.12
295.295	2873.12
295.525	2828.12
295.756	2927.12
295.987	3016.12
296.217	3109.12
296.448	3075.12
296.679	2967.12
296.909	2865.12
297.14	2932.12
297.37	2981.12
297.601	3006.12
297.831	3008.12
298.062	3018.12
298.292	3062.12
298.523	3121.12
298.753	3101.12
298.984	3082.12
299.214	3025.12
299.445	3070.12
299.675	3058.12
299.905	3121.12
300.136	3111.12
300.366	3141.12
300.597	3133.12
300.827	3199.12
301.057	3309.12
301.288	3320.12
301.518	3304.12
301.748	3297.12
301.979	3385.12
302.209	3327.12
302.439	3361.12
302.669	3279.12
302.9	3257.12
303.13	3277.12
303.36	3298.12
303.59	3335.12
303.82	3295.12
304.051	3336.12
304.281	3280.12
304.511	3218.12
304.741	3263.12
304.971	3248.12
305.201	3263.12
305.431	3219.12
305.661	3247.12
305.891	3225.12
306.121	3253.12
306.352	3314.12
306.582	3270.12
306.812	3172.12
307.042	3230.12
307.272	3270.12
307.502	3274.12
307.731	3276.12
307.961	3236.12
308.191	3235.12
308.421	3282.12
308.651	3273.12
308.881	3279.12
309.111	3288.12
309.341	3363.12
309.571	3321.12
309.8	3389.12
310.03	3565.12
310.26	3477.12
310.49	3507.12
310.72	3573.12
310.949	3641.12
311.179	3642.12
311.409	3491.12
311.639	3526.12
311.868	3573.12
312.098	3609.12
312.328	3646.12
312.557	3798.12
312.787	3924.12
313.017	3757.12
313.246	3615.12
313.476	3609.12
313.706	3718.12
313.935	3732.12
314.165	3753.12
314.394	3877.12
314.624	3807.12
314.853	3730.12
315.083	3725.12
315.312	3701.12
315.542	3645.12
315.771	3646.12
316.001	3613.12
316.23	3643.12
316.46	3635.12
316.689	3625.12
316.919	3721.12
317.148	3749.12
317.377	3745.12
317.607	3637.12
317.836	3649.12
318.065	3575.12
318.295	3650.12
318.524	3635.12
318.753	3677.12
318.983	3585.12
319.212	3553.12
319.441	3714.12
319.67	3721.12
319.9	3594.12
320.129	3680.12
320.358	3680.12
320.587	3716.12
320.816	3685.12
321.046	3741.12
321.275	3738.12
321.504	3725.12
321.733	3789.12
321.962	3850.12
322.191	3829.12
322.42	4038.12
322.649	3968.12
322.878	4155.12
323.108	4139.12
323.337	4368.12
323.566	4467.12
323.795	4698.12
324.024	5112.12
324.253	6545.12
324.482	9747.12
324.71	14168.12
324.939	15627.12
325.168	10774.12
325.397	6141.12
325.626	5049.12
325.855	4708.12
326.084	4673.12
326.313	4617.12
326.542	4690.12
326.77	5251.12
326.999	6453.12
327.228	9214.12
327.457	13281.12
327.686	12348.12
327.914	6765.12
328.143	5576.12
328.372	5238.12
328.6	5065.12
328.829	4963.12
329.058	5145.12
329.287	5007.12
329.515	4852.12
329.744	4714.12
329.972	4851.12
330.201	5064.12
330.43	5280.12
330.658	5323.12
330.887	5352.12
331.115	5127.12
331.344	4859.12
331.572	4791.12
331.801	4902.12
332.03	4859.12
332.258	4883.12
332.486	4932.12
332.715	4989.12
332.943	5206.12
333.172	5342.12
333.4	5473.12
333.629	5609.12
333.857	5723.12
334.085	5743.12
334.314	5816.12
334.542	6022.12
334.771	5900.12
334.999	5463.12
335.227	5221.12
335.455	5172.12
335.684	5020.12
335.912	5015.12
336.14	4937.12
336.369	4947.12
336.597	4975.12
336.825	4870.12
337.053	4864.12
337.281	4697.12
337.51	4709.12
337.738	4645.12
337.966	4626.12
338.194	4621.12
338.422	4595.12
338.65	4504.12
338.878	4500.12
339.106	4471.12
339.334	4433.12
339.562	4347.12
339.79	4328.12
340.018	4370.12
340.246	4300.12
340.474	4360.12
340.702	4355.12
340.93	4370.12
341.158	4297.12
341.386	4296.12
341.614	4304.12
341.842	4345.12
342.07	4206.12
342.298	4202.12
342.526	4218.12
342.754	4213.12
342.981	4224.12
343.209	4367.12
343.437	4570.12
343.665	4925.12
343.893	5191.12
344.12	5129.12
344.348	4924.12
344.576	4770.12
344.804	4626.12
345.031	4566.12
345.259	4497.12
345.487	4377.12
345.714	4303.12
345.942	4163.12
346.17	4170.12
346.397	4158.12
346.625	4121.12
346.853	4080.12
347.08	4129.12
347.308	4148.12
347.535	4170.12
347.763	4213.12
347.99	4170.12
348.218	4238.12
348.445	4284.12
348.673	4190.12
348.9	4118.12
349.128	4036.12
349.355	3995.12
349.583	4016.12
349.81	3985.12
350.037	4019.12
350.265	3942.12
350.492	4032.12
350.72	4009.12
350.947	4073.12
351.174	4120.12
351.402	4095.12
351.629	4039.12
351.856	4017.12
352.083	4075.12
352.311	4079.12
352.538	4140.12
352.765	4122.12
352.992	4014.12
353.22	4036.12
353.447	3984.12
353.674	4000.12
353.901	3912.12
354.128	3866.12
354.355	3893.12
354.583	3873.12
354.81	3928.12
355.037	3934.12
355.264	3899.12
355.491	3930.12
355.718	3882.12
355.945	3917.12
356.172	3884.12
356.399	3941.12
356.626	3896.12
356.853	3945.12
357.08	3873.12
357.307	3877.12
357.534	3874.12
357.761	3907.12
357.988	3969.12
358.215	3918.12
358.441	3971.12
358.668	3912.12
358.895	4003.12
359.122	4012.12
359.349	4104.12
359.576	4093.12
359.802	4292.12
360.029	4420.12
360.256	4391.12
360.483	4340.12
360.709	4127.12
360.936	4087.12
361.163	4100.12
361.39	4141.12
361.616	4164.12
361.843	4042.12
362.07	4048.12
362.296	4089.12
362.523	4095.12
362.749	4104.12
362.976	4040.12
363.203	4071.12
363.429	3944.12
363.656	4045.12
363.882	4041.12
364.109	4010.12
364.335	3924.12
364.562	3969.12
364.788	3966.12
365.015	3958.12
365.241	3983.12
365.468	4001.12
365.694	4022.12
365.92	4035.12
366.147	3957.12
366.373	3946.12
366.599	3973.12
366.826	3933.12
367.052	3900.12
367.278	4010.12
367.505	4065.12
367.731	4068.12
367.957	4023.12
368.184	4031.12
368.41	4081.12
368.636	4160.12
368.862	4152.12
369.089	4171.12
369.315	4031.12
369.541	4100.12
369.767	4086.12
369.993	4135.12
370.219	4102.12
370.445	4139.12
370.672	4180.12
370.898	4211.12
371.124	4291.12
371.35	4271.12
371.576	4285.12
371.802	4254.12
372.028	4207.12
372.254	4205.12
372.48	4338.12
372.706	4434.12
372.932	4463.12
373.158	4431.12
373.384	4385.12
373.61	4301.12
373.835	4307.12
374.061	4353.12
374.287	4400.12
374.513	4404.12
374.739	4583.12
374.965	4673.12
375.191	4741.12
375.416	4588.12
375.642	4458.12
375.868	4418.12
376.094	4373.12
376.319	4305.12
376.545	4349.12
376.771	4304.12
376.997	4332.12
377.222	4296.12
377.448	4246.12
377.674	4315.12
377.899	4234.12
378.125	4267.12
378.35	4220.12
378.576	4259.12
378.802	4213.12
379.027	4279.12
379.253	4202.12
379.478	4225.12
379.704	4194.12
379.929	4304.12
380.155	4326.12
380.38	4325.12
380.606	4242.12
380.831	4246.12
381.057	4317.12
381.282	4279.12
381.507	4328.12
381.733	4325.12
381.958	4402.12
382.184	4431.12
382.409	4532.12
382.634	4571.12
382.86	4498.12
383.085	4637.12
383.31	4610.12
383.535	4703.12
383.761	4722.12
383.986	4823.12
384.211	4905.12
384.436	4941.12
384.662	5118.12
384.887	5104.12
385.112	5147.12
385.337	5211.12
385.562	5155.12
385.787	5188.12
386.013	5277.12
386.238	5277.12
386.463	5236.12
386.688	5131.12
386.913	5148.12
387.138	5143.12
387.363	5128.12
387.588	5064.12
387.813	5095.12
388.038	5075.12
388.263	5089.12
388.488	5146.12
388.713	5129.12
388.938	5083.12
389.163	5013.12
389.387	5057.12
389.612	4966.12
389.837	5021.12
390.062	5031.12
390.287	5099.12
390.512	5062.12
390.736	5152.12
390.961	5223.12
391.186	5298.12
391.411	5455.12
391.636	5611.12
391.86	5825.12
392.085	5854.12
392.31	5616.12
392.534	5547.12
392.759	5471.12
392.984	5386.12
393.208	5380.12
393.433	5362.12
393.658	5386.12
393.882	5373.12
394.107	5379.12
394.331	5421.12
394.556	5413.12
394.78	5472.12
395.005	5468.12
395.229	5517.12
395.454	5727.12
395.678	5816.12
395.903	5815.12
396.127	5755.12
396.352	5640.12
396.576	5455.12
396.801	5363.12
397.025	5555.12
397.249	5665.12
397.474	5776.12
397.698	5871.12
397.922	5880.12
398.147	5995.12
398.371	6085.12
398.595	6290.12
398.82	6523.12
399.044	7140.12
399.268	7910.12
399.492	9025.12
399.717	9647.12
399.941	9229.12
400.165	8692.12
400.389	7979.12
400.613	7221.12
400.837	6837.12
401.062	6711.12
401.286	6651.12
401.51	6407.12
401.734	6404.12
401.958	6527.12
402.182	6672.12
402.406	6793.12
402.63	6886.12
402.854	6945.12
403.078	7057.12
403.302	7184.12
403.526	7371.12
403.75	7335.12
403.974	7446.12
404.198	7381.12
404.422	7484.12
404.645	7424.12
404.869	7430.12
405.093	7707.12
405.317	7965.12
405.541	7920.12
405.765	7373.12
405.988	7304.12
406.212	7360.12
406.436	7551.12
406.66	7742.12
406.883	7717.12
407.107	8294.12
407.331	8719.12
407.555	9333.12
407.778	8887.12
408.002	8237.12
408.226	7950.12
408.449	7697.12
408.673	7661.12
408.896	7735.12
409.12	7882.12
409.344	7511.12
409.567	7125.12
409.791	7117.12
410.014	6981.12
410.238	6997.12
410.461	6955.12
410.685	7061.12
410.908	7160.12
411.132	7290.12
411.355	7378.12
411.578	6967.12
411.802	6807.12
412.025	6787.12
412.249	7019.12
412.472	7153.12
412.695	7304.12
412.919	6896.12
413.142	6688.12
413.365	6594.12
413.589	6558.12
413.812	6405.12
414.035	6307.12
414.258	6384.12
414.482	6463.12
414.705	6486.12
414.928	6422.12
415.151	6369.12
415.374	6501.12
415.597	6399.12
415.821	6224.12
416.044	6318.12
416.267	6321.12
416.49	6269.12
416.713	6203.12
416.936	6304.12
417.159	6255.12
417.382	6351.12
417.605	6306.12
417.828	6413.12
418.051	6559.12
418.274	6499.12
418.497	6372.12
418.72	6487.12
418.943	6441.12
419.166	6900.12
419.389	7349.12
419.611	7157.12
419.834	6908.12
420.057	6816.12
420.28	6717.12
420.503	6655.12
420.726	6520.12
420.948	6671.12
421.171	6964.12
421.394	6962.12
421.617	6481.12
421.839	6474.12
422.062	6623.12
422.285	6731.12
422.507	7365.12
422.73	7807.12
422.953	7309.12
423.175	6932.12
423.398	7011.12
423.621	6938.12
423.843	7246.12
424.066	7153.12
424.288	7119.12
424.511	7211.12
424.733	7758.12
424.956	8168.12
425.178	7593.12
425.401	7762.12
425.623	7609.12
425.846	6670.12
426.068	6543.12
426.291	6548.12
426.513	6580.12
426.735	6621.12
426.958	7000.12
427.18	7669.12
427.402	8740.12
427.625	8773.12
427.847	7540.12
428.069	6901.12
428.292	6415.12
428.514	6066.12
428.736	5970.12
428.958	6006.12
429.181	5756.12
429.403	5780.12
429.625	5948.12
429.847	6239.12
430.069	6679.12
430.292	6328.12
430.514	5745.12
430.736	5752.12
430.958	5684.12
431.18	5603.12
431.402	5691.12
431.624	5621.12
431.846	5741.12
432.068	5706.12
432.29	5865.12
432.512	5643.12
432.734	5809.12
432.956	5765.12
433.178	5728.12
433.4	5750.12
433.622	5681.12
433.844	5792.12
434.066	5801.12
434.287	5899.12
434.509	6088.12
434.731	6332.12
434.953	6400.12
435.175	6583.12
435.397	6663.12
435.618	6551.12
435.84	6932.12
436.062	7583.12
436.284	7505.12
436.505	6426.12
436.727	6093.12
436.949	5937.12
437.17	5791.12
437.392	5755.12
437.614	5855.12
437.835	6227.12
438.057	7147.12
438.278	7717.12
438.5	7697.12
438.721	8557.12
438.943	7470.12
439.165	6317.12
439.386	6157.12
439.608	6166.12
439.829	6240.12
440.05	6556.12
440.272	6788.12
440.493	6323.12
440.715	6074.12
440.936	6073.12
441.158	6113.12
441.379	6221.12
441.6	6569.12
441.822	6746.12
442.043	7094.12
442.264	7867.12
442.486	7568.12
442.707	6766.12
442.928	6708.12
443.149	6853.12
443.371	6965.12
443.592	7591.12
443.813	8497.12
444.034	8427.12
444.255	7384.12
444.476	7304.12
444.698	7476.12
444.919	7595.12
445.14	7414.12
445.361	7141.12
445.582	7204.12
445.803	7736.12
446.024	8335.12
446.245	7896.12
446.466	7228.12
446.687	6399.12
446.908	6032.12
447.129	5781.12
447.35	5586.12
447.571	5585.12
447.792	5529.12
448.013	5582.12
448.234	5731.12
448.455	6420.12
448.675	7618.12
448.896	7799.12
449.117	6589.12
449.338	6846.12
449.559	7982.12
449.779	8149.12
450	6327.12
450.221	5638.12
450.442	5465.12
450.662	5401.12
450.883	5477.12
451.104	5507.12
451.324	5343.12
451.545	5304.12
451.766	5089.12
451.986	5002.12
452.207	5001.12
452.428	5082.12
452.648	5030.12
452.869	5047.12
453.089	5090.12
453.31	5182.12
453.53	4992.12
453.751	5006.12
453.971	4978.12
454.192	5050.12
454.412	4908.12
454.633	4915.12
454.853	4848.12
455.073	4854.12
455.294	5248.12
455.514	5694.12
455.734	5282.12
455.955	4757.12
456.175	4691.12
456.395	4649.12
456.616	4548.12
456.836	4573.12
457.056	4535.12
457.276	4573.12
457.497	4740.12
457.717	4643.12
457.937	4744.12
458.157	4817.12
458.377	4893.12
458.598	5184.12
458.818	5800.12
459.038	6407.12
459.258	6426.12
459.478	5860.12
459.698	5763.12
459.918	5864.12
460.138	6074.12
460.358	6311.12
460.578	6344.12
460.798	6389.12
461.018	6365.12
461.238	6271.12
461.458	6218.12
461.678	6212.12
461.898	6374.12
462.118	6423.12
462.338	6740.12
462.558	6831.12
462.777	7143.12
462.997	7705.12
463.217	8177.12
463.437	7913.12
463.657	7417.12
463.876	7233.12
464.096	7215.12
464.316	7194.12
464.536	7219.12
464.755	6962.12
464.975	6854.12
465.195	6863.12
465.414	6863.12
465.634	6139.12
465.854	5856.12
466.073	5508.12
466.293	5381.12
466.512	5241.12
466.732	5167.12
466.951	5218.12
467.171	5181.12
467.391	5267.12
467.61	5278.12
467.829	5290.12
468.049	5165.12
468.268	5049.12
468.488	5081.12
468.707	5059.12
468.927	4938.12
469.146	4956.12
469.365	4994.12
469.585	5071.12
469.804	5285.12
470.023	5437.12
470.243	5331.12
470.462	5477.12
470.681	5611.12
470.901	5427.12
471.12	5329.12
471.339	5299.12
471.558	5268.12
471.777	5118.12
471.997	5085.12
472.216	5199.12
472.435	5400.12
472.654	5181.12
472.873	5066.12
473.092	4999.12
473.311	4942.12
473.53	4917.12
473.749	5102.12
473.968	5552.12
474.187	6472.12
474.406	5974.12
474.625	5241.12
474.844	5069.12
475.063	5050.12
475.282	4962.12
475.501	5067.12
475.72	5109.12
475.939	5134.12
476.158	5111.12
476.377	5199.12
476.596	5181.12
476.814	5271.12
477.033	5292.12
477.252	5445.12
477.471	5527.12
477.69	5628.12
477.908	5794.12
478.127	5927.12
478.346	5982.12
478.564	6067.12
478.783	6158.12
479.002	6351.12
479.22	6327.12
479.439	6365.12
479.658	6464.12
479.876	6543.12
480.095	6647.12
480.313	7136.12
480.532	7012.12
480.751	6920.12
480.969	6919.12
481.188	7224.12
481.406	7038.12
481.624	6539.12
481.843	6229.12
482.061	6116.12
482.28	5923.12
482.498	5862.12
482.717	5902.12
482.935	5819.12
483.153	5724.12
483.372	5874.12
483.59	5896.12
483.808	5868.12
484.027	5882.12
484.245	5947.12
484.463	5954.12
484.681	6045.12
484.9	6047.12
485.118	6098.12
485.336	6054.12
485.554	6202.12
485.772	6222.12
485.99	6235.12
486.209	6307.12
486.427	6278.12
486.645	6307.12
486.863	6453.12
487.081	6321.12
487.299	6348.12
487.517	6278.12
487.735	6281.12
487.953	6221.12
