Data from Uncirc_1983_H10_HRD10591_00002.txt Node
Date: Wed Jan 03 12:25:32 EST 2024
User: Yrep
Spectrometer: HR+D1059
Trigger mode: 1
Integration Time (sec): 1.000000E-1
Scans to average: 1
Electric dark correction enabled: true
Nonlinearity correction enabled: false
Boxcar width: 0
XAxis mode: Wavelengths
Number of Pixels in Spectrum: 2048
>>>>>Begin Spectral Data<<<<<
223.165	-22.69
223.4	-22.69
223.635	-22.69
223.869	-35.69
224.104	-17.69
224.338	-11.69
224.573	-4.69
224.808	-18.69
225.042	-5.69
225.277	-3.69
225.511	-7.69
225.746	-3.69
225.98	1.31
226.215	14.31
226.449	25.31
226.683	25.31
226.918	35.31
227.152	30.31
227.387	31.31
227.621	32.31
227.856	43.31
228.09	43.31
228.324	50.31
228.559	58.31
228.793	57.31
229.027	61.31
229.262	64.31
229.496	79.31
229.73	85.31
229.964	75.31
230.199	70.31
230.433	64.31
230.667	67.31
230.901	81.31
231.136	73.31
231.37	86.31
231.604	84.31
231.838	76.31
232.072	81.31
232.306	90.31
232.541	81.31
232.775	89.31
233.009	90.31
233.243	75.31
233.477	80.31
233.711	85.31
233.945	78.31
234.179	74.31
234.413	81.31
234.647	74.31
234.881	72.31
235.115	79.31
235.349	58.31
235.583	75.31
235.817	78.31
236.051	74.31
236.285	83.31
236.519	82.31
236.753	68.31
236.987	74.31
237.221	71.31
237.455	86.31
237.689	66.31
237.922	75.31
238.156	74.31
238.39	91.31
238.624	61.31
238.858	74.31
239.091	65.31
239.325	82.31
239.559	70.31
239.793	64.31
240.027	84.31
240.26	76.31
240.494	85.31
240.728	91.31
240.961	88.31
241.195	79.31
241.429	56.31
241.662	66.31
241.896	69.31
242.13	73.31
242.363	81.31
242.597	80.31
242.83	75.31
243.064	68.31
243.298	80.31
243.531	89.31
243.765	86.31
243.998	101.31
244.232	86.31
244.465	84.31
244.699	69.31
244.932	62.31
245.166	86.31
245.399	82.31
245.633	83.31
245.866	85.31
246.099	70.31
246.333	69.31
246.566	82.31
246.8	82.31
247.033	75.31
247.266	82.31
247.5	67.31
247.733	78.31
247.966	81.31
248.2	83.31
248.433	78.31
248.666	83.31
248.899	80.31
249.133	76.31
249.366	86.31
249.599	97.31
249.832	78.31
250.066	83.31
250.299	90.31
250.532	80.31
250.765	78.31
250.998	85.31
251.231	83.31
251.465	90.31
251.698	81.31
251.931	84.31
252.164	73.31
252.397	74.31
252.63	80.31
252.863	68.31
253.096	101.31
253.329	74.31
253.562	86.31
253.795	71.31
254.028	86.31
254.261	77.31
254.494	70.31
254.727	82.31
254.96	86.31
255.193	78.31
255.426	77.31
255.659	92.31
255.892	84.31
256.124	64.31
256.357	75.31
256.59	85.31
256.823	94.31
257.056	73.31
257.289	69.31
257.521	82.31
257.754	80.31
257.987	91.31
258.22	83.31
258.452	85.31
258.685	82.31
258.918	84.31
259.151	85.31
259.383	91.31
259.616	93.31
259.849	89.31
260.081	86.31
260.314	71.31
260.547	85.31
260.779	87.31
261.012	95.31
261.244	90.31
261.477	80.31
261.71	103.31
261.942	98.31
262.175	116.31
262.407	67.31
262.64	83.31
262.872	95.31
263.105	80.31
263.337	84.31
263.57	86.31
263.802	82.31
264.035	80.31
264.267	85.31
264.499	87.31
264.732	74.31
264.964	86.31
265.197	68.31
265.429	80.31
265.661	85.31
265.894	82.31
266.126	90.31
266.358	87.31
266.591	74.31
266.823	80.31
267.055	86.31
267.287	78.31
267.52	83.31
267.752	78.31
267.984	79.31
268.216	78.31
268.448	79.31
268.681	92.31
268.913	96.31
269.145	79.31
269.377	73.31
269.609	79.31
269.841	82.31
270.073	90.31
270.306	82.31
270.538	98.31
270.77	86.31
271.002	94.31
271.234	82.31
271.466	88.31
271.698	84.31
271.93	85.31
272.162	69.31
272.394	96.31
272.626	102.31
272.858	95.31
273.09	89.31
273.322	90.31
273.553	96.31
273.785	87.31
274.017	77.31
274.249	96.31
274.481	90.31
274.713	99.31
274.945	90.31
275.176	97.31
275.408	83.31
275.64	79.31
275.872	87.31
276.104	83.31
276.335	91.31
276.567	99.31
276.799	108.31
277.031	101.31
277.262	82.31
277.494	94.31
277.726	85.31
277.957	86.31
278.189	87.31
278.421	94.31
278.652	93.31
278.884	82.31
279.115	86.31
279.347	81.31
279.579	78.31
279.81	81.31
280.042	80.31
280.273	80.31
280.505	82.31
280.736	83.31
280.968	88.31
281.199	66.31
281.431	95.31
281.662	91.31
281.894	98.31
282.125	82.31
282.356	111.31
282.588	116.31
282.819	100.31
283.051	79.31
283.282	94.31
283.513	76.31
283.745	75.31
283.976	67.31
284.207	97.31
284.439	80.31
284.67	84.31
284.901	72.31
285.132	95.31
285.364	92.31
285.595	96.31
285.826	82.31
286.057	101.31
286.288	87.31
286.52	93.31
286.751	87.31
286.982	91.31
287.213	81.31
287.444	89.31
287.675	85.31
287.906	87.31
288.138	87.31
288.369	88.31
288.6	82.31
288.831	95.31
289.062	93.31
289.293	97.31
289.524	98.31
289.755	89.31
289.986	93.31
290.217	89.31
290.448	89.31
290.679	83.31
290.91	82.31
291.141	94.31
291.371	106.31
291.602	81.31
291.833	84.31
292.064	80.31
292.295	95.31
292.526	91.31
292.757	97.31
292.987	84.31
293.218	75.31
293.449	76.31
293.68	82.31
293.91	88.31
294.141	96.31
294.372	92.31
294.603	85.31
294.833	78.31
295.064	93.31
295.295	82.31
295.525	91.31
295.756	103.31
295.987	122.31
296.217	124.31
296.448	106.31
296.679	74.31
296.909	90.31
297.14	87.31
297.37	83.31
297.601	82.31
297.831	91.31
298.062	94.31
298.292	95.31
298.523	91.31
298.753	99.31
298.984	83.31
299.214	83.31
299.445	94.31
299.675	89.31
299.905	83.31
300.136	78.31
300.366	80.31
300.597	83.31
300.827	86.31
301.057	81.31
301.288	86.31
301.518	98.31
301.748	84.31
301.979	108.31
302.209	92.31
302.439	92.31
302.669	87.31
302.9	78.31
303.13	101.31
303.36	104.31
303.59	90.31
303.82	94.31
304.051	97.31
304.281	92.31
304.511	84.31
304.741	83.31
304.971	69.31
305.201	90.31
305.431	88.31
305.661	95.31
305.891	84.31
306.121	94.31
306.352	94.31
306.582	103.31
306.812	98.31
307.042	89.31
307.272	88.31
307.502	91.31
307.731	94.31
307.961	89.31
308.191	80.31
308.421	91.31
308.651	82.31
308.881	99.31
309.111	94.31
309.341	92.31
309.571	97.31
309.8	96.31
310.03	92.31
310.26	96.31
310.49	102.31
310.72	95.31
310.949	108.31
311.179	104.31
311.409	86.31
311.639	89.31
311.868	96.31
312.098	91.31
312.328	98.31
312.557	103.31
312.787	83.31
313.017	85.31
313.246	86.31
313.476	88.31
313.706	87.31
313.935	89.31
314.165	106.31
314.394	97.31
314.624	85.31
314.853	93.31
315.083	102.31
315.312	89.31
315.542	94.31
315.771	84.31
316.001	93.31
316.23	96.31
316.46	99.31
316.689	96.31
316.919	92.31
317.148	100.31
317.377	96.31
317.607	87.31
317.836	97.31
318.065	102.31
318.295	102.31
318.524	100.31
318.753	89.31
318.983	102.31
319.212	94.31
319.441	107.31
319.67	95.31
319.9	100.31
320.129	87.31
320.358	100.31
320.587	105.31
320.816	94.31
321.046	96.31
321.275	94.31
321.504	95.31
321.733	119.31
321.962	92.31
322.191	95.31
322.42	88.31
322.649	95.31
322.878	102.31
323.108	111.31
323.337	116.31
323.566	133.31
323.795	119.31
324.024	176.31
324.253	336.31
324.482	676.31
324.71	1349.31
324.939	1716.31
325.168	624.31
325.397	187.31
325.626	116.31
325.855	135.31
326.084	130.31
326.313	111.31
326.542	138.31
326.77	197.31
326.999	385.31
327.228	763.31
327.457	1366.31
327.686	1088.31
327.914	326.31
328.143	178.31
328.372	137.31
328.6	110.31
328.829	106.31
329.058	112.31
329.287	121.31
329.515	85.31
329.744	93.31
329.972	99.31
330.201	88.31
330.43	103.31
330.658	106.31
330.887	110.31
331.115	110.31
331.344	97.31
331.572	79.31
331.801	97.31
332.03	91.31
332.258	92.31
332.486	75.31
332.715	87.31
332.943	90.31
333.172	91.31
333.4	93.31
333.629	98.31
333.857	90.31
334.085	91.31
334.314	99.31
334.542	86.31
334.771	106.31
334.999	80.31
335.227	96.31
335.455	104.31
335.684	91.31
335.912	97.31
336.14	89.31
336.369	92.31
336.597	88.31
336.825	89.31
337.053	92.31
337.281	87.31
337.51	92.31
337.738	86.31
337.966	100.31
338.194	84.31
338.422	86.31
338.65	92.31
338.878	91.31
339.106	92.31
339.334	87.31
339.562	87.31
339.79	95.31
340.018	97.31
340.246	96.31
340.474	74.31
340.702	91.31
340.93	82.31
341.158	99.31
341.386	114.31
341.614	88.31
341.842	106.31
342.07	83.31
342.298	98.31
342.526	94.31
342.754	95.31
342.981	89.31
343.209	90.31
343.437	85.31
343.665	90.31
343.893	101.31
344.12	97.31
344.348	74.31
344.576	106.31
344.804	89.31
345.031	84.31
345.259	88.31
345.487	91.31
345.714	102.31
345.942	95.31
346.17	90.31
346.397	89.31
346.625	97.31
346.853	108.31
347.08	81.31
347.308	92.31
347.535	81.31
347.763	94.31
347.99	90.31
348.218	97.31
348.445	95.31
348.673	78.31
348.9	88.31
349.128	104.31
349.355	101.31
349.583	96.31
349.81	90.31
350.037	99.31
350.265	88.31
350.492	101.31
350.72	96.31
350.947	97.31
351.174	102.31
351.402	100.31
351.629	79.31
351.856	94.31
352.083	83.31
352.311	113.31
352.538	121.31
352.765	119.31
352.992	112.31
353.22	101.31
353.447	103.31
353.674	84.31
353.901	83.31
354.128	92.31
354.355	95.31
354.583	104.31
354.81	98.31
355.037	94.31
355.264	96.31
355.491	105.31
355.718	98.31
355.945	96.31
356.172	106.31
356.399	98.31
356.626	96.31
356.853	92.31
357.08	91.31
357.307	106.31
357.534	106.31
357.761	86.31
357.988	106.31
358.215	96.31
358.441	100.31
358.668	98.31
358.895	91.31
359.122	95.31
359.349	98.31
359.576	96.31
359.802	98.31
360.029	102.31
360.256	107.31
360.483	102.31
360.709	96.31
360.936	95.31
361.163	90.31
361.39	94.31
361.616	103.31
361.843	75.31
362.07	96.31
362.296	76.31
362.523	83.31
362.749	81.31
362.976	80.31
363.203	93.31
363.429	75.31
363.656	83.31
363.882	86.31
364.109	90.31
364.335	88.31
364.562	84.31
364.788	83.31
365.015	100.31
365.241	86.31
365.468	98.31
365.694	106.31
365.92	111.31
366.147	94.31
366.373	90.31
366.599	101.31
366.826	90.31
367.052	96.31
367.278	96.31
367.505	87.31
367.731	95.31
367.957	95.31
368.184	98.31
368.41	100.31
368.636	101.31
368.862	112.31
369.089	95.31
369.315	87.31
369.541	75.31
369.767	88.31
369.993	84.31
370.219	74.31
370.445	92.31
370.672	72.31
370.898	80.31
371.124	97.31
371.35	82.31
371.576	83.31
371.802	91.31
372.028	71.31
372.254	91.31
372.48	92.31
372.706	86.31
372.932	87.31
373.158	102.31
373.384	96.31
373.61	67.31
373.835	86.31
374.061	80.31
374.287	94.31
374.513	93.31
374.739	91.31
374.965	85.31
375.191	96.31
375.416	99.31
375.642	83.31
375.868	73.31
376.094	87.31
376.319	82.31
376.545	102.31
376.771	98.31
376.997	91.31
377.222	102.31
377.448	94.31
377.674	80.31
377.899	91.31
378.125	103.31
378.35	95.31
378.576	96.31
378.802	97.31
379.027	90.31
379.253	85.31
379.478	88.31
379.704	100.31
379.929	88.31
380.155	99.31
380.38	106.31
380.606	91.31
380.831	106.31
381.057	112.31
381.282	104.31
381.507	94.31
381.733	99.31
381.958	106.31
382.184	110.31
382.409	106.31
382.634	115.31
382.86	98.31
383.085	113.31
383.31	104.31
383.535	113.31
383.761	105.31
383.986	104.31
384.211	117.31
384.436	102.31
384.662	100.31
384.887	114.31
385.112	131.31
385.337	128.31
385.562	121.31
385.787	112.31
386.013	129.31
386.238	132.31
386.463	122.31
386.688	111.31
386.913	112.31
387.138	107.31
387.363	104.31
387.588	118.31
387.813	116.31
388.038	116.31
388.263	133.31
388.488	143.31
388.713	100.31
388.938	103.31
389.163	92.31
389.387	110.31
389.612	85.31
389.837	88.31
390.062	101.31
390.287	94.31
390.512	104.31
390.736	92.31
390.961	91.31
391.186	101.31
391.411	84.31
391.636	96.31
391.86	88.31
392.085	90.31
392.31	95.31
392.534	84.31
392.759	103.31
392.984	95.31
393.208	89.31
393.433	118.31
393.658	127.31
393.882	102.31
394.107	92.31
394.331	86.31
394.556	80.31
394.78	91.31
395.005	98.31
395.229	89.31
395.454	75.31
395.678	86.31
395.903	90.31
396.127	100.31
396.352	95.31
396.576	88.31
396.801	99.31
397.025	105.31
397.249	88.31
397.474	80.31
397.698	95.31
397.922	86.31
398.147	78.31
398.371	91.31
398.595	67.31
398.82	73.31
399.044	86.31
399.268	76.31
399.492	67.31
399.717	85.31
399.941	86.31
400.165	80.31
400.389	81.31
400.613	96.31
400.837	96.31
401.062	92.31
401.286	86.31
401.51	83.31
401.734	90.31
401.958	92.31
402.182	115.31
402.406	131.31
402.63	87.31
402.854	105.31
403.078	88.31
403.302	82.31
403.526	88.31
403.75	84.31
403.974	86.31
404.198	92.31
404.422	90.31
404.645	94.31
404.869	84.31
405.093	82.31
405.317	88.31
405.541	89.31
405.765	86.31
405.988	105.31
406.212	131.31
406.436	178.31
406.66	115.31
406.883	90.31
407.107	91.31
407.331	85.31
407.555	106.31
407.778	92.31
408.002	92.31
408.226	88.31
408.449	91.31
408.673	91.31
408.896	81.31
409.12	83.31
409.344	86.31
409.567	88.31
409.791	102.31
410.014	91.31
410.238	80.31
410.461	92.31
410.685	86.31
410.908	101.31
411.132	96.31
411.355	101.31
411.578	88.31
411.802	95.31
412.025	80.31
412.249	88.31
412.472	75.31
412.695	82.31
412.919	92.31
413.142	98.31
413.365	80.31
413.589	89.31
413.812	96.31
414.035	79.31
414.258	89.31
414.482	87.31
414.705	92.31
414.928	104.31
415.151	102.31
415.374	103.31
415.597	89.31
415.821	91.31
416.044	84.31
416.267	88.31
416.49	99.31
416.713	93.31
416.936	104.31
417.159	82.31
417.382	90.31
417.605	90.31
417.828	84.31
418.051	95.31
418.274	78.31
418.497	80.31
418.72	81.31
418.943	101.31
419.166	90.31
419.389	92.31
419.611	89.31
419.834	87.31
420.057	68.31
420.28	86.31
420.503	82.31
420.726	85.31
420.948	88.31
421.171	88.31
421.394	98.31
421.617	99.31
421.839	90.31
422.062	87.31
422.285	88.31
422.507	98.31
422.73	123.31
422.953	103.31
423.175	86.31
423.398	97.31
423.621	91.31
423.843	103.31
424.066	87.31
424.288	103.31
424.511	94.31
424.733	94.31
424.956	106.31
425.178	96.31
425.401	106.31
425.623	94.31
425.846	80.31
426.068	88.31
426.291	84.31
426.513	86.31
426.735	87.31
426.958	88.31
427.18	86.31
427.402	109.31
427.625	135.31
427.847	100.31
428.069	96.31
428.292	98.31
428.514	88.31
428.736	87.31
428.958	87.31
429.181	98.31
429.403	91.31
429.625	84.31
429.847	77.31
430.069	84.31
430.292	88.31
430.514	93.31
430.736	78.31
430.958	93.31
431.18	89.31
431.402	94.31
431.624	88.31
431.846	86.31
432.068	81.31
432.29	74.31
432.512	98.31
432.734	79.31
432.956	91.31
433.178	98.31
433.4	91.31
433.622	95.31
433.844	94.31
434.066	102.31
434.287	88.31
434.509	88.31
434.731	83.31
434.953	90.31
435.175	91.31
435.397	94.31
435.618	89.31
435.84	100.31
436.062	107.31
436.284	104.31
436.505	109.31
436.727	92.31
436.949	89.31
437.17	87.31
437.392	86.31
437.614	72.31
437.835	119.31
438.057	98.31
438.278	100.31
438.5	93.31
438.721	94.31
438.943	97.31
439.165	79.31
439.386	80.31
439.608	94.31
439.829	106.31
440.05	109.31
440.272	116.31
440.493	92.31
440.715	94.31
440.936	88.31
441.158	98.31
441.379	84.31
441.6	76.31
441.822	98.31
442.043	86.31
442.264	107.31
442.486	88.31
442.707	82.31
442.928	90.31
443.149	103.31
443.371	110.31
443.592	106.31
443.813	111.31
444.034	98.31
444.255	83.31
444.476	85.31
444.698	88.31
444.919	90.31
445.14	134.31
445.361	122.31
445.582	97.31
445.803	104.31
446.024	116.31
446.245	125.31
446.466	98.31
446.687	94.31
446.908	96.31
447.129	96.31
447.35	87.31
447.571	103.31
447.792	86.31
448.013	92.31
448.234	93.31
448.455	89.31
448.675	110.31
448.896	104.31
449.117	96.31
449.338	99.31
449.559	114.31
449.779	121.31
450	90.31
450.221	95.31
450.442	87.31
450.662	95.31
450.883	86.31
451.104	101.31
451.324	94.31
451.545	92.31
451.766	86.31
451.986	78.31
452.207	88.31
452.428	87.31
452.648	98.31
452.869	84.31
453.089	112.31
453.31	104.31
453.53	90.31
453.751	82.31
453.971	98.31
454.192	94.31
454.412	90.31
454.633	76.31
454.853	94.31
455.073	79.31
455.294	79.31
455.514	81.31
455.734	82.31
455.955	62.31
456.175	78.31
456.395	78.31
456.616	83.31
456.836	93.31
457.056	88.31
457.276	91.31
457.497	80.31
457.717	96.31
457.937	88.31
458.157	101.31
458.377	95.31
458.598	106.31
458.818	128.31
459.038	128.31
459.258	104.31
459.478	91.31
459.698	78.31
459.918	87.31
460.138	88.31
460.358	89.31
460.578	82.31
460.798	87.31
461.018	86.31
461.238	83.31
461.458	77.31
461.678	82.31
461.898	76.31
462.118	94.31
462.338	80.31
462.558	91.31
462.777	96.31
462.997	90.31
463.217	80.31
463.437	90.31
463.657	92.31
463.876	73.31
464.096	87.31
464.316	87.31
464.536	94.31
464.755	99.31
464.975	96.31
465.195	120.31
465.414	129.31
465.634	86.31
465.854	97.31
466.073	97.31
466.293	101.31
466.512	78.31
466.732	88.31
466.951	75.31
467.171	84.31
467.391	86.31
467.61	83.31
467.829	102.31
468.049	80.31
468.268	77.31
468.488	88.31
468.707	91.31
468.927	97.31
469.146	74.31
469.365	94.31
469.585	90.31
469.804	98.31
470.023	103.31
470.243	87.31
470.462	89.31
470.681	122.31
470.901	82.31
471.12	84.31
471.339	86.31
471.558	83.31
471.777	85.31
471.997	81.31
472.216	75.31
472.435	90.31
472.654	74.31
472.873	76.31
473.092	84.31
473.311	87.31
473.53	82.31
473.749	86.31
473.968	85.31
474.187	95.31
474.406	92.31
474.625	93.31
474.844	83.31
475.063	75.31
475.282	91.31
475.501	85.31
475.72	95.31
475.939	75.31
476.158	83.31
476.377	80.31
476.596	95.31
476.814	83.31
477.033	100.31
477.252	88.31
477.471	77.31
477.69	83.31
477.908	87.31
478.127	89.31
478.346	73.31
478.564	88.31
478.783	91.31
479.002	85.31
479.22	75.31
479.439	95.31
479.658	96.31
479.876	103.31
480.095	81.31
480.313	90.31
480.532	84.31
480.751	78.31
480.969	86.31
481.188	108.31
481.406	87.31
481.624	97.31
481.843	94.31
482.061	92.31
482.28	97.31
482.498	80.31
482.717	90.31
482.935	94.31
483.153	82.31
483.372	94.31
483.59	83.31
483.808	81.31
484.027	87.31
484.245	94.31
484.463	94.31
484.681	82.31
484.9	93.31
485.118	91.31
485.336	75.31
485.554	96.31
485.772	100.31
485.99	105.31
486.209	115.31
486.427	111.31
486.645	117.31
486.863	98.31
487.081	101.31
487.299	96.31
487.517	88.31
487.735	95.31
487.953	94.31
488.171	90.31
488.389	103.31
488.607	102.31
488.825	95.31
489.043	81.31
489.261	81.31
489.479	97.31
489.696	81.31
489.914	76.31
490.132	82.31
490.35	78.31
490.568	100.31
490.786	85.31
491.003	91.31
491.221	76.31
491.439	84.31
491.657	93.31
491.874	80.31
492.092	86.31
492.31	104.31
492.527	98.31
492.745	96.31
492.963	103.31
493.18	100.31
493.398	82.31
493.615	107.31
493.833	97.31
494.05	85.31
494.268	91.31
494.485	86.31
494.703	91.31
494.92	96.31
495.138	89.31
495.355	84.31
495.573	91.31
495.79	87.31
496.008	90.31
496.225	93.31
496.442	82.31
496.66	92.31
496.877	87.31
497.094	81.31
497.312	88.31
497.529	89.31
497.746	89.31
497.963	71.31
498.181	102.31
498.398	94.31
498.615	101.31
498.832	104.31
499.049	76.31
499.267	84.31
499.484	98.31
499.701	92.31
499.918	103.31
500.135	98.31
500.352	83.31
500.569	96.31
500.786	79.31
501.003	97.31
501.22	74.31
501.437	82.31
501.654	77.31
501.871	99.31
502.088	74.31
502.305	94.31
502.522	76.31
502.739	91.31
502.956	92.31
503.172	91.31
503.389	84.31
503.606	95.31
503.823	93.31
504.04	99.31
504.256	92.31
504.473	100.31
504.69	98.31
504.907	100.31
505.123	92.31
505.34	101.31
505.557	97.31
505.773	90.31
505.99	98.31
506.207	92.31
506.423	74.31
506.64	86.31
506.856	101.31
507.073	80.31
507.289	89.31
507.506	102.31
507.722	102.31
507.939	103.31
508.155	110.31
508.372	92.31
508.588	90.31
508.805	91.31
509.021	98.31
509.238	98.31
509.454	87.31
509.67	91.31
509.887	111.31
510.103	115.31
510.319	187.31
510.536	583.31
510.752	1694.31
510.968	482.31
511.184	145.31
511.401	103.31
511.617	94.31
511.833	105.31
512.049	85.31
512.265	97.31
512.481	85.31
512.698	99.31
512.914	105.31
513.13	83.31
513.346	94.31
513.562	94.31
513.778	97.31
513.994	94.31
514.21	92.31
514.426	105.31
514.642	124.31
514.858	113.31
515.074	138.31
515.29	342.31
515.506	1022.31
515.721	367.31
515.937	128.31
516.153	97.31
