Data from Uncirc_1983_H10_HRD10591_00073.txt Node
Date: Wed Jan 03 12:25:46 EST 2024
User: Yrep
Spectrometer: HR+D1059
Trigger mode: 1
Integration Time (sec): 1.000000E-1
Scans to average: 1
Electric dark correction enabled: true
Nonlinearity correction enabled: false
Boxcar width: 0
XAxis mode: Wavelengths
Number of Pixels in Spectrum: 2048
>>>>>Begin Spectral Data<<<<<
223.165	-16
223.4	-16
223.635	-16
223.869	-21
224.104	-13
224.338	-20
224.573	-20
224.808	-23
225.042	2
225.277	6
225.511	-8
225.746	-3
225.98	-4
226.215	23
226.449	21
226.683	17
226.918	27
227.152	32
227.387	48
227.621	46
227.856	47
228.09	46
228.324	48
228.559	60
228.793	74
229.027	42
229.262	81
229.496	72
229.73	85
229.964	90
230.199	71
230.433	71
230.667	73
230.901	85
231.136	66
231.37	78
231.604	76
231.838	76
232.072	76
232.306	89
232.541	85
232.775	80
233.009	89
233.243	84
233.477	91
233.711	87
233.945	95
234.179	89
234.413	96
234.647	80
234.881	87
235.115	96
235.349	86
235.583	89
235.817	84
236.051	83
236.285	77
236.519	79
236.753	80
236.987	88
237.221	99
237.455	83
237.689	83
237.922	89
238.156	73
238.39	77
238.624	67
238.858	68
239.091	75
239.325	83
239.559	99
239.793	63
240.027	85
240.26	82
240.494	86
240.728	88
240.961	84
241.195	92
241.429	98
241.662	83
241.896	77
242.13	86
242.363	81
242.597	78
242.83	62
243.064	90
243.298	85
243.531	74
243.765	87
243.998	85
244.232	81
244.465	97
244.699	67
244.932	85
245.166	81
245.399	86
245.633	85
245.866	82
246.099	70
246.333	91
246.566	72
246.8	94
247.033	93
247.266	93
247.5	81
247.733	79
247.966	90
248.2	73
248.433	81
248.666	71
248.899	87
249.133	72
249.366	102
249.599	89
249.832	87
250.066	87
250.299	80
250.532	81
250.765	90
250.998	79
251.231	80
251.465	85
251.698	87
251.931	83
252.164	74
252.397	95
252.63	84
252.863	93
253.096	73
253.329	91
253.562	80
253.795	65
254.028	83
254.261	86
254.494	80
254.727	95
254.96	88
255.193	92
255.426	91
255.659	71
255.892	82
256.124	75
256.357	81
256.59	85
256.823	89
257.056	86
257.289	89
257.521	93
257.754	79
257.987	91
258.22	89
258.452	80
258.685	94
258.918	77
259.151	88
259.383	79
259.616	87
259.849	87
260.081	81
260.314	80
260.547	88
260.779	85
261.012	90
261.244	80
261.477	99
261.71	98
261.942	106
262.175	122
262.407	83
262.64	85
262.872	106
263.105	87
263.337	87
263.57	97
263.802	80
264.035	75
264.267	83
264.499	83
264.732	80
264.964	92
265.197	83
265.429	92
265.661	89
265.894	75
266.126	85
266.358	96
266.591	80
266.823	65
267.055	90
267.287	90
267.52	100
267.752	95
267.984	99
268.216	83
268.448	93
268.681	83
268.913	90
269.145	85
269.377	100
269.609	87
269.841	89
270.073	84
270.306	77
270.538	83
270.77	98
271.002	83
271.234	100
271.466	81
271.698	87
271.93	89
272.162	89
272.394	78
272.626	83
272.858	90
273.09	80
273.322	84
273.553	87
273.785	94
274.017	106
274.249	91
274.481	95
274.713	94
274.945	81
275.176	105
275.408	95
275.64	89
275.872	91
276.104	85
276.335	89
276.567	89
276.799	100
277.031	108
277.262	89
277.494	102
277.726	89
277.957	76
278.189	94
278.421	98
278.652	95
278.884	83
279.115	92
279.347	85
279.579	91
279.81	95
280.042	72
280.273	101
280.505	92
280.736	81
280.968	87
281.199	88
281.431	78
281.662	71
281.894	86
282.125	99
282.356	108
282.588	117
282.819	119
283.051	96
283.282	86
283.513	89
283.745	92
283.976	90
284.207	78
284.439	97
284.67	85
284.901	91
285.132	101
285.364	90
285.595	97
285.826	83
286.057	93
286.288	89
286.52	93
286.751	88
286.982	72
287.213	102
287.444	87
287.675	78
287.906	95
288.138	89
288.369	97
288.6	92
288.831	103
289.062	104
289.293	94
289.524	94
289.755	80
289.986	99
290.217	83
290.448	89
290.679	88
290.91	91
291.141	92
291.371	107
291.602	97
291.833	91
292.064	99
292.295	100
292.526	81
292.757	81
292.987	90
293.218	87
293.449	93
293.68	108
293.91	90
294.141	72
294.372	91
294.603	96
294.833	87
295.064	102
295.295	103
295.525	91
295.756	112
295.987	104
296.217	138
296.448	130
296.679	105
296.909	94
297.14	105
297.37	79
297.601	88
297.831	81
298.062	91
298.292	98
298.523	94
298.753	108
298.984	94
299.214	89
299.445	92
299.675	99
299.905	97
300.136	87
300.366	95
300.597	95
300.827	88
301.057	92
301.288	99
301.518	109
301.748	96
301.979	107
302.209	87
302.439	103
302.669	93
302.9	92
303.13	93
303.36	96
303.59	116
303.82	118
304.051	89
304.281	102
304.511	101
304.741	93
304.971	89
305.201	92
305.431	90
305.661	97
305.891	89
306.121	88
306.352	114
306.582	110
306.812	87
307.042	81
307.272	108
307.502	108
307.731	101
307.961	101
308.191	100
308.421	100
308.651	102
308.881	99
309.111	78
309.341	92
309.571	103
309.8	91
310.03	98
310.26	92
310.49	89
310.72	105
310.949	116
311.179	86
311.409	76
311.639	93
311.868	102
312.098	113
312.328	101
312.557	103
312.787	99
313.017	102
313.246	95
313.476	92
313.706	100
313.935	111
314.165	115
314.394	102
314.624	92
314.853	107
315.083	74
315.312	103
315.542	102
315.771	100
316.001	105
316.23	78
316.46	79
316.689	83
316.919	93
317.148	96
317.377	103
317.607	110
317.836	93
318.065	108
318.295	98
318.524	95
318.753	92
318.983	103
319.212	97
319.441	103
319.67	112
319.9	94
320.129	76
320.358	85
320.587	88
320.816	88
321.046	102
321.275	103
321.504	93
321.733	100
321.962	91
322.191	122
322.42	97
322.649	101
322.878	105
323.108	103
323.337	120
323.566	125
323.795	149
324.024	177
324.253	370
324.482	723
324.71	1458
324.939	1880
325.168	688
325.397	227
325.626	138
325.855	137
326.084	118
326.313	115
326.542	139
326.77	200
326.999	393
327.228	816
327.457	1505
327.686	1176
327.914	323
328.143	187
328.372	153
328.6	136
328.829	119
329.058	132
329.287	128
329.515	118
329.744	94
329.972	109
330.201	108
330.43	127
330.658	117
330.887	147
331.115	117
331.344	95
331.572	89
331.801	94
332.03	101
332.258	100
332.486	88
332.715	104
332.943	99
333.172	88
333.4	86
333.629	111
333.857	130
334.085	108
334.314	121
334.542	129
334.771	153
334.999	110
335.227	97
335.455	97
335.684	104
335.912	94
336.14	113
336.369	104
336.597	87
336.825	99
337.053	104
337.281	104
337.51	99
337.738	96
337.966	96
338.194	87
338.422	105
338.65	99
338.878	85
339.106	92
339.334	81
339.562	86
339.79	101
340.018	95
340.246	93
340.474	102
340.702	93
340.93	106
341.158	93
341.386	101
341.614	97
341.842	93
342.07	80
342.298	87
342.526	93
342.754	92
342.981	100
343.209	99
343.437	98
343.665	91
343.893	101
344.12	116
344.348	88
344.576	105
344.804	89
345.031	83
345.259	111
345.487	94
345.714	91
345.942	86
346.17	103
346.397	75
346.625	93
346.853	95
347.08	93
347.308	106
347.535	105
347.763	95
347.99	99
348.218	105
348.445	95
348.673	115
348.9	110
349.128	92
349.355	101
349.583	94
349.81	91
350.037	105
350.265	87
350.492	85
350.72	100
350.947	105
351.174	112
351.402	112
351.629	104
351.856	100
352.083	97
352.311	100
352.538	105
352.765	107
352.992	105
353.22	98
353.447	95
353.674	105
353.901	112
354.128	95
354.355	111
354.583	103
354.81	93
355.037	114
355.264	103
355.491	102
355.718	88
355.945	88
356.172	95
356.399	94
356.626	102
356.853	95
357.08	108
357.307	98
357.534	101
357.761	95
357.988	95
358.215	91
358.441	98
358.668	81
358.895	103
359.122	87
359.349	88
359.576	96
359.802	105
360.029	104
360.256	97
360.483	101
360.709	75
360.936	101
361.163	92
361.39	103
361.616	88
361.843	92
362.07	92
362.296	101
362.523	91
362.749	85
362.976	94
363.203	96
363.429	93
363.656	87
363.882	95
364.109	101
364.335	88
364.562	106
364.788	87
365.015	105
365.241	100
365.468	103
365.694	103
365.92	95
366.147	88
366.373	99
366.599	93
366.826	84
367.052	93
367.278	99
367.505	93
367.731	103
367.957	93
368.184	105
368.41	125
368.636	113
368.862	101
369.089	104
369.315	83
369.541	108
369.767	99
369.993	96
370.219	95
370.445	90
370.672	79
370.898	95
371.124	101
371.35	90
371.576	87
371.802	99
372.028	83
372.254	91
372.48	91
372.706	100
372.932	89
373.158	89
373.384	93
373.61	92
373.835	94
374.061	79
374.287	103
374.513	105
374.739	84
374.965	93
375.191	96
375.416	91
375.642	88
375.868	91
376.094	103
376.319	109
376.545	109
376.771	103
376.997	89
377.222	99
377.448	99
377.674	78
377.899	95
378.125	99
378.35	93
378.576	92
378.802	89
379.027	98
379.253	109
379.478	94
379.704	87
379.929	83
380.155	88
380.38	98
380.606	100
380.831	76
381.057	103
381.282	96
381.507	98
381.733	103
381.958	104
382.184	109
382.409	100
382.634	112
382.86	96
383.085	115
383.31	112
383.535	97
383.761	92
383.986	91
384.211	104
384.436	107
384.662	112
384.887	104
385.112	86
385.337	78
385.562	111
385.787	91
386.013	97
386.238	104
386.463	110
386.688	108
386.913	91
387.138	92
387.363	95
387.588	101
387.813	108
388.038	100
388.263	113
388.488	109
388.713	95
388.938	102
389.163	99
389.387	78
389.612	93
389.837	99
390.062	93
390.287	91
390.512	105
390.736	87
390.961	85
391.186	89
391.411	81
391.636	89
391.86	89
392.085	82
392.31	79
392.534	101
392.759	92
392.984	85
393.208	93
393.433	92
393.658	93
393.882	83
394.107	83
394.331	97
394.556	100
394.78	84
395.005	89
395.229	86
395.454	92
395.678	81
395.903	80
396.127	95
396.352	87
396.576	106
396.801	89
397.025	103
397.249	98
397.474	83
397.698	95
397.922	92
398.147	97
398.371	93
398.595	90
398.82	78
399.044	73
399.268	92
399.492	81
399.717	95
399.941	97
400.165	98
400.389	95
400.613	89
400.837	87
401.062	88
401.286	103
401.51	78
401.734	95
401.958	119
402.182	127
402.406	160
402.63	119
402.854	96
403.078	93
403.302	83
403.526	104
403.75	102
403.974	99
404.198	95
404.422	94
404.645	98
404.869	90
405.093	107
405.317	102
405.541	95
405.765	94
405.988	109
406.212	179
406.436	212
406.66	149
406.883	104
407.107	87
407.331	99
407.555	100
407.778	95
408.002	87
408.226	88
408.449	74
408.673	85
408.896	99
409.12	94
409.344	100
409.567	94
409.791	101
410.014	108
410.238	91
410.461	102
410.685	107
410.908	110
411.132	96
411.355	93
411.578	96
411.802	102
412.025	95
412.249	84
412.472	85
412.695	98
412.919	97
413.142	85
413.365	78
413.589	88
413.812	100
414.035	92
414.258	91
414.482	95
414.705	87
414.928	93
415.151	97
415.374	88
415.597	78
415.821	76
416.044	105
416.267	95
416.49	92
416.713	92
416.936	93
417.159	91
417.382	98
417.605	102
417.828	80
418.051	92
418.274	112
418.497	105
418.72	92
418.943	95
419.166	103
419.389	83
419.611	86
419.834	81
420.057	87
420.28	85
420.503	88
420.726	92
420.948	89
421.171	108
421.394	102
421.617	93
421.839	88
422.062	91
422.285	82
422.507	81
422.73	95
422.953	92
423.175	92
423.398	92
423.621	97
423.843	84
424.066	88
424.288	89
424.511	93
424.733	86
424.956	98
425.178	82
425.401	92
425.623	99
425.846	97
426.068	89
426.291	96
426.513	98
426.735	89
426.958	97
427.18	105
427.402	139
427.625	159
427.847	133
428.069	101
428.292	101
428.514	93
428.736	67
428.958	87
429.181	99
429.403	87
429.625	96
429.847	100
430.069	104
430.292	84
430.514	76
430.736	80
430.958	80
431.18	89
431.402	90
431.624	79
431.846	83
432.068	83
432.29	93
432.512	96
432.734	81
432.956	88
433.178	99
433.4	102
433.622	98
433.844	89
434.066	95
434.287	100
434.509	87
434.731	92
434.953	89
435.175	85
435.397	89
435.618	95
435.84	100
436.062	115
436.284	125
436.505	102
436.727	96
436.949	93
437.17	87
437.392	89
437.614	96
437.835	102
438.057	101
438.278	102
438.5	96
438.721	110
438.943	92
439.165	100
439.386	104
439.608	92
439.829	96
440.05	127
440.272	131
440.493	101
440.715	94
440.936	101
441.158	93
441.379	92
441.6	88
441.822	90
442.043	98
442.264	104
442.486	97
442.707	92
442.928	123
443.149	125
443.371	122
443.592	110
443.813	105
444.034	106
444.255	108
444.476	93
444.698	84
444.919	90
445.14	146
445.361	114
445.582	112
445.803	126
446.024	119
446.245	112
446.466	112
446.687	94
446.908	103
447.129	94
447.35	97
447.571	95
447.792	108
448.013	115
448.234	103
448.455	108
448.675	119
448.896	95
449.117	101
449.338	99
449.559	131
449.779	122
450	103
450.221	85
450.442	91
450.662	110
450.883	104
451.104	119
451.324	97
451.545	91
451.766	94
451.986	90
452.207	85
452.428	99
452.648	102
452.869	97
453.089	108
453.31	104
453.53	87
453.751	86
453.971	93
454.192	103
454.412	91
454.633	85
454.853	84
455.073	83
455.294	106
455.514	96
455.734	102
455.955	99
456.175	83
456.395	80
456.616	96
456.836	86
457.056	91
457.276	85
457.497	95
457.717	92
457.937	87
458.157	95
458.377	88
458.598	97
458.818	150
459.038	157
459.258	114
459.478	85
459.698	81
459.918	83
460.138	91
460.358	102
460.578	93
460.798	92
461.018	80
461.238	95
461.458	88
461.678	95
461.898	95
462.118	86
462.338	73
462.558	92
462.777	96
462.997	96
463.217	81
463.437	89
463.657	80
463.876	88
464.096	69
464.316	99
464.536	96
464.755	80
464.975	98
465.195	139
465.414	151
465.634	109
465.854	106
466.073	85
466.293	85
466.512	94
466.732	77
466.951	83
467.171	87
467.391	92
467.61	104
467.829	110
468.049	105
468.268	109
468.488	78
468.707	87
468.927	87
469.146	87
469.365	95
469.585	83
469.804	103
470.023	116
470.243	108
470.462	109
470.681	95
470.901	91
471.12	74
471.339	88
471.558	95
471.777	95
471.997	95
472.216	115
472.435	144
472.654	96
472.873	95
473.092	87
473.311	100
473.53	83
473.749	98
473.968	91
474.187	98
474.406	102
474.625	100
474.844	99
475.063	88
475.282	98
475.501	65
475.72	88
475.939	79
476.158	95
476.377	93
476.596	96
476.814	89
477.033	97
477.252	94
477.471	91
477.69	95
477.908	104
478.127	96
478.346	89
478.564	86
478.783	105
479.002	93
479.22	90
479.439	95
479.658	95
479.876	88
480.095	86
480.313	92
480.532	97
480.751	108
480.969	111
481.188	220
481.406	161
481.624	99
481.843	100
482.061	101
482.28	91
482.498	100
482.717	92
482.935	75
483.153	101
483.372	93
483.59	96
483.808	99
484.027	99
484.245	89
484.463	103
484.681	111
484.9	92
485.118	98
485.336	97
485.554	105
485.772	99
485.99	104
486.209	92
486.427	102
486.645	108
486.863	105
487.081	108
487.299	99
487.517	99
487.735	103
487.953	88
488.171	93
488.389	96
488.607	111
488.825	95
489.043	103
489.261	95
489.479	101
489.696	92
489.914	110
490.132	88
490.35	98
490.568	97
490.786	76
491.003	92
491.221	85
491.439	84
491.657	100
491.874	94
492.092	94
492.31	99
492.527	98
492.745	92
492.963	99
493.18	95
493.398	107
493.615	96
493.833	97
494.05	88
494.268	105
494.485	97
494.703	98
494.92	82
495.138	85
495.355	93
495.573	104
495.79	91
496.008	90
496.225	93
496.442	99
496.66	88
496.877	96
497.094	91
497.312	96
497.529	91
497.746	83
497.963	72
498.181	94
498.398	86
498.615	99
498.832	97
499.049	79
499.267	91
499.484	93
499.701	83
499.918	93
500.135	104
500.352	94
500.569	102
500.786	104
501.003	89
501.22	97
501.437	85
501.654	86
501.871	105
502.088	105
502.305	98
502.522	91
502.739	87
502.956	103
503.172	101
503.389	117
503.606	119
503.823	111
504.04	83
504.256	103
504.473	91
504.69	91
504.907	87
505.123	105
505.34	98
505.557	97
505.773	93
505.99	93
506.207	92
506.423	92
506.64	94
506.856	96
507.073	88
507.289	102
507.506	94
507.722	110
507.939	116
508.155	104
508.372	94
508.588	108
508.805	100
509.021	93
509.238	96
509.454	114
509.67	88
509.887	91
510.103	121
510.319	220
510.536	719
510.752	2320
510.968	635
511.184	167
511.401	96
511.617	96
511.833	87
512.049	95
512.265	96
512.481	88
512.698	103
512.914	97
513.13	107
513.346	99
513.562	93
513.778	84
513.994	102
514.21	101
514.426	109
514.642	113
514.858	111
515.074	140
515.29	415
515.506	1374
515.721	509
515.937	157
516.153	114
516.369	111
516.585	91
516.801	106
517.016	86
517.232	93
517.448	106
517.664	83
517.879	99
518.095	90
518.311	95
518.527	84
518.742	99
518.958	86
519.173	108
519.389	100
519.605	109
519.82	96
520.036	103
520.251	121
520.467	116
520.682	118
520.898	101
521.113	110
521.329	113
521.544	182
521.76	525
521.975	2290
522.19	1349
522.406	279
522.621	124
522.836	103
523.052	103
523.267	93
523.482	110
523.698	115
523.913	121
524.128	92
524.343	100
524.559	101
524.774	110
524.989	116
525.204	102
525.419	102
525.634	100
525.849	88
526.064	89
526.28	101
526.495	92
526.71	91
526.925	81
527.14	91
527.355	89
527.57	115
527.785	95
527.999	97
528.214	88
528.429	94
528.644	93
528.859	91
529.074	104
529.289	138
529.503	169
529.718	92
529.933	96
530.148	111
530.363	108
530.577	89
530.792	90
531.007	92
531.221	95
531.436	101
531.651	108
531.865	92
532.08	96
532.295	86
532.509	107
532.724	99
532.938	109
533.153	105
533.367	100
533.582	106
533.796	98
534.011	89
534.225	83
534.44	88
534.654	87
534.868	95
535.083	88
535.297	88
535.511	109
535.726	108
535.94	115
536.154	112
536.369	95
536.583	105
536.797	96
537.011	88
537.225	88
537.44	87
537.654	102
537.868	102
538.082	98
538.296	114
538.51	89
538.724	112
538.938	96
539.153	89
539.367	115
539.581	109
539.795	96
540.009	79
540.222	107
540.436	89
540.65	98
540.864	88
541.078	99
541.292	101
541.506	92
541.72	96
541.934	90
542.147	92
542.361	91
542.575	85
542.789	96
543.002	103
543.216	100
543.43	93
543.644	90
543.857	99
544.071	86
544.285	90
544.498	84
544.712	100
544.925	90
545.139	99
545.352	104
545.566	106
545.779	86
545.993	96
546.206	88
546.42	83
546.633	94
546.847	88
547.06	91
547.274	88
547.487	86
547.7	88
547.914	100
548.127	88
548.34	90
548.554	81
548.767	91
548.98	92
549.193	94
549.407	99
549.62	95
549.833	80
550.046	101
550.259	85
550.473	100
550.686	97
550.899	94
551.112	88
551.325	94
551.538	87
551.751	88
551.964	92
552.177	101
552.39	105
552.603	96
552.816	88
553.029	106
553.242	85
553.455	115
553.667	108
553.88	103
554.093	92
554.306	105
554.519	117
554.732	91
554.944	101
555.157	97
555.37	102
555.583	98
555.795	96
556.008	79
556.221	89
556.433	97
556.646	104
556.859	94
557.071	85
557.284	104
557.496	96
557.709	95
557.921	87
558.134	90
558.346	90
558.559	87
558.771	84
558.984	88
559.196	89
559.409	112
559.621	100
559.833	92
560.046	100
560.258	86
560.47	95
560.683	99
560.895	95
561.107	91
561.32	94
561.532	98
561.744	97
561.956	73
562.168	104
562.381	95
562.593	99
562.805	97
563.017	100
563.229	102
563.441	91
563.653	99
563.865	96
564.077	84
564.289	80
564.501	106
564.713	98
564.925	100
565.137	95
565.349	96
565.561	83
565.773	91
565.985	96
566.197	97
566.408	85
566.62	95
566.832	95
567.044	100
567.255	103
567.467	97
567.679	96
567.891	89
568.102	93
568.314	84
568.526	95
568.737	98
568.949	78
569.161	79
569.372	84
569.584	105
569.795	109
570.007	116
570.218	245
570.43	134
570.641	94
570.853	97
571.064	90
571.276	92
571.487	98
571.698	94
571.91	89
572.121	87
572.333	88
572.544	108
572.755	94
572.966	99
573.178	91
573.389	87
573.6	100
573.811	89
574.023	91
574.234	95
574.445	97
574.656	101
574.867	96
575.078	95
575.289	90
575.501	100
575.712	97
575.923	102
576.134	89
576.345	88
576.556	86
576.767	97
576.978	102
577.188	86
577.399	99
577.61	97
577.821	96
578.032	120
578.243	262
578.454	732
578.665	220
578.875	117
579.086	106
579.297	74
579.508	89
579.718	78
579.929	85
580.14	94
580.35	96
580.561	95
580.772	85
580.982	85
581.193	97
581.403	102
581.614	87
581.825	91
582.035	102
