Data from Uncirc_1983_H10_HRD10591_00009.txt Node
Date: Wed Jan 03 12:25:33 EST 2024
User: Yrep
Spectrometer: HR+D1059
Trigger mode: 1
Integration Time (sec): 1.000000E-1
Scans to average: 1
Electric dark correction enabled: true
Nonlinearity correction enabled: false
Boxcar width: 0
XAxis mode: Wavelengths
Number of Pixels in Spectrum: 2048
>>>>>Begin Spectral Data<<<<<
223.165	-13
223.4	-13
223.635	-13
223.869	-19
224.104	-35
224.338	-12
224.573	-25
224.808	-5
225.042	-5
225.277	-12
225.511	0
225.746	0
225.98	3
226.215	13
226.449	25
226.683	26
226.918	34
227.152	25
227.387	12
227.621	44
227.856	44
228.09	57
228.324	51
228.559	63
228.793	63
229.027	60
229.262	70
229.496	93
229.73	77
229.964	80
230.199	71
230.433	83
230.667	93
230.901	87
231.136	72
231.37	77
231.604	83
231.838	89
232.072	83
232.306	90
232.541	85
232.775	80
233.009	60
233.243	90
233.477	85
233.711	78
233.945	83
234.179	78
234.413	85
234.647	71
234.881	87
235.115	95
235.349	80
235.583	77
235.817	69
236.051	74
236.285	77
236.519	63
236.753	83
236.987	92
237.221	78
237.455	79
237.689	83
237.922	79
238.156	83
238.39	84
238.624	75
238.858	79
239.091	77
239.325	69
239.559	95
239.793	73
240.027	73
240.26	93
240.494	88
240.728	93
240.961	85
241.195	97
241.429	89
241.662	86
241.896	72
242.13	75
242.363	80
242.597	80
242.83	79
243.064	80
243.298	76
243.531	77
243.765	83
243.998	80
244.232	77
244.465	96
244.699	77
244.932	86
245.166	80
245.399	68
245.633	86
245.866	67
246.099	83
246.333	83
246.566	81
246.8	85
247.033	90
247.266	85
247.5	86
247.733	73
247.966	77
248.2	92
248.433	83
248.666	86
248.899	81
249.133	85
249.366	91
249.599	105
249.832	92
250.066	80
250.299	95
250.532	76
250.765	79
250.998	85
251.231	81
251.465	78
251.698	83
251.931	79
252.164	76
252.397	79
252.63	81
252.863	78
253.096	84
253.329	83
253.562	76
253.795	91
254.028	99
254.261	71
254.494	81
254.727	89
254.96	78
255.193	74
255.426	80
255.659	78
255.892	86
256.124	87
256.357	73
256.59	85
256.823	85
257.056	90
257.289	85
257.521	80
257.754	83
257.987	72
258.22	99
258.452	83
258.685	87
258.918	91
259.151	76
259.383	85
259.616	94
259.849	101
260.081	94
260.314	87
260.547	80
260.779	76
261.012	86
261.244	85
261.477	71
261.71	102
261.942	95
262.175	104
262.407	76
262.64	95
262.872	92
263.105	83
263.337	92
263.57	98
263.802	75
264.035	85
264.267	80
264.499	79
264.732	80
264.964	81
265.197	81
265.429	90
265.661	88
265.894	87
266.126	72
266.358	87
266.591	87
266.823	81
267.055	85
267.287	101
267.52	90
267.752	79
267.984	88
268.216	96
268.448	86
268.681	88
268.913	86
269.145	96
269.377	86
269.609	87
269.841	79
270.073	81
270.306	85
270.538	75
270.77	83
271.002	80
271.234	80
271.466	78
271.698	79
271.93	86
272.162	72
272.394	105
272.626	95
272.858	79
273.09	101
273.322	83
273.553	80
273.785	80
274.017	90
274.249	79
274.481	92
274.713	92
274.945	74
275.176	77
275.408	94
275.64	96
275.872	83
276.104	99
276.335	87
276.567	89
276.799	111
277.031	102
277.262	72
277.494	100
277.726	76
277.957	78
278.189	88
278.421	86
278.652	81
278.884	80
279.115	76
279.347	89
279.579	90
279.81	76
280.042	89
280.273	89
280.505	91
280.736	96
280.968	102
281.199	92
281.431	93
281.662	93
281.894	92
282.125	85
282.356	99
282.588	127
282.819	84
283.051	78
283.282	83
283.513	80
283.745	91
283.976	93
284.207	89
284.439	97
284.67	95
284.901	76
285.132	83
285.364	83
285.595	88
285.826	86
286.057	89
286.288	92
286.52	80
286.751	78
286.982	75
287.213	85
287.444	92
287.675	93
287.906	107
288.138	92
288.369	93
288.6	93
288.831	103
289.062	80
289.293	85
289.524	104
289.755	72
289.986	88
290.217	93
290.448	97
290.679	83
290.91	83
291.141	87
291.371	99
291.602	88
291.833	73
292.064	94
292.295	103
292.526	94
292.757	92
292.987	77
293.218	88
293.449	85
293.68	97
293.91	97
294.141	96
294.372	89
294.603	78
294.833	103
295.064	88
295.295	93
295.525	97
295.756	110
295.987	111
296.217	121
296.448	111
296.679	94
296.909	97
297.14	83
297.37	84
297.601	89
297.831	103
298.062	95
298.292	93
298.523	88
298.753	92
298.984	88
299.214	89
299.445	97
299.675	96
299.905	73
300.136	84
300.366	83
300.597	79
300.827	96
301.057	91
301.288	91
301.518	85
301.748	97
301.979	100
302.209	93
302.439	86
302.669	94
302.9	88
303.13	100
303.36	110
303.59	99
303.82	101
304.051	92
304.281	98
304.511	90
304.741	93
304.971	101
305.201	89
305.431	94
305.661	104
305.891	83
306.121	107
306.352	96
306.582	99
306.812	89
307.042	87
307.272	96
307.502	84
307.731	108
307.961	87
308.191	84
308.421	93
308.651	90
308.881	99
309.111	92
309.341	100
309.571	83
309.8	77
310.03	101
310.26	91
310.49	99
310.72	107
310.949	100
311.179	100
311.409	91
311.639	91
311.868	106
312.098	87
312.328	80
312.557	91
312.787	103
313.017	101
313.246	102
313.476	79
313.706	90
313.935	97
314.165	101
314.394	112
314.624	102
314.853	107
315.083	91
315.312	72
315.542	99
315.771	84
316.001	85
316.23	99
316.46	85
316.689	104
316.919	87
317.148	102
317.377	90
317.607	96
317.836	121
318.065	85
318.295	90
318.524	90
318.753	72
318.983	91
319.212	76
319.441	97
319.67	90
319.9	81
320.129	103
320.358	101
320.587	112
320.816	92
321.046	109
321.275	101
321.504	92
321.733	93
321.962	100
322.191	100
322.42	105
322.649	104
322.878	112
323.108	112
323.337	102
323.566	122
323.795	129
324.024	171
324.253	321
324.482	649
324.71	1315
324.939	1731
325.168	641
325.397	209
325.626	137
325.855	112
326.084	109
326.313	138
326.542	143
326.77	198
326.999	395
327.228	758
327.457	1347
327.686	1079
327.914	301
328.143	149
328.372	144
328.6	110
328.829	109
329.058	119
329.287	128
329.515	99
329.744	94
329.972	90
330.201	108
330.43	98
330.658	115
330.887	119
331.115	115
331.344	113
331.572	105
331.801	85
332.03	91
332.258	101
332.486	108
332.715	88
332.943	81
333.172	79
333.4	85
333.629	92
333.857	105
334.085	100
334.314	95
334.542	85
334.771	99
334.999	92
335.227	104
335.455	90
335.684	96
335.912	106
336.14	89
336.369	98
336.597	97
336.825	104
337.053	95
337.281	94
337.51	95
337.738	93
337.966	87
338.194	109
338.422	103
338.65	104
338.878	100
339.106	90
339.334	91
339.562	97
339.79	95
340.018	100
340.246	95
340.474	99
340.702	94
340.93	97
341.158	93
341.386	90
341.614	90
341.842	102
342.07	86
342.298	89
342.526	105
342.754	89
342.981	102
343.209	90
343.437	105
343.665	97
343.893	87
344.12	88
344.348	90
344.576	101
344.804	110
345.031	104
345.259	113
345.487	100
345.714	102
345.942	97
346.17	98
346.397	96
346.625	98
346.853	99
347.08	94
347.308	89
347.535	110
347.763	89
347.99	106
348.218	82
348.445	86
348.673	99
348.9	110
349.128	95
349.355	98
349.583	95
349.81	94
350.037	90
350.265	104
350.492	105
350.72	101
350.947	106
351.174	108
351.402	114
351.629	102
351.856	96
352.083	101
352.311	100
352.538	120
352.765	111
352.992	109
353.22	113
353.447	101
353.674	99
353.901	95
354.128	97
354.355	111
354.583	93
354.81	93
355.037	89
355.264	105
355.491	96
355.718	91
355.945	76
356.172	90
356.399	96
356.626	105
356.853	87
357.08	95
357.307	87
357.534	104
357.761	86
357.988	98
358.215	108
358.441	103
358.668	105
358.895	86
359.122	98
359.349	100
359.576	84
359.802	95
360.029	103
360.256	92
360.483	89
360.709	93
360.936	93
361.163	92
361.39	103
361.616	92
361.843	87
362.07	98
362.296	107
362.523	88
362.749	92
362.976	96
363.203	97
363.429	99
363.656	91
363.882	91
364.109	96
364.335	78
364.562	83
364.788	86
365.015	100
365.241	87
365.468	101
365.694	88
365.92	91
366.147	95
366.373	96
366.599	92
366.826	98
367.052	95
367.278	78
367.505	91
367.731	93
367.957	93
368.184	91
368.41	98
368.636	103
368.862	111
369.089	94
369.315	81
369.541	83
369.767	101
369.993	99
370.219	85
370.445	87
370.672	87
370.898	96
371.124	89
371.35	95
371.576	98
371.802	87
372.028	83
372.254	101
372.48	79
372.706	93
372.932	84
373.158	90
373.384	89
373.61	91
373.835	97
374.061	94
374.287	96
374.513	95
374.739	91
374.965	102
375.191	71
375.416	97
375.642	91
375.868	94
376.094	83
376.319	99
376.545	100
376.771	103
376.997	99
377.222	96
377.448	102
377.674	91
377.899	92
378.125	87
378.35	100
378.576	86
378.802	93
379.027	95
379.253	107
379.478	100
379.704	104
379.929	97
380.155	104
380.38	95
380.606	92
380.831	109
381.057	98
381.282	98
381.507	103
381.733	102
381.958	107
382.184	95
382.409	95
382.634	113
382.86	104
383.085	104
383.31	93
383.535	111
383.761	114
383.986	107
384.211	101
384.436	108
384.662	104
384.887	107
385.112	107
385.337	115
385.562	123
385.787	124
386.013	124
386.238	119
386.463	122
386.688	116
386.913	108
387.138	104
387.363	109
387.588	106
387.813	114
388.038	128
388.263	131
388.488	108
388.713	101
388.938	96
389.163	100
389.387	109
389.612	110
389.837	90
390.062	83
390.287	87
390.512	95
390.736	102
390.961	86
391.186	88
391.411	97
391.636	95
391.86	87
392.085	93
392.31	110
392.534	97
392.759	81
392.984	89
393.208	100
393.433	105
393.658	96
393.882	95
394.107	89
394.331	90
394.556	86
394.78	92
395.005	92
395.229	86
395.454	91
395.678	79
395.903	83
396.127	91
396.352	88
396.576	89
396.801	89
397.025	91
397.249	85
397.474	91
397.698	92
397.922	88
398.147	92
398.371	91
398.595	95
398.82	108
399.044	105
399.268	95
399.492	87
399.717	87
399.941	100
400.165	84
400.389	90
400.613	87
400.837	88
401.062	99
401.286	108
401.51	87
401.734	97
401.958	98
402.182	107
402.406	118
402.63	104
402.854	86
403.078	91
403.302	86
403.526	102
403.75	96
403.974	90
404.198	98
404.422	95
404.645	88
404.869	81
405.093	91
405.317	102
405.541	94
405.765	109
405.988	112
406.212	127
406.436	161
406.66	113
406.883	99
407.107	81
407.331	87
407.555	105
407.778	101
408.002	96
408.226	94
408.449	93
408.673	81
408.896	94
409.12	93
409.344	89
409.567	79
409.791	103
410.014	103
410.238	107
410.461	109
410.685	102
410.908	108
411.132	88
411.355	91
411.578	94
411.802	86
412.025	94
412.249	92
412.472	84
412.695	80
412.919	94
413.142	90
413.365	91
413.589	91
413.812	100
414.035	93
414.258	103
414.482	101
414.705	97
414.928	105
415.151	99
415.374	110
415.597	99
415.821	104
416.044	93
416.267	104
416.49	101
416.713	85
416.936	70
417.159	100
417.382	100
417.605	74
417.828	99
418.051	80
418.274	92
418.497	93
418.72	80
418.943	101
419.166	99
419.389	102
419.611	95
419.834	101
420.057	117
420.28	86
420.503	104
420.726	82
420.948	91
421.171	84
421.394	91
421.617	91
421.839	89
422.062	96
422.285	98
422.507	108
422.73	111
422.953	103
423.175	100
423.398	73
423.621	103
423.843	96
424.066	99
424.288	85
424.511	84
424.733	96
424.956	93
425.178	107
425.401	95
425.623	92
425.846	103
426.068	96
426.291	96
426.513	85
426.735	91
426.958	78
427.18	103
427.402	105
427.625	152
427.847	109
428.069	113
428.292	90
428.514	97
428.736	79
428.958	85
429.181	91
429.403	86
429.625	91
429.847	89
430.069	80
430.292	87
430.514	87
430.736	76
430.958	97
431.18	103
431.402	102
431.624	88
431.846	91
432.068	87
432.29	98
432.512	93
432.734	91
432.956	85
433.178	107
433.4	90
433.622	90
433.844	100
434.066	102
434.287	91
434.509	89
434.731	91
434.953	97
435.175	103
435.397	102
435.618	102
435.84	93
436.062	120
436.284	100
436.505	96
436.727	99
436.949	94
437.17	99
437.392	87
437.614	92
437.835	105
438.057	106
438.278	113
438.5	105
438.721	134
438.943	101
439.165	99
439.386	94
439.608	99
439.829	108
440.05	124
440.272	129
440.493	78
440.715	89
440.936	105
441.158	104
441.379	108
441.6	88
441.822	100
442.043	100
442.264	92
442.486	104
442.707	104
442.928	104
443.149	111
443.371	130
443.592	102
443.813	99
444.034	96
444.255	99
444.476	85
444.698	86
444.919	102
445.14	136
445.361	118
445.582	120
445.803	132
446.024	124
446.245	125
446.466	87
446.687	79
446.908	91
447.129	107
447.35	97
447.571	84
447.792	88
448.013	97
448.234	113
448.455	106
448.675	97
448.896	109
449.117	87
449.338	92
449.559	119
449.779	127
450	93
450.221	88
450.442	95
450.662	95
450.883	94
451.104	98
451.324	87
451.545	87
451.766	105
451.986	90
452.207	91
452.428	83
452.648	104
452.869	111
453.089	109
453.31	89
453.53	97
453.751	103
453.971	115
454.192	96
454.412	84
454.633	84
454.853	96
455.073	92
455.294	96
455.514	84
455.734	89
455.955	89
456.175	79
456.395	88
456.616	98
456.836	101
457.056	85
457.276	89
457.497	97
457.717	79
457.937	99
458.157	78
458.377	94
458.598	115
458.818	121
459.038	133
459.258	111
459.478	107
459.698	83
459.918	85
460.138	86
460.358	101
460.578	93
460.798	86
461.018	87
461.238	93
461.458	93
461.678	77
461.898	84
462.118	79
462.338	91
462.558	78
462.777	99
462.997	93
463.217	89
463.437	102
463.657	104
463.876	87
464.096	92
464.316	97
464.536	96
464.755	92
464.975	101
465.195	118
465.414	136
465.634	91
465.854	95
466.073	81
466.293	77
466.512	90
466.732	79
466.951	91
467.171	102
467.391	107
467.61	104
467.829	94
468.049	91
468.268	80
468.488	65
468.707	92
468.927	93
469.146	86
469.365	76
469.585	76
469.804	96
470.023	98
470.243	79
470.462	99
470.681	105
470.901	88
471.12	72
471.339	90
471.558	95
471.777	96
471.997	80
472.216	89
472.435	95
472.654	85
472.873	89
473.092	90
473.311	102
473.53	81
473.749	90
473.968	87
474.187	105
474.406	94
474.625	97
474.844	90
475.063	78
475.282	85
475.501	90
475.72	84
475.939	99
476.158	98
476.377	86
476.596	84
476.814	105
477.033	91
477.252	85
477.471	96
477.69	97
477.908	89
478.127	98
478.346	93
478.564	88
478.783	89
479.002	86
479.22	78
479.439	96
479.658	90
479.876	89
480.095	101
480.313	107
480.532	87
480.751	100
480.969	91
481.188	91
481.406	94
481.624	85
481.843	91
482.061	96
482.28	86
482.498	88
482.717	90
482.935	85
483.153	88
483.372	96
483.59	95
483.808	94
484.027	105
484.245	91
484.463	86
484.681	111
484.9	97
485.118	93
485.336	103
485.554	92
485.772	117
485.99	102
486.209	106
486.427	98
486.645	117
486.863	107
487.081	119
487.299	102
487.517	102
487.735	93
487.953	104
488.171	99
488.389	89
488.607	105
488.825	107
489.043	85
489.261	77
489.479	93
489.696	106
489.914	95
490.132	100
490.35	102
490.568	89
490.786	87
491.003	89
491.221	86
491.439	95
491.657	96
491.874	91
492.092	97
492.31	95
492.527	87
492.745	85
492.963	88
493.18	95
493.398	108
493.615	103
493.833	105
494.05	103
494.268	81
494.485	99
494.703	95
494.92	108
495.138	95
495.355	112
495.573	112
495.79	85
496.008	101
496.225	99
496.442	96
496.66	97
496.877	96
497.094	102
497.312	108
497.529	90
497.746	107
497.963	104
498.181	94
498.398	99
498.615	107
498.832	95
499.049	94
499.267	97
499.484	87
499.701	104
499.918	95
500.135	89
500.352	107
500.569	92
500.786	95
501.003	95
501.22	84
501.437	85
501.654	104
501.871	86
502.088	80
502.305	83
502.522	84
502.739	90
502.956	99
503.172	106
503.389	90
503.606	88
503.823	92
504.04	97
504.256	91
504.473	89
504.69	104
504.907	93
505.123	96
505.34	97
505.557	100
505.773	95
505.99	89
506.207	97
506.423	84
506.64	92
506.856	97
507.073	107
507.289	107
507.506	79
507.722	99
507.939	107
508.155	101
508.372	99
508.588	89
508.805	85
509.021	105
509.238	99
509.454	103
509.67	99
509.887	124
510.103	118
510.319	164
510.536	557
510.752	1579
510.968	460
511.184	139
511.401	103
511.617	90
511.833	104
512.049	93
512.265	89
512.481	96
512.698	93
512.914	89
513.13	85
513.346	105
513.562	101
513.778	94
513.994	83
514.21	103
514.426	117
514.642	109
514.858	124
515.074	138
515.29	320
515.506	941
515.721	364
515.937	123
516.153	106
516.369	107
516.585	94
516.801	95
517.016	109
517.232	89
517.448	101
517.664	103
517.879	101
518.095	92
518.311	94
518.527	99
518.742	90
518.958	102
519.173	102
519.389	95
519.605	89
519.82	103
520.036	111
520.251	105
520.467	111
520.682	110
520.898	92
521.113	115
521.329	108
521.544	164
521.76	383
521.975	1499
522.19	908
522.406	234
522.621	116
522.836	96
523.052	97
523.267	94
523.482	102
523.698	100
523.913	109
524.128	98
524.343	100
524.559	93
524.774	101
524.989	102
525.204	116
525.419	98
525.634	84
525.849	107
526.064	103
526.28	92
526.495	96
526.71	91
526.925	85
527.14	91
527.355	87
527.57	83
527.785	83
527.999	100
528.214	97
528.429	89
528.644	104
528.859	94
529.074	92
529.289	121
529.503	140
529.718	94
529.933	86
530.148	101
530.363	81
530.577	83
530.792	97
531.007	77
531.221	110
531.436	102
531.651	99
531.865	94
532.08	97
532.295	101
532.509	107
532.724	97
532.938	108
533.153	92
533.367	93
533.582	87
533.796	83
534.011	92
534.225	100
534.44	89
534.654	100
534.868	99
535.083	107
535.297	106
535.511	100
535.726	103
535.94	108
536.154	112
536.369	93
536.583	81
536.797	99
537.011	95
537.225	102
537.44	100
537.654	108
537.868	99
538.082	85
538.296	88
538.51	89
538.724	105
538.938	91
539.153	85
539.367	104
539.581	98
539.795	76
540.009	87
540.222	74
540.436	97
540.65	87
540.864	91
541.078	87
541.292	79
541.506	91
541.72	100
541.934	98
542.147	99
542.361	85
542.575	97
542.789	85
543.002	96
543.216	94
543.43	88
543.644	101
543.857	98
544.071	91
544.285	102
544.498	91
544.712	88
544.925	94
545.139	88
545.352	80
545.566	106
545.779	104
545.993	87
546.206	91
546.42	91
546.633	90
546.847	95
547.06	95
547.274	99
547.487	97
547.7	89
547.914	102
548.127	102
548.34	87
548.554	89
548.767	106
548.98	96
549.193	72
549.407	88
549.62	97
549.833	96
550.046	94
550.259	93
550.473	97
550.686	96
550.899	97
551.112	94
551.325	92
551.538	87
551.751	80
551.964	87
552.177	100
552.39	103
552.603	98
552.816	80
553.029	105
553.242	97
553.455	113
553.667	93
553.88	103
554.093	81
554.306	89
554.519	92
554.732	90
554.944	93
555.157	95
555.37	90
555.583	84
555.795	98
556.008	87
556.221	85
556.433	98
556.646	98
556.859	96
557.071	93
557.284	84
557.496	80
557.709	86
557.921	83
558.134	79
558.346	92
558.559	102
558.771	90
558.984	92
559.196	89
559.409	89
559.621	90
559.833	94
560.046	91
560.258	85
560.47	87
560.683	87
560.895	95
561.107	92
561.32	92
561.532	87
561.744	90
561.956	88
562.168	93
562.381	85
562.593	83
562.805	99
563.017	83
563.229	83
563.441	89
563.653	90
563.865	99
564.077	81
564.289	96
564.501	95
564.713	83
564.925	79
565.137	101
565.349	99
565.561	102
565.773	91
565.985	94
566.197	86
566.408	97
566.62	94
566.832	96
567.044	93
567.255	96
567.467	103
567.679	80
567.891	94
568.102	97
568.314	89
568.526	84
568.737	87
568.949	97
569.161	103
569.372	86
569.584	99
569.795	99
570.007	114
570.218	198
570.43	114
570.641	96
570.853	95
571.064	94
571.276	79
571.487	85
571.698	94
571.91	80
572.121	83
572.333	73
572.544	101
572.755	86
572.966	78
573.178	103
573.389	104
573.6	88
573.811	100
574.023	75
574.234	95
574.445	105
574.656	91
574.867	88
575.078	79
575.289	99
575.501	103
575.712	90
575.923	95
576.134	86
576.345	108
576.556	109
576.767	103
576.978	87
577.188	110
577.399	97
577.61	92
577.821	101
578.032	118
578.243	239
578.454	536
578.665	178
578.875	107
579.086	95
579.297	98
579.508	86
579.718	92
579.929	94
580.14	93
580.35	73
580.561	97
580.772	95
580.982	93
581.193	86
581.403	96
581.614	77
581.825	80
582.035	93
582.246	92
582.456	99
582.667	87
