Data from Uncirc_1983_H10_HRD10591_00097.txt Node
Date: Wed Jan 03 12:25:51 EST 2024
User: Yrep
Spectrometer: HR+D1059
Trigger mode: 1
Integration Time (sec): 1.000000E-1
Scans to average: 1
Electric dark correction enabled: true
Nonlinearity correction enabled: false
Boxcar width: 0
XAxis mode: Wavelengths
Number of Pixels in Spectrum: 2048
>>>>>Begin Spectral Data<<<<<
223.165	-24.62
223.4	-24.62
223.635	-24.62
223.869	-27.62
224.104	-20.62
224.338	-9.62
224.573	-21.62
224.808	-8.62
225.042	-0.62
225.277	-15.62
225.511	-0.62
225.746	-1.62
225.98	6.38
226.215	11.38
226.449	30.38
226.683	24.38
226.918	23.38
227.152	35.38
227.387	37.38
227.621	50.38
227.856	46.38
228.09	47.38
228.324	54.38
228.559	63.38
228.793	52.38
229.027	60.38
229.262	69.38
229.496	70.38
229.73	99.38
229.964	71.38
230.199	70.38
230.433	85.38
230.667	72.38
230.901	84.38
231.136	88.38
231.37	82.38
231.604	76.38
231.838	75.38
232.072	82.38
232.306	96.38
232.541	93.38
232.775	71.38
233.009	84.38
233.243	84.38
233.477	87.38
233.711	85.38
233.945	85.38
234.179	96.38
234.413	88.38
234.647	80.38
234.881	82.38
235.115	93.38
235.349	81.38
235.583	71.38
235.817	76.38
236.051	85.38
236.285	79.38
236.519	85.38
236.753	88.38
236.987	91.38
237.221	93.38
237.455	95.38
237.689	88.38
237.922	90.38
238.156	83.38
238.39	90.38
238.624	72.38
238.858	70.38
239.091	70.38
239.325	97.38
239.559	80.38
239.793	86.38
240.027	76.38
240.26	74.38
240.494	80.38
240.728	82.38
240.961	69.38
241.195	80.38
241.429	63.38
241.662	75.38
241.896	79.38
242.13	89.38
242.363	85.38
242.597	82.38
242.83	72.38
243.064	65.38
243.298	71.38
243.531	76.38
243.765	76.38
243.998	83.38
244.232	83.38
244.465	100.38
244.699	90.38
244.932	58.38
245.166	77.38
245.399	85.38
245.633	90.38
245.866	95.38
246.099	91.38
246.333	76.38
246.566	69.38
246.8	79.38
247.033	82.38
247.266	84.38
247.5	84.38
247.733	80.38
247.966	68.38
248.2	88.38
248.433	72.38
248.666	81.38
248.899	76.38
249.133	77.38
249.366	90.38
249.599	98.38
249.832	67.38
250.066	63.38
250.299	98.38
250.532	80.38
250.765	80.38
250.998	90.38
251.231	81.38
251.465	89.38
251.698	82.38
251.931	80.38
252.164	79.38
252.397	85.38
252.63	86.38
252.863	74.38
253.096	76.38
253.329	84.38
253.562	87.38
253.795	89.38
254.028	82.38
254.261	79.38
254.494	87.38
254.727	88.38
254.96	84.38
255.193	86.38
255.426	68.38
255.659	69.38
255.892	73.38
256.124	75.38
256.357	85.38
256.59	80.38
256.823	79.38
257.056	67.38
257.289	67.38
257.521	83.38
257.754	85.38
257.987	101.38
258.22	87.38
258.452	84.38
258.685	80.38
258.918	74.38
259.151	81.38
259.383	89.38
259.616	87.38
259.849	88.38
260.081	84.38
260.314	75.38
260.547	86.38
260.779	96.38
261.012	95.38
261.244	89.38
261.477	78.38
261.71	97.38
261.942	111.38
262.175	102.38
262.407	93.38
262.64	86.38
262.872	94.38
263.105	93.38
263.337	80.38
263.57	94.38
263.802	90.38
264.035	79.38
264.267	87.38
264.499	92.38
264.732	97.38
264.964	94.38
265.197	83.38
265.429	93.38
265.661	87.38
265.894	82.38
266.126	85.38
266.358	84.38
266.591	95.38
266.823	84.38
267.055	79.38
267.287	92.38
267.52	85.38
267.752	75.38
267.984	82.38
268.216	88.38
268.448	84.38
268.681	98.38
268.913	107.38
269.145	90.38
269.377	88.38
269.609	94.38
269.841	78.38
270.073	82.38
270.306	92.38
270.538	84.38
270.77	105.38
271.002	83.38
271.234	83.38
271.466	95.38
271.698	73.38
271.93	92.38
272.162	97.38
272.394	87.38
272.626	103.38
272.858	86.38
273.09	80.38
273.322	78.38
273.553	86.38
273.785	89.38
274.017	82.38
274.249	84.38
274.481	92.38
274.713	87.38
274.945	75.38
275.176	85.38
275.408	84.38
275.64	95.38
275.872	87.38
276.104	86.38
276.335	94.38
276.567	106.38
276.799	94.38
277.031	107.38
277.262	95.38
277.494	98.38
277.726	104.38
277.957	87.38
278.189	89.38
278.421	95.38
278.652	86.38
278.884	94.38
279.115	92.38
279.347	94.38
279.579	92.38
279.81	72.38
280.042	82.38
280.273	82.38
280.505	94.38
280.736	93.38
280.968	87.38
281.199	86.38
281.431	98.38
281.662	84.38
281.894	90.38
282.125	96.38
282.356	112.38
282.588	124.38
282.819	123.38
283.051	99.38
283.282	80.38
283.513	84.38
283.745	71.38
283.976	90.38
284.207	94.38
284.439	93.38
284.67	83.38
284.901	88.38
285.132	76.38
285.364	98.38
285.595	87.38
285.826	82.38
286.057	84.38
286.288	80.38
286.52	100.38
286.751	78.38
286.982	88.38
287.213	84.38
287.444	96.38
287.675	86.38
287.906	89.38
288.138	90.38
288.369	86.38
288.6	88.38
288.831	94.38
289.062	86.38
289.293	90.38
289.524	98.38
289.755	93.38
289.986	94.38
290.217	113.38
290.448	86.38
290.679	93.38
290.91	92.38
291.141	84.38
291.371	79.38
291.602	84.38
291.833	97.38
292.064	100.38
292.295	86.38
292.526	84.38
292.757	104.38
292.987	98.38
293.218	92.38
293.449	94.38
293.68	81.38
293.91	98.38
294.141	95.38
294.372	100.38
294.603	96.38
294.833	102.38
295.064	94.38
295.295	99.38
295.525	90.38
295.756	114.38
295.987	112.38
296.217	132.38
296.448	140.38
296.679	99.38
296.909	106.38
297.14	90.38
297.37	95.38
297.601	82.38
297.831	95.38
298.062	87.38
298.292	93.38
298.523	95.38
298.753	89.38
298.984	95.38
299.214	84.38
299.445	91.38
299.675	99.38
299.905	93.38
300.136	99.38
300.366	106.38
300.597	94.38
300.827	108.38
301.057	90.38
301.288	106.38
301.518	100.38
301.748	106.38
301.979	103.38
302.209	84.38
302.439	93.38
302.669	99.38
302.9	87.38
303.13	88.38
303.36	86.38
303.59	107.38
303.82	108.38
304.051	91.38
304.281	90.38
304.511	106.38
304.741	93.38
304.971	94.38
305.201	95.38
305.431	99.38
305.661	98.38
305.891	108.38
306.121	101.38
306.352	105.38
306.582	101.38
306.812	104.38
307.042	99.38
307.272	99.38
307.502	93.38
307.731	97.38
307.961	94.38
308.191	90.38
308.421	91.38
308.651	102.38
308.881	97.38
309.111	95.38
309.341	106.38
309.571	91.38
309.8	111.38
310.03	99.38
310.26	104.38
310.49	91.38
310.72	106.38
310.949	107.38
311.179	98.38
311.409	94.38
311.639	88.38
311.868	101.38
312.098	102.38
312.328	102.38
312.557	100.38
312.787	113.38
313.017	96.38
313.246	100.38
313.476	91.38
313.706	105.38
313.935	92.38
314.165	93.38
314.394	107.38
314.624	102.38
314.853	103.38
315.083	93.38
315.312	98.38
315.542	98.38
315.771	94.38
316.001	102.38
316.23	74.38
316.46	101.38
316.689	84.38
316.919	93.38
317.148	90.38
317.377	91.38
317.607	94.38
317.836	88.38
318.065	106.38
318.295	93.38
318.524	95.38
318.753	101.38
318.983	94.38
319.212	100.38
319.441	119.38
319.67	116.38
319.9	95.38
320.129	98.38
320.358	94.38
320.587	88.38
320.816	96.38
321.046	103.38
321.275	105.38
321.504	95.38
321.733	95.38
321.962	103.38
322.191	98.38
322.42	108.38
322.649	112.38
322.878	117.38
323.108	109.38
323.337	125.38
323.566	131.38
323.795	144.38
324.024	195.38
324.253	372.38
324.482	798.38
324.71	1568.38
324.939	2040.38
325.168	774.38
325.397	234.38
325.626	147.38
325.855	130.38
326.084	129.38
326.313	118.38
326.542	141.38
326.77	230.38
326.999	450.38
327.228	890.38
327.457	1627.38
327.686	1303.38
327.914	342.38
328.143	196.38
328.372	139.38
328.6	136.38
328.829	113.38
329.058	122.38
329.287	124.38
329.515	92.38
329.744	118.38
329.972	121.38
330.201	147.38
330.43	148.38
330.658	145.38
330.887	141.38
331.115	112.38
331.344	107.38
331.572	96.38
331.801	95.38
332.03	94.38
332.258	100.38
332.486	71.38
332.715	104.38
332.943	94.38
333.172	117.38
333.4	110.38
333.629	114.38
333.857	122.38
334.085	123.38
334.314	150.38
334.542	158.38
334.771	143.38
334.999	106.38
335.227	86.38
335.455	83.38
335.684	107.38
335.912	108.38
336.14	89.38
336.369	108.38
336.597	103.38
336.825	109.38
337.053	96.38
337.281	106.38
337.51	92.38
337.738	91.38
337.966	83.38
338.194	101.38
338.422	101.38
338.65	92.38
338.878	92.38
339.106	98.38
339.334	85.38
339.562	88.38
339.79	94.38
340.018	82.38
340.246	91.38
340.474	93.38
340.702	96.38
340.93	98.38
341.158	94.38
341.386	104.38
341.614	107.38
341.842	104.38
342.07	106.38
342.298	90.38
342.526	87.38
342.754	87.38
342.981	98.38
343.209	87.38
343.437	110.38
343.665	98.38
343.893	87.38
344.12	82.38
344.348	101.38
344.576	93.38
344.804	100.38
345.031	100.38
345.259	98.38
345.487	94.38
345.714	106.38
345.942	107.38
346.17	94.38
346.397	90.38
346.625	92.38
346.853	93.38
347.08	99.38
347.308	105.38
347.535	101.38
347.763	93.38
347.99	94.38
348.218	108.38
348.445	96.38
348.673	109.38
348.9	89.38
349.128	87.38
349.355	88.38
349.583	102.38
349.81	102.38
350.037	110.38
350.265	100.38
350.492	98.38
350.72	97.38
350.947	103.38
351.174	114.38
351.402	103.38
351.629	94.38
351.856	106.38
352.083	105.38
352.311	99.38
352.538	118.38
352.765	107.38
352.992	104.38
353.22	97.38
353.447	109.38
353.674	116.38
353.901	85.38
354.128	90.38
354.355	91.38
354.583	99.38
354.81	107.38
355.037	105.38
355.264	92.38
355.491	105.38
355.718	110.38
355.945	94.38
356.172	86.38
356.399	103.38
356.626	102.38
356.853	110.38
357.08	100.38
357.307	107.38
357.534	95.38
357.761	99.38
357.988	88.38
358.215	84.38
358.441	83.38
358.668	83.38
358.895	106.38
359.122	82.38
359.349	95.38
359.576	103.38
359.802	106.38
360.029	115.38
360.256	106.38
360.483	101.38
360.709	98.38
360.936	99.38
361.163	98.38
361.39	103.38
361.616	106.38
361.843	100.38
362.07	100.38
362.296	87.38
362.523	90.38
362.749	85.38
362.976	87.38
363.203	97.38
363.429	100.38
363.656	90.38
363.882	107.38
364.109	90.38
364.335	92.38
364.562	80.38
364.788	94.38
365.015	96.38
365.241	101.38
365.468	110.38
365.694	111.38
365.92	110.38
366.147	91.38
366.373	86.38
366.599	85.38
366.826	96.38
367.052	96.38
367.278	103.38
367.505	92.38
367.731	97.38
367.957	100.38
368.184	91.38
368.41	111.38
368.636	90.38
368.862	121.38
369.089	102.38
369.315	107.38
369.541	102.38
369.767	101.38
369.993	102.38
370.219	90.38
370.445	90.38
370.672	87.38
370.898	84.38
371.124	99.38
371.35	93.38
371.576	82.38
371.802	84.38
372.028	90.38
372.254	106.38
372.48	99.38
372.706	87.38
372.932	89.38
373.158	92.38
373.384	88.38
373.61	100.38
373.835	89.38
374.061	95.38
374.287	113.38
374.513	96.38
374.739	99.38
374.965	100.38
375.191	94.38
375.416	94.38
375.642	98.38
375.868	95.38
376.094	82.38
376.319	76.38
376.545	84.38
376.771	98.38
376.997	108.38
377.222	94.38
377.448	87.38
377.674	97.38
377.899	85.38
378.125	98.38
378.35	102.38
378.576	85.38
378.802	84.38
379.027	94.38
379.253	90.38
379.478	99.38
379.704	99.38
379.929	93.38
380.155	94.38
380.38	88.38
380.606	99.38
380.831	88.38
381.057	97.38
381.282	108.38
381.507	93.38
381.733	101.38
381.958	97.38
382.184	101.38
382.409	107.38
382.634	102.38
382.86	99.38
383.085	99.38
383.31	103.38
383.535	104.38
383.761	80.38
383.986	90.38
384.211	90.38
384.436	89.38
384.662	109.38
384.887	95.38
385.112	83.38
385.337	91.38
385.562	108.38
385.787	110.38
386.013	83.38
386.238	119.38
386.463	103.38
386.688	112.38
386.913	93.38
387.138	100.38
387.363	100.38
387.588	101.38
387.813	99.38
388.038	104.38
388.263	105.38
388.488	100.38
388.713	82.38
388.938	86.38
389.163	102.38
389.387	98.38
389.612	87.38
389.837	94.38
390.062	95.38
390.287	102.38
390.512	83.38
390.736	85.38
390.961	93.38
391.186	99.38
391.411	103.38
391.636	99.38
391.86	87.38
392.085	87.38
392.31	79.38
392.534	94.38
392.759	86.38
392.984	89.38
393.208	91.38
393.433	106.38
393.658	96.38
393.882	88.38
394.107	103.38
394.331	87.38
394.556	96.38
394.78	90.38
395.005	97.38
395.229	104.38
395.454	86.38
395.678	101.38
395.903	78.38
396.127	93.38
396.352	81.38
396.576	97.38
396.801	98.38
397.025	86.38
397.249	83.38
397.474	95.38
397.698	96.38
397.922	95.38
398.147	83.38
398.371	84.38
398.595	83.38
398.82	88.38
399.044	83.38
399.268	87.38
399.492	86.38
399.717	78.38
399.941	94.38
400.165	80.38
400.389	100.38
400.613	89.38
400.837	90.38
401.062	89.38
401.286	88.38
401.51	101.38
401.734	98.38
401.958	95.38
402.182	124.38
402.406	130.38
402.63	115.38
402.854	109.38
403.078	99.38
403.302	96.38
403.526	92.38
403.75	83.38
403.974	101.38
404.198	96.38
404.422	96.38
404.645	89.38
404.869	89.38
405.093	97.38
405.317	90.38
405.541	95.38
405.765	109.38
405.988	138.38
406.212	158.38
406.436	193.38
406.66	137.38
406.883	104.38
407.107	96.38
407.331	90.38
407.555	107.38
407.778	95.38
408.002	97.38
408.226	97.38
408.449	79.38
408.673	93.38
408.896	92.38
409.12	111.38
409.344	86.38
409.567	102.38
409.791	103.38
410.014	95.38
410.238	95.38
410.461	93.38
410.685	103.38
410.908	102.38
411.132	117.38
411.355	108.38
411.578	111.38
411.802	74.38
412.025	70.38
412.249	88.38
412.472	109.38
412.695	96.38
412.919	101.38
413.142	92.38
413.365	106.38
413.589	83.38
413.812	75.38
414.035	93.38
414.258	96.38
414.482	94.38
414.705	86.38
414.928	88.38
415.151	98.38
415.374	94.38
415.597	80.38
415.821	96.38
416.044	83.38
416.267	99.38
416.49	101.38
416.713	99.38
416.936	93.38
417.159	90.38
417.382	82.38
417.605	97.38
417.828	100.38
418.051	100.38
418.274	88.38
418.497	77.38
418.72	76.38
418.943	101.38
419.166	87.38
419.389	94.38
419.611	85.38
419.834	92.38
420.057	90.38
420.28	97.38
420.503	88.38
420.726	91.38
420.948	100.38
421.171	88.38
421.394	89.38
421.617	106.38
421.839	103.38
422.062	87.38
422.285	88.38
422.507	99.38
422.73	94.38
422.953	89.38
423.175	108.38
423.398	100.38
423.621	94.38
423.843	88.38
424.066	99.38
424.288	84.38
424.511	87.38
424.733	83.38
424.956	107.38
425.178	103.38
425.401	106.38
425.623	110.38
425.846	101.38
426.068	87.38
426.291	87.38
426.513	93.38
426.735	91.38
426.958	106.38
427.18	109.38
427.402	120.38
427.625	152.38
427.847	102.38
428.069	101.38
428.292	87.38
428.514	100.38
428.736	92.38
428.958	75.38
429.181	95.38
429.403	89.38
429.625	69.38
429.847	102.38
430.069	98.38
430.292	94.38
430.514	88.38
430.736	93.38
430.958	105.38
431.18	96.38
431.402	88.38
431.624	91.38
431.846	89.38
432.068	85.38
432.29	86.38
432.512	86.38
432.734	100.38
432.956	93.38
433.178	105.38
433.4	102.38
433.622	75.38
433.844	84.38
434.066	108.38
434.287	75.38
434.509	103.38
434.731	94.38
434.953	91.38
435.175	109.38
435.397	94.38
435.618	79.38
435.84	90.38
436.062	119.38
436.284	110.38
436.505	107.38
436.727	122.38
436.949	98.38
437.17	100.38
437.392	93.38
437.614	91.38
437.835	100.38
438.057	106.38
438.278	117.38
438.5	102.38
438.721	113.38
438.943	101.38
439.165	97.38
439.386	95.38
439.608	99.38
439.829	93.38
440.05	119.38
440.272	130.38
440.493	96.38
440.715	88.38
440.936	92.38
441.158	93.38
441.379	84.38
441.6	92.38
441.822	102.38
442.043	110.38
442.264	103.38
442.486	100.38
442.707	109.38
442.928	102.38
443.149	127.38
443.371	134.38
443.592	99.38
443.813	111.38
444.034	114.38
444.255	103.38
444.476	93.38
444.698	106.38
444.919	94.38
445.14	128.38
445.361	112.38
445.582	97.38
445.803	152.38
446.024	139.38
446.245	122.38
446.466	116.38
446.687	99.38
446.908	85.38
447.129	83.38
447.35	103.38
447.571	94.38
447.792	92.38
448.013	99.38
448.234	93.38
448.455	114.38
448.675	112.38
448.896	115.38
449.117	89.38
449.338	110.38
449.559	136.38
449.779	120.38
450	105.38
450.221	103.38
450.442	89.38
450.662	96.38
450.883	88.38
451.104	101.38
451.324	103.38
451.545	83.38
451.766	88.38
451.986	88.38
452.207	88.38
452.428	85.38
452.648	109.38
452.869	100.38
453.089	108.38
453.31	116.38
453.53	111.38
453.751	86.38
453.971	98.38
454.192	114.38
454.412	95.38
454.633	72.38
454.853	98.38
455.073	91.38
455.294	100.38
455.514	95.38
455.734	88.38
455.955	84.38
456.175	100.38
456.395	85.38
456.616	94.38
456.836	98.38
457.056	92.38
457.276	91.38
457.497	83.38
457.717	85.38
457.937	79.38
458.157	94.38
458.377	93.38
458.598	103.38
458.818	132.38
459.038	138.38
459.258	103.38
459.478	84.38
459.698	100.38
459.918	98.38
460.138	82.38
460.358	106.38
460.578	85.38
460.798	101.38
461.018	89.38
461.238	88.38
461.458	90.38
461.678	79.38
461.898	89.38
462.118	86.38
462.338	97.38
462.558	107.38
462.777	93.38
462.997	84.38
463.217	88.38
463.437	87.38
463.657	86.38
463.876	89.38
464.096	87.38
464.316	100.38
464.536	89.38
464.755	95.38
464.975	102.38
465.195	150.38
465.414	151.38
465.634	93.38
465.854	87.38
466.073	99.38
466.293	100.38
466.512	92.38
466.732	92.38
466.951	103.38
467.171	99.38
467.391	93.38
467.61	93.38
467.829	110.38
468.049	116.38
468.268	134.38
468.488	94.38
468.707	82.38
468.927	78.38
469.146	87.38
469.365	90.38
469.585	96.38
469.804	83.38
470.023	99.38
470.243	90.38
470.462	100.38
470.681	104.38
470.901	84.38
471.12	79.38
471.339	90.38
471.558	79.38
471.777	79.38
471.997	110.38
472.216	124.38
472.435	188.38
472.654	107.38
472.873	88.38
473.092	92.38
473.311	76.38
473.53	102.38
473.749	93.38
473.968	98.38
474.187	110.38
474.406	112.38
474.625	117.38
474.844	90.38
475.063	92.38
475.282	101.38
475.501	93.38
475.72	96.38
475.939	105.38
476.158	93.38
476.377	74.38
476.596	103.38
476.814	88.38
477.033	98.38
477.252	81.38
477.471	100.38
477.69	85.38
477.908	100.38
478.127	91.38
478.346	88.38
478.564	84.38
478.783	103.38
479.002	97.38
479.22	99.38
479.439	103.38
479.658	104.38
479.876	91.38
480.095	88.38
480.313	90.38
480.532	97.38
480.751	94.38
480.969	136.38
481.188	283.38
481.406	196.38
481.624	88.38
481.843	101.38
482.061	84.38
482.28	69.38
482.498	88.38
482.717	85.38
482.935	82.38
483.153	89.38
483.372	92.38
483.59	107.38
483.808	91.38
484.027	92.38
484.245	100.38
484.463	96.38
484.681	98.38
484.9	88.38
485.118	92.38
485.336	90.38
485.554	93.38
485.772	99.38
485.99	114.38
486.209	114.38
486.427	112.38
486.645	128.38
486.863	116.38
487.081	92.38
487.299	103.38
487.517	93.38
487.735	94.38
487.953	96.38
488.171	85.38
488.389	101.38
488.607	98.38
488.825	88.38
489.043	94.38
489.261	93.38
489.479	90.38
489.696	89.38
489.914	82.38
490.132	91.38
490.35	103.38
490.568	93.38
490.786	92.38
491.003	92.38
491.221	97.38
491.439	98.38
491.657	87.38
491.874	104.38
492.092	88.38
492.31	88.38
492.527	86.38
492.745	104.38
492.963	115.38
493.18	106.38
493.398	102.38
493.615	98.38
493.833	92.38
494.05	94.38
494.268	103.38
494.485	97.38
494.703	97.38
494.92	99.38
495.138	92.38
495.355	91.38
495.573	89.38
495.79	103.38
496.008	98.38
496.225	101.38
496.442	92.38
496.66	109.38
496.877	100.38
497.094	92.38
497.312	90.38
497.529	91.38
497.746	106.38
497.963	86.38
498.181	105.38
498.398	100.38
498.615	105.38
498.832	95.38
499.049	94.38
499.267	86.38
499.484	89.38
499.701	93.38
499.918	96.38
500.135	102.38
500.352	86.38
500.569	96.38
500.786	94.38
501.003	91.38
501.22	93.38
501.437	82.38
501.654	94.38
501.871	101.38
502.088	100.38
502.305	109.38
502.522	108.38
502.739	86.38
502.956	84.38
503.172	92.38
503.389	85.38
503.606	89.38
503.823	95.38
504.04	83.38
504.256	88.38
504.473	107.38
504.69	99.38
504.907	94.38
505.123	99.38
505.34	87.38
505.557	92.38
505.773	98.38
505.99	91.38
506.207	106.38
506.423	100.38
506.64	99.38
506.856	87.38
507.073	103.38
507.289	100.38
507.506	111.38
507.722	119.38
507.939	116.38
508.155	97.38
508.372	105.38
508.588	95.38
508.805	88.38
509.021	92.38
509.238	101.38
509.454	108.38
509.67	119.38
509.887	105.38
510.103	126.38
510.319	207.38
510.536	675.38
510.752	2150.38
510.968	599.38
511.184	156.38
511.401	107.38
511.617	95.38
511.833	84.38
512.049	99.38
512.265	110.38
512.481	81.38
512.698	89.38
512.914	97.38
513.13	86.38
513.346	99.38
513.562	102.38
513.778	92.38
513.994	92.38
514.21	94.38
