Data from Uncirc_1983_H10_HRD10591_00008.txt Node
Date: Wed Jan 03 12:25:33 EST 2024
User: Yrep
Spectrometer: HR+D1059
Trigger mode: 1
Integration Time (sec): 1.000000E-1
Scans to average: 1
Electric dark correction enabled: true
Nonlinearity correction enabled: false
Boxcar width: 0
XAxis mode: Wavelengths
Number of Pixels in Spectrum: 2048
>>>>>Begin Spectral Data<<<<<
223.165	-25.38
223.4	-25.38
223.635	-25.38
223.869	-13.38
224.104	-10.38
224.338	-8.38
224.573	-4.38
224.808	-18.38
225.042	-18.38
225.277	-26.38
225.511	5.62
225.746	8.62
225.98	17.62
226.215	22.62
226.449	9.62
226.683	7.62
226.918	16.62
227.152	36.62
227.387	34.62
227.621	52.62
227.856	42.62
228.09	38.62
228.324	49.62
228.559	47.62
228.793	58.62
229.027	64.62
229.262	57.62
229.496	61.62
229.73	69.62
229.964	80.62
230.199	78.62
230.433	71.62
230.667	84.62
230.901	69.62
231.136	64.62
231.37	62.62
231.604	76.62
231.838	80.62
232.072	78.62
232.306	79.62
232.541	70.62
232.775	66.62
233.009	66.62
233.243	69.62
233.477	65.62
233.711	73.62
233.945	77.62
234.179	73.62
234.413	65.62
234.647	86.62
234.881	75.62
235.115	85.62
235.349	69.62
235.583	69.62
235.817	82.62
236.051	76.62
236.285	88.62
236.519	73.62
236.753	82.62
236.987	89.62
237.221	71.62
237.455	81.62
237.689	70.62
237.922	80.62
238.156	63.62
238.39	71.62
238.624	86.62
238.858	69.62
239.091	76.62
239.325	76.62
239.559	71.62
239.793	67.62
240.027	74.62
240.26	71.62
240.494	71.62
240.728	77.62
240.961	80.62
241.195	92.62
241.429	74.62
241.662	73.62
241.896	78.62
242.13	71.62
242.363	66.62
242.597	80.62
242.83	77.62
243.064	78.62
243.298	64.62
243.531	79.62
243.765	76.62
243.998	69.62
244.232	75.62
244.465	80.62
244.699	79.62
244.932	80.62
245.166	74.62
245.399	68.62
245.633	63.62
245.866	77.62
246.099	79.62
246.333	74.62
246.566	80.62
246.8	74.62
247.033	70.62
247.266	80.62
247.5	87.62
247.733	61.62
247.966	67.62
248.2	79.62
248.433	82.62
248.666	88.62
248.899	81.62
249.133	88.62
249.366	82.62
249.599	87.62
249.832	66.62
250.066	82.62
250.299	70.62
250.532	77.62
250.765	76.62
250.998	65.62
251.231	70.62
251.465	78.62
251.698	78.62
251.931	73.62
252.164	63.62
252.397	78.62
252.63	71.62
252.863	86.62
253.096	86.62
253.329	73.62
253.562	80.62
253.795	57.62
254.028	78.62
254.261	69.62
254.494	67.62
254.727	79.62
254.96	93.62
255.193	76.62
255.426	62.62
255.659	80.62
255.892	84.62
256.124	82.62
256.357	78.62
256.59	77.62
256.823	80.62
257.056	88.62
257.289	58.62
257.521	73.62
257.754	74.62
257.987	90.62
258.22	66.62
258.452	71.62
258.685	84.62
258.918	77.62
259.151	78.62
259.383	70.62
259.616	63.62
259.849	70.62
260.081	69.62
260.314	72.62
260.547	81.62
260.779	84.62
261.012	71.62
261.244	72.62
261.477	84.62
261.71	90.62
261.942	94.62
262.175	86.62
262.407	82.62
262.64	72.62
262.872	88.62
263.105	94.62
263.337	84.62
263.57	78.62
263.802	73.62
264.035	64.62
264.267	65.62
264.499	88.62
264.732	73.62
264.964	80.62
265.197	88.62
265.429	69.62
265.661	82.62
265.894	72.62
266.126	88.62
266.358	70.62
266.591	82.62
266.823	95.62
267.055	95.62
267.287	82.62
267.52	88.62
267.752	80.62
267.984	92.62
268.216	89.62
268.448	82.62
268.681	88.62
268.913	93.62
269.145	88.62
269.377	80.62
269.609	88.62
269.841	70.62
270.073	68.62
270.306	84.62
270.538	82.62
270.77	80.62
271.002	82.62
271.234	81.62
271.466	69.62
271.698	85.62
271.93	77.62
272.162	93.62
272.394	97.62
272.626	65.62
272.858	84.62
273.09	69.62
273.322	83.62
273.553	75.62
273.785	79.62
274.017	67.62
274.249	65.62
274.481	81.62
274.713	81.62
274.945	77.62
275.176	73.62
275.408	87.62
275.64	81.62
275.872	76.62
276.104	89.62
276.335	80.62
276.567	87.62
276.799	98.62
277.031	89.62
277.262	72.62
277.494	97.62
277.726	82.62
277.957	65.62
278.189	89.62
278.421	81.62
278.652	74.62
278.884	78.62
279.115	88.62
279.347	85.62
279.579	87.62
279.81	86.62
280.042	71.62
280.273	81.62
280.505	87.62
280.736	83.62
280.968	83.62
281.199	75.62
281.431	80.62
281.662	80.62
281.894	82.62
282.125	89.62
282.356	106.62
282.588	128.62
282.819	96.62
283.051	96.62
283.282	80.62
283.513	89.62
283.745	80.62
283.976	76.62
284.207	76.62
284.439	90.62
284.67	69.62
284.901	77.62
285.132	74.62
285.364	79.62
285.595	94.62
285.826	87.62
286.057	85.62
286.288	86.62
286.52	87.62
286.751	94.62
286.982	74.62
287.213	101.62
287.444	80.62
287.675	86.62
287.906	103.62
288.138	78.62
288.369	88.62
288.6	98.62
288.831	81.62
289.062	77.62
289.293	84.62
289.524	83.62
289.755	85.62
289.986	95.62
290.217	81.62
290.448	80.62
290.679	78.62
290.91	77.62
291.141	88.62
291.371	88.62
291.602	82.62
291.833	91.62
292.064	91.62
292.295	92.62
292.526	90.62
292.757	95.62
292.987	82.62
293.218	85.62
293.449	76.62
293.68	94.62
293.91	84.62
294.141	95.62
294.372	95.62
294.603	83.62
294.833	84.62
295.064	84.62
295.295	75.62
295.525	80.62
295.756	103.62
295.987	106.62
296.217	109.62
296.448	102.62
296.679	85.62
296.909	78.62
297.14	86.62
297.37	87.62
297.601	79.62
297.831	73.62
298.062	84.62
298.292	81.62
298.523	67.62
298.753	64.62
298.984	95.62
299.214	80.62
299.445	89.62
299.675	101.62
299.905	101.62
300.136	94.62
300.366	81.62
300.597	93.62
300.827	88.62
301.057	102.62
301.288	108.62
301.518	87.62
301.748	78.62
301.979	91.62
302.209	89.62
302.439	78.62
302.669	88.62
302.9	80.62
303.13	91.62
303.36	95.62
303.59	89.62
303.82	103.62
304.051	82.62
304.281	85.62
304.511	95.62
304.741	86.62
304.971	88.62
305.201	91.62
305.431	92.62
305.661	97.62
305.891	94.62
306.121	73.62
306.352	110.62
306.582	94.62
306.812	86.62
307.042	85.62
307.272	103.62
307.502	89.62
307.731	80.62
307.961	96.62
308.191	85.62
308.421	83.62
308.651	79.62
308.881	90.62
309.111	89.62
309.341	76.62
309.571	82.62
309.8	81.62
310.03	85.62
310.26	100.62
310.49	97.62
310.72	84.62
310.949	98.62
311.179	95.62
311.409	83.62
311.639	82.62
311.868	89.62
312.098	85.62
312.328	95.62
312.557	92.62
312.787	93.62
313.017	103.62
313.246	87.62
313.476	88.62
313.706	85.62
313.935	88.62
314.165	88.62
314.394	86.62
314.624	82.62
314.853	99.62
315.083	90.62
315.312	97.62
315.542	81.62
315.771	86.62
316.001	96.62
316.23	77.62
316.46	101.62
316.689	76.62
316.919	90.62
317.148	93.62
317.377	66.62
317.607	84.62
317.836	84.62
318.065	72.62
318.295	87.62
318.524	82.62
318.753	80.62
318.983	80.62
319.212	84.62
319.441	101.62
319.67	100.62
319.9	107.62
320.129	97.62
320.358	97.62
320.587	107.62
320.816	101.62
321.046	84.62
321.275	85.62
321.504	89.62
321.733	85.62
321.962	84.62
322.191	82.62
322.42	98.62
322.649	105.62
322.878	104.62
323.108	111.62
323.337	111.62
323.566	120.62
323.795	127.62
324.024	171.62
324.253	316.62
324.482	692.62
324.71	1383.62
324.939	1860.62
325.168	693.62
325.397	210.62
325.626	117.62
325.855	105.62
326.084	118.62
326.313	125.62
326.542	146.62
326.77	190.62
326.999	392.62
327.228	828.62
327.457	1490.62
327.686	1161.62
327.914	328.62
328.143	171.62
328.372	120.62
328.6	101.62
328.829	106.62
329.058	105.62
329.287	113.62
329.515	88.62
329.744	89.62
329.972	110.62
330.201	90.62
330.43	82.62
330.658	95.62
330.887	114.62
331.115	114.62
331.344	96.62
331.572	101.62
331.801	96.62
332.03	94.62
332.258	91.62
332.486	87.62
332.715	80.62
332.943	89.62
333.172	80.62
333.4	84.62
333.629	79.62
333.857	95.62
334.085	79.62
334.314	94.62
334.542	89.62
334.771	86.62
334.999	88.62
335.227	90.62
335.455	91.62
335.684	94.62
335.912	102.62
336.14	92.62
336.369	82.62
336.597	108.62
336.825	81.62
337.053	88.62
337.281	106.62
337.51	80.62
337.738	86.62
337.966	88.62
338.194	94.62
338.422	98.62
338.65	87.62
338.878	69.62
339.106	82.62
339.334	85.62
339.562	83.62
339.79	71.62
340.018	87.62
340.246	85.62
340.474	82.62
340.702	70.62
340.93	93.62
341.158	97.62
341.386	80.62
341.614	91.62
341.842	95.62
342.07	98.62
342.298	84.62
342.526	84.62
342.754	100.62
342.981	86.62
343.209	80.62
343.437	86.62
343.665	73.62
343.893	84.62
344.12	96.62
344.348	81.62
344.576	83.62
344.804	89.62
345.031	79.62
345.259	81.62
345.487	92.62
345.714	80.62
345.942	82.62
346.17	80.62
346.397	78.62
346.625	88.62
346.853	100.62
347.08	94.62
347.308	90.62
347.535	95.62
347.763	82.62
347.99	84.62
348.218	104.62
348.445	100.62
348.673	94.62
348.9	96.62
349.128	101.62
349.355	80.62
349.583	90.62
349.81	83.62
350.037	76.62
350.265	84.62
350.492	89.62
350.72	80.62
350.947	105.62
351.174	91.62
351.402	86.62
351.629	93.62
351.856	84.62
352.083	91.62
352.311	99.62
352.538	101.62
352.765	85.62
352.992	108.62
353.22	105.62
353.447	103.62
353.674	100.62
353.901	96.62
354.128	85.62
354.355	99.62
354.583	102.62
354.81	103.62
355.037	106.62
355.264	103.62
355.491	99.62
355.718	76.62
355.945	79.62
356.172	98.62
356.399	102.62
356.626	106.62
356.853	88.62
357.08	76.62
357.307	83.62
357.534	105.62
357.761	80.62
357.988	93.62
358.215	94.62
358.441	92.62
358.668	92.62
358.895	96.62
359.122	82.62
359.349	100.62
359.576	81.62
359.802	95.62
360.029	108.62
360.256	108.62
360.483	84.62
360.709	69.62
360.936	92.62
361.163	85.62
361.39	94.62
361.616	92.62
361.843	96.62
362.07	80.62
362.296	92.62
362.523	87.62
362.749	100.62
362.976	96.62
363.203	86.62
363.429	84.62
363.656	93.62
363.882	92.62
364.109	85.62
364.335	76.62
364.562	78.62
364.788	82.62
365.015	96.62
365.241	92.62
365.468	86.62
365.694	92.62
365.92	87.62
366.147	78.62
366.373	81.62
366.599	73.62
366.826	80.62
367.052	97.62
367.278	86.62
367.505	92.62
367.731	77.62
367.957	97.62
368.184	89.62
368.41	88.62
368.636	100.62
368.862	114.62
369.089	103.62
369.315	81.62
369.541	89.62
369.767	86.62
369.993	93.62
370.219	86.62
370.445	96.62
370.672	83.62
370.898	88.62
371.124	89.62
371.35	81.62
371.576	80.62
371.802	89.62
372.028	72.62
372.254	85.62
372.48	80.62
372.706	82.62
372.932	88.62
373.158	83.62
373.384	90.62
373.61	96.62
373.835	101.62
374.061	93.62
374.287	88.62
374.513	96.62
374.739	78.62
374.965	99.62
375.191	80.62
375.416	84.62
375.642	82.62
375.868	100.62
376.094	85.62
376.319	85.62
376.545	92.62
376.771	75.62
376.997	85.62
377.222	87.62
377.448	104.62
377.674	86.62
377.899	76.62
378.125	78.62
378.35	93.62
378.576	81.62
378.802	93.62
379.027	76.62
379.253	82.62
379.478	92.62
379.704	95.62
379.929	87.62
380.155	94.62
380.38	84.62
380.606	87.62
380.831	84.62
381.057	107.62
381.282	98.62
381.507	93.62
381.733	100.62
381.958	101.62
382.184	103.62
382.409	98.62
382.634	118.62
382.86	125.62
383.085	109.62
383.31	106.62
383.535	106.62
383.761	103.62
383.986	98.62
384.211	97.62
384.436	105.62
384.662	100.62
384.887	89.62
385.112	104.62
385.337	104.62
385.562	112.62
385.787	112.62
386.013	106.62
386.238	119.62
386.463	109.62
386.688	114.62
386.913	99.62
387.138	119.62
387.363	100.62
387.588	88.62
387.813	93.62
388.038	121.62
388.263	109.62
388.488	129.62
388.713	100.62
388.938	84.62
389.163	99.62
389.387	105.62
389.612	84.62
389.837	79.62
390.062	96.62
390.287	86.62
390.512	94.62
390.736	83.62
390.961	80.62
391.186	83.62
391.411	94.62
391.636	98.62
391.86	77.62
392.085	69.62
392.31	79.62
392.534	69.62
392.759	71.62
392.984	96.62
393.208	87.62
393.433	106.62
393.658	107.62
393.882	76.62
394.107	93.62
394.331	93.62
394.556	82.62
394.78	95.62
395.005	93.62
395.229	63.62
395.454	89.62
395.678	86.62
395.903	84.62
396.127	76.62
396.352	84.62
396.576	76.62
396.801	92.62
397.025	104.62
397.249	81.62
397.474	88.62
397.698	74.62
397.922	77.62
398.147	72.62
398.371	82.62
398.595	96.62
398.82	93.62
399.044	87.62
399.268	74.62
399.492	75.62
399.717	76.62
399.941	89.62
400.165	96.62
400.389	80.62
400.613	93.62
400.837	80.62
401.062	81.62
401.286	83.62
401.51	84.62
401.734	72.62
401.958	88.62
402.182	104.62
402.406	127.62
402.63	83.62
402.854	90.62
403.078	89.62
403.302	85.62
403.526	88.62
403.75	80.62
403.974	94.62
404.198	86.62
404.422	72.62
404.645	77.62
404.869	67.62
405.093	90.62
405.317	89.62
405.541	95.62
405.765	83.62
405.988	98.62
406.212	134.62
406.436	189.62
406.66	124.62
406.883	94.62
407.107	83.62
407.331	85.62
407.555	81.62
407.778	93.62
408.002	81.62
408.226	85.62
408.449	82.62
408.673	70.62
408.896	85.62
409.12	80.62
409.344	91.62
409.567	95.62
409.791	96.62
410.014	80.62
410.238	85.62
410.461	78.62
410.685	83.62
410.908	99.62
411.132	101.62
411.355	104.62
411.578	106.62
411.802	97.62
412.025	74.62
412.249	85.62
412.472	88.62
412.695	70.62
412.919	94.62
413.142	78.62
413.365	78.62
413.589	87.62
413.812	94.62
414.035	81.62
414.258	82.62
414.482	98.62
414.705	84.62
414.928	95.62
415.151	101.62
415.374	95.62
415.597	85.62
415.821	84.62
416.044	82.62
416.267	93.62
416.49	82.62
416.713	88.62
416.936	85.62
417.159	65.62
417.382	64.62
417.605	95.62
417.828	96.62
418.051	80.62
418.274	74.62
418.497	90.62
418.72	80.62
418.943	81.62
419.166	85.62
419.389	80.62
419.611	92.62
419.834	82.62
420.057	81.62
420.28	100.62
420.503	79.62
420.726	83.62
420.948	75.62
421.171	96.62
421.394	91.62
421.617	94.62
421.839	90.62
422.062	81.62
422.285	91.62
422.507	107.62
422.73	113.62
422.953	82.62
423.175	85.62
423.398	94.62
423.621	94.62
423.843	89.62
424.066	94.62
424.288	82.62
424.511	80.62
424.733	83.62
424.956	101.62
425.178	96.62
425.401	87.62
425.623	78.62
425.846	92.62
426.068	107.62
426.291	91.62
426.513	85.62
426.735	76.62
426.958	88.62
427.18	94.62
427.402	117.62
427.625	125.62
427.847	111.62
428.069	91.62
428.292	78.62
428.514	79.62
428.736	73.62
428.958	84.62
429.181	81.62
429.403	94.62
429.625	89.62
429.847	89.62
430.069	88.62
430.292	90.62
430.514	108.62
430.736	96.62
430.958	87.62
431.18	80.62
431.402	73.62
431.624	87.62
431.846	73.62
432.068	65.62
432.29	100.62
432.512	79.62
432.734	80.62
432.956	80.62
433.178	82.62
433.4	97.62
433.622	80.62
433.844	88.62
434.066	93.62
434.287	92.62
434.509	86.62
434.731	87.62
434.953	88.62
435.175	69.62
435.397	82.62
435.618	88.62
435.84	96.62
436.062	106.62
436.284	99.62
436.505	106.62
436.727	98.62
436.949	76.62
437.17	77.62
437.392	78.62
437.614	92.62
437.835	96.62
438.057	97.62
438.278	90.62
438.5	93.62
438.721	103.62
438.943	93.62
439.165	82.62
439.386	92.62
439.608	74.62
439.829	90.62
440.05	106.62
440.272	124.62
440.493	85.62
440.715	67.62
440.936	92.62
441.158	83.62
441.379	77.62
441.6	101.62
441.822	93.62
442.043	86.62
442.264	93.62
442.486	78.62
442.707	79.62
442.928	77.62
443.149	108.62
443.371	96.62
443.592	92.62
443.813	107.62
444.034	96.62
444.255	97.62
444.476	90.62
444.698	73.62
444.919	71.62
445.14	120.62
445.361	98.62
445.582	104.62
445.803	110.62
446.024	114.62
446.245	101.62
446.466	94.62
446.687	73.62
446.908	78.62
447.129	86.62
447.35	86.62
447.571	77.62
447.792	102.62
448.013	89.62
448.234	101.62
448.455	76.62
448.675	101.62
448.896	117.62
449.117	96.62
449.338	96.62
449.559	106.62
449.779	107.62
450	88.62
450.221	90.62
450.442	85.62
450.662	84.62
450.883	95.62
451.104	103.62
451.324	78.62
451.545	100.62
451.766	87.62
451.986	78.62
452.207	85.62
452.428	94.62
452.648	88.62
452.869	97.62
453.089	84.62
453.31	100.62
453.53	94.62
453.751	84.62
453.971	84.62
454.192	97.62
454.412	68.62
454.633	81.62
454.853	86.62
455.073	94.62
455.294	83.62
455.514	93.62
455.734	85.62
455.955	80.62
456.175	78.62
456.395	77.62
456.616	81.62
456.836	74.62
457.056	89.62
457.276	95.62
457.497	69.62
457.717	80.62
457.937	70.62
458.157	82.62
458.377	79.62
458.598	90.62
458.818	133.62
459.038	150.62
459.258	112.62
459.478	93.62
459.698	90.62
459.918	68.62
460.138	85.62
460.358	92.62
460.578	69.62
460.798	82.62
461.018	82.62
461.238	93.62
461.458	86.62
461.678	72.62
461.898	74.62
462.118	80.62
462.338	88.62
462.558	83.62
462.777	82.62
462.997	89.62
463.217	82.62
463.437	82.62
463.657	77.62
463.876	86.62
464.096	86.62
464.316	87.62
464.536	79.62
464.755	85.62
464.975	89.62
465.195	131.62
465.414	136.62
465.634	86.62
465.854	90.62
466.073	86.62
466.293	80.62
466.512	70.62
466.732	83.62
466.951	77.62
467.171	83.62
467.391	72.62
467.61	92.62
467.829	89.62
468.049	84.62
468.268	91.62
468.488	80.62
468.707	74.62
468.927	60.62
469.146	82.62
469.365	93.62
469.585	64.62
469.804	93.62
470.023	83.62
470.243	79.62
470.462	78.62
470.681	96.62
470.901	81.62
471.12	83.62
471.339	71.62
471.558	74.62
471.777	79.62
471.997	73.62
472.216	78.62
472.435	84.62
472.654	83.62
472.873	89.62
473.092	72.62
473.311	76.62
473.53	76.62
473.749	95.62
473.968	80.62
474.187	95.62
474.406	84.62
474.625	80.62
474.844	81.62
475.063	72.62
475.282	81.62
475.501	78.62
475.72	89.62
475.939	85.62
476.158	91.62
476.377	87.62
476.596	72.62
476.814	81.62
477.033	69.62
477.252	87.62
477.471	84.62
477.69	84.62
477.908	96.62
478.127	73.62
478.346	94.62
478.564	93.62
478.783	101.62
479.002	75.62
479.22	87.62
479.439	79.62
479.658	95.62
479.876	88.62
480.095	81.62
480.313	84.62
480.532	76.62
480.751	90.62
480.969	90.62
481.188	80.62
481.406	92.62
481.624	83.62
481.843	81.62
482.061	95.62
482.28	80.62
482.498	85.62
482.717	85.62
482.935	89.62
483.153	90.62
483.372	72.62
483.59	78.62
483.808	80.62
484.027	82.62
484.245	93.62
484.463	81.62
484.681	97.62
484.9	89.62
485.118	84.62
485.336	94.62
485.554	104.62
485.772	96.62
485.99	104.62
486.209	111.62
486.427	98.62
486.645	94.62
486.863	118.62
487.081	80.62
487.299	90.62
487.517	85.62
487.735	86.62
487.953	105.62
488.171	104.62
488.389	102.62
488.607	108.62
488.825	90.62
489.043	77.62
489.261	84.62
489.479	83.62
489.696	83.62
489.914	92.62
490.132	90.62
490.35	96.62
490.568	85.62
490.786	84.62
491.003	92.62
491.221	97.62
491.439	100.62
491.657	90.62
491.874	90.62
492.092	85.62
492.31	105.62
492.527	93.62
492.745	84.62
492.963	83.62
493.18	97.62
493.398	95.62
493.615	86.62
493.833	83.62
494.05	94.62
494.268	93.62
494.485	97.62
494.703	86.62
494.92	88.62
495.138	86.62
495.355	85.62
495.573	87.62
495.79	84.62
496.008	91.62
496.225	74.62
496.442	88.62
496.66	91.62
496.877	98.62
497.094	96.62
497.312	90.62
497.529	86.62
497.746	77.62
497.963	81.62
498.181	86.62
498.398	92.62
498.615	103.62
498.832	95.62
499.049	73.62
499.267	83.62
499.484	72.62
499.701	94.62
499.918	100.62
500.135	101.62
500.352	99.62
500.569	80.62
500.786	92.62
501.003	82.62
501.22	89.62
501.437	86.62
501.654	90.62
501.871	84.62
502.088	80.62
502.305	86.62
502.522	95.62
502.739	81.62
502.956	80.62
503.172	79.62
503.389	85.62
503.606	90.62
503.823	107.62
504.04	90.62
504.256	82.62
504.473	100.62
504.69	84.62
504.907	89.62
505.123	93.62
505.34	78.62
505.557	87.62
505.773	94.62
505.99	92.62
506.207	82.62
506.423	85.62
506.64	81.62
506.856	106.62
507.073	83.62
507.289	81.62
507.506	100.62
507.722	114.62
507.939	94.62
508.155	74.62
508.372	98.62
508.588	96.62
508.805	97.62
509.021	90.62
509.238	90.62
509.454	82.62
509.67	100.62
509.887	103.62
510.103	111.62
510.319	184.62
510.536	585.62
510.752	1774.62
510.968	487.62
511.184	132.62
511.401	103.62
511.617	93.62
511.833	77.62
512.049	87.62
512.265	96.62
512.481	88.62
512.698	85.62
512.914	85.62
513.13	79.62
513.346	86.62
513.562	85.62
513.778	97.62
513.994	83.62
514.21	90.62
514.426	120.62
514.642	108.62
514.858	112.62
515.074	144.62
515.29	336.62
515.506	1046.62
515.721	406.62
515.937	143.62
516.153	104.62
516.369	91.62
516.585	94.62
516.801	83.62
517.016	81.62
517.232	94.62
