Data from Uncirc_1983_H10_HRD10591_00074.txt Node
Date: Wed Jan 03 12:25:46 EST 2024
User: Yrep
Spectrometer: HR+D1059
Trigger mode: 1
Integration Time (sec): 1.000000E-1
Scans to average: 1
Electric dark correction enabled: true
Nonlinearity correction enabled: false
Boxcar width: 0
XAxis mode: Wavelengths
Number of Pixels in Spectrum: 2048
>>>>>Begin Spectral Data<<<<<
223.165	-12.94
223.4	-12.94
223.635	-12.94
223.869	-13.94
224.104	-22.94
224.338	-21.94
224.573	-19.94
224.808	-19.94
225.042	0.06
225.277	-12.94
225.511	-5.94
225.746	12.06
225.98	6.06
226.215	17.06
226.449	11.06
226.683	25.06
226.918	29.06
227.152	30.06
227.387	34.06
227.621	45.06
227.856	36.06
228.09	56.06
228.324	62.06
228.559	60.06
228.793	64.06
229.027	47.06
229.262	66.06
229.496	72.06
229.73	96.06
229.964	78.06
230.199	85.06
230.433	73.06
230.667	74.06
230.901	64.06
231.136	77.06
231.37	95.06
231.604	91.06
231.838	93.06
232.072	81.06
232.306	77.06
232.541	91.06
232.775	91.06
233.009	81.06
233.243	85.06
233.477	89.06
233.711	88.06
233.945	75.06
234.179	90.06
234.413	88.06
234.647	64.06
234.881	77.06
235.115	84.06
235.349	64.06
235.583	74.06
235.817	67.06
236.051	63.06
236.285	79.06
236.519	77.06
236.753	67.06
236.987	78.06
237.221	89.06
237.455	88.06
237.689	71.06
237.922	77.06
238.156	72.06
238.39	79.06
238.624	84.06
238.858	72.06
239.091	69.06
239.325	72.06
239.559	87.06
239.793	65.06
240.027	74.06
240.26	79.06
240.494	77.06
240.728	68.06
240.961	75.06
241.195	84.06
241.429	88.06
241.662	71.06
241.896	83.06
242.13	67.06
242.363	77.06
242.597	84.06
242.83	82.06
243.064	93.06
243.298	83.06
243.531	76.06
243.765	88.06
243.998	97.06
244.232	88.06
244.465	89.06
244.699	79.06
244.932	65.06
245.166	75.06
245.399	77.06
245.633	83.06
245.866	79.06
246.099	80.06
246.333	89.06
246.566	96.06
246.8	87.06
247.033	88.06
247.266	82.06
247.5	92.06
247.733	86.06
247.966	96.06
248.2	83.06
248.433	88.06
248.666	75.06
248.899	69.06
249.133	88.06
249.366	104.06
249.599	92.06
249.832	96.06
250.066	85.06
250.299	81.06
250.532	74.06
250.765	85.06
250.998	72.06
251.231	80.06
251.465	72.06
251.698	72.06
251.931	75.06
252.164	75.06
252.397	92.06
252.63	73.06
252.863	77.06
253.096	67.06
253.329	87.06
253.562	83.06
253.795	89.06
254.028	83.06
254.261	84.06
254.494	76.06
254.727	84.06
254.96	85.06
255.193	68.06
255.426	75.06
255.659	70.06
255.892	81.06
256.124	90.06
256.357	77.06
256.59	93.06
256.823	91.06
257.056	87.06
257.289	75.06
257.521	87.06
257.754	82.06
257.987	83.06
258.22	80.06
258.452	74.06
258.685	65.06
258.918	85.06
259.151	82.06
259.383	93.06
259.616	85.06
259.849	90.06
260.081	76.06
260.314	86.06
260.547	97.06
260.779	90.06
261.012	81.06
261.244	74.06
261.477	88.06
261.71	93.06
261.942	92.06
262.175	106.06
262.407	87.06
262.64	71.06
262.872	83.06
263.105	82.06
263.337	83.06
263.57	58.06
263.802	92.06
264.035	75.06
264.267	86.06
264.499	98.06
264.732	86.06
264.964	85.06
265.197	86.06
265.429	82.06
265.661	80.06
265.894	80.06
266.126	104.06
266.358	89.06
266.591	90.06
266.823	81.06
267.055	83.06
267.287	84.06
267.52	92.06
267.752	77.06
267.984	90.06
268.216	85.06
268.448	86.06
268.681	81.06
268.913	94.06
269.145	84.06
269.377	73.06
269.609	91.06
269.841	80.06
270.073	82.06
270.306	89.06
270.538	82.06
270.77	85.06
271.002	89.06
271.234	81.06
271.466	73.06
271.698	80.06
271.93	84.06
272.162	92.06
272.394	84.06
272.626	94.06
272.858	88.06
273.09	83.06
273.322	82.06
273.553	76.06
273.785	88.06
274.017	93.06
274.249	81.06
274.481	95.06
274.713	80.06
274.945	88.06
275.176	74.06
275.408	85.06
275.64	74.06
275.872	90.06
276.104	100.06
276.335	87.06
276.567	94.06
276.799	110.06
277.031	102.06
277.262	105.06
277.494	111.06
277.726	84.06
277.957	89.06
278.189	93.06
278.421	87.06
278.652	90.06
278.884	86.06
279.115	91.06
279.347	76.06
279.579	76.06
279.81	64.06
280.042	96.06
280.273	84.06
280.505	90.06
280.736	82.06
280.968	79.06
281.199	93.06
281.431	82.06
281.662	88.06
281.894	102.06
282.125	105.06
282.356	120.06
282.588	124.06
282.819	101.06
283.051	108.06
283.282	83.06
283.513	83.06
283.745	77.06
283.976	96.06
284.207	84.06
284.439	82.06
284.67	90.06
284.901	91.06
285.132	98.06
285.364	86.06
285.595	82.06
285.826	87.06
286.057	74.06
286.288	80.06
286.52	90.06
286.751	86.06
286.982	83.06
287.213	85.06
287.444	101.06
287.675	84.06
287.906	84.06
288.138	98.06
288.369	92.06
288.6	83.06
288.831	82.06
289.062	89.06
289.293	96.06
289.524	73.06
289.755	84.06
289.986	78.06
290.217	77.06
290.448	74.06
290.679	73.06
290.91	85.06
291.141	72.06
291.371	76.06
291.602	81.06
291.833	98.06
292.064	86.06
292.295	80.06
292.526	94.06
292.757	92.06
292.987	92.06
293.218	86.06
293.449	81.06
293.68	78.06
293.91	69.06
294.141	84.06
294.372	88.06
294.603	89.06
294.833	92.06
295.064	89.06
295.295	90.06
295.525	100.06
295.756	101.06
295.987	110.06
296.217	131.06
296.448	117.06
296.679	90.06
296.909	94.06
297.14	92.06
297.37	90.06
297.601	86.06
297.831	90.06
298.062	65.06
298.292	74.06
298.523	97.06
298.753	99.06
298.984	77.06
299.214	86.06
299.445	75.06
299.675	90.06
299.905	83.06
300.136	80.06
300.366	87.06
300.597	85.06
300.827	99.06
301.057	88.06
301.288	103.06
301.518	113.06
301.748	81.06
301.979	93.06
302.209	85.06
302.439	93.06
302.669	95.06
302.9	87.06
303.13	80.06
303.36	98.06
303.59	88.06
303.82	91.06
304.051	95.06
304.281	90.06
304.511	107.06
304.741	87.06
304.971	74.06
305.201	88.06
305.431	92.06
305.661	91.06
305.891	96.06
306.121	100.06
306.352	86.06
306.582	95.06
306.812	100.06
307.042	95.06
307.272	92.06
307.502	105.06
307.731	83.06
307.961	101.06
308.191	86.06
308.421	93.06
308.651	88.06
308.881	97.06
309.111	75.06
309.341	106.06
309.571	85.06
309.8	89.06
310.03	100.06
310.26	85.06
310.49	75.06
310.72	101.06
310.949	85.06
311.179	116.06
311.409	92.06
311.639	89.06
311.868	97.06
312.098	92.06
312.328	90.06
312.557	96.06
312.787	99.06
313.017	99.06
313.246	90.06
313.476	81.06
313.706	95.06
313.935	100.06
314.165	95.06
314.394	86.06
314.624	91.06
314.853	93.06
315.083	94.06
315.312	91.06
315.542	85.06
315.771	106.06
316.001	95.06
316.23	85.06
316.46	88.06
316.689	82.06
316.919	90.06
317.148	83.06
317.377	86.06
317.607	86.06
317.836	89.06
318.065	85.06
318.295	78.06
318.524	100.06
318.753	84.06
318.983	89.06
319.212	97.06
319.441	101.06
319.67	91.06
319.9	86.06
320.129	90.06
320.358	95.06
320.587	99.06
320.816	104.06
321.046	86.06
321.275	99.06
321.504	92.06
321.733	91.06
321.962	96.06
322.191	97.06
322.42	104.06
322.649	108.06
322.878	107.06
323.108	101.06
323.337	115.06
323.566	118.06
323.795	149.06
324.024	180.06
324.253	322.06
324.482	698.06
324.71	1442.06
324.939	1925.06
325.168	718.06
325.397	239.06
325.626	121.06
325.855	105.06
326.084	115.06
326.313	121.06
326.542	131.06
326.77	217.06
326.999	395.06
327.228	816.06
327.457	1478.06
327.686	1184.06
327.914	348.06
328.143	184.06
328.372	141.06
328.6	122.06
328.829	101.06
329.058	132.06
329.287	119.06
329.515	95.06
329.744	113.06
329.972	110.06
330.201	123.06
330.43	136.06
330.658	110.06
330.887	135.06
331.115	117.06
331.344	104.06
331.572	96.06
331.801	107.06
332.03	91.06
332.258	101.06
332.486	86.06
332.715	101.06
332.943	100.06
333.172	99.06
333.4	99.06
333.629	111.06
333.857	112.06
334.085	103.06
334.314	114.06
334.542	141.06
334.771	140.06
334.999	90.06
335.227	86.06
335.455	89.06
335.684	93.06
335.912	97.06
336.14	105.06
336.369	109.06
336.597	96.06
336.825	92.06
337.053	91.06
337.281	95.06
337.51	98.06
337.738	90.06
337.966	98.06
338.194	102.06
338.422	95.06
338.65	96.06
338.878	84.06
339.106	91.06
339.334	86.06
339.562	91.06
339.79	94.06
340.018	81.06
340.246	78.06
340.474	72.06
340.702	108.06
340.93	107.06
341.158	95.06
341.386	100.06
341.614	92.06
341.842	101.06
342.07	93.06
342.298	101.06
342.526	88.06
342.754	88.06
342.981	71.06
343.209	80.06
343.437	90.06
343.665	90.06
343.893	96.06
344.12	98.06
344.348	88.06
344.576	95.06
344.804	87.06
345.031	99.06
345.259	98.06
345.487	95.06
345.714	107.06
345.942	91.06
346.17	98.06
346.397	106.06
346.625	83.06
346.853	88.06
347.08	90.06
347.308	108.06
347.535	105.06
347.763	95.06
347.99	96.06
348.218	107.06
348.445	102.06
348.673	95.06
348.9	90.06
349.128	99.06
349.355	94.06
349.583	87.06
349.81	94.06
350.037	93.06
350.265	78.06
350.492	83.06
350.72	88.06
350.947	88.06
351.174	106.06
351.402	112.06
351.629	86.06
351.856	108.06
352.083	106.06
352.311	93.06
352.538	100.06
352.765	101.06
352.992	94.06
353.22	105.06
353.447	109.06
353.674	94.06
353.901	91.06
354.128	92.06
354.355	90.06
354.583	105.06
354.81	97.06
355.037	93.06
355.264	100.06
355.491	97.06
355.718	90.06
355.945	102.06
356.172	105.06
356.399	96.06
356.626	98.06
356.853	86.06
357.08	82.06
357.307	75.06
357.534	96.06
357.761	82.06
357.988	86.06
358.215	86.06
358.441	87.06
358.668	92.06
358.895	81.06
359.122	82.06
359.349	84.06
359.576	93.06
359.802	86.06
360.029	107.06
360.256	98.06
360.483	89.06
360.709	86.06
360.936	99.06
361.163	85.06
361.39	90.06
361.616	89.06
361.843	84.06
362.07	106.06
362.296	97.06
362.523	88.06
362.749	88.06
362.976	78.06
363.203	100.06
363.429	61.06
363.656	84.06
363.882	81.06
364.109	95.06
364.335	94.06
364.562	84.06
364.788	96.06
365.015	94.06
365.241	100.06
365.468	98.06
365.694	99.06
365.92	75.06
366.147	88.06
366.373	90.06
366.599	73.06
366.826	90.06
367.052	84.06
367.278	87.06
367.505	80.06
367.731	92.06
367.957	101.06
368.184	87.06
368.41	93.06
368.636	95.06
368.862	124.06
369.089	95.06
369.315	96.06
369.541	93.06
369.767	96.06
369.993	96.06
370.219	93.06
370.445	93.06
370.672	96.06
370.898	73.06
371.124	86.06
371.35	89.06
371.576	93.06
371.802	95.06
372.028	82.06
372.254	86.06
372.48	95.06
372.706	82.06
372.932	94.06
373.158	74.06
373.384	86.06
373.61	93.06
373.835	86.06
374.061	91.06
374.287	79.06
374.513	85.06
374.739	85.06
374.965	77.06
375.191	95.06
375.416	82.06
375.642	93.06
375.868	96.06
376.094	71.06
376.319	84.06
376.545	88.06
376.771	88.06
376.997	86.06
377.222	88.06
377.448	87.06
377.674	85.06
377.899	84.06
378.125	81.06
378.35	102.06
378.576	85.06
378.802	84.06
379.027	85.06
379.253	90.06
379.478	89.06
379.704	86.06
379.929	91.06
380.155	96.06
380.38	83.06
380.606	90.06
380.831	94.06
381.057	88.06
381.282	96.06
381.507	99.06
381.733	102.06
381.958	118.06
382.184	87.06
382.409	104.06
382.634	109.06
382.86	99.06
383.085	104.06
383.31	96.06
383.535	86.06
383.761	101.06
383.986	94.06
384.211	94.06
384.436	104.06
384.662	94.06
384.887	96.06
385.112	109.06
385.337	108.06
385.562	102.06
385.787	110.06
386.013	104.06
386.238	115.06
386.463	88.06
386.688	108.06
386.913	83.06
387.138	103.06
387.363	97.06
387.588	92.06
387.813	101.06
388.038	113.06
388.263	110.06
388.488	99.06
388.713	98.06
388.938	100.06
389.163	93.06
389.387	83.06
389.612	94.06
389.837	104.06
390.062	85.06
390.287	98.06
390.512	87.06
390.736	80.06
390.961	91.06
391.186	96.06
391.411	99.06
391.636	93.06
391.86	76.06
392.085	93.06
392.31	93.06
392.534	86.06
392.759	84.06
392.984	94.06
393.208	94.06
393.433	80.06
393.658	78.06
393.882	82.06
394.107	76.06
394.331	77.06
394.556	77.06
394.78	83.06
395.005	82.06
395.229	89.06
395.454	83.06
395.678	75.06
395.903	87.06
396.127	106.06
396.352	85.06
396.576	89.06
396.801	81.06
397.025	76.06
397.249	84.06
397.474	81.06
397.698	86.06
397.922	85.06
398.147	92.06
398.371	77.06
398.595	84.06
398.82	96.06
399.044	83.06
399.268	93.06
399.492	91.06
399.717	99.06
399.941	89.06
400.165	86.06
400.389	90.06
400.613	92.06
400.837	84.06
401.062	86.06
401.286	91.06
401.51	75.06
401.734	99.06
401.958	100.06
402.182	114.06
402.406	141.06
402.63	98.06
402.854	81.06
403.078	93.06
403.302	99.06
403.526	84.06
403.75	93.06
403.974	84.06
404.198	75.06
404.422	104.06
404.645	93.06
404.869	83.06
405.093	86.06
405.317	96.06
405.541	108.06
405.765	105.06
405.988	109.06
406.212	163.06
406.436	195.06
406.66	126.06
406.883	81.06
407.107	88.06
407.331	93.06
407.555	104.06
407.778	111.06
408.002	93.06
408.226	89.06
408.449	103.06
408.673	84.06
408.896	97.06
409.12	102.06
409.344	92.06
409.567	91.06
409.791	98.06
410.014	107.06
410.238	88.06
410.461	82.06
410.685	81.06
410.908	88.06
411.132	108.06
411.355	105.06
411.578	98.06
411.802	93.06
412.025	84.06
412.249	85.06
412.472	85.06
412.695	86.06
412.919	85.06
413.142	100.06
413.365	86.06
413.589	87.06
413.812	82.06
414.035	90.06
414.258	99.06
414.482	89.06
414.705	90.06
414.928	90.06
415.151	97.06
415.374	97.06
415.597	87.06
415.821	94.06
416.044	93.06
416.267	78.06
416.49	100.06
416.713	88.06
416.936	99.06
417.159	85.06
417.382	91.06
417.605	93.06
417.828	98.06
418.051	87.06
418.274	90.06
418.497	113.06
418.72	96.06
418.943	99.06
419.166	91.06
419.389	85.06
419.611	94.06
419.834	96.06
420.057	82.06
420.28	80.06
420.503	95.06
420.726	101.06
420.948	97.06
421.171	93.06
421.394	100.06
421.617	79.06
421.839	90.06
422.062	101.06
422.285	91.06
422.507	83.06
422.73	104.06
422.953	92.06
423.175	96.06
423.398	86.06
423.621	93.06
423.843	85.06
424.066	98.06
424.288	68.06
424.511	88.06
424.733	89.06
424.956	94.06
425.178	103.06
425.401	97.06
425.623	88.06
425.846	84.06
426.068	99.06
426.291	96.06
426.513	90.06
426.735	90.06
426.958	91.06
427.18	112.06
427.402	131.06
427.625	139.06
427.847	118.06
428.069	101.06
428.292	86.06
428.514	90.06
428.736	85.06
428.958	90.06
429.181	97.06
429.403	85.06
429.625	89.06
429.847	89.06
430.069	93.06
430.292	86.06
430.514	82.06
430.736	88.06
430.958	80.06
431.18	86.06
431.402	86.06
431.624	85.06
431.846	86.06
432.068	91.06
432.29	81.06
432.512	89.06
432.734	98.06
432.956	97.06
433.178	106.06
433.4	92.06
433.622	95.06
433.844	72.06
434.066	85.06
434.287	80.06
434.509	91.06
434.731	104.06
434.953	104.06
435.175	94.06
435.397	92.06
435.618	91.06
435.84	91.06
436.062	119.06
436.284	115.06
436.505	111.06
436.727	116.06
436.949	88.06
437.17	96.06
437.392	100.06
437.614	92.06
437.835	109.06
438.057	110.06
438.278	100.06
438.5	111.06
438.721	93.06
438.943	89.06
439.165	91.06
439.386	92.06
439.608	94.06
439.829	93.06
440.05	112.06
440.272	123.06
440.493	83.06
440.715	82.06
440.936	100.06
441.158	88.06
441.379	95.06
441.6	101.06
441.822	87.06
442.043	98.06
442.264	108.06
442.486	99.06
442.707	102.06
442.928	100.06
443.149	111.06
443.371	111.06
443.592	109.06
443.813	100.06
444.034	93.06
444.255	105.06
444.476	94.06
444.698	92.06
444.919	80.06
445.14	141.06
445.361	117.06
445.582	104.06
445.803	128.06
446.024	132.06
446.245	129.06
446.466	114.06
446.687	88.06
446.908	96.06
447.129	99.06
447.35	86.06
447.571	102.06
447.792	92.06
448.013	98.06
448.234	100.06
448.455	101.06
448.675	115.06
448.896	121.06
449.117	102.06
449.338	94.06
449.559	123.06
449.779	142.06
450	101.06
450.221	94.06
450.442	97.06
450.662	97.06
450.883	109.06
451.104	98.06
451.324	104.06
451.545	89.06
451.766	91.06
451.986	84.06
452.207	88.06
452.428	85.06
452.648	81.06
452.869	110.06
453.089	113.06
453.31	104.06
453.53	81.06
453.751	102.06
453.971	89.06
454.192	109.06
454.412	93.06
454.633	88.06
454.853	79.06
455.073	104.06
455.294	91.06
455.514	100.06
455.734	89.06
455.955	92.06
456.175	105.06
456.395	87.06
456.616	83.06
456.836	89.06
457.056	84.06
457.276	92.06
457.497	89.06
457.717	84.06
457.937	87.06
458.157	95.06
458.377	91.06
458.598	110.06
458.818	131.06
459.038	153.06
459.258	96.06
459.478	96.06
459.698	75.06
459.918	89.06
460.138	87.06
460.358	79.06
460.578	99.06
460.798	94.06
461.018	94.06
461.238	97.06
461.458	92.06
461.678	94.06
461.898	74.06
462.118	85.06
462.338	88.06
462.558	88.06
462.777	71.06
462.997	77.06
463.217	73.06
463.437	84.06
463.657	84.06
463.876	98.06
464.096	91.06
464.316	93.06
464.536	92.06
464.755	90.06
464.975	114.06
465.195	153.06
465.414	130.06
465.634	100.06
465.854	96.06
466.073	91.06
466.293	86.06
466.512	88.06
466.732	81.06
466.951	85.06
467.171	80.06
467.391	100.06
467.61	105.06
467.829	99.06
468.049	111.06
468.268	104.06
468.488	88.06
468.707	86.06
468.927	96.06
469.146	84.06
469.365	93.06
469.585	100.06
469.804	97.06
470.023	95.06
470.243	104.06
470.462	93.06
470.681	92.06
470.901	94.06
471.12	84.06
471.339	84.06
471.558	85.06
471.777	97.06
471.997	81.06
472.216	120.06
472.435	165.06
472.654	101.06
472.873	92.06
473.092	88.06
473.311	82.06
473.53	84.06
473.749	86.06
473.968	90.06
474.187	93.06
474.406	96.06
474.625	95.06
474.844	96.06
475.063	87.06
475.282	98.06
475.501	103.06
475.72	90.06
475.939	96.06
476.158	98.06
476.377	89.06
476.596	96.06
476.814	89.06
477.033	80.06
477.252	82.06
477.471	90.06
477.69	94.06
477.908	100.06
478.127	80.06
478.346	91.06
478.564	87.06
478.783	102.06
479.002	79.06
479.22	97.06
479.439	101.06
479.658	105.06
479.876	93.06
480.095	95.06
480.313	105.06
480.532	101.06
480.751	88.06
480.969	103.06
481.188	220.06
481.406	152.06
481.624	98.06
481.843	84.06
482.061	85.06
482.28	76.06
482.498	98.06
482.717	87.06
482.935	93.06
483.153	72.06
483.372	91.06
483.59	86.06
483.808	87.06
484.027	92.06
484.245	82.06
484.463	90.06
484.681	101.06
484.9	92.06
485.118	108.06
485.336	105.06
485.554	114.06
485.772	111.06
485.99	105.06
486.209	94.06
486.427	104.06
486.645	102.06
486.863	116.06
487.081	104.06
487.299	100.06
487.517	106.06
487.735	97.06
487.953	100.06
488.171	86.06
488.389	85.06
488.607	94.06
488.825	88.06
489.043	83.06
489.261	91.06
489.479	92.06
489.696	89.06
489.914	85.06
490.132	89.06
490.35	80.06
490.568	90.06
490.786	104.06
491.003	84.06
491.221	96.06
491.439	86.06
491.657	93.06
491.874	89.06
492.092	76.06
492.31	88.06
492.527	86.06
492.745	89.06
492.963	88.06
493.18	100.06
493.398	103.06
493.615	93.06
493.833	92.06
494.05	88.06
494.268	84.06
494.485	89.06
494.703	91.06
494.92	115.06
495.138	84.06
495.355	90.06
495.573	97.06
495.79	89.06
496.008	84.06
496.225	77.06
496.442	84.06
496.66	84.06
496.877	93.06
497.094	99.06
497.312	105.06
497.529	89.06
497.746	82.06
497.963	93.06
498.181	86.06
498.398	77.06
498.615	118.06
498.832	99.06
499.049	103.06
499.267	82.06
499.484	86.06
499.701	91.06
499.918	86.06
500.135	103.06
500.352	85.06
500.569	106.06
500.786	81.06
501.003	84.06
501.22	76.06
501.437	90.06
501.654	87.06
501.871	101.06
502.088	82.06
502.305	96.06
502.522	93.06
502.739	91.06
502.956	92.06
503.172	93.06
503.389	94.06
503.606	98.06
503.823	89.06
504.04	86.06
504.256	96.06
504.473	94.06
504.69	85.06
504.907	98.06
505.123	87.06
505.34	99.06
505.557	84.06
505.773	93.06
505.99	90.06
506.207	77.06
506.423	100.06
506.64	103.06
506.856	100.06
507.073	97.06
507.289	96.06
507.506	110.06
507.722	102.06
507.939	92.06
508.155	81.06
508.372	97.06
508.588	101.06
508.805	97.06
509.021	108.06
509.238	93.06
509.454	94.06
509.67	104.06
509.887	98.06
510.103	135.06
510.319	214.06
510.536	690.06
510.752	2077.06
510.968	571.06
511.184	153.06
511.401	111.06
511.617	82.06
511.833	76.06
512.049	96.06
512.265	113.06
512.481	90.06
512.698	89.06
512.914	88.06
513.13	118.06
513.346	111.06
513.562	104.06
513.778	98.06
513.994	101.06
514.21	108.06
514.426	114.06
514.642	116.06
514.858	129.06
515.074	149.06
515.29	371.06
515.506	1236.06
515.721	457.06
