Data from Uncirc_1983_H10_HRD10591_00058.txt Node
Date: Wed Jan 03 12:25:43 EST 2024
User: Yrep
Spectrometer: HR+D1059
Trigger mode: 1
Integration Time (sec): 1.000000E-1
Scans to average: 1
Electric dark correction enabled: true
Nonlinearity correction enabled: false
Boxcar width: 0
XAxis mode: Wavelengths
Number of Pixels in Spectrum: 2048
>>>>>Begin Spectral Data<<<<<
223.165	-14
223.4	-14
223.635	-14
223.869	-18
224.104	-21
224.338	-16
224.573	-15
224.808	-15
225.042	-9
225.277	-3
225.511	-3
225.746	-9
225.98	9
226.215	19
226.449	17
226.683	21
226.918	27
227.152	30
227.387	33
227.621	54
227.856	40
228.09	45
228.324	61
228.559	76
228.793	60
229.027	62
229.262	70
229.496	76
229.73	74
229.964	87
230.199	76
230.433	67
230.667	86
230.901	78
231.136	84
231.37	71
231.604	93
231.838	83
232.072	87
232.306	80
232.541	90
232.775	93
233.009	83
233.243	90
233.477	81
233.711	101
233.945	75
234.179	89
234.413	72
234.647	80
234.881	80
235.115	65
235.349	108
235.583	95
235.817	83
236.051	83
236.285	91
236.519	80
236.753	83
236.987	87
237.221	84
237.455	88
237.689	79
237.922	91
238.156	70
238.39	77
238.624	91
238.858	84
239.091	67
239.325	86
239.559	87
239.793	83
240.027	81
240.26	74
240.494	94
240.728	80
240.961	90
241.195	96
241.429	79
241.662	80
241.896	69
242.13	75
242.363	76
242.597	73
242.83	88
243.064	81
243.298	75
243.531	84
243.765	71
243.998	74
244.232	83
244.465	92
244.699	64
244.932	98
245.166	78
245.399	96
245.633	77
245.866	72
246.099	77
246.333	74
246.566	71
246.8	85
247.033	88
247.266	76
247.5	79
247.733	77
247.966	94
248.2	77
248.433	85
248.666	100
248.899	84
249.133	69
249.366	89
249.599	93
249.832	87
250.066	99
250.299	80
250.532	83
250.765	81
250.998	83
251.231	85
251.465	75
251.698	89
251.931	87
252.164	87
252.397	68
252.63	86
252.863	83
253.096	90
253.329	79
253.562	87
253.795	73
254.028	88
254.261	91
254.494	85
254.727	83
254.96	84
255.193	73
255.426	67
255.659	95
255.892	79
256.124	80
256.357	89
256.59	87
256.823	84
257.056	92
257.289	80
257.521	76
257.754	94
257.987	95
258.22	93
258.452	84
258.685	77
258.918	78
259.151	85
259.383	93
259.616	94
259.849	79
260.081	93
260.314	84
260.547	83
260.779	87
261.012	92
261.244	89
261.477	89
261.71	103
261.942	120
262.175	112
262.407	87
262.64	78
262.872	81
263.105	84
263.337	95
263.57	94
263.802	91
264.035	93
264.267	88
264.499	82
264.732	85
264.964	81
265.197	83
265.429	93
265.661	78
265.894	79
266.126	85
266.358	94
266.591	84
266.823	89
267.055	97
267.287	68
267.52	73
267.752	88
267.984	95
268.216	84
268.448	91
268.681	88
268.913	89
269.145	91
269.377	94
269.609	90
269.841	86
270.073	93
270.306	95
270.538	90
270.77	87
271.002	72
271.234	83
271.466	81
271.698	84
271.93	95
272.162	89
272.394	99
272.626	101
272.858	88
273.09	87
273.322	97
273.553	88
273.785	95
274.017	80
274.249	89
274.481	87
274.713	89
274.945	89
275.176	80
275.408	78
275.64	83
275.872	87
276.104	101
276.335	96
276.567	93
276.799	104
277.031	104
277.262	84
277.494	90
277.726	79
277.957	100
278.189	93
278.421	92
278.652	90
278.884	99
279.115	91
279.347	89
279.579	88
279.81	92
280.042	90
280.273	96
280.505	87
280.736	84
280.968	101
281.199	74
281.431	86
281.662	87
281.894	97
282.125	94
282.356	121
282.588	133
282.819	114
283.051	102
283.282	97
283.513	80
283.745	95
283.976	85
284.207	85
284.439	99
284.67	69
284.901	76
285.132	104
285.364	92
285.595	95
285.826	93
286.057	89
286.288	94
286.52	100
286.751	108
286.982	101
287.213	85
287.444	92
287.675	89
287.906	95
288.138	94
288.369	100
288.6	101
288.831	80
289.062	91
289.293	102
289.524	88
289.755	101
289.986	88
290.217	82
290.448	100
290.679	95
290.91	85
291.141	80
291.371	91
291.602	89
291.833	82
292.064	86
292.295	95
292.526	91
292.757	96
292.987	100
293.218	96
293.449	89
293.68	92
293.91	96
294.141	96
294.372	96
294.603	108
294.833	100
295.064	88
295.295	88
295.525	87
295.756	98
295.987	109
296.217	121
296.448	105
296.679	112
296.909	99
297.14	91
297.37	76
297.601	93
297.831	99
298.062	83
298.292	87
298.523	101
298.753	96
298.984	106
299.214	83
299.445	108
299.675	95
299.905	92
300.136	85
300.366	92
300.597	102
300.827	106
301.057	94
301.288	97
301.518	93
301.748	89
301.979	96
302.209	87
302.439	89
302.669	87
302.9	97
303.13	93
303.36	99
303.59	104
303.82	102
304.051	99
304.281	80
304.511	107
304.741	87
304.971	101
305.201	87
305.431	83
305.661	89
305.891	100
306.121	103
306.352	105
306.582	87
306.812	96
307.042	103
307.272	92
307.502	96
307.731	88
307.961	99
308.191	94
308.421	87
308.651	96
308.881	93
309.111	94
309.341	80
309.571	104
309.8	97
310.03	91
310.26	90
310.49	92
310.72	96
310.949	98
311.179	105
311.409	85
311.639	99
311.868	98
312.098	101
312.328	87
312.557	101
312.787	96
313.017	95
313.246	95
313.476	100
313.706	93
313.935	91
314.165	77
314.394	102
314.624	89
314.853	104
315.083	92
315.312	99
315.542	90
315.771	97
316.001	99
316.23	86
316.46	92
316.689	104
316.919	103
317.148	111
317.377	91
317.607	89
317.836	103
318.065	108
318.295	80
318.524	91
318.753	95
318.983	97
319.212	106
319.441	103
319.67	84
319.9	109
320.129	93
320.358	101
320.587	91
320.816	103
321.046	97
321.275	103
321.504	117
321.733	92
321.962	90
322.191	109
322.42	115
322.649	115
322.878	120
323.108	104
323.337	131
323.566	146
323.795	153
324.024	180
324.253	343
324.482	735
324.71	1449
324.939	1931
325.168	725
325.397	217
325.626	144
325.855	129
326.084	127
326.313	116
326.542	134
326.77	207
326.999	401
327.228	808
327.457	1486
327.686	1187
327.914	307
328.143	167
328.372	157
328.6	121
328.829	107
329.058	117
329.287	123
329.515	116
329.744	107
329.972	119
330.201	125
330.43	133
330.658	119
330.887	139
331.115	110
331.344	102
331.572	113
331.801	103
332.03	95
332.258	95
332.486	86
332.715	105
332.943	122
333.172	108
333.4	100
333.629	109
333.857	118
334.085	107
334.314	117
334.542	117
334.771	123
334.999	96
335.227	99
335.455	107
335.684	106
335.912	108
336.14	92
336.369	90
336.597	104
336.825	100
337.053	96
337.281	89
337.51	101
337.738	92
337.966	87
338.194	99
338.422	98
338.65	93
338.878	98
339.106	103
339.334	111
339.562	83
339.79	108
340.018	106
340.246	92
340.474	90
340.702	90
340.93	109
341.158	86
341.386	108
341.614	104
341.842	101
342.07	97
342.298	91
342.526	90
342.754	88
342.981	93
343.209	92
343.437	109
343.665	96
343.893	103
344.12	91
344.348	103
344.576	96
344.804	100
345.031	102
345.259	100
345.487	100
345.714	104
345.942	96
346.17	90
346.397	107
346.625	92
346.853	97
347.08	110
347.308	104
347.535	111
347.763	99
347.99	101
348.218	104
348.445	99
348.673	103
348.9	103
349.128	101
349.355	92
349.583	103
349.81	102
350.037	102
350.265	87
350.492	104
350.72	104
350.947	100
351.174	99
351.402	115
351.629	99
351.856	104
352.083	103
352.311	104
352.538	97
352.765	116
352.992	102
353.22	113
353.447	115
353.674	110
353.901	106
354.128	92
354.355	97
354.583	121
354.81	96
355.037	97
355.264	99
355.491	95
355.718	85
355.945	98
356.172	101
356.399	112
356.626	96
356.853	101
357.08	96
357.307	111
357.534	99
357.761	108
357.988	76
358.215	102
358.441	69
358.668	96
358.895	87
359.122	95
359.349	92
359.576	107
359.802	100
360.029	94
360.256	103
360.483	89
360.709	105
360.936	92
361.163	91
361.39	98
361.616	103
361.843	89
362.07	96
362.296	95
362.523	99
362.749	76
362.976	96
363.203	94
363.429	84
363.656	98
363.882	86
364.109	102
364.335	93
364.562	79
364.788	108
365.015	95
365.241	108
365.468	102
365.694	95
365.92	93
366.147	102
366.373	97
366.599	107
366.826	100
367.052	84
367.278	88
367.505	89
367.731	103
367.957	102
368.184	88
368.41	105
368.636	114
368.862	108
369.089	90
369.315	110
369.541	94
369.767	96
369.993	87
370.219	91
370.445	103
370.672	78
370.898	89
371.124	92
371.35	86
371.576	104
371.802	101
372.028	88
372.254	84
372.48	88
372.706	93
372.932	84
373.158	81
373.384	85
373.61	93
373.835	96
374.061	81
374.287	95
374.513	95
374.739	92
374.965	92
375.191	94
375.416	97
375.642	98
375.868	105
376.094	92
376.319	85
376.545	95
376.771	83
376.997	90
377.222	91
377.448	93
377.674	81
377.899	100
378.125	100
378.35	84
378.576	94
378.802	100
379.027	88
379.253	89
379.478	106
379.704	92
379.929	91
380.155	91
380.38	91
380.606	84
380.831	105
381.057	99
381.282	106
381.507	107
381.733	86
381.958	92
382.184	102
382.409	102
382.634	109
382.86	91
383.085	94
383.31	96
383.535	105
383.761	89
383.986	102
384.211	113
384.436	97
384.662	89
384.887	93
385.112	103
385.337	99
385.562	112
385.787	105
386.013	110
386.238	104
386.463	100
386.688	107
386.913	97
387.138	117
387.363	109
387.588	108
387.813	114
388.038	122
388.263	115
388.488	108
388.713	106
388.938	95
389.163	104
389.387	103
389.612	104
389.837	94
390.062	110
390.287	100
390.512	102
390.736	89
390.961	94
391.186	89
391.411	103
391.636	86
391.86	99
392.085	83
392.31	91
392.534	97
392.759	85
392.984	98
393.208	104
393.433	100
393.658	100
393.882	100
394.107	83
394.331	83
394.556	88
394.78	101
395.005	104
395.229	100
395.454	96
395.678	90
395.903	92
396.127	91
396.352	99
396.576	91
396.801	87
397.025	85
397.249	93
397.474	95
397.698	92
397.922	91
398.147	90
398.371	98
398.595	80
398.82	91
399.044	99
399.268	98
399.492	99
399.717	88
399.941	88
400.165	102
400.389	95
400.613	95
400.837	99
401.062	102
401.286	89
401.51	97
401.734	101
401.958	101
402.182	122
402.406	137
402.63	102
402.854	96
403.078	102
403.302	94
403.526	83
403.75	104
403.974	84
404.198	96
404.422	80
404.645	96
404.869	95
405.093	91
405.317	106
405.541	113
405.765	105
405.988	110
406.212	147
406.436	198
406.66	133
406.883	102
407.107	107
407.331	83
407.555	100
407.778	103
408.002	92
408.226	96
408.449	80
408.673	93
408.896	86
409.12	96
409.344	99
409.567	91
409.791	91
410.014	101
410.238	91
410.461	92
410.685	84
410.908	89
411.132	104
411.355	99
411.578	87
411.802	100
412.025	87
412.249	96
412.472	105
412.695	108
412.919	104
413.142	84
413.365	96
413.589	88
413.812	94
414.035	109
414.258	87
414.482	95
414.705	96
414.928	96
415.151	103
415.374	100
415.597	101
415.821	95
416.044	103
416.267	80
416.49	92
416.713	95
416.936	89
417.159	87
417.382	86
417.605	98
417.828	80
418.051	89
418.274	93
418.497	101
418.72	106
418.943	94
419.166	79
419.389	108
419.611	99
419.834	83
420.057	84
420.28	80
420.503	103
420.726	101
420.948	89
421.171	87
421.394	110
421.617	87
421.839	109
422.062	85
422.285	84
422.507	90
422.73	98
422.953	75
423.175	98
423.398	95
423.621	100
423.843	91
424.066	84
424.288	85
424.511	96
424.733	95
424.956	103
425.178	94
425.401	105
425.623	85
425.846	90
426.068	103
426.291	94
426.513	87
426.735	83
426.958	84
427.18	111
427.402	144
427.625	153
427.847	125
428.069	110
428.292	79
428.514	100
428.736	94
428.958	95
429.181	83
429.403	92
429.625	88
429.847	91
430.069	91
430.292	92
430.514	95
430.736	93
430.958	91
431.18	76
431.402	78
431.624	96
431.846	90
432.068	94
432.29	93
432.512	88
432.734	87
432.956	96
433.178	98
433.4	99
433.622	103
433.844	93
434.066	110
434.287	100
434.509	98
434.731	94
434.953	103
435.175	94
435.397	95
435.618	105
435.84	111
436.062	110
436.284	105
436.505	103
436.727	98
436.949	90
437.17	91
437.392	90
437.614	107
437.835	103
438.057	109
438.278	121
438.5	116
438.721	112
438.943	106
439.165	97
439.386	103
439.608	97
439.829	105
440.05	106
440.272	152
440.493	103
440.715	107
440.936	87
441.158	81
441.379	107
441.6	97
441.822	99
442.043	91
442.264	108
442.486	101
442.707	91
442.928	103
443.149	131
443.371	120
443.592	117
443.813	111
444.034	111
444.255	94
444.476	76
444.698	93
444.919	95
445.14	153
445.361	121
445.582	119
445.803	117
446.024	118
446.245	128
446.466	110
446.687	96
446.908	88
447.129	96
447.35	81
447.571	105
447.792	88
448.013	105
448.234	98
448.455	112
448.675	107
448.896	95
449.117	102
449.338	108
449.559	136
449.779	133
450	96
450.221	96
450.442	91
450.662	89
450.883	107
451.104	115
451.324	86
451.545	95
451.766	94
451.986	82
452.207	83
452.428	100
452.648	91
452.869	107
453.089	114
453.31	111
453.53	100
453.751	83
453.971	114
454.192	104
454.412	101
454.633	80
454.853	91
455.073	93
455.294	91
455.514	113
455.734	90
455.955	80
456.175	80
456.395	101
456.616	102
456.836	79
457.056	103
457.276	88
457.497	98
457.717	104
457.937	91
458.157	85
458.377	105
458.598	92
458.818	123
459.038	152
459.258	107
459.478	95
459.698	90
459.918	80
460.138	94
460.358	93
460.578	95
460.798	94
461.018	67
461.238	94
461.458	84
461.678	96
461.898	73
462.118	93
462.338	93
462.558	100
462.777	84
462.997	87
463.217	77
463.437	90
463.657	101
463.876	104
464.096	93
464.316	103
464.536	102
464.755	93
464.975	117
465.195	148
465.414	140
465.634	99
465.854	89
466.073	85
466.293	83
466.512	101
466.732	79
466.951	104
467.171	86
467.391	93
467.61	104
467.829	98
468.049	104
468.268	88
468.488	92
468.707	91
468.927	83
469.146	97
469.365	93
469.585	95
469.804	108
470.023	87
470.243	78
470.462	99
470.681	123
470.901	99
471.12	81
471.339	85
471.558	98
471.777	85
471.997	88
472.216	101
472.435	111
472.654	90
472.873	96
473.092	84
473.311	82
473.53	99
473.749	91
473.968	80
474.187	99
474.406	99
474.625	92
474.844	80
475.063	80
475.282	90
475.501	81
475.72	101
475.939	86
476.158	100
476.377	115
476.596	91
476.814	78
477.033	105
477.252	80
477.471	87
477.69	97
477.908	91
478.127	104
478.346	88
478.564	103
478.783	110
479.002	94
479.22	88
479.439	102
479.658	107
479.876	98
480.095	92
480.313	98
480.532	111
480.751	97
480.969	103
481.188	155
481.406	140
481.624	103
481.843	95
482.061	81
482.28	97
482.498	88
482.717	98
482.935	98
483.153	89
483.372	101
483.59	97
483.808	96
484.027	90
484.245	93
484.463	95
484.681	93
484.9	110
485.118	106
485.336	97
485.554	111
485.772	93
485.99	105
486.209	114
486.427	99
486.645	112
486.863	109
487.081	108
487.299	108
487.517	97
487.735	99
487.953	99
488.171	90
488.389	90
488.607	110
488.825	100
489.043	86
489.261	96
489.479	94
489.696	104
489.914	90
490.132	95
490.35	87
490.568	98
490.786	87
491.003	107
491.221	86
491.439	86
491.657	91
491.874	85
492.092	99
492.31	88
492.527	108
492.745	93
492.963	99
493.18	80
493.398	95
493.615	103
493.833	108
494.05	98
494.268	107
494.485	85
494.703	105
494.92	99
495.138	96
495.355	109
495.573	96
495.79	91
496.008	102
496.225	101
496.442	104
496.66	97
496.877	99
497.094	89
497.312	87
497.529	92
497.746	79
497.963	90
498.181	79
498.398	97
498.615	115
498.832	104
499.049	98
499.267	111
499.484	80
499.701	87
499.918	83
500.135	86
500.352	99
500.569	91
500.786	106
501.003	97
501.22	99
501.437	100
501.654	98
501.871	104
502.088	98
502.305	84
502.522	87
502.739	100
502.956	96
503.172	98
503.389	94
503.606	113
503.823	101
504.04	98
504.256	93
504.473	91
504.69	96
504.907	102
505.123	104
505.34	95
505.557	99
505.773	109
505.99	88
506.207	84
506.423	96
506.64	93
506.856	91
507.073	84
507.289	97
507.506	92
507.722	111
507.939	110
508.155	93
508.372	86
508.588	110
508.805	112
509.021	91
509.238	125
509.454	89
509.67	110
509.887	111
510.103	143
510.319	207
510.536	666
510.752	1983
510.968	551
511.184	152
511.401	109
511.617	107
511.833	112
512.049	106
512.265	102
512.481	96
512.698	109
512.914	74
513.13	101
513.346	109
513.562	96
513.778	105
513.994	113
514.21	93
514.426	125
514.642	141
514.858	113
515.074	144
515.29	368
515.506	1194
515.721	444
515.937	150
516.153	112
516.369	102
516.585	103
516.801	103
517.016	87
517.232	102
517.448	97
517.664	83
517.879	100
518.095	106
518.311	97
518.527	83
518.742	92
518.958	96
519.173	96
519.389	95
519.605	97
519.82	94
520.036	119
520.251	118
520.467	108
520.682	97
520.898	110
521.113	124
521.329	127
521.544	188
521.76	477
521.975	1957
522.19	1195
522.406	270
522.621	113
522.836	115
523.052	119
523.267	96
523.482	93
523.698	105
523.913	127
524.128	115
524.343	114
524.559	103
524.774	84
524.989	100
525.204	118
525.419	105
525.634	82
525.849	92
526.064	94
526.28	112
526.495	84
526.71	91
526.925	98
527.14	92
527.355	81
527.57	112
527.785	96
527.999	79
528.214	108
528.429	102
528.644	96
528.859	97
529.074	93
529.289	122
529.503	171
529.718	106
529.933	85
530.148	91
530.363	100
530.577	108
530.792	109
531.007	109
531.221	94
531.436	104
531.651	103
531.865	108
532.08	99
532.295	105
532.509	106
532.724	84
532.938	109
533.153	99
533.367	106
533.582	116
533.796	93
534.011	95
534.225	112
534.44	96
534.654	91
534.868	98
535.083	87
535.297	98
535.511	89
535.726	92
535.94	103
536.154	106
536.369	103
536.583	101
536.797	102
537.011	89
537.225	80
537.44	94
537.654	101
537.868	95
538.082	99
538.296	92
538.51	112
538.724	85
538.938	92
539.153	101
539.367	111
539.581	107
539.795	104
540.009	79
540.222	89
540.436	93
540.65	103
540.864	88
541.078	94
541.292	95
541.506	83
541.72	87
541.934	103
542.147	89
542.361	97
542.575	94
542.789	94
543.002	96
543.216	98
543.43	95
543.644	87
543.857	95
544.071	97
544.285	102
544.498	94
544.712	95
544.925	94
545.139	91
545.352	89
545.566	83
545.779	95
545.993	99
546.206	84
546.42	92
546.633	93
546.847	80
547.06	99
547.274	99
547.487	85
547.7	96
547.914	98
548.127	93
548.34	97
548.554	95
548.767	95
548.98	101
549.193	94
549.407	99
549.62	95
549.833	94
550.046	95
550.259	98
550.473	111
550.686	92
550.899	91
551.112	92
551.325	93
551.538	95
551.751	87
551.964	90
552.177	96
552.39	96
552.603	86
552.816	98
553.029	95
553.242	102
553.455	109
553.667	113
553.88	105
554.093	96
554.306	92
554.519	86
554.732	80
554.944	87
555.157	97
555.37	95
555.583	102
555.795	84
556.008	87
556.221	81
556.433	86
556.646	93
556.859	99
557.071	96
557.284	88
557.496	92
557.709	101
557.921	95
558.134	108
558.346	94
558.559	98
558.771	92
558.984	92
559.196	96
559.409	69
559.621	91
559.833	90
560.046	91
560.258	92
560.47	71
560.683	103
560.895	93
561.107	93
561.32	93
561.532	92
561.744	92
561.956	87
562.168	97
562.381	88
562.593	100
562.805	91
563.017	99
563.229	103
563.441	86
563.653	87
563.865	84
564.077	96
564.289	87
564.501	86
564.713	90
564.925	95
565.137	99
565.349	93
565.561	97
565.773	101
565.985	89
566.197	100
566.408	96
566.62	91
566.832	114
567.044	98
567.255	100
567.467	104
567.679	93
567.891	85
568.102	87
568.314	109
568.526	94
568.737	96
568.949	79
569.161	92
569.372	87
569.584	87
569.795	107
570.007	102
570.218	221
570.43	129
570.641	75
570.853	95
571.064	96
571.276	83
571.487	85
571.698	86
571.91	107
572.121	101
572.333	92
572.544	108
572.755	70
572.966	93
573.178	91
573.389	94
573.6	91
573.811	96
574.023	101
574.234	84
574.445	111
574.656	76
574.867	105
575.078	95
575.289	93
575.501	96
575.712	85
575.923	95
576.134	92
576.345	94
576.556	93
576.767	96
576.978	91
577.188	97
577.399	102
577.61	93
577.821	97
578.032	132
578.243	258
578.454	662
578.665	207
578.875	98
579.086	97
579.297	91
579.508	103
579.718	105
579.929	114
580.14	107
580.35	85
580.561	78
580.772	81
580.982	73
581.193	71
