Data from Uncirc_1983_H10_HRD10591_00053.txt Node
Date: Wed Jan 03 12:25:42 EST 2024
User: Yrep
Spectrometer: HR+D1059
Trigger mode: 1
Integration Time (sec): 1.000000E-1
Scans to average: 1
Electric dark correction enabled: true
Nonlinearity correction enabled: false
Boxcar width: 0
XAxis mode: Wavelengths
Number of Pixels in Spectrum: 2048
>>>>>Begin Spectral Data<<<<<
223.165	-20
223.4	-20
223.635	-20
223.869	-2
224.104	-10
224.338	-7
224.573	-22
224.808	-10
225.042	-1
225.277	-2
225.511	-9
225.746	5
225.98	-4
226.215	21
226.449	14
226.683	5
226.918	11
227.152	31
227.387	46
227.621	61
227.856	32
228.09	58
228.324	48
228.559	48
228.793	52
229.027	62
229.262	76
229.496	77
229.73	80
229.964	83
230.199	62
230.433	79
230.667	91
230.901	77
231.136	75
231.37	89
231.604	78
231.838	84
232.072	77
232.306	79
232.541	85
232.775	76
233.009	86
233.243	81
233.477	87
233.711	78
233.945	79
234.179	72
234.413	90
234.647	86
234.881	72
235.115	58
235.349	78
235.583	103
235.817	86
236.051	85
236.285	75
236.519	76
236.753	86
236.987	82
237.221	78
237.455	79
237.689	87
237.922	96
238.156	91
238.39	75
238.624	79
238.858	79
239.091	88
239.325	79
239.559	80
239.793	79
240.027	94
240.26	78
240.494	86
240.728	74
240.961	86
241.195	75
241.429	79
241.662	77
241.896	77
242.13	75
242.363	96
242.597	87
242.83	80
243.064	89
243.298	73
243.531	79
243.765	87
243.998	87
244.232	81
244.465	89
244.699	92
244.932	82
245.166	80
245.399	76
245.633	83
245.866	74
246.099	84
246.333	68
246.566	85
246.8	76
247.033	78
247.266	70
247.5	82
247.733	84
247.966	84
248.2	79
248.433	70
248.666	69
248.899	95
249.133	90
249.366	86
249.599	85
249.832	88
250.066	88
250.299	83
250.532	76
250.765	93
250.998	78
251.231	79
251.465	79
251.698	84
251.931	80
252.164	70
252.397	80
252.63	95
252.863	86
253.096	75
253.329	82
253.562	82
253.795	93
254.028	88
254.261	75
254.494	86
254.727	76
254.96	79
255.193	90
255.426	90
255.659	75
255.892	87
256.124	89
256.357	88
256.59	78
256.823	87
257.056	83
257.289	89
257.521	90
257.754	98
257.987	94
258.22	87
258.452	82
258.685	86
258.918	91
259.151	82
259.383	77
259.616	77
259.849	80
260.081	90
260.314	86
260.547	88
260.779	94
261.012	77
261.244	67
261.477	95
261.71	99
261.942	84
262.175	105
262.407	84
262.64	90
262.872	80
263.105	90
263.337	92
263.57	102
263.802	97
264.035	72
264.267	91
264.499	79
264.732	94
264.964	81
265.197	84
265.429	99
265.661	80
265.894	84
266.126	84
266.358	88
266.591	90
266.823	84
267.055	75
267.287	67
267.52	79
267.752	107
267.984	94
268.216	81
268.448	93
268.681	81
268.913	91
269.145	76
269.377	82
269.609	82
269.841	104
270.073	95
270.306	88
270.538	85
270.77	96
271.002	77
271.234	88
271.466	84
271.698	87
271.93	85
272.162	100
272.394	96
272.626	75
272.858	87
273.09	74
273.322	90
273.553	85
273.785	96
274.017	94
274.249	92
274.481	68
274.713	74
274.945	86
275.176	90
275.408	106
275.64	87
275.872	70
276.104	93
276.335	85
276.567	100
276.799	107
277.031	88
277.262	89
277.494	86
277.726	93
277.957	97
278.189	78
278.421	90
278.652	88
278.884	82
279.115	83
279.347	99
279.579	86
279.81	88
280.042	91
280.273	93
280.505	91
280.736	86
280.968	90
281.199	90
281.431	83
281.662	97
281.894	79
282.125	98
282.356	114
282.588	128
282.819	96
283.051	104
283.282	89
283.513	84
283.745	85
283.976	97
284.207	105
284.439	102
284.67	102
284.901	93
285.132	95
285.364	92
285.595	90
285.826	94
286.057	85
286.288	84
286.52	90
286.751	94
286.982	75
287.213	82
287.444	90
287.675	78
287.906	90
288.138	95
288.369	90
288.6	94
288.831	91
289.062	90
289.293	100
289.524	85
289.755	90
289.986	90
290.217	93
290.448	88
290.679	84
290.91	79
291.141	89
291.371	92
291.602	88
291.833	95
292.064	94
292.295	100
292.526	87
292.757	83
292.987	92
293.218	94
293.449	85
293.68	91
293.91	87
294.141	90
294.372	100
294.603	88
294.833	92
295.064	98
295.295	92
295.525	82
295.756	101
295.987	113
296.217	128
296.448	109
296.679	99
296.909	86
297.14	91
297.37	94
297.601	84
297.831	91
298.062	99
298.292	103
298.523	88
298.753	82
298.984	92
299.214	105
299.445	87
299.675	98
299.905	102
300.136	96
300.366	90
300.597	110
300.827	96
301.057	90
301.288	106
301.518	83
301.748	79
301.979	103
302.209	90
302.439	82
302.669	102
302.9	85
303.13	95
303.36	99
303.59	103
303.82	90
304.051	94
304.281	101
304.511	87
304.741	93
304.971	92
305.201	95
305.431	82
305.661	87
305.891	84
306.121	101
306.352	91
306.582	101
306.812	95
307.042	98
307.272	99
307.502	91
307.731	109
307.961	105
308.191	95
308.421	93
308.651	101
308.881	95
309.111	108
309.341	86
309.571	102
309.8	89
310.03	94
310.26	86
310.49	92
310.72	102
310.949	99
311.179	103
311.409	95
311.639	92
311.868	98
312.098	90
312.328	94
312.557	99
312.787	102
313.017	96
313.246	95
313.476	97
313.706	80
313.935	94
314.165	102
314.394	100
314.624	90
314.853	101
315.083	103
315.312	110
315.542	105
315.771	91
316.001	94
316.23	102
316.46	88
316.689	83
316.919	95
317.148	103
317.377	85
317.607	96
317.836	91
318.065	91
318.295	86
318.524	105
318.753	98
318.983	89
319.212	88
319.441	110
319.67	109
319.9	91
320.129	93
320.358	94
320.587	87
320.816	98
321.046	100
321.275	101
321.504	95
321.733	105
321.962	106
322.191	95
322.42	103
322.649	110
322.878	110
323.108	102
323.337	117
323.566	117
323.795	126
324.024	171
324.253	319
324.482	684
324.71	1358
324.939	1722
325.168	638
325.397	210
325.626	149
325.855	143
326.084	124
326.313	132
326.542	137
326.77	204
326.999	369
327.228	800
327.457	1371
327.686	1099
327.914	312
328.143	167
328.372	138
328.6	125
328.829	108
329.058	102
329.287	118
329.515	106
329.744	85
329.972	114
330.201	106
330.43	114
330.658	118
330.887	130
331.115	111
331.344	111
331.572	88
331.801	100
332.03	104
332.258	102
332.486	100
332.715	112
332.943	99
333.172	95
333.4	101
333.629	110
333.857	100
334.085	108
334.314	103
334.542	112
334.771	115
334.999	105
335.227	92
335.455	90
335.684	94
335.912	97
336.14	104
336.369	107
336.597	111
336.825	91
337.053	102
337.281	95
337.51	84
337.738	100
337.966	105
338.194	91
338.422	114
338.65	96
338.878	100
339.106	98
339.334	108
339.562	102
339.79	93
340.018	87
340.246	94
340.474	84
340.702	112
340.93	96
341.158	106
341.386	82
341.614	95
341.842	93
342.07	96
342.298	99
342.526	81
342.754	86
342.981	96
343.209	97
343.437	108
343.665	95
343.893	90
344.12	102
344.348	99
344.576	96
344.804	100
345.031	107
345.259	94
345.487	84
345.714	99
345.942	96
346.17	83
346.397	96
346.625	100
346.853	96
347.08	89
347.308	82
347.535	92
347.763	110
347.99	93
348.218	88
348.445	111
348.673	94
348.9	98
349.128	100
349.355	95
349.583	98
349.81	94
350.037	105
350.265	101
350.492	80
350.72	90
350.947	108
351.174	107
351.402	107
351.629	98
351.856	95
352.083	88
352.311	100
352.538	122
352.765	117
352.992	122
353.22	115
353.447	107
353.674	95
353.901	97
354.128	109
354.355	91
354.583	102
354.81	82
355.037	95
355.264	101
355.491	110
355.718	99
355.945	97
356.172	90
356.399	84
356.626	107
356.853	102
357.08	105
357.307	98
357.534	96
357.761	102
357.988	84
358.215	102
358.441	100
358.668	103
358.895	91
359.122	94
359.349	88
359.576	102
359.802	100
360.029	107
360.256	108
360.483	98
360.709	93
360.936	98
361.163	100
361.39	93
361.616	103
361.843	94
362.07	85
362.296	97
362.523	84
362.749	88
362.976	92
363.203	99
363.429	76
363.656	106
363.882	86
364.109	94
364.335	102
364.562	109
364.788	92
365.015	93
365.241	88
365.468	93
365.694	111
365.92	98
366.147	95
366.373	76
366.599	92
366.826	98
367.052	96
367.278	91
367.505	89
367.731	77
367.957	96
368.184	96
368.41	97
368.636	96
368.862	102
369.089	106
369.315	96
369.541	108
369.767	84
369.993	106
370.219	85
370.445	95
370.672	88
370.898	97
371.124	98
371.35	89
371.576	87
371.802	95
372.028	87
372.254	86
372.48	90
372.706	90
372.932	82
373.158	86
373.384	90
373.61	83
373.835	94
374.061	86
374.287	94
374.513	89
374.739	96
374.965	88
375.191	98
375.416	91
375.642	110
375.868	86
376.094	85
376.319	92
376.545	94
376.771	93
376.997	94
377.222	97
377.448	109
377.674	99
377.899	88
378.125	93
378.35	103
378.576	83
378.802	100
379.027	101
379.253	95
379.478	93
379.704	86
379.929	80
380.155	78
380.38	94
380.606	100
380.831	87
381.057	113
381.282	103
381.507	90
381.733	89
381.958	94
382.184	94
382.409	104
382.634	96
382.86	92
383.085	95
383.31	102
383.535	107
383.761	81
383.986	90
384.211	95
384.436	99
384.662	95
384.887	89
385.112	107
385.337	102
385.562	105
385.787	104
386.013	106
386.238	111
386.463	102
386.688	109
386.913	99
387.138	106
387.363	107
387.588	110
387.813	104
388.038	102
388.263	106
388.488	96
388.713	95
388.938	98
389.163	99
389.387	85
389.612	80
389.837	94
390.062	81
390.287	92
390.512	100
390.736	102
390.961	86
391.186	98
391.411	92
391.636	96
391.86	84
392.085	90
392.31	93
392.534	84
392.759	92
392.984	85
393.208	93
393.433	96
393.658	86
393.882	95
394.107	87
394.331	85
394.556	90
394.78	99
395.005	90
395.229	92
395.454	84
395.678	87
395.903	80
396.127	85
396.352	88
396.576	86
396.801	87
397.025	97
397.249	107
397.474	94
397.698	87
397.922	87
398.147	84
398.371	86
398.595	94
398.82	86
399.044	87
399.268	82
399.492	74
399.717	84
399.941	90
400.165	102
400.389	88
400.613	109
400.837	95
401.062	82
401.286	93
401.51	94
401.734	89
401.958	105
402.182	118
402.406	142
402.63	121
402.854	101
403.078	96
403.302	102
403.526	104
403.75	82
403.974	75
404.198	88
404.422	86
404.645	88
404.869	101
405.093	92
405.317	96
405.541	102
405.765	91
405.988	99
406.212	143
406.436	200
406.66	132
406.883	93
407.107	94
407.331	86
407.555	101
407.778	91
408.002	98
408.226	94
408.449	72
408.673	95
408.896	90
409.12	95
409.344	96
409.567	93
409.791	98
410.014	99
410.238	107
410.461	100
410.685	95
410.908	99
411.132	110
411.355	110
411.578	94
411.802	96
412.025	100
412.249	100
412.472	99
412.695	93
412.919	97
413.142	89
413.365	99
413.589	100
413.812	99
414.035	88
414.258	91
414.482	92
414.705	96
414.928	95
415.151	100
415.374	115
415.597	85
415.821	106
416.044	95
416.267	93
416.49	88
416.713	96
416.936	88
417.159	85
417.382	83
417.605	91
417.828	96
418.051	110
418.274	94
418.497	94
418.72	79
418.943	84
419.166	88
419.389	99
419.611	92
419.834	92
420.057	84
420.28	90
420.503	87
420.726	90
420.948	99
421.171	98
421.394	90
421.617	90
421.839	89
422.062	86
422.285	107
422.507	102
422.73	118
422.953	109
423.175	83
423.398	84
423.621	100
423.843	90
424.066	95
424.288	92
424.511	93
424.733	95
424.956	100
425.178	92
425.401	104
425.623	94
425.846	83
426.068	101
426.291	95
426.513	100
426.735	91
426.958	92
427.18	108
427.402	113
427.625	141
427.847	128
428.069	102
428.292	91
428.514	91
428.736	89
428.958	84
429.181	101
429.403	91
429.625	76
429.847	95
430.069	107
430.292	86
430.514	90
430.736	89
430.958	91
431.18	87
431.402	80
431.624	82
431.846	86
432.068	92
432.29	94
432.512	88
432.734	84
432.956	97
433.178	99
433.4	85
433.622	89
433.844	94
434.066	85
434.287	90
434.509	95
434.731	84
434.953	94
435.175	90
435.397	90
435.618	105
435.84	107
436.062	120
436.284	108
436.505	97
436.727	99
436.949	90
437.17	87
437.392	80
437.614	106
437.835	108
438.057	108
438.278	118
438.5	106
438.721	111
438.943	109
439.165	98
439.386	93
439.608	92
439.829	85
440.05	123
440.272	124
440.493	103
440.715	91
440.936	88
441.158	91
441.379	76
441.6	99
441.822	90
442.043	95
442.264	90
442.486	96
442.707	102
442.928	97
443.149	126
443.371	130
443.592	103
443.813	121
444.034	109
444.255	91
444.476	80
444.698	70
444.919	92
445.14	119
445.361	104
445.582	100
445.803	118
446.024	116
446.245	110
446.466	106
446.687	91
446.908	84
447.129	84
447.35	87
447.571	89
447.792	93
448.013	86
448.234	134
448.455	106
448.675	107
448.896	100
449.117	99
449.338	113
449.559	116
449.779	126
450	108
450.221	92
450.442	88
450.662	103
450.883	87
451.104	107
451.324	99
451.545	84
451.766	85
451.986	102
452.207	84
452.428	107
452.648	98
452.869	108
453.089	108
453.31	118
453.53	86
453.751	95
453.971	118
454.192	90
454.412	87
454.633	94
454.853	92
455.073	91
455.294	96
455.514	103
455.734	89
455.955	94
456.175	102
456.395	83
456.616	88
456.836	89
457.056	103
457.276	80
457.497	86
457.717	81
457.937	92
458.157	97
458.377	79
458.598	111
458.818	126
459.038	140
459.258	113
459.478	84
459.698	87
459.918	88
460.138	98
460.358	91
460.578	102
460.798	101
461.018	96
461.238	89
461.458	85
461.678	86
461.898	87
462.118	92
462.338	97
462.558	97
462.777	82
462.997	99
463.217	80
463.437	98
463.657	88
463.876	86
464.096	94
464.316	80
464.536	93
464.755	92
464.975	108
465.195	141
465.414	142
465.634	93
465.854	86
466.073	84
466.293	80
466.512	77
466.732	83
466.951	92
467.171	102
467.391	96
467.61	105
467.829	112
468.049	103
468.268	93
468.488	97
468.707	88
468.927	86
469.146	99
469.365	99
469.585	78
469.804	89
470.023	104
470.243	75
470.462	104
470.681	104
470.901	98
471.12	85
471.339	86
471.558	86
471.777	85
471.997	92
472.216	98
472.435	117
472.654	102
472.873	95
473.092	87
473.311	92
473.53	94
473.749	83
473.968	88
474.187	105
474.406	101
474.625	99
474.844	91
475.063	99
475.282	106
475.501	92
475.72	80
475.939	96
476.158	73
476.377	84
476.596	92
476.814	87
477.033	98
477.252	98
477.471	104
477.69	91
477.908	90
478.127	99
478.346	95
478.564	91
478.783	100
479.002	101
479.22	106
479.439	99
479.658	101
479.876	100
480.095	104
480.313	98
480.532	98
480.751	100
480.969	104
481.188	140
481.406	118
481.624	103
481.843	100
482.061	86
482.28	95
482.498	98
482.717	106
482.935	97
483.153	101
483.372	90
483.59	76
483.808	87
484.027	86
484.245	96
484.463	96
484.681	88
484.9	87
485.118	90
485.336	92
485.554	99
485.772	101
485.99	110
486.209	102
486.427	115
486.645	108
486.863	104
487.081	111
487.299	106
487.517	106
487.735	98
487.953	96
488.171	90
488.389	102
488.607	108
488.825	99
489.043	98
489.261	89
489.479	104
489.696	111
489.914	101
490.132	96
490.35	94
490.568	92
490.786	95
491.003	106
491.221	112
491.439	84
491.657	78
491.874	96
492.092	94
492.31	100
492.527	97
492.745	96
492.963	89
493.18	100
493.398	102
493.615	102
493.833	79
494.05	82
494.268	94
494.485	103
494.703	92
494.92	90
495.138	92
495.355	78
495.573	100
495.79	94
496.008	93
496.225	102
496.442	105
496.66	95
496.877	94
497.094	89
497.312	101
497.529	84
497.746	103
497.963	96
498.181	102
498.398	94
498.615	100
498.832	103
499.049	96
499.267	86
499.484	91
499.701	93
499.918	84
500.135	86
500.352	80
500.569	98
500.786	106
501.003	87
501.22	90
501.437	91
501.654	89
501.871	90
502.088	90
502.305	98
502.522	97
502.739	96
502.956	82
503.172	82
503.389	96
503.606	103
503.823	99
504.04	88
504.256	107
504.473	95
504.69	98
504.907	96
505.123	90
505.34	79
505.557	90
505.773	90
505.99	70
506.207	81
506.423	76
506.64	94
506.856	80
507.073	89
507.289	89
507.506	105
507.722	125
507.939	108
508.155	92
508.372	99
508.588	106
508.805	83
509.021	97
509.238	105
509.454	101
509.67	121
509.887	112
510.103	131
510.319	190
510.536	608
510.752	1945
510.968	538
511.184	147
511.401	98
511.617	116
511.833	93
512.049	101
512.265	95
512.481	86
512.698	105
512.914	121
513.13	86
513.346	91
513.562	102
513.778	99
513.994	102
514.21	107
514.426	94
514.642	122
514.858	109
515.074	161
515.29	364
515.506	1128
515.721	423
515.937	143
516.153	126
516.369	92
516.585	95
516.801	104
517.016	97
517.232	93
517.448	89
517.664	85
517.879	95
518.095	93
518.311	97
518.527	91
518.742	98
518.958	96
519.173	107
519.389	96
519.605	73
519.82	94
520.036	117
520.251	115
520.467	109
520.682	97
520.898	100
521.113	108
521.329	128
521.544	188
521.76	423
521.975	1811
522.19	1070
522.406	247
522.621	106
522.836	102
523.052	95
523.267	110
523.482	104
523.698	86
523.913	121
524.128	116
524.343	92
524.559	101
524.774	90
524.989	96
525.204	110
525.419	80
525.634	89
525.849	85
526.064	93
526.28	99
526.495	96
526.71	92
526.925	75
527.14	106
527.355	87
527.57	95
527.785	102
527.999	86
528.214	82
528.429	110
528.644	100
528.859	103
529.074	93
529.289	117
529.503	146
529.718	100
529.933	95
530.148	88
530.363	107
530.577	95
530.792	88
531.007	104
531.221	99
531.436	91
531.651	111
531.865	100
532.08	86
532.295	107
532.509	92
532.724	105
532.938	104
533.153	107
533.367	88
533.582	99
533.796	89
534.011	87
534.225	106
534.44	86
534.654	85
534.868	89
535.083	87
535.297	94
535.511	96
535.726	108
535.94	83
536.154	82
536.369	93
536.583	87
536.797	95
537.011	110
537.225	97
537.44	92
537.654	84
537.868	87
538.082	84
538.296	95
538.51	76
538.724	98
538.938	86
539.153	98
539.367	112
539.581	96
539.795	89
540.009	92
540.222	98
540.436	100
540.65	90
540.864	98
541.078	100
541.292	113
541.506	94
541.72	104
541.934	98
542.147	101
542.361	86
542.575	91
542.789	102
543.002	87
543.216	106
543.43	95
543.644	92
543.857	108
544.071	94
544.285	94
544.498	107
544.712	90
544.925	92
545.139	98
545.352	93
545.566	93
545.779	88
545.993	87
546.206	92
546.42	93
546.633	93
546.847	89
547.06	88
547.274	100
547.487	83
547.7	90
547.914	96
548.127	101
548.34	82
548.554	88
548.767	92
548.98	106
549.193	96
549.407	96
549.62	94
549.833	85
550.046	86
550.259	84
550.473	95
550.686	86
550.899	103
551.112	94
551.325	87
551.538	97
551.751	91
551.964	109
552.177	97
552.39	88
552.603	94
552.816	92
553.029	93
553.242	103
553.455	95
553.667	101
553.88	106
554.093	84
554.306	99
554.519	90
554.732	102
554.944	104
555.157	90
555.37	89
555.583	74
555.795	102
556.008	92
556.221	110
556.433	85
556.646	87
556.859	93
557.071	80
557.284	86
557.496	90
557.709	91
557.921	100
558.134	86
558.346	94
558.559	91
558.771	97
558.984	78
559.196	87
559.409	94
559.621	94
559.833	91
560.046	92
560.258	85
560.47	91
560.683	84
560.895	88
561.107	97
561.32	94
561.532	90
561.744	88
561.956	92
562.168	78
562.381	94
562.593	104
562.805	96
563.017	82
563.229	78
563.441	97
563.653	84
563.865	93
564.077	92
564.289	89
564.501	94
564.713	107
564.925	84
565.137	105
565.349	92
565.561	94
565.773	84
565.985	78
566.197	85
566.408	96
566.62	84
566.832	92
567.044	79
567.255	93
567.467	88
567.679	94
567.891	90
568.102	90
568.314	80
568.526	89
568.737	89
568.949	84
569.161	92
569.372	86
569.584	103
569.795	98
570.007	116
570.218	219
570.43	131
570.641	93
570.853	80
571.064	78
571.276	102
571.487	86
571.698	91
571.91	90
572.121	103
572.333	90
572.544	91
572.755	91
572.966	87
573.178	96
573.389	92
573.6	89
573.811	89
574.023	72
574.234	82
574.445	98
574.656	88
574.867	95
575.078	93
575.289	84
575.501	82
575.712	92
575.923	96
576.134	106
576.345	91
576.556	94
576.767	101
576.978	97
577.188	84
577.399	101
577.61	102
577.821	96
578.032	99
578.243	232
578.454	621
578.665	192
578.875	105
579.086	105
579.297	91
579.508	83
579.718	98
579.929	85
580.14	87
580.35	98
580.561	107
580.772	88
580.982	98
581.193	91
581.403	83
581.614	89
581.825	104
582.035	92
582.246	95
582.456	97
582.667	91
