Data from Uncirc_1983_H10_HRD10591_00075.txt Node
Date: Wed Jan 03 12:25:47 EST 2024
User: Yrep
Spectrometer: HR+D1059
Trigger mode: 1
Integration Time (sec): 1.000000E-1
Scans to average: 1
Electric dark correction enabled: true
Nonlinearity correction enabled: false
Boxcar width: 0
XAxis mode: Wavelengths
Number of Pixels in Spectrum: 2048
>>>>>Begin Spectral Data<<<<<
223.165	-24.5
223.4	-24.5
223.635	-24.5
223.869	-26.5
224.104	-17.5
224.338	-5.5
224.573	-14.5
224.808	-15.5
225.042	-11.5
225.277	3.5
225.511	-0.5
225.746	8.5
225.98	9.5
226.215	4.5
226.449	14.5
226.683	24.5
226.918	18.5
227.152	32.5
227.387	26.5
227.621	48.5
227.856	38.5
228.09	46.5
228.324	61.5
228.559	73.5
228.793	65.5
229.027	49.5
229.262	74.5
229.496	76.5
229.73	70.5
229.964	86.5
230.199	68.5
230.433	67.5
230.667	81.5
230.901	75.5
231.136	80.5
231.37	76.5
231.604	75.5
231.838	91.5
232.072	67.5
232.306	74.5
232.541	82.5
232.775	71.5
233.009	99.5
233.243	86.5
233.477	86.5
233.711	81.5
233.945	71.5
234.179	78.5
234.413	72.5
234.647	82.5
234.881	68.5
235.115	88.5
235.349	90.5
235.583	86.5
235.817	67.5
236.051	66.5
236.285	78.5
236.519	70.5
236.753	65.5
236.987	72.5
237.221	86.5
237.455	82.5
237.689	87.5
237.922	82.5
238.156	71.5
238.39	86.5
238.624	71.5
238.858	78.5
239.091	78.5
239.325	89.5
239.559	86.5
239.793	81.5
240.027	72.5
240.26	68.5
240.494	63.5
240.728	78.5
240.961	72.5
241.195	71.5
241.429	78.5
241.662	65.5
241.896	69.5
242.13	73.5
242.363	64.5
242.597	80.5
242.83	68.5
243.064	72.5
243.298	84.5
243.531	90.5
243.765	78.5
243.998	81.5
244.232	72.5
244.465	99.5
244.699	73.5
244.932	73.5
245.166	64.5
245.399	73.5
245.633	72.5
245.866	75.5
246.099	87.5
246.333	80.5
246.566	62.5
246.8	72.5
247.033	85.5
247.266	89.5
247.5	76.5
247.733	86.5
247.966	86.5
248.2	75.5
248.433	75.5
248.666	62.5
248.899	79.5
249.133	93.5
249.366	101.5
249.599	87.5
249.832	82.5
250.066	80.5
250.299	71.5
250.532	84.5
250.765	73.5
250.998	70.5
251.231	81.5
251.465	58.5
251.698	69.5
251.931	71.5
252.164	82.5
252.397	80.5
252.63	82.5
252.863	79.5
253.096	82.5
253.329	82.5
253.562	69.5
253.795	78.5
254.028	83.5
254.261	80.5
254.494	80.5
254.727	85.5
254.96	82.5
255.193	79.5
255.426	86.5
255.659	68.5
255.892	80.5
256.124	91.5
256.357	78.5
256.59	65.5
256.823	85.5
257.056	78.5
257.289	70.5
257.521	91.5
257.754	75.5
257.987	69.5
258.22	87.5
258.452	66.5
258.685	72.5
258.918	78.5
259.151	86.5
259.383	80.5
259.616	65.5
259.849	76.5
260.081	66.5
260.314	89.5
260.547	74.5
260.779	88.5
261.012	83.5
261.244	82.5
261.477	79.5
261.71	78.5
261.942	111.5
262.175	100.5
262.407	84.5
262.64	81.5
262.872	87.5
263.105	74.5
263.337	72.5
263.57	82.5
263.802	82.5
264.035	92.5
264.267	84.5
264.499	81.5
264.732	72.5
264.964	69.5
265.197	88.5
265.429	88.5
265.661	84.5
265.894	82.5
266.126	80.5
266.358	89.5
266.591	66.5
266.823	83.5
267.055	66.5
267.287	83.5
267.52	74.5
267.752	89.5
267.984	74.5
268.216	87.5
268.448	82.5
268.681	80.5
268.913	87.5
269.145	87.5
269.377	72.5
269.609	67.5
269.841	86.5
270.073	90.5
270.306	81.5
270.538	87.5
270.77	83.5
271.002	92.5
271.234	78.5
271.466	80.5
271.698	89.5
271.93	99.5
272.162	90.5
272.394	81.5
272.626	76.5
272.858	81.5
273.09	85.5
273.322	84.5
273.553	90.5
273.785	82.5
274.017	88.5
274.249	81.5
274.481	82.5
274.713	90.5
274.945	83.5
275.176	80.5
275.408	86.5
275.64	84.5
275.872	99.5
276.104	83.5
276.335	83.5
276.567	102.5
276.799	92.5
277.031	88.5
277.262	91.5
277.494	89.5
277.726	75.5
277.957	91.5
278.189	84.5
278.421	92.5
278.652	94.5
278.884	89.5
279.115	91.5
279.347	87.5
279.579	83.5
279.81	82.5
280.042	86.5
280.273	81.5
280.505	74.5
280.736	84.5
280.968	70.5
281.199	90.5
281.431	85.5
281.662	95.5
281.894	85.5
282.125	96.5
282.356	90.5
282.588	127.5
282.819	111.5
283.051	86.5
283.282	78.5
283.513	90.5
283.745	72.5
283.976	92.5
284.207	81.5
284.439	91.5
284.67	96.5
284.901	91.5
285.132	80.5
285.364	89.5
285.595	94.5
285.826	82.5
286.057	84.5
286.288	86.5
286.52	88.5
286.751	95.5
286.982	80.5
287.213	96.5
287.444	74.5
287.675	86.5
287.906	72.5
288.138	70.5
288.369	84.5
288.6	82.5
288.831	85.5
289.062	80.5
289.293	90.5
289.524	72.5
289.755	72.5
289.986	82.5
290.217	85.5
290.448	83.5
290.679	95.5
290.91	85.5
291.141	98.5
291.371	95.5
291.602	90.5
291.833	90.5
292.064	102.5
292.295	96.5
292.526	84.5
292.757	81.5
292.987	73.5
293.218	85.5
293.449	93.5
293.68	83.5
293.91	80.5
294.141	73.5
294.372	86.5
294.603	95.5
294.833	94.5
295.064	81.5
295.295	83.5
295.525	73.5
295.756	94.5
295.987	114.5
296.217	130.5
296.448	111.5
296.679	84.5
296.909	98.5
297.14	83.5
297.37	88.5
297.601	91.5
297.831	82.5
298.062	89.5
298.292	90.5
298.523	91.5
298.753	83.5
298.984	73.5
299.214	89.5
299.445	99.5
299.675	84.5
299.905	87.5
300.136	81.5
300.366	103.5
300.597	90.5
300.827	82.5
301.057	87.5
301.288	118.5
301.518	90.5
301.748	86.5
301.979	91.5
302.209	90.5
302.439	84.5
302.669	87.5
302.9	88.5
303.13	95.5
303.36	94.5
303.59	90.5
303.82	102.5
304.051	96.5
304.281	82.5
304.511	99.5
304.741	93.5
304.971	88.5
305.201	94.5
305.431	90.5
305.661	88.5
305.891	86.5
306.121	96.5
306.352	91.5
306.582	99.5
306.812	102.5
307.042	83.5
307.272	92.5
307.502	95.5
307.731	82.5
307.961	64.5
308.191	92.5
308.421	101.5
308.651	73.5
308.881	85.5
309.111	78.5
309.341	89.5
309.571	87.5
309.8	83.5
310.03	95.5
310.26	102.5
310.49	110.5
310.72	87.5
310.949	102.5
311.179	87.5
311.409	96.5
311.639	90.5
311.868	94.5
312.098	103.5
312.328	88.5
312.557	92.5
312.787	100.5
313.017	103.5
313.246	83.5
313.476	106.5
313.706	91.5
313.935	100.5
314.165	83.5
314.394	108.5
314.624	95.5
314.853	91.5
315.083	86.5
315.312	86.5
315.542	86.5
315.771	87.5
316.001	95.5
316.23	84.5
316.46	90.5
316.689	93.5
316.919	75.5
317.148	97.5
317.377	94.5
317.607	89.5
317.836	95.5
318.065	90.5
318.295	74.5
318.524	82.5
318.753	87.5
318.983	82.5
319.212	94.5
319.441	91.5
319.67	86.5
319.9	94.5
320.129	73.5
320.358	93.5
320.587	99.5
320.816	88.5
321.046	97.5
321.275	106.5
321.504	84.5
321.733	87.5
321.962	97.5
322.191	96.5
322.42	98.5
322.649	104.5
322.878	107.5
323.108	103.5
323.337	118.5
323.566	123.5
323.795	142.5
324.024	192.5
324.253	330.5
324.482	730.5
324.71	1450.5
324.939	1971.5
325.168	731.5
325.397	227.5
325.626	152.5
325.855	119.5
326.084	118.5
326.313	132.5
326.542	154.5
326.77	198.5
326.999	392.5
327.228	828.5
327.457	1510.5
327.686	1196.5
327.914	336.5
328.143	182.5
328.372	154.5
328.6	119.5
328.829	121.5
329.058	130.5
329.287	113.5
329.515	105.5
329.744	107.5
329.972	95.5
330.201	116.5
330.43	133.5
330.658	124.5
330.887	134.5
331.115	117.5
331.344	99.5
331.572	102.5
331.801	100.5
332.03	100.5
332.258	95.5
332.486	88.5
332.715	73.5
332.943	95.5
333.172	108.5
333.4	96.5
333.629	98.5
333.857	104.5
334.085	107.5
334.314	118.5
334.542	145.5
334.771	123.5
334.999	101.5
335.227	107.5
335.455	108.5
335.684	90.5
335.912	95.5
336.14	87.5
336.369	98.5
336.597	90.5
336.825	74.5
337.053	94.5
337.281	99.5
337.51	88.5
337.738	88.5
337.966	79.5
338.194	87.5
338.422	84.5
338.65	89.5
338.878	99.5
339.106	96.5
339.334	91.5
339.562	94.5
339.79	88.5
340.018	82.5
340.246	86.5
340.474	91.5
340.702	83.5
340.93	103.5
341.158	90.5
341.386	99.5
341.614	85.5
341.842	97.5
342.07	67.5
342.298	88.5
342.526	78.5
342.754	82.5
342.981	75.5
343.209	82.5
343.437	90.5
343.665	74.5
343.893	89.5
344.12	86.5
344.348	92.5
344.576	98.5
344.804	94.5
345.031	90.5
345.259	103.5
345.487	84.5
345.714	90.5
345.942	102.5
346.17	94.5
346.397	84.5
346.625	87.5
346.853	86.5
347.08	82.5
347.308	98.5
347.535	97.5
347.763	95.5
347.99	96.5
348.218	92.5
348.445	103.5
348.673	99.5
348.9	95.5
349.128	95.5
349.355	91.5
349.583	99.5
349.81	102.5
350.037	82.5
350.265	96.5
350.492	94.5
350.72	81.5
350.947	86.5
351.174	88.5
351.402	108.5
351.629	101.5
351.856	92.5
352.083	95.5
352.311	90.5
352.538	105.5
352.765	98.5
352.992	108.5
353.22	116.5
353.447	103.5
353.674	105.5
353.901	71.5
354.128	94.5
354.355	84.5
354.583	94.5
354.81	103.5
355.037	108.5
355.264	93.5
355.491	101.5
355.718	110.5
355.945	88.5
356.172	80.5
356.399	101.5
356.626	81.5
356.853	82.5
357.08	94.5
357.307	90.5
357.534	95.5
357.761	85.5
357.988	98.5
358.215	96.5
358.441	82.5
358.668	84.5
358.895	87.5
359.122	88.5
359.349	89.5
359.576	91.5
359.802	96.5
360.029	95.5
360.256	92.5
360.483	96.5
360.709	90.5
360.936	92.5
361.163	89.5
361.39	94.5
361.616	89.5
361.843	97.5
362.07	91.5
362.296	101.5
362.523	90.5
362.749	89.5
362.976	96.5
363.203	82.5
363.429	96.5
363.656	83.5
363.882	90.5
364.109	104.5
364.335	98.5
364.562	87.5
364.788	83.5
365.015	82.5
365.241	105.5
365.468	101.5
365.694	85.5
365.92	98.5
366.147	95.5
366.373	98.5
366.599	94.5
366.826	80.5
367.052	75.5
367.278	80.5
367.505	76.5
367.731	95.5
367.957	97.5
368.184	79.5
368.41	108.5
368.636	117.5
368.862	108.5
369.089	119.5
369.315	98.5
369.541	94.5
369.767	82.5
369.993	78.5
370.219	92.5
370.445	86.5
370.672	84.5
370.898	84.5
371.124	95.5
371.35	75.5
371.576	75.5
371.802	86.5
372.028	87.5
372.254	94.5
372.48	79.5
372.706	87.5
372.932	80.5
373.158	91.5
373.384	96.5
373.61	90.5
373.835	93.5
374.061	78.5
374.287	81.5
374.513	87.5
374.739	93.5
374.965	83.5
375.191	74.5
375.416	99.5
375.642	88.5
375.868	88.5
376.094	94.5
376.319	87.5
376.545	84.5
376.771	102.5
376.997	91.5
377.222	85.5
377.448	104.5
377.674	84.5
377.899	72.5
378.125	87.5
378.35	80.5
378.576	84.5
378.802	101.5
379.027	80.5
379.253	94.5
379.478	83.5
379.704	100.5
379.929	79.5
380.155	107.5
380.38	93.5
380.606	90.5
380.831	85.5
381.057	101.5
381.282	86.5
381.507	103.5
381.733	92.5
381.958	80.5
382.184	97.5
382.409	98.5
382.634	102.5
382.86	85.5
383.085	85.5
383.31	97.5
383.535	88.5
383.761	94.5
383.986	82.5
384.211	102.5
384.436	88.5
384.662	98.5
384.887	88.5
385.112	92.5
385.337	94.5
385.562	109.5
385.787	80.5
386.013	112.5
386.238	94.5
386.463	102.5
386.688	103.5
386.913	97.5
387.138	102.5
387.363	99.5
387.588	81.5
387.813	91.5
388.038	105.5
388.263	97.5
388.488	111.5
388.713	84.5
388.938	80.5
389.163	83.5
389.387	99.5
389.612	99.5
389.837	99.5
390.062	80.5
390.287	85.5
390.512	93.5
390.736	92.5
390.961	96.5
391.186	85.5
391.411	87.5
391.636	79.5
391.86	73.5
392.085	79.5
392.31	87.5
392.534	82.5
392.759	89.5
392.984	87.5
393.208	91.5
393.433	93.5
393.658	100.5
393.882	85.5
394.107	80.5
394.331	82.5
394.556	90.5
394.78	82.5
395.005	85.5
395.229	81.5
395.454	88.5
395.678	75.5
395.903	91.5
396.127	82.5
396.352	84.5
396.576	85.5
396.801	85.5
397.025	94.5
397.249	93.5
397.474	83.5
397.698	83.5
397.922	87.5
398.147	89.5
398.371	83.5
398.595	95.5
398.82	83.5
399.044	81.5
399.268	90.5
399.492	96.5
399.717	86.5
399.941	89.5
400.165	96.5
400.389	100.5
400.613	85.5
400.837	78.5
401.062	100.5
401.286	94.5
401.51	78.5
401.734	94.5
401.958	103.5
402.182	123.5
402.406	149.5
402.63	103.5
402.854	111.5
403.078	86.5
403.302	71.5
403.526	80.5
403.75	66.5
403.974	68.5
404.198	70.5
404.422	97.5
404.645	76.5
404.869	80.5
405.093	99.5
405.317	98.5
405.541	98.5
405.765	92.5
405.988	98.5
406.212	156.5
406.436	214.5
406.66	123.5
406.883	92.5
407.107	104.5
407.331	97.5
407.555	82.5
407.778	92.5
408.002	74.5
408.226	82.5
408.449	86.5
408.673	81.5
408.896	100.5
409.12	85.5
409.344	76.5
409.567	96.5
409.791	91.5
410.014	85.5
410.238	101.5
410.461	83.5
410.685	87.5
410.908	92.5
411.132	97.5
411.355	82.5
411.578	75.5
411.802	86.5
412.025	80.5
412.249	86.5
412.472	96.5
412.695	94.5
412.919	111.5
413.142	91.5
413.365	84.5
413.589	78.5
413.812	96.5
414.035	86.5
414.258	63.5
414.482	84.5
414.705	105.5
414.928	92.5
415.151	92.5
415.374	87.5
415.597	78.5
415.821	83.5
416.044	79.5
416.267	84.5
416.49	90.5
416.713	97.5
416.936	78.5
417.159	84.5
417.382	92.5
417.605	86.5
417.828	93.5
418.051	95.5
418.274	81.5
418.497	97.5
418.72	71.5
418.943	91.5
419.166	92.5
419.389	87.5
419.611	87.5
419.834	88.5
420.057	98.5
420.28	96.5
420.503	98.5
420.726	88.5
420.948	93.5
421.171	98.5
421.394	82.5
421.617	81.5
421.839	80.5
422.062	83.5
422.285	90.5
422.507	91.5
422.73	99.5
422.953	78.5
423.175	94.5
423.398	73.5
423.621	79.5
423.843	87.5
424.066	84.5
424.288	75.5
424.511	90.5
424.733	89.5
424.956	103.5
425.178	92.5
425.401	98.5
425.623	83.5
425.846	94.5
426.068	86.5
426.291	79.5
426.513	99.5
426.735	84.5
426.958	79.5
427.18	105.5
427.402	115.5
427.625	159.5
427.847	121.5
428.069	98.5
428.292	87.5
428.514	95.5
428.736	94.5
428.958	83.5
429.181	74.5
429.403	80.5
429.625	71.5
429.847	91.5
430.069	100.5
430.292	100.5
430.514	90.5
430.736	79.5
430.958	91.5
431.18	82.5
431.402	87.5
431.624	85.5
431.846	89.5
432.068	87.5
432.29	84.5
432.512	79.5
432.734	83.5
432.956	83.5
433.178	92.5
433.4	99.5
433.622	65.5
433.844	86.5
434.066	88.5
434.287	102.5
434.509	82.5
434.731	84.5
434.953	83.5
435.175	86.5
435.397	86.5
435.618	78.5
435.84	97.5
436.062	105.5
436.284	108.5
436.505	90.5
436.727	80.5
436.949	84.5
437.17	83.5
437.392	94.5
437.614	86.5
437.835	115.5
438.057	100.5
438.278	99.5
438.5	103.5
438.721	120.5
438.943	89.5
439.165	96.5
439.386	90.5
439.608	91.5
439.829	81.5
440.05	121.5
440.272	137.5
440.493	91.5
440.715	82.5
440.936	97.5
441.158	100.5
441.379	88.5
441.6	83.5
441.822	86.5
442.043	94.5
442.264	107.5
442.486	83.5
442.707	91.5
442.928	98.5
443.149	123.5
443.371	108.5
443.592	116.5
443.813	98.5
444.034	98.5
444.255	96.5
444.476	89.5
444.698	88.5
444.919	82.5
445.14	142.5
445.361	114.5
445.582	110.5
445.803	120.5
446.024	126.5
446.245	123.5
446.466	107.5
446.687	83.5
446.908	95.5
447.129	89.5
447.35	99.5
447.571	94.5
447.792	86.5
448.013	97.5
448.234	104.5
448.455	99.5
448.675	126.5
448.896	123.5
449.117	91.5
449.338	103.5
449.559	125.5
449.779	123.5
450	106.5
450.221	94.5
450.442	99.5
450.662	98.5
450.883	95.5
451.104	88.5
451.324	104.5
451.545	65.5
451.766	90.5
451.986	93.5
452.207	103.5
452.428	84.5
452.648	91.5
452.869	120.5
453.089	116.5
453.31	101.5
453.53	83.5
453.751	91.5
453.971	85.5
454.192	106.5
454.412	87.5
454.633	87.5
454.853	82.5
455.073	82.5
455.294	83.5
455.514	90.5
455.734	85.5
455.955	86.5
456.175	87.5
456.395	80.5
456.616	70.5
456.836	91.5
457.056	94.5
457.276	81.5
457.497	83.5
457.717	96.5
457.937	83.5
458.157	97.5
458.377	87.5
458.598	109.5
458.818	129.5
459.038	142.5
459.258	122.5
459.478	78.5
459.698	74.5
459.918	88.5
460.138	92.5
460.358	95.5
460.578	82.5
460.798	87.5
461.018	91.5
461.238	83.5
461.458	87.5
461.678	78.5
461.898	86.5
462.118	85.5
462.338	98.5
462.558	91.5
462.777	82.5
462.997	82.5
463.217	88.5
463.437	84.5
463.657	76.5
463.876	76.5
464.096	98.5
464.316	93.5
464.536	72.5
464.755	94.5
464.975	107.5
465.195	143.5
465.414	139.5
465.634	84.5
465.854	79.5
466.073	87.5
466.293	98.5
466.512	80.5
466.732	71.5
466.951	101.5
467.171	87.5
467.391	91.5
467.61	91.5
467.829	110.5
468.049	104.5
468.268	92.5
468.488	83.5
468.707	81.5
468.927	88.5
469.146	79.5
469.365	89.5
469.585	87.5
469.804	83.5
470.023	86.5
470.243	86.5
470.462	86.5
470.681	98.5
470.901	89.5
471.12	62.5
471.339	82.5
471.558	81.5
471.777	85.5
471.997	92.5
472.216	124.5
472.435	143.5
472.654	98.5
472.873	88.5
473.092	91.5
473.311	89.5
473.53	88.5
473.749	76.5
473.968	94.5
474.187	105.5
474.406	92.5
474.625	93.5
474.844	90.5
475.063	81.5
475.282	73.5
475.501	84.5
475.72	98.5
475.939	80.5
476.158	87.5
476.377	101.5
476.596	74.5
476.814	107.5
477.033	90.5
477.252	95.5
477.471	86.5
477.69	76.5
477.908	87.5
478.127	88.5
478.346	74.5
478.564	86.5
478.783	85.5
479.002	104.5
479.22	99.5
479.439	87.5
479.658	108.5
479.876	76.5
480.095	82.5
480.313	74.5
480.532	91.5
480.751	99.5
480.969	112.5
481.188	231.5
481.406	164.5
481.624	107.5
481.843	88.5
482.061	92.5
482.28	75.5
482.498	95.5
482.717	99.5
482.935	92.5
483.153	89.5
483.372	91.5
483.59	85.5
483.808	89.5
484.027	78.5
484.245	90.5
484.463	84.5
484.681	102.5
484.9	90.5
485.118	98.5
485.336	76.5
485.554	107.5
485.772	101.5
485.99	119.5
486.209	94.5
486.427	109.5
486.645	112.5
486.863	106.5
487.081	95.5
487.299	92.5
487.517	83.5
487.735	97.5
487.953	88.5
488.171	87.5
488.389	90.5
488.607	102.5
488.825	99.5
489.043	91.5
489.261	87.5
489.479	83.5
489.696	78.5
489.914	84.5
490.132	99.5
490.35	86.5
490.568	99.5
490.786	78.5
491.003	85.5
491.221	82.5
491.439	83.5
491.657	78.5
491.874	90.5
492.092	82.5
492.31	89.5
492.527	93.5
492.745	88.5
492.963	102.5
493.18	99.5
493.398	85.5
493.615	102.5
493.833	92.5
494.05	86.5
494.268	78.5
494.485	98.5
494.703	92.5
494.92	79.5
495.138	86.5
495.355	98.5
495.573	100.5
495.79	96.5
496.008	78.5
496.225	98.5
496.442	102.5
496.66	92.5
496.877	70.5
497.094	88.5
497.312	86.5
497.529	85.5
497.746	89.5
497.963	85.5
498.181	92.5
498.398	93.5
498.615	97.5
498.832	100.5
499.049	92.5
499.267	78.5
499.484	84.5
499.701	88.5
499.918	88.5
500.135	81.5
500.352	87.5
500.569	97.5
500.786	98.5
501.003	80.5
501.22	93.5
501.437	84.5
501.654	95.5
501.871	104.5
502.088	85.5
502.305	91.5
502.522	72.5
502.739	78.5
502.956	75.5
503.172	97.5
503.389	91.5
503.606	108.5
503.823	94.5
504.04	75.5
504.256	86.5
504.473	105.5
504.69	91.5
504.907	103.5
505.123	95.5
505.34	83.5
505.557	91.5
505.773	111.5
505.99	100.5
506.207	90.5
506.423	85.5
506.64	87.5
506.856	89.5
507.073	91.5
507.289	83.5
507.506	106.5
507.722	122.5
507.939	96.5
508.155	83.5
508.372	81.5
508.588	92.5
508.805	86.5
509.021	98.5
509.238	96.5
509.454	104.5
509.67	96.5
509.887	97.5
510.103	127.5
510.319	214.5
510.536	717.5
510.752	2298.5
510.968	617.5
511.184	150.5
511.401	101.5
511.617	96.5
511.833	87.5
512.049	89.5
512.265	88.5
512.481	88.5
512.698	87.5
512.914	106.5
513.13	82.5
513.346	84.5
513.562	98.5
513.778	87.5
513.994	101.5
514.21	97.5
514.426	103.5
514.642	114.5
514.858	104.5
515.074	158.5
515.29	426.5
515.506	1380.5
515.721	492.5
515.937	142.5
516.153	114.5
516.369	99.5
516.585	89.5
516.801	103.5
517.016	93.5
517.232	94.5
517.448	97.5
517.664	79.5
517.879	83.5
518.095	83.5
518.311	98.5
518.527	87.5
518.742	83.5
518.958	102.5
519.173	98.5
519.389	102.5
519.605	98.5
519.82	84.5
520.036	91.5
520.251	118.5
520.467	97.5
520.682	106.5
520.898	107.5
521.113	112.5
521.329	134.5
521.544	197.5
521.76	521.5
521.975	2246.5
522.19	1305.5
522.406	286.5
522.621	127.5
522.836	107.5
523.052	93.5
523.267	99.5
523.482	81.5
523.698	113.5
523.913	124.5
524.128	118.5
524.343	91.5
524.559	104.5
524.774	88.5
524.989	97.5
525.204	110.5
525.419	102.5
525.634	97.5
525.849	82.5
526.064	98.5
526.28	95.5
526.495	100.5
526.71	88.5
526.925	87.5
527.14	73.5
527.355	88.5
527.57	99.5
527.785	84.5
527.999	72.5
528.214	83.5
528.429	86.5
528.644	96.5
528.859	91.5
529.074	88.5
529.289	120.5
529.503	173.5
529.718	77.5
529.933	95.5
530.148	104.5
530.363	90.5
530.577	94.5
530.792	87.5
531.007	82.5
531.221	91.5
531.436	92.5
531.651	89.5
531.865	92.5
532.08	84.5
532.295	98.5
532.509	89.5
532.724	90.5
532.938	82.5
533.153	102.5
533.367	92.5
533.582	105.5
533.796	96.5
534.011	108.5
534.225	88.5
534.44	104.5
534.654	85.5
534.868	87.5
535.083	104.5
535.297	97.5
535.511	82.5
535.726	83.5
535.94	81.5
536.154	82.5
536.369	101.5
