Data from Uncirc_1983_H10_HRD10591_00041.txt Node
Date: Wed Jan 03 12:25:40 EST 2024
User: Yrep
Spectrometer: HR+D1059
Trigger mode: 1
Integration Time (sec): 1.000000E-1
Scans to average: 1
Electric dark correction enabled: true
Nonlinearity correction enabled: false
Boxcar width: 0
XAxis mode: Wavelengths
Number of Pixels in Spectrum: 2048
>>>>>Begin Spectral Data<<<<<
223.165	-19.94
223.4	-19.94
223.635	-19.94
223.869	-23.94
224.104	-11.94
224.338	-16.94
224.573	1.06
224.808	-10.94
225.042	-10.94
225.277	-12.94
225.511	7.06
225.746	-0.94
225.98	-6.94
226.215	9.06
226.449	20.06
226.683	28.06
226.918	30.06
227.152	20.06
227.387	35.06
227.621	45.06
227.856	49.06
228.09	58.06
228.324	65.06
228.559	53.06
228.793	60.06
229.027	60.06
229.262	62.06
229.496	73.06
229.73	79.06
229.964	96.06
230.199	73.06
230.433	81.06
230.667	78.06
230.901	86.06
231.136	65.06
231.37	81.06
231.604	76.06
231.838	80.06
232.072	93.06
232.306	96.06
232.541	96.06
232.775	103.06
233.009	95.06
233.243	86.06
233.477	84.06
233.711	75.06
233.945	81.06
234.179	94.06
234.413	88.06
234.647	82.06
234.881	79.06
235.115	85.06
235.349	80.06
235.583	97.06
235.817	65.06
236.051	79.06
236.285	76.06
236.519	80.06
236.753	92.06
236.987	93.06
237.221	99.06
237.455	95.06
237.689	75.06
237.922	70.06
238.156	81.06
238.39	81.06
238.624	94.06
238.858	79.06
239.091	86.06
239.325	80.06
239.559	63.06
239.793	88.06
240.027	92.06
240.26	88.06
240.494	93.06
240.728	72.06
240.961	79.06
241.195	80.06
241.429	85.06
241.662	79.06
241.896	90.06
242.13	86.06
242.363	73.06
242.597	90.06
242.83	85.06
243.064	86.06
243.298	90.06
243.531	73.06
243.765	70.06
243.998	71.06
244.232	87.06
244.465	97.06
244.699	96.06
244.932	100.06
245.166	87.06
245.399	80.06
245.633	79.06
245.866	93.06
246.099	80.06
246.333	84.06
246.566	82.06
246.8	88.06
247.033	75.06
247.266	90.06
247.5	90.06
247.733	79.06
247.966	80.06
248.2	88.06
248.433	97.06
248.666	71.06
248.899	95.06
249.133	90.06
249.366	98.06
249.599	97.06
249.832	79.06
250.066	86.06
250.299	88.06
250.532	93.06
250.765	71.06
250.998	78.06
251.231	86.06
251.465	76.06
251.698	86.06
251.931	71.06
252.164	84.06
252.397	84.06
252.63	90.06
252.863	78.06
253.096	91.06
253.329	90.06
253.562	76.06
253.795	87.06
254.028	86.06
254.261	82.06
254.494	76.06
254.727	90.06
254.96	84.06
255.193	84.06
255.426	76.06
255.659	73.06
255.892	98.06
256.124	80.06
256.357	88.06
256.59	98.06
256.823	84.06
257.056	86.06
257.289	96.06
257.521	89.06
257.754	73.06
257.987	78.06
258.22	81.06
258.452	89.06
258.685	68.06
258.918	79.06
259.151	86.06
259.383	80.06
259.616	86.06
259.849	85.06
260.081	76.06
260.314	80.06
260.547	77.06
260.779	88.06
261.012	78.06
261.244	77.06
261.477	97.06
261.71	97.06
261.942	119.06
262.175	104.06
262.407	95.06
262.64	76.06
262.872	84.06
263.105	92.06
263.337	99.06
263.57	88.06
263.802	80.06
264.035	106.06
264.267	86.06
264.499	113.06
264.732	97.06
264.964	84.06
265.197	75.06
265.429	80.06
265.661	82.06
265.894	81.06
266.126	76.06
266.358	80.06
266.591	86.06
266.823	86.06
267.055	82.06
267.287	89.06
267.52	94.06
267.752	90.06
267.984	111.06
268.216	91.06
268.448	97.06
268.681	65.06
268.913	79.06
269.145	84.06
269.377	100.06
269.609	84.06
269.841	83.06
270.073	97.06
270.306	82.06
270.538	89.06
270.77	83.06
271.002	86.06
271.234	94.06
271.466	84.06
271.698	91.06
271.93	86.06
272.162	93.06
272.394	88.06
272.626	73.06
272.858	86.06
273.09	96.06
273.322	98.06
273.553	94.06
273.785	86.06
274.017	91.06
274.249	87.06
274.481	87.06
274.713	96.06
274.945	85.06
275.176	97.06
275.408	77.06
275.64	84.06
275.872	78.06
276.104	92.06
276.335	86.06
276.567	96.06
276.799	98.06
277.031	96.06
277.262	99.06
277.494	90.06
277.726	104.06
277.957	70.06
278.189	74.06
278.421	111.06
278.652	96.06
278.884	92.06
279.115	82.06
279.347	93.06
279.579	90.06
279.81	90.06
280.042	92.06
280.273	94.06
280.505	87.06
280.736	78.06
280.968	68.06
281.199	93.06
281.431	98.06
281.662	92.06
281.894	97.06
282.125	104.06
282.356	114.06
282.588	137.06
282.819	106.06
283.051	82.06
283.282	86.06
283.513	102.06
283.745	94.06
283.976	89.06
284.207	86.06
284.439	86.06
284.67	89.06
284.901	84.06
285.132	90.06
285.364	92.06
285.595	84.06
285.826	90.06
286.057	97.06
286.288	81.06
286.52	90.06
286.751	91.06
286.982	65.06
287.213	82.06
287.444	89.06
287.675	104.06
287.906	91.06
288.138	104.06
288.369	99.06
288.6	87.06
288.831	94.06
289.062	109.06
289.293	105.06
289.524	107.06
289.755	90.06
289.986	96.06
290.217	101.06
290.448	102.06
290.679	102.06
290.91	107.06
291.141	76.06
291.371	84.06
291.602	114.06
291.833	81.06
292.064	100.06
292.295	101.06
292.526	95.06
292.757	98.06
292.987	95.06
293.218	88.06
293.449	91.06
293.68	88.06
293.91	89.06
294.141	90.06
294.372	86.06
294.603	90.06
294.833	99.06
295.064	88.06
295.295	82.06
295.525	101.06
295.756	86.06
295.987	115.06
296.217	117.06
296.448	115.06
296.679	95.06
296.909	91.06
297.14	99.06
297.37	103.06
297.601	98.06
297.831	97.06
298.062	88.06
298.292	93.06
298.523	88.06
298.753	76.06
298.984	70.06
299.214	86.06
299.445	96.06
299.675	96.06
299.905	97.06
300.136	84.06
300.366	86.06
300.597	88.06
300.827	90.06
301.057	95.06
301.288	94.06
301.518	92.06
301.748	93.06
301.979	106.06
302.209	97.06
302.439	82.06
302.669	82.06
302.9	96.06
303.13	100.06
303.36	99.06
303.59	108.06
303.82	105.06
304.051	98.06
304.281	104.06
304.511	102.06
304.741	79.06
304.971	74.06
305.201	78.06
305.431	101.06
305.661	102.06
305.891	103.06
306.121	95.06
306.352	106.06
306.582	107.06
306.812	91.06
307.042	94.06
307.272	100.06
307.502	86.06
307.731	104.06
307.961	105.06
308.191	92.06
308.421	104.06
308.651	105.06
308.881	105.06
309.111	102.06
309.341	93.06
309.571	112.06
309.8	97.06
310.03	91.06
310.26	101.06
310.49	84.06
310.72	103.06
310.949	103.06
311.179	112.06
311.409	89.06
311.639	81.06
311.868	93.06
312.098	94.06
312.328	98.06
312.557	92.06
312.787	104.06
313.017	92.06
313.246	100.06
313.476	91.06
313.706	95.06
313.935	100.06
314.165	99.06
314.394	102.06
314.624	99.06
314.853	98.06
315.083	91.06
315.312	105.06
315.542	104.06
315.771	88.06
316.001	94.06
316.23	99.06
316.46	91.06
316.689	94.06
316.919	117.06
317.148	102.06
317.377	103.06
317.607	107.06
317.836	87.06
318.065	108.06
318.295	99.06
318.524	96.06
318.753	101.06
318.983	86.06
319.212	104.06
319.441	106.06
319.67	126.06
319.9	94.06
320.129	109.06
320.358	99.06
320.587	96.06
320.816	105.06
321.046	101.06
321.275	97.06
321.504	102.06
321.733	96.06
321.962	107.06
322.191	90.06
322.42	102.06
322.649	101.06
322.878	122.06
323.108	111.06
323.337	120.06
323.566	125.06
323.795	138.06
324.024	191.06
324.253	337.06
324.482	690.06
324.71	1402.06
324.939	1843.06
325.168	704.06
325.397	223.06
325.626	140.06
325.855	118.06
326.084	115.06
326.313	121.06
326.542	152.06
326.77	209.06
326.999	395.06
327.228	789.06
327.457	1455.06
327.686	1124.06
327.914	322.06
328.143	186.06
328.372	133.06
328.6	111.06
328.829	113.06
329.058	130.06
329.287	119.06
329.515	111.06
329.744	107.06
329.972	100.06
330.201	112.06
330.43	108.06
330.658	120.06
330.887	127.06
331.115	98.06
331.344	114.06
331.572	112.06
331.801	93.06
332.03	103.06
332.258	105.06
332.486	97.06
332.715	102.06
332.943	88.06
333.172	84.06
333.4	98.06
333.629	108.06
333.857	105.06
334.085	107.06
334.314	103.06
334.542	99.06
334.771	112.06
334.999	93.06
335.227	89.06
335.455	90.06
335.684	107.06
335.912	100.06
336.14	101.06
336.369	97.06
336.597	111.06
336.825	107.06
337.053	96.06
337.281	101.06
337.51	105.06
337.738	101.06
337.966	86.06
338.194	114.06
338.422	114.06
338.65	97.06
338.878	105.06
339.106	97.06
339.334	97.06
339.562	86.06
339.79	94.06
340.018	101.06
340.246	90.06
340.474	93.06
340.702	92.06
340.93	84.06
341.158	87.06
341.386	88.06
341.614	99.06
341.842	96.06
342.07	80.06
342.298	103.06
342.526	104.06
342.754	89.06
342.981	95.06
343.209	95.06
343.437	100.06
343.665	94.06
343.893	100.06
344.12	103.06
344.348	98.06
344.576	98.06
344.804	91.06
345.031	103.06
345.259	101.06
345.487	90.06
345.714	114.06
345.942	102.06
346.17	91.06
346.397	104.06
346.625	105.06
346.853	88.06
347.08	102.06
347.308	108.06
347.535	88.06
347.763	108.06
347.99	115.06
348.218	104.06
348.445	100.06
348.673	106.06
348.9	106.06
349.128	101.06
349.355	107.06
349.583	87.06
349.81	86.06
350.037	104.06
350.265	97.06
350.492	98.06
350.72	93.06
350.947	121.06
351.174	105.06
351.402	111.06
351.629	91.06
351.856	111.06
352.083	92.06
352.311	101.06
352.538	108.06
352.765	110.06
352.992	94.06
353.22	114.06
353.447	100.06
353.674	93.06
353.901	97.06
354.128	97.06
354.355	91.06
354.583	102.06
354.81	94.06
355.037	106.06
355.264	103.06
355.491	101.06
355.718	89.06
355.945	98.06
356.172	92.06
356.399	101.06
356.626	96.06
356.853	106.06
357.08	93.06
357.307	104.06
357.534	103.06
357.761	80.06
357.988	102.06
358.215	93.06
358.441	92.06
358.668	98.06
358.895	94.06
359.122	88.06
359.349	106.06
359.576	103.06
359.802	100.06
360.029	101.06
360.256	111.06
360.483	94.06
360.709	98.06
360.936	93.06
361.163	88.06
361.39	91.06
361.616	91.06
361.843	87.06
362.07	95.06
362.296	98.06
362.523	104.06
362.749	93.06
362.976	100.06
363.203	91.06
363.429	88.06
363.656	102.06
363.882	108.06
364.109	93.06
364.335	92.06
364.562	80.06
364.788	106.06
365.015	95.06
365.241	86.06
365.468	97.06
365.694	106.06
365.92	95.06
366.147	78.06
366.373	95.06
366.599	98.06
366.826	103.06
367.052	89.06
367.278	101.06
367.505	93.06
367.731	96.06
367.957	100.06
368.184	87.06
368.41	88.06
368.636	104.06
368.862	122.06
369.089	113.06
369.315	88.06
369.541	96.06
369.767	100.06
369.993	97.06
370.219	97.06
370.445	105.06
370.672	92.06
370.898	96.06
371.124	84.06
371.35	100.06
371.576	98.06
371.802	99.06
372.028	84.06
372.254	88.06
372.48	93.06
372.706	87.06
372.932	92.06
373.158	96.06
373.384	95.06
373.61	89.06
373.835	87.06
374.061	96.06
374.287	91.06
374.513	91.06
374.739	95.06
374.965	75.06
375.191	75.06
375.416	88.06
375.642	97.06
375.868	105.06
376.094	93.06
376.319	88.06
376.545	75.06
376.771	92.06
376.997	96.06
377.222	94.06
377.448	109.06
377.674	87.06
377.899	91.06
378.125	92.06
378.35	105.06
378.576	96.06
378.802	88.06
379.027	110.06
379.253	90.06
379.478	84.06
379.704	93.06
379.929	100.06
380.155	110.06
380.38	96.06
380.606	111.06
380.831	107.06
381.057	84.06
381.282	99.06
381.507	108.06
381.733	99.06
381.958	88.06
382.184	101.06
382.409	100.06
382.634	104.06
382.86	113.06
383.085	106.06
383.31	91.06
383.535	100.06
383.761	109.06
383.986	95.06
384.211	114.06
384.436	97.06
384.662	106.06
384.887	87.06
385.112	97.06
385.337	102.06
385.562	112.06
385.787	108.06
386.013	113.06
386.238	120.06
386.463	117.06
386.688	104.06
386.913	90.06
387.138	101.06
387.363	98.06
387.588	100.06
387.813	110.06
388.038	110.06
388.263	119.06
388.488	108.06
388.713	92.06
388.938	95.06
389.163	106.06
389.387	105.06
389.612	104.06
389.837	86.06
390.062	97.06
390.287	94.06
390.512	98.06
390.736	103.06
390.961	102.06
391.186	97.06
391.411	92.06
391.636	92.06
391.86	96.06
392.085	87.06
392.31	71.06
392.534	100.06
392.759	80.06
392.984	84.06
393.208	102.06
393.433	101.06
393.658	100.06
393.882	104.06
394.107	87.06
394.331	88.06
394.556	94.06
394.78	82.06
395.005	97.06
395.229	94.06
395.454	96.06
395.678	96.06
395.903	93.06
396.127	91.06
396.352	93.06
396.576	92.06
396.801	92.06
397.025	90.06
397.249	94.06
397.474	91.06
397.698	101.06
397.922	86.06
398.147	81.06
398.371	98.06
398.595	96.06
398.82	91.06
399.044	81.06
399.268	100.06
399.492	94.06
399.717	84.06
399.941	98.06
400.165	91.06
400.389	100.06
400.613	87.06
400.837	81.06
401.062	96.06
401.286	98.06
401.51	91.06
401.734	88.06
401.958	97.06
402.182	115.06
402.406	157.06
402.63	120.06
402.854	115.06
403.078	98.06
403.302	95.06
403.526	106.06
403.75	85.06
403.974	85.06
404.198	94.06
404.422	86.06
404.645	88.06
404.869	94.06
405.093	81.06
405.317	92.06
405.541	109.06
405.765	95.06
405.988	100.06
406.212	161.06
406.436	201.06
406.66	134.06
406.883	97.06
407.107	80.06
407.331	100.06
407.555	105.06
407.778	93.06
408.002	100.06
408.226	104.06
408.449	91.06
408.673	103.06
408.896	107.06
409.12	83.06
409.344	104.06
409.567	84.06
409.791	90.06
410.014	96.06
410.238	106.06
410.461	101.06
410.685	94.06
410.908	107.06
411.132	98.06
411.355	103.06
411.578	88.06
411.802	89.06
412.025	94.06
412.249	95.06
412.472	93.06
412.695	101.06
412.919	88.06
413.142	109.06
413.365	92.06
413.589	96.06
413.812	92.06
414.035	88.06
414.258	91.06
414.482	98.06
414.705	90.06
414.928	92.06
415.151	89.06
415.374	90.06
415.597	92.06
415.821	96.06
416.044	100.06
416.267	98.06
416.49	88.06
416.713	100.06
416.936	88.06
417.159	94.06
417.382	90.06
417.605	99.06
417.828	103.06
418.051	98.06
418.274	94.06
418.497	86.06
418.72	77.06
418.943	91.06
419.166	90.06
419.389	96.06
419.611	96.06
419.834	105.06
420.057	89.06
420.28	74.06
420.503	87.06
420.726	99.06
420.948	81.06
421.171	91.06
421.394	90.06
421.617	89.06
421.839	79.06
422.062	88.06
422.285	90.06
422.507	109.06
422.73	104.06
422.953	94.06
423.175	93.06
423.398	98.06
423.621	79.06
423.843	89.06
424.066	91.06
424.288	82.06
424.511	89.06
424.733	96.06
424.956	105.06
425.178	97.06
425.401	93.06
425.623	96.06
425.846	96.06
426.068	92.06
426.291	90.06
426.513	90.06
426.735	85.06
426.958	113.06
427.18	101.06
427.402	134.06
427.625	160.06
427.847	129.06
428.069	110.06
428.292	95.06
428.514	103.06
428.736	96.06
428.958	90.06
429.181	75.06
429.403	81.06
429.625	107.06
429.847	94.06
430.069	106.06
430.292	93.06
430.514	101.06
430.736	87.06
430.958	91.06
431.18	72.06
431.402	78.06
431.624	79.06
431.846	86.06
432.068	79.06
432.29	96.06
432.512	90.06
432.734	89.06
432.956	100.06
433.178	91.06
433.4	111.06
433.622	93.06
433.844	100.06
434.066	99.06
434.287	103.06
434.509	93.06
434.731	90.06
434.953	76.06
435.175	88.06
435.397	87.06
435.618	92.06
435.84	101.06
436.062	119.06
436.284	111.06
436.505	109.06
436.727	96.06
436.949	100.06
437.17	110.06
437.392	87.06
437.614	78.06
437.835	104.06
438.057	116.06
438.278	94.06
438.5	102.06
438.721	104.06
438.943	105.06
439.165	94.06
439.386	93.06
439.608	96.06
439.829	102.06
440.05	124.06
440.272	121.06
440.493	92.06
440.715	97.06
440.936	95.06
441.158	99.06
441.379	100.06
441.6	97.06
441.822	94.06
442.043	99.06
442.264	95.06
442.486	90.06
442.707	96.06
442.928	92.06
443.149	122.06
443.371	113.06
443.592	105.06
443.813	113.06
444.034	106.06
444.255	101.06
444.476	92.06
444.698	90.06
444.919	89.06
445.14	137.06
445.361	119.06
445.582	107.06
445.803	129.06
446.024	134.06
446.245	112.06
446.466	131.06
446.687	99.06
446.908	101.06
447.129	96.06
447.35	97.06
447.571	93.06
447.792	111.06
448.013	92.06
448.234	109.06
448.455	95.06
448.675	102.06
448.896	122.06
449.117	96.06
449.338	106.06
449.559	122.06
449.779	117.06
450	101.06
450.221	86.06
450.442	93.06
450.662	96.06
450.883	91.06
451.104	102.06
451.324	104.06
451.545	94.06
451.766	94.06
451.986	80.06
452.207	84.06
452.428	81.06
452.648	94.06
452.869	104.06
453.089	108.06
453.31	122.06
453.53	100.06
453.751	106.06
453.971	98.06
454.192	89.06
454.412	85.06
454.633	89.06
454.853	106.06
455.073	82.06
455.294	84.06
455.514	90.06
455.734	89.06
455.955	85.06
456.175	65.06
456.395	76.06
456.616	80.06
456.836	85.06
457.056	86.06
457.276	97.06
457.497	85.06
457.717	94.06
457.937	103.06
458.157	93.06
458.377	91.06
458.598	108.06
458.818	128.06
459.038	132.06
459.258	106.06
459.478	95.06
459.698	88.06
459.918	91.06
460.138	89.06
460.358	88.06
460.578	87.06
460.798	98.06
461.018	108.06
461.238	93.06
461.458	86.06
461.678	88.06
461.898	98.06
462.118	96.06
462.338	88.06
462.558	84.06
462.777	94.06
462.997	94.06
463.217	102.06
463.437	78.06
463.657	98.06
463.876	88.06
464.096	88.06
464.316	86.06
464.536	92.06
464.755	98.06
464.975	95.06
465.195	151.06
465.414	141.06
465.634	97.06
465.854	101.06
466.073	69.06
466.293	78.06
466.512	84.06
466.732	91.06
466.951	89.06
467.171	90.06
467.391	95.06
467.61	104.06
467.829	87.06
468.049	95.06
468.268	110.06
468.488	81.06
468.707	96.06
468.927	87.06
469.146	91.06
469.365	103.06
469.585	64.06
469.804	89.06
470.023	80.06
470.243	104.06
470.462	86.06
470.681	105.06
470.901	88.06
471.12	74.06
471.339	84.06
471.558	92.06
471.777	71.06
471.997	88.06
472.216	92.06
472.435	107.06
472.654	90.06
472.873	88.06
473.092	84.06
473.311	91.06
473.53	92.06
473.749	78.06
473.968	92.06
474.187	98.06
474.406	104.06
474.625	81.06
474.844	81.06
475.063	89.06
475.282	99.06
475.501	93.06
475.72	86.06
475.939	91.06
476.158	89.06
476.377	99.06
476.596	107.06
476.814	79.06
477.033	92.06
477.252	90.06
477.471	72.06
477.69	86.06
477.908	97.06
478.127	95.06
478.346	92.06
478.564	81.06
478.783	86.06
479.002	88.06
479.22	97.06
479.439	96.06
479.658	99.06
479.876	88.06
480.095	97.06
480.313	90.06
480.532	87.06
480.751	86.06
480.969	101.06
481.188	128.06
481.406	112.06
481.624	82.06
481.843	87.06
482.061	89.06
482.28	88.06
482.498	100.06
482.717	88.06
482.935	77.06
483.153	93.06
483.372	87.06
483.59	98.06
483.808	93.06
484.027	100.06
484.245	87.06
484.463	100.06
484.681	99.06
484.9	86.06
485.118	92.06
485.336	106.06
485.554	105.06
485.772	95.06
485.99	109.06
486.209	105.06
486.427	99.06
486.645	119.06
486.863	114.06
487.081	98.06
487.299	103.06
487.517	101.06
487.735	107.06
487.953	99.06
488.171	97.06
488.389	94.06
488.607	94.06
488.825	90.06
489.043	91.06
489.261	91.06
489.479	89.06
489.696	103.06
489.914	93.06
490.132	87.06
490.35	115.06
490.568	90.06
490.786	72.06
491.003	81.06
491.221	93.06
491.439	82.06
491.657	81.06
491.874	92.06
492.092	92.06
492.31	96.06
492.527	99.06
492.745	94.06
492.963	110.06
493.18	95.06
493.398	88.06
493.615	92.06
493.833	106.06
494.05	98.06
494.268	96.06
494.485	79.06
494.703	97.06
494.92	96.06
495.138	88.06
495.355	92.06
495.573	99.06
495.79	85.06
496.008	99.06
496.225	97.06
496.442	83.06
496.66	100.06
496.877	88.06
497.094	99.06
497.312	92.06
497.529	95.06
497.746	76.06
497.963	93.06
498.181	102.06
498.398	96.06
498.615	105.06
498.832	100.06
499.049	78.06
499.267	100.06
499.484	92.06
499.701	91.06
499.918	88.06
500.135	96.06
500.352	95.06
500.569	83.06
500.786	100.06
501.003	99.06
501.22	103.06
501.437	96.06
501.654	93.06
501.871	89.06
502.088	92.06
502.305	92.06
502.522	69.06
502.739	90.06
502.956	90.06
503.172	93.06
503.389	94.06
503.606	100.06
503.823	96.06
504.04	101.06
504.256	92.06
504.473	85.06
504.69	94.06
504.907	104.06
505.123	109.06
505.34	103.06
505.557	102.06
505.773	89.06
505.99	92.06
506.207	92.06
506.423	95.06
506.64	111.06
506.856	88.06
507.073	92.06
507.289	104.06
507.506	98.06
507.722	109.06
507.939	114.06
508.155	88.06
508.372	98.06
508.588	93.06
508.805	94.06
509.021	97.06
509.238	97.06
509.454	100.06
509.67	122.06
509.887	116.06
510.103	126.06
510.319	197.06
510.536	694.06
510.752	2147.06
510.968	576.06
511.184	160.06
511.401	113.06
511.617	94.06
511.833	101.06
512.049	81.06
512.265	94.06
512.481	92.06
512.698	97.06
512.914	91.06
513.13	96.06
513.346	98.06
513.562	97.06
513.778	101.06
513.994	100.06
514.21	104.06
514.426	114.06
