Data from Uncirc_1983_H10_HRD10591_00003.txt Node
Date: Wed Jan 03 12:25:32 EST 2024
User: Yrep
Spectrometer: HR+D1059
Trigger mode: 1
Integration Time (sec): 1.000000E-1
Scans to average: 1
Electric dark correction enabled: true
Nonlinearity correction enabled: false
Boxcar width: 0
XAxis mode: Wavelengths
Number of Pixels in Spectrum: 2048
>>>>>Begin Spectral Data<<<<<
223.165	-17.62
223.4	-17.62
223.635	-17.62
223.869	-14.62
224.104	-9.62
224.338	-24.62
224.573	2.38
224.808	-16.62
225.042	-12.62
225.277	-7.62
225.511	1.38
225.746	-9.62
225.98	6.38
226.215	11.38
226.449	23.38
226.683	23.38
226.918	25.38
227.152	19.38
227.387	29.38
227.621	29.38
227.856	49.38
228.09	50.38
228.324	36.38
228.559	59.38
228.793	62.38
229.027	62.38
229.262	58.38
229.496	67.38
229.73	77.38
229.964	84.38
230.199	66.38
230.433	64.38
230.667	86.38
230.901	77.38
231.136	68.38
231.37	88.38
231.604	87.38
231.838	74.38
232.072	79.38
232.306	81.38
232.541	90.38
232.775	84.38
233.009	87.38
233.243	84.38
233.477	81.38
233.711	87.38
233.945	78.38
234.179	78.38
234.413	73.38
234.647	74.38
234.881	71.38
235.115	87.38
235.349	73.38
235.583	77.38
235.817	79.38
236.051	69.38
236.285	67.38
236.519	79.38
236.753	80.38
236.987	69.38
237.221	78.38
237.455	79.38
237.689	74.38
237.922	73.38
238.156	78.38
238.39	57.38
238.624	59.38
238.858	67.38
239.091	77.38
239.325	78.38
239.559	71.38
239.793	81.38
240.027	85.38
240.26	68.38
240.494	76.38
240.728	64.38
240.961	73.38
241.195	57.38
241.429	70.38
241.662	74.38
241.896	73.38
242.13	74.38
242.363	70.38
242.597	67.38
242.83	79.38
243.064	72.38
243.298	66.38
243.531	75.38
243.765	80.38
243.998	86.38
244.232	74.38
244.465	69.38
244.699	77.38
244.932	61.38
245.166	71.38
245.399	71.38
245.633	82.38
245.866	73.38
246.099	59.38
246.333	77.38
246.566	77.38
246.8	62.38
247.033	74.38
247.266	83.38
247.5	64.38
247.733	78.38
247.966	88.38
248.2	87.38
248.433	71.38
248.666	57.38
248.899	83.38
249.133	82.38
249.366	86.38
249.599	96.38
249.832	68.38
250.066	85.38
250.299	70.38
250.532	85.38
250.765	74.38
250.998	77.38
251.231	69.38
251.465	82.38
251.698	77.38
251.931	81.38
252.164	73.38
252.397	79.38
252.63	70.38
252.863	82.38
253.096	78.38
253.329	70.38
253.562	91.38
253.795	73.38
254.028	77.38
254.261	81.38
254.494	71.38
254.727	87.38
254.96	73.38
255.193	74.38
255.426	74.38
255.659	79.38
255.892	82.38
256.124	85.38
256.357	76.38
256.59	79.38
256.823	74.38
257.056	91.38
257.289	75.38
257.521	81.38
257.754	68.38
257.987	98.38
258.22	69.38
258.452	74.38
258.685	74.38
258.918	83.38
259.151	83.38
259.383	88.38
259.616	69.38
259.849	79.38
260.081	72.38
260.314	88.38
260.547	106.38
260.779	83.38
261.012	82.38
261.244	77.38
261.477	81.38
261.71	100.38
261.942	94.38
262.175	97.38
262.407	73.38
262.64	74.38
262.872	82.38
263.105	77.38
263.337	80.38
263.57	80.38
263.802	77.38
264.035	81.38
264.267	85.38
264.499	82.38
264.732	67.38
264.964	91.38
265.197	91.38
265.429	94.38
265.661	87.38
265.894	88.38
266.126	83.38
266.358	93.38
266.591	78.38
266.823	78.38
267.055	65.38
267.287	86.38
267.52	79.38
267.752	81.38
267.984	58.38
268.216	86.38
268.448	75.38
268.681	95.38
268.913	78.38
269.145	80.38
269.377	88.38
269.609	93.38
269.841	73.38
270.073	79.38
270.306	79.38
270.538	81.38
270.77	78.38
271.002	84.38
271.234	79.38
271.466	89.38
271.698	82.38
271.93	81.38
272.162	70.38
272.394	95.38
272.626	74.38
272.858	74.38
273.09	96.38
273.322	89.38
273.553	87.38
273.785	69.38
274.017	73.38
274.249	92.38
274.481	83.38
274.713	99.38
274.945	65.38
275.176	78.38
275.408	75.38
275.64	70.38
275.872	72.38
276.104	90.38
276.335	85.38
276.567	83.38
276.799	92.38
277.031	94.38
277.262	87.38
277.494	87.38
277.726	93.38
277.957	88.38
278.189	72.38
278.421	91.38
278.652	87.38
278.884	84.38
279.115	70.38
279.347	82.38
279.579	90.38
279.81	75.38
280.042	100.38
280.273	91.38
280.505	84.38
280.736	61.38
280.968	85.38
281.199	95.38
281.431	74.38
281.662	103.38
281.894	90.38
282.125	88.38
282.356	97.38
282.588	115.38
282.819	87.38
283.051	86.38
283.282	90.38
283.513	93.38
283.745	83.38
283.976	75.38
284.207	68.38
284.439	78.38
284.67	79.38
284.901	77.38
285.132	82.38
285.364	82.38
285.595	80.38
285.826	83.38
286.057	90.38
286.288	71.38
286.52	93.38
286.751	79.38
286.982	85.38
287.213	94.38
287.444	93.38
287.675	99.38
287.906	90.38
288.138	91.38
288.369	79.38
288.6	90.38
288.831	71.38
289.062	86.38
289.293	91.38
289.524	83.38
289.755	86.38
289.986	69.38
290.217	105.38
290.448	82.38
290.679	80.38
290.91	85.38
291.141	68.38
291.371	95.38
291.602	95.38
291.833	83.38
292.064	85.38
292.295	91.38
292.526	99.38
292.757	90.38
292.987	80.38
293.218	65.38
293.449	97.38
293.68	81.38
293.91	76.38
294.141	81.38
294.372	97.38
294.603	70.38
294.833	89.38
295.064	85.38
295.295	85.38
295.525	87.38
295.756	97.38
295.987	116.38
296.217	105.38
296.448	110.38
296.679	88.38
296.909	92.38
297.14	96.38
297.37	82.38
297.601	94.38
297.831	96.38
298.062	86.38
298.292	82.38
298.523	98.38
298.753	89.38
298.984	85.38
299.214	81.38
299.445	87.38
299.675	80.38
299.905	83.38
300.136	96.38
300.366	85.38
300.597	82.38
300.827	90.38
301.057	81.38
301.288	101.38
301.518	114.38
301.748	93.38
301.979	90.38
302.209	101.38
302.439	86.38
302.669	78.38
302.9	79.38
303.13	63.38
303.36	94.38
303.59	90.38
303.82	77.38
304.051	103.38
304.281	76.38
304.511	95.38
304.741	78.38
304.971	83.38
305.201	93.38
305.431	94.38
305.661	86.38
305.891	98.38
306.121	77.38
306.352	111.38
306.582	79.38
306.812	96.38
307.042	83.38
307.272	81.38
307.502	91.38
307.731	86.38
307.961	82.38
308.191	89.38
308.421	88.38
308.651	93.38
308.881	78.38
309.111	91.38
309.341	87.38
309.571	88.38
309.8	101.38
310.03	99.38
310.26	90.38
310.49	99.38
310.72	98.38
310.949	96.38
311.179	103.38
311.409	97.38
311.639	101.38
311.868	95.38
312.098	91.38
312.328	87.38
312.557	104.38
312.787	101.38
313.017	96.38
313.246	92.38
313.476	84.38
313.706	81.38
313.935	87.38
314.165	87.38
314.394	106.38
314.624	108.38
314.853	93.38
315.083	93.38
315.312	82.38
315.542	97.38
315.771	75.38
316.001	99.38
316.23	95.38
316.46	90.38
316.689	95.38
316.919	89.38
317.148	88.38
317.377	92.38
317.607	106.38
317.836	82.38
318.065	89.38
318.295	82.38
318.524	84.38
318.753	89.38
318.983	80.38
319.212	97.38
319.441	111.38
319.67	97.38
319.9	100.38
320.129	81.38
320.358	80.38
320.587	94.38
320.816	103.38
321.046	96.38
321.275	101.38
321.504	103.38
321.733	89.38
321.962	101.38
322.191	84.38
322.42	102.38
322.649	87.38
322.878	107.38
323.108	108.38
323.337	102.38
323.566	118.38
323.795	128.38
324.024	166.38
324.253	294.38
324.482	623.38
324.71	1234.38
324.939	1593.38
325.168	607.38
325.397	196.38
325.626	120.38
325.855	118.38
326.084	106.38
326.313	107.38
326.542	138.38
326.77	186.38
326.999	363.38
327.228	754.38
327.457	1316.38
327.686	1032.38
327.914	292.38
328.143	163.38
328.372	135.38
328.6	105.38
328.829	118.38
329.058	110.38
329.287	109.38
329.515	86.38
329.744	93.38
329.972	92.38
330.201	109.38
330.43	100.38
330.658	101.38
330.887	109.38
331.115	97.38
331.344	90.38
331.572	87.38
331.801	94.38
332.03	97.38
332.258	91.38
332.486	89.38
332.715	101.38
332.943	81.38
333.172	85.38
333.4	99.38
333.629	89.38
333.857	107.38
334.085	100.38
334.314	90.38
334.542	85.38
334.771	92.38
334.999	79.38
335.227	95.38
335.455	85.38
335.684	95.38
335.912	105.38
336.14	87.38
336.369	91.38
336.597	94.38
336.825	87.38
337.053	89.38
337.281	101.38
337.51	97.38
337.738	84.38
337.966	87.38
338.194	90.38
338.422	98.38
338.65	85.38
338.878	85.38
339.106	93.38
339.334	84.38
339.562	103.38
339.79	94.38
340.018	85.38
340.246	98.38
340.474	95.38
340.702	86.38
340.93	102.38
341.158	97.38
341.386	87.38
341.614	95.38
341.842	95.38
342.07	93.38
342.298	78.38
342.526	91.38
342.754	81.38
342.981	89.38
343.209	91.38
343.437	88.38
343.665	90.38
343.893	99.38
344.12	91.38
344.348	82.38
344.576	90.38
344.804	93.38
345.031	91.38
345.259	85.38
345.487	90.38
345.714	91.38
345.942	84.38
346.17	85.38
346.397	100.38
346.625	107.38
346.853	95.38
347.08	104.38
347.308	87.38
347.535	85.38
347.763	94.38
347.99	95.38
348.218	85.38
348.445	107.38
348.673	91.38
348.9	96.38
349.128	95.38
349.355	85.38
349.583	89.38
349.81	107.38
350.037	97.38
350.265	91.38
350.492	98.38
350.72	102.38
350.947	115.38
351.174	102.38
351.402	94.38
351.629	100.38
351.856	86.38
352.083	103.38
352.311	100.38
352.538	98.38
352.765	105.38
352.992	103.38
353.22	110.38
353.447	102.38
353.674	108.38
353.901	89.38
354.128	89.38
354.355	100.38
354.583	81.38
354.81	90.38
355.037	94.38
355.264	84.38
355.491	79.38
355.718	92.38
355.945	93.38
356.172	95.38
356.399	105.38
356.626	113.38
356.853	103.38
357.08	91.38
357.307	87.38
357.534	97.38
357.761	78.38
357.988	109.38
358.215	85.38
358.441	96.38
358.668	103.38
358.895	83.38
359.122	85.38
359.349	92.38
359.576	81.38
359.802	79.38
360.029	91.38
360.256	103.38
360.483	94.38
360.709	87.38
360.936	98.38
361.163	97.38
361.39	91.38
361.616	83.38
361.843	102.38
362.07	90.38
362.296	80.38
362.523	82.38
362.749	98.38
362.976	86.38
363.203	88.38
363.429	65.38
363.656	82.38
363.882	81.38
364.109	82.38
364.335	90.38
364.562	89.38
364.788	84.38
365.015	90.38
365.241	91.38
365.468	87.38
365.694	84.38
365.92	88.38
366.147	91.38
366.373	93.38
366.599	89.38
366.826	107.38
367.052	96.38
367.278	89.38
367.505	83.38
367.731	81.38
367.957	79.38
368.184	85.38
368.41	90.38
368.636	101.38
368.862	115.38
369.089	96.38
369.315	96.38
369.541	87.38
369.767	85.38
369.993	105.38
370.219	99.38
370.445	88.38
370.672	83.38
370.898	82.38
371.124	85.38
371.35	75.38
371.576	101.38
371.802	98.38
372.028	83.38
372.254	83.38
372.48	100.38
372.706	102.38
372.932	89.38
373.158	82.38
373.384	87.38
373.61	79.38
373.835	101.38
374.061	78.38
374.287	98.38
374.513	86.38
374.739	99.38
374.965	84.38
375.191	101.38
375.416	96.38
375.642	87.38
375.868	81.38
376.094	88.38
376.319	98.38
376.545	97.38
376.771	86.38
376.997	101.38
377.222	91.38
377.448	73.38
377.674	83.38
377.899	85.38
378.125	93.38
378.35	95.38
378.576	86.38
378.802	88.38
379.027	103.38
379.253	110.38
379.478	89.38
379.704	80.38
379.929	85.38
380.155	85.38
380.38	88.38
380.606	93.38
380.831	110.38
381.057	106.38
381.282	89.38
381.507	99.38
381.733	97.38
381.958	94.38
382.184	98.38
382.409	104.38
382.634	98.38
382.86	106.38
383.085	102.38
383.31	107.38
383.535	107.38
383.761	117.38
383.986	110.38
384.211	95.38
384.436	95.38
384.662	90.38
384.887	115.38
385.112	106.38
385.337	125.38
385.562	110.38
385.787	110.38
386.013	114.38
386.238	128.38
386.463	102.38
386.688	113.38
386.913	116.38
387.138	104.38
387.363	117.38
387.588	117.38
387.813	106.38
388.038	106.38
388.263	142.38
388.488	118.38
388.713	107.38
388.938	97.38
389.163	76.38
389.387	106.38
389.612	99.38
389.837	84.38
390.062	90.38
390.287	67.38
390.512	93.38
390.736	93.38
390.961	106.38
391.186	99.38
391.411	89.38
391.636	95.38
391.86	95.38
392.085	79.38
392.31	96.38
392.534	95.38
392.759	86.38
392.984	79.38
393.208	101.38
393.433	116.38
393.658	117.38
393.882	83.38
394.107	93.38
394.331	93.38
394.556	85.38
394.78	87.38
395.005	96.38
395.229	85.38
395.454	91.38
395.678	82.38
395.903	78.38
396.127	88.38
396.352	83.38
396.576	88.38
396.801	105.38
397.025	105.38
397.249	104.38
397.474	88.38
397.698	100.38
397.922	82.38
398.147	99.38
398.371	83.38
398.595	98.38
398.82	95.38
399.044	83.38
399.268	86.38
399.492	88.38
399.717	88.38
399.941	107.38
400.165	93.38
400.389	91.38
400.613	97.38
400.837	79.38
401.062	83.38
401.286	96.38
401.51	77.38
401.734	95.38
401.958	107.38
402.182	88.38
402.406	127.38
402.63	93.38
402.854	85.38
403.078	93.38
403.302	95.38
403.526	78.38
403.75	80.38
403.974	77.38
404.198	78.38
404.422	89.38
404.645	72.38
404.869	79.38
405.093	88.38
405.317	89.38
405.541	76.38
405.765	97.38
405.988	94.38
406.212	135.38
406.436	147.38
406.66	109.38
406.883	97.38
407.107	96.38
407.331	82.38
407.555	88.38
407.778	90.38
408.002	88.38
408.226	82.38
408.449	83.38
408.673	87.38
408.896	78.38
409.12	94.38
409.344	95.38
409.567	78.38
409.791	90.38
410.014	90.38
410.238	89.38
410.461	93.38
410.685	97.38
410.908	107.38
411.132	106.38
411.355	99.38
411.578	97.38
411.802	84.38
412.025	92.38
412.249	82.38
412.472	85.38
412.695	102.38
412.919	81.38
413.142	79.38
413.365	87.38
413.589	78.38
413.812	97.38
414.035	85.38
414.258	89.38
414.482	84.38
414.705	93.38
414.928	97.38
415.151	88.38
415.374	86.38
415.597	76.38
415.821	89.38
416.044	87.38
416.267	97.38
416.49	97.38
416.713	77.38
416.936	82.38
417.159	92.38
417.382	91.38
417.605	77.38
417.828	90.38
418.051	90.38
418.274	97.38
418.497	86.38
418.72	84.38
418.943	88.38
419.166	95.38
419.389	93.38
419.611	89.38
419.834	88.38
420.057	82.38
420.28	81.38
420.503	86.38
420.726	81.38
420.948	84.38
421.171	85.38
421.394	90.38
421.617	75.38
421.839	96.38
422.062	101.38
422.285	82.38
422.507	101.38
422.73	115.38
422.953	96.38
423.175	101.38
423.398	89.38
423.621	95.38
423.843	62.38
424.066	96.38
424.288	93.38
424.511	82.38
424.733	94.38
424.956	91.38
425.178	84.38
425.401	103.38
425.623	90.38
425.846	98.38
426.068	89.38
426.291	96.38
426.513	99.38
426.735	93.38
426.958	79.38
427.18	87.38
427.402	120.38
427.625	128.38
427.847	109.38
428.069	93.38
428.292	69.38
428.514	93.38
428.736	74.38
428.958	74.38
429.181	81.38
429.403	88.38
429.625	87.38
429.847	97.38
430.069	103.38
430.292	96.38
430.514	87.38
430.736	74.38
430.958	71.38
431.18	63.38
431.402	81.38
431.624	79.38
431.846	94.38
432.068	91.38
432.29	75.38
432.512	89.38
432.734	85.38
432.956	78.38
433.178	90.38
433.4	89.38
433.622	95.38
433.844	96.38
434.066	81.38
434.287	89.38
434.509	89.38
434.731	94.38
434.953	78.38
435.175	77.38
435.397	95.38
435.618	100.38
435.84	91.38
436.062	111.38
436.284	113.38
436.505	99.38
436.727	90.38
436.949	83.38
437.17	78.38
437.392	80.38
437.614	87.38
437.835	98.38
438.057	93.38
438.278	94.38
438.5	98.38
438.721	107.38
438.943	91.38
439.165	82.38
439.386	82.38
439.608	96.38
439.829	94.38
440.05	100.38
440.272	107.38
440.493	80.38
440.715	77.38
440.936	102.38
441.158	83.38
441.379	80.38
441.6	99.38
441.822	89.38
442.043	99.38
442.264	99.38
442.486	94.38
442.707	86.38
442.928	91.38
443.149	107.38
443.371	115.38
443.592	95.38
443.813	99.38
444.034	90.38
444.255	75.38
444.476	81.38
444.698	81.38
444.919	72.38
445.14	130.38
445.361	99.38
445.582	102.38
445.803	113.38
446.024	105.38
446.245	113.38
446.466	97.38
446.687	72.38
446.908	88.38
447.129	77.38
447.35	79.38
447.571	84.38
447.792	90.38
448.013	97.38
448.234	91.38
448.455	94.38
448.675	109.38
448.896	124.38
449.117	95.38
449.338	82.38
449.559	119.38
449.779	124.38
450	94.38
450.221	98.38
450.442	83.38
450.662	82.38
450.883	91.38
451.104	93.38
451.324	79.38
451.545	87.38
451.766	78.38
451.986	81.38
452.207	79.38
452.428	82.38
452.648	94.38
452.869	94.38
453.089	104.38
453.31	95.38
453.53	81.38
453.751	93.38
453.971	85.38
454.192	102.38
454.412	99.38
454.633	77.38
454.853	77.38
455.073	86.38
455.294	97.38
455.514	91.38
455.734	98.38
455.955	88.38
456.175	76.38
456.395	78.38
456.616	89.38
456.836	89.38
457.056	74.38
457.276	79.38
457.497	83.38
457.717	80.38
457.937	90.38
458.157	72.38
458.377	77.38
458.598	100.38
458.818	119.38
459.038	122.38
459.258	91.38
459.478	83.38
459.698	88.38
459.918	79.38
460.138	79.38
460.358	86.38
460.578	86.38
460.798	85.38
461.018	78.38
461.238	87.38
461.458	81.38
461.678	73.38
461.898	84.38
462.118	74.38
462.338	80.38
462.558	80.38
462.777	78.38
462.997	100.38
463.217	89.38
463.437	75.38
463.657	74.38
463.876	77.38
464.096	85.38
464.316	80.38
464.536	97.38
464.755	97.38
464.975	97.38
465.195	113.38
465.414	117.38
465.634	87.38
465.854	88.38
466.073	82.38
466.293	97.38
466.512	83.38
466.732	77.38
466.951	78.38
467.171	90.38
467.391	93.38
467.61	84.38
467.829	83.38
468.049	63.38
468.268	85.38
468.488	77.38
468.707	74.38
468.927	81.38
469.146	71.38
469.365	78.38
469.585	81.38
469.804	74.38
470.023	98.38
470.243	85.38
470.462	93.38
470.681	87.38
470.901	95.38
471.12	90.38
471.339	75.38
471.558	97.38
471.777	84.38
471.997	69.38
472.216	87.38
472.435	77.38
472.654	88.38
472.873	97.38
473.092	93.38
473.311	74.38
473.53	77.38
473.749	83.38
473.968	91.38
474.187	104.38
474.406	93.38
474.625	90.38
474.844	69.38
475.063	56.38
475.282	91.38
475.501	79.38
475.72	88.38
475.939	73.38
476.158	90.38
476.377	89.38
476.596	77.38
476.814	88.38
477.033	71.38
477.252	91.38
477.471	63.38
477.69	79.38
477.908	74.38
478.127	87.38
478.346	88.38
478.564	92.38
478.783	97.38
479.002	90.38
479.22	86.38
479.439	89.38
479.658	97.38
479.876	87.38
480.095	96.38
480.313	95.38
480.532	81.38
480.751	88.38
480.969	83.38
481.188	94.38
481.406	101.38
481.624	106.38
481.843	86.38
482.061	85.38
482.28	83.38
482.498	95.38
482.717	82.38
482.935	96.38
483.153	99.38
483.372	86.38
483.59	95.38
483.808	84.38
484.027	90.38
484.245	94.38
484.463	93.38
484.681	92.38
484.9	92.38
485.118	81.38
485.336	97.38
485.554	99.38
485.772	97.38
485.99	100.38
486.209	96.38
486.427	107.38
486.645	100.38
486.863	100.38
487.081	92.38
487.299	99.38
487.517	99.38
487.735	89.38
487.953	87.38
488.171	84.38
488.389	94.38
488.607	94.38
488.825	106.38
489.043	79.38
489.261	73.38
489.479	94.38
489.696	85.38
489.914	92.38
490.132	94.38
490.35	80.38
490.568	85.38
490.786	86.38
491.003	85.38
491.221	79.38
491.439	96.38
491.657	94.38
491.874	102.38
492.092	90.38
492.31	88.38
492.527	89.38
492.745	88.38
492.963	90.38
493.18	77.38
493.398	93.38
493.615	93.38
493.833	86.38
494.05	86.38
494.268	91.38
494.485	87.38
494.703	98.38
494.92	87.38
495.138	102.38
495.355	101.38
495.573	72.38
495.79	89.38
496.008	87.38
496.225	85.38
496.442	92.38
496.66	86.38
496.877	95.38
497.094	87.38
497.312	92.38
497.529	80.38
497.746	90.38
497.963	83.38
498.181	82.38
498.398	96.38
498.615	100.38
498.832	94.38
499.049	69.38
499.267	90.38
499.484	89.38
499.701	91.38
499.918	93.38
500.135	87.38
500.352	91.38
500.569	84.38
500.786	81.38
501.003	101.38
501.22	91.38
501.437	79.38
501.654	96.38
501.871	96.38
502.088	86.38
502.305	75.38
502.522	84.38
502.739	89.38
502.956	87.38
503.172	91.38
503.389	80.38
503.606	105.38
503.823	85.38
504.04	98.38
504.256	92.38
504.473	77.38
504.69	77.38
504.907	93.38
505.123	95.38
505.34	99.38
505.557	84.38
505.773	99.38
505.99	94.38
506.207	91.38
506.423	88.38
506.64	87.38
506.856	75.38
507.073	72.38
507.289	81.38
507.506	96.38
507.722	91.38
507.939	95.38
508.155	87.38
508.372	84.38
508.588	82.38
508.805	84.38
509.021	99.38
509.238	94.38
509.454	95.38
509.67	107.38
509.887	97.38
510.103	124.38
510.319	164.38
510.536	532.38
510.752	1546.38
510.968	447.38
511.184	134.38
511.401	104.38
511.617	91.38
511.833	90.38
512.049	93.38
512.265	87.38
512.481	92.38
512.698	88.38
512.914	107.38
513.13	89.38
513.346	88.38
513.562	89.38
513.778	97.38
513.994	94.38
514.21	86.38
514.426	103.38
514.642	103.38
514.858	120.38
515.074	125.38
515.29	300.38
515.506	907.38
515.721	344.38
515.937	120.38
516.153	107.38
516.369	105.38
516.585	97.38
516.801	92.38
517.016	82.38
