Data from Uncirc_1983_H10_HRD10591_00044.txt Node
Date: Wed Jan 03 12:25:40 EST 2024
User: Yrep
Spectrometer: HR+D1059
Trigger mode: 1
Integration Time (sec): 1.000000E-1
Scans to average: 1
Electric dark correction enabled: true
Nonlinearity correction enabled: false
Boxcar width: 0
XAxis mode: Wavelengths
Number of Pixels in Spectrum: 2048
>>>>>Begin Spectral Data<<<<<
223.165	-20.31
223.4	-20.31
223.635	-20.31
223.869	-12.31
224.104	-11.31
224.338	-7.31
224.573	-20.31
224.808	-17.31
225.042	-7.31
225.277	-5.31
225.511	-10.31
225.746	9.69
225.98	0.69
226.215	9.69
226.449	23.69
226.683	12.69
226.918	21.69
227.152	33.69
227.387	36.69
227.621	42.69
227.856	54.69
228.09	48.69
228.324	44.69
228.559	55.69
228.793	58.69
229.027	52.69
229.262	71.69
229.496	60.69
229.73	74.69
229.964	91.69
230.199	86.69
230.433	74.69
230.667	69.69
230.901	79.69
231.136	76.69
231.37	83.69
231.604	86.69
231.838	84.69
232.072	72.69
232.306	83.69
232.541	61.69
232.775	72.69
233.009	82.69
233.243	72.69
233.477	79.69
233.711	87.69
233.945	78.69
234.179	76.69
234.413	78.69
234.647	75.69
234.881	77.69
235.115	86.69
235.349	76.69
235.583	70.69
235.817	73.69
236.051	79.69
236.285	78.69
236.519	86.69
236.753	78.69
236.987	87.69
237.221	86.69
237.455	71.69
237.689	81.69
237.922	57.69
238.156	78.69
238.39	56.69
238.624	78.69
238.858	70.69
239.091	65.69
239.325	70.69
239.559	73.69
239.793	76.69
240.027	74.69
240.26	67.69
240.494	67.69
240.728	93.69
240.961	82.69
241.195	87.69
241.429	81.69
241.662	73.69
241.896	72.69
242.13	72.69
242.363	68.69
242.597	72.69
242.83	82.69
243.064	79.69
243.298	78.69
243.531	78.69
243.765	63.69
243.998	79.69
244.232	74.69
244.465	88.69
244.699	85.69
244.932	86.69
245.166	79.69
245.399	78.69
245.633	94.69
245.866	60.69
246.099	70.69
246.333	75.69
246.566	90.69
246.8	79.69
247.033	83.69
247.266	75.69
247.5	74.69
247.733	69.69
247.966	72.69
248.2	76.69
248.433	81.69
248.666	86.69
248.899	97.69
249.133	96.69
249.366	86.69
249.599	108.69
249.832	73.69
250.066	91.69
250.299	67.69
250.532	78.69
250.765	82.69
250.998	95.69
251.231	94.69
251.465	90.69
251.698	85.69
251.931	69.69
252.164	78.69
252.397	99.69
252.63	78.69
252.863	79.69
253.096	75.69
253.329	82.69
253.562	79.69
253.795	72.69
254.028	84.69
254.261	75.69
254.494	91.69
254.727	90.69
254.96	80.69
255.193	86.69
255.426	80.69
255.659	75.69
255.892	82.69
256.124	65.69
256.357	78.69
256.59	68.69
256.823	72.69
257.056	90.69
257.289	75.69
257.521	80.69
257.754	85.69
257.987	63.69
258.22	81.69
258.452	82.69
258.685	69.69
258.918	76.69
259.151	84.69
259.383	89.69
259.616	80.69
259.849	77.69
260.081	69.69
260.314	71.69
260.547	72.69
260.779	67.69
261.012	74.69
261.244	78.69
261.477	95.69
261.71	92.69
261.942	115.69
262.175	94.69
262.407	76.69
262.64	84.69
262.872	90.69
263.105	87.69
263.337	81.69
263.57	93.69
263.802	70.69
264.035	83.69
264.267	77.69
264.499	82.69
264.732	88.69
264.964	80.69
265.197	86.69
265.429	91.69
265.661	95.69
265.894	80.69
266.126	98.69
266.358	73.69
266.591	88.69
266.823	86.69
267.055	83.69
267.287	89.69
267.52	74.69
267.752	84.69
267.984	75.69
268.216	86.69
268.448	99.69
268.681	75.69
268.913	90.69
269.145	88.69
269.377	80.69
269.609	74.69
269.841	80.69
270.073	84.69
270.306	74.69
270.538	88.69
270.77	87.69
271.002	80.69
271.234	71.69
271.466	89.69
271.698	87.69
271.93	64.69
272.162	86.69
272.394	94.69
272.626	79.69
272.858	99.69
273.09	90.69
273.322	80.69
273.553	74.69
273.785	99.69
274.017	80.69
274.249	91.69
274.481	61.69
274.713	78.69
274.945	70.69
275.176	82.69
275.408	72.69
275.64	88.69
275.872	93.69
276.104	66.69
276.335	69.69
276.567	88.69
276.799	105.69
277.031	92.69
277.262	86.69
277.494	78.69
277.726	78.69
277.957	79.69
278.189	81.69
278.421	84.69
278.652	88.69
278.884	74.69
279.115	85.69
279.347	79.69
279.579	89.69
279.81	95.69
280.042	90.69
280.273	82.69
280.505	87.69
280.736	90.69
280.968	89.69
281.199	73.69
281.431	85.69
281.662	82.69
281.894	94.69
282.125	104.69
282.356	96.69
282.588	126.69
282.819	112.69
283.051	89.69
283.282	97.69
283.513	83.69
283.745	83.69
283.976	81.69
284.207	85.69
284.439	83.69
284.67	84.69
284.901	95.69
285.132	93.69
285.364	75.69
285.595	85.69
285.826	89.69
286.057	83.69
286.288	89.69
286.52	80.69
286.751	79.69
286.982	83.69
287.213	82.69
287.444	88.69
287.675	78.69
287.906	97.69
288.138	76.69
288.369	88.69
288.6	94.69
288.831	78.69
289.062	95.69
289.293	92.69
289.524	86.69
289.755	80.69
289.986	71.69
290.217	89.69
290.448	78.69
290.679	93.69
290.91	74.69
291.141	82.69
291.371	79.69
291.602	80.69
291.833	90.69
292.064	87.69
292.295	65.69
292.526	85.69
292.757	84.69
292.987	88.69
293.218	77.69
293.449	87.69
293.68	90.69
293.91	92.69
294.141	107.69
294.372	87.69
294.603	86.69
294.833	92.69
295.064	80.69
295.295	84.69
295.525	93.69
295.756	102.69
295.987	107.69
296.217	116.69
296.448	128.69
296.679	91.69
296.909	91.69
297.14	82.69
297.37	82.69
297.601	89.69
297.831	109.69
298.062	98.69
298.292	84.69
298.523	85.69
298.753	82.69
298.984	93.69
299.214	79.69
299.445	103.69
299.675	95.69
299.905	83.69
300.136	86.69
300.366	79.69
300.597	92.69
300.827	89.69
301.057	101.69
301.288	93.69
301.518	89.69
301.748	89.69
301.979	99.69
302.209	87.69
302.439	68.69
302.669	85.69
302.9	72.69
303.13	81.69
303.36	90.69
303.59	91.69
303.82	97.69
304.051	82.69
304.281	79.69
304.511	95.69
304.741	84.69
304.971	83.69
305.201	90.69
305.431	91.69
305.661	81.69
305.891	94.69
306.121	94.69
306.352	95.69
306.582	111.69
306.812	101.69
307.042	90.69
307.272	99.69
307.502	91.69
307.731	102.69
307.961	80.69
308.191	87.69
308.421	84.69
308.651	82.69
308.881	81.69
309.111	101.69
309.341	90.69
309.571	87.69
309.8	88.69
310.03	104.69
310.26	92.69
310.49	87.69
310.72	93.69
310.949	91.69
311.179	94.69
311.409	93.69
311.639	88.69
311.868	97.69
312.098	84.69
312.328	92.69
312.557	109.69
312.787	105.69
313.017	108.69
313.246	100.69
313.476	107.69
313.706	86.69
313.935	101.69
314.165	99.69
314.394	94.69
314.624	91.69
314.853	99.69
315.083	88.69
315.312	81.69
315.542	70.69
315.771	90.69
316.001	82.69
316.23	89.69
316.46	91.69
316.689	92.69
316.919	87.69
317.148	82.69
317.377	89.69
317.607	93.69
317.836	90.69
318.065	90.69
318.295	82.69
318.524	88.69
318.753	96.69
318.983	114.69
319.212	106.69
319.441	98.69
319.67	97.69
319.9	90.69
320.129	95.69
320.358	104.69
320.587	100.69
320.816	97.69
321.046	103.69
321.275	101.69
321.504	85.69
321.733	95.69
321.962	92.69
322.191	108.69
322.42	116.69
322.649	100.69
322.878	111.69
323.108	91.69
323.337	117.69
323.566	126.69
323.795	131.69
324.024	176.69
324.253	332.69
324.482	708.69
324.71	1448.69
324.939	1898.69
325.168	691.69
325.397	209.69
325.626	136.69
325.855	130.69
326.084	130.69
326.313	115.69
326.542	130.69
326.77	222.69
326.999	404.69
327.228	824.69
327.457	1459.69
327.686	1151.69
327.914	328.69
328.143	169.69
328.372	131.69
328.6	122.69
328.829	105.69
329.058	117.69
329.287	113.69
329.515	92.69
329.744	75.69
329.972	99.69
330.201	112.69
330.43	114.69
330.658	121.69
330.887	123.69
331.115	93.69
331.344	102.69
331.572	102.69
331.801	103.69
332.03	86.69
332.258	93.69
332.486	99.69
332.715	88.69
332.943	85.69
333.172	107.69
333.4	94.69
333.629	98.69
333.857	101.69
334.085	97.69
334.314	112.69
334.542	104.69
334.771	90.69
334.999	90.69
335.227	105.69
335.455	90.69
335.684	96.69
335.912	87.69
336.14	89.69
336.369	97.69
336.597	103.69
336.825	94.69
337.053	78.69
337.281	102.69
337.51	92.69
337.738	81.69
337.966	99.69
338.194	95.69
338.422	112.69
338.65	88.69
338.878	91.69
339.106	89.69
339.334	101.69
339.562	95.69
339.79	92.69
340.018	83.69
340.246	92.69
340.474	79.69
340.702	99.69
340.93	88.69
341.158	116.69
341.386	84.69
341.614	79.69
341.842	95.69
342.07	103.69
342.298	68.69
342.526	85.69
342.754	82.69
342.981	69.69
343.209	75.69
343.437	102.69
343.665	75.69
343.893	91.69
344.12	102.69
344.348	83.69
344.576	80.69
344.804	88.69
345.031	86.69
345.259	83.69
345.487	90.69
345.714	96.69
345.942	98.69
346.17	97.69
346.397	98.69
346.625	85.69
346.853	78.69
347.08	81.69
347.308	76.69
347.535	82.69
347.763	94.69
347.99	94.69
348.218	100.69
348.445	98.69
348.673	101.69
348.9	103.69
349.128	98.69
349.355	103.69
349.583	107.69
349.81	96.69
350.037	100.69
350.265	88.69
350.492	88.69
350.72	93.69
350.947	110.69
351.174	116.69
351.402	97.69
351.629	111.69
351.856	103.69
352.083	112.69
352.311	105.69
352.538	101.69
352.765	113.69
352.992	100.69
353.22	108.69
353.447	111.69
353.674	106.69
353.901	103.69
354.128	87.69
354.355	95.69
354.583	110.69
354.81	97.69
355.037	102.69
355.264	84.69
355.491	79.69
355.718	88.69
355.945	104.69
356.172	81.69
356.399	89.69
356.626	81.69
356.853	94.69
357.08	73.69
357.307	86.69
357.534	86.69
357.761	99.69
357.988	92.69
358.215	95.69
358.441	114.69
358.668	93.69
358.895	89.69
359.122	78.69
359.349	91.69
359.576	91.69
359.802	85.69
360.029	102.69
360.256	104.69
360.483	97.69
360.709	98.69
360.936	85.69
361.163	78.69
361.39	96.69
361.616	90.69
361.843	85.69
362.07	81.69
362.296	103.69
362.523	91.69
362.749	103.69
362.976	87.69
363.203	95.69
363.429	84.69
363.656	86.69
363.882	85.69
364.109	84.69
364.335	78.69
364.562	87.69
364.788	97.69
365.015	91.69
365.241	95.69
365.468	104.69
365.694	103.69
365.92	94.69
366.147	96.69
366.373	90.69
366.599	82.69
366.826	97.69
367.052	85.69
367.278	81.69
367.505	94.69
367.731	93.69
367.957	86.69
368.184	86.69
368.41	95.69
368.636	103.69
368.862	94.69
369.089	88.69
369.315	75.69
369.541	93.69
369.767	90.69
369.993	88.69
370.219	80.69
370.445	86.69
370.672	81.69
370.898	85.69
371.124	88.69
371.35	94.69
371.576	85.69
371.802	99.69
372.028	82.69
372.254	75.69
372.48	70.69
372.706	84.69
372.932	92.69
373.158	96.69
373.384	97.69
373.61	84.69
373.835	100.69
374.061	94.69
374.287	94.69
374.513	99.69
374.739	87.69
374.965	91.69
375.191	90.69
375.416	72.69
375.642	85.69
375.868	81.69
376.094	82.69
376.319	66.69
376.545	98.69
376.771	96.69
376.997	96.69
377.222	81.69
377.448	82.69
377.674	65.69
377.899	80.69
378.125	86.69
378.35	104.69
378.576	91.69
378.802	93.69
379.027	83.69
379.253	94.69
379.478	71.69
379.704	88.69
379.929	97.69
380.155	103.69
380.38	89.69
380.606	74.69
380.831	82.69
381.057	98.69
381.282	111.69
381.507	88.69
381.733	78.69
381.958	90.69
382.184	88.69
382.409	98.69
382.634	87.69
382.86	92.69
383.085	95.69
383.31	89.69
383.535	91.69
383.761	98.69
383.986	97.69
384.211	99.69
384.436	92.69
384.662	94.69
384.887	91.69
385.112	80.69
385.337	102.69
385.562	107.69
385.787	111.69
386.013	105.69
386.238	113.69
386.463	111.69
386.688	102.69
386.913	106.69
387.138	92.69
387.363	83.69
387.588	96.69
387.813	110.69
388.038	94.69
388.263	104.69
388.488	109.69
388.713	96.69
388.938	99.69
389.163	90.69
389.387	99.69
389.612	96.69
389.837	82.69
390.062	98.69
390.287	88.69
390.512	93.69
390.736	89.69
390.961	92.69
391.186	87.69
391.411	111.69
391.636	105.69
391.86	71.69
392.085	81.69
392.31	68.69
392.534	85.69
392.759	75.69
392.984	78.69
393.208	84.69
393.433	102.69
393.658	91.69
393.882	85.69
394.107	87.69
394.331	78.69
394.556	90.69
394.78	87.69
395.005	93.69
395.229	88.69
395.454	82.69
395.678	78.69
395.903	95.69
396.127	86.69
396.352	88.69
396.576	89.69
396.801	80.69
397.025	74.69
397.249	80.69
397.474	79.69
397.698	92.69
397.922	83.69
398.147	86.69
398.371	87.69
398.595	84.69
398.82	74.69
399.044	83.69
399.268	78.69
399.492	80.69
399.717	85.69
399.941	108.69
400.165	94.69
400.389	86.69
400.613	84.69
400.837	85.69
401.062	82.69
401.286	103.69
401.51	91.69
401.734	85.69
401.958	94.69
402.182	120.69
402.406	151.69
402.63	112.69
402.854	105.69
403.078	78.69
403.302	88.69
403.526	87.69
403.75	93.69
403.974	95.69
404.198	99.69
404.422	96.69
404.645	80.69
404.869	70.69
405.093	92.69
405.317	90.69
405.541	99.69
405.765	98.69
405.988	103.69
406.212	151.69
406.436	194.69
406.66	143.69
406.883	99.69
407.107	97.69
407.331	96.69
407.555	94.69
407.778	99.69
408.002	84.69
408.226	88.69
408.449	94.69
408.673	90.69
408.896	77.69
409.12	90.69
409.344	90.69
409.567	95.69
409.791	97.69
410.014	78.69
410.238	86.69
410.461	99.69
410.685	88.69
410.908	86.69
411.132	114.69
411.355	104.69
411.578	96.69
411.802	87.69
412.025	94.69
412.249	73.69
412.472	86.69
412.695	93.69
412.919	92.69
413.142	92.69
413.365	83.69
413.589	86.69
413.812	91.69
414.035	85.69
414.258	84.69
414.482	92.69
414.705	97.69
414.928	84.69
415.151	84.69
415.374	85.69
415.597	93.69
415.821	86.69
416.044	87.69
416.267	90.69
416.49	74.69
416.713	90.69
416.936	86.69
417.159	88.69
417.382	88.69
417.605	73.69
417.828	86.69
418.051	83.69
418.274	82.69
418.497	83.69
418.72	84.69
418.943	95.69
419.166	99.69
419.389	95.69
419.611	80.69
419.834	83.69
420.057	94.69
420.28	104.69
420.503	87.69
420.726	82.69
420.948	96.69
421.171	92.69
421.394	92.69
421.617	80.69
421.839	86.69
422.062	107.69
422.285	95.69
422.507	94.69
422.73	96.69
422.953	97.69
423.175	94.69
423.398	83.69
423.621	91.69
423.843	87.69
424.066	91.69
424.288	94.69
424.511	84.69
424.733	94.69
424.956	96.69
425.178	95.69
425.401	96.69
425.623	102.69
425.846	82.69
426.068	95.69
426.291	90.69
426.513	75.69
426.735	89.69
426.958	81.69
427.18	94.69
427.402	128.69
427.625	153.69
427.847	102.69
428.069	108.69
428.292	94.69
428.514	79.69
428.736	75.69
428.958	94.69
429.181	86.69
429.403	75.69
429.625	84.69
429.847	97.69
430.069	91.69
430.292	86.69
430.514	76.69
430.736	84.69
430.958	87.69
431.18	90.69
431.402	82.69
431.624	88.69
431.846	85.69
432.068	87.69
432.29	74.69
432.512	80.69
432.734	78.69
432.956	100.69
433.178	104.69
433.4	100.69
433.622	95.69
433.844	96.69
434.066	86.69
434.287	76.69
434.509	90.69
434.731	70.69
434.953	89.69
435.175	94.69
435.397	90.69
435.618	99.69
435.84	95.69
436.062	122.69
436.284	119.69
436.505	98.69
436.727	95.69
436.949	96.69
437.17	83.69
437.392	80.69
437.614	91.69
437.835	92.69
438.057	113.69
438.278	119.69
438.5	98.69
438.721	128.69
438.943	102.69
439.165	87.69
439.386	85.69
439.608	106.69
439.829	91.69
440.05	120.69
440.272	122.69
440.493	101.69
440.715	82.69
440.936	96.69
441.158	93.69
441.379	95.69
441.6	84.69
441.822	91.69
442.043	86.69
442.264	98.69
442.486	99.69
442.707	82.69
442.928	107.69
443.149	113.69
443.371	129.69
443.592	109.69
443.813	103.69
444.034	96.69
444.255	92.69
444.476	80.69
444.698	73.69
444.919	71.69
445.14	142.69
445.361	120.69
445.582	108.69
445.803	123.69
446.024	116.69
446.245	121.69
446.466	106.69
446.687	88.69
446.908	89.69
447.129	85.69
447.35	80.69
447.571	95.69
447.792	101.69
448.013	89.69
448.234	100.69
448.455	96.69
448.675	100.69
448.896	111.69
449.117	95.69
449.338	110.69
449.559	118.69
449.779	120.69
450	97.69
450.221	86.69
450.442	75.69
450.662	90.69
450.883	107.69
451.104	117.69
451.324	82.69
451.545	82.69
451.766	101.69
451.986	68.69
452.207	85.69
452.428	88.69
452.648	93.69
452.869	98.69
453.089	110.69
453.31	112.69
453.53	95.69
453.751	82.69
453.971	90.69
454.192	76.69
454.412	94.69
454.633	97.69
454.853	80.69
455.073	91.69
455.294	91.69
455.514	95.69
455.734	91.69
455.955	73.69
456.175	91.69
456.395	87.69
456.616	86.69
456.836	90.69
457.056	91.69
457.276	82.69
457.497	90.69
457.717	74.69
457.937	92.69
458.157	83.69
458.377	92.69
458.598	98.69
458.818	123.69
459.038	150.69
459.258	110.69
459.478	84.69
459.698	84.69
459.918	81.69
460.138	89.69
460.358	85.69
460.578	83.69
460.798	92.69
461.018	80.69
461.238	84.69
461.458	74.69
461.678	85.69
461.898	80.69
462.118	81.69
462.338	90.69
462.558	89.69
462.777	76.69
462.997	78.69
463.217	81.69
463.437	91.69
463.657	70.69
463.876	72.69
464.096	84.69
464.316	86.69
464.536	92.69
464.755	100.69
464.975	100.69
465.195	159.69
465.414	134.69
465.634	97.69
465.854	71.69
466.073	75.69
466.293	87.69
466.512	87.69
466.732	81.69
466.951	95.69
467.171	95.69
467.391	80.69
467.61	102.69
467.829	94.69
468.049	90.69
468.268	88.69
468.488	80.69
468.707	86.69
468.927	91.69
469.146	99.69
469.365	87.69
469.585	82.69
469.804	91.69
470.023	98.69
470.243	100.69
470.462	91.69
470.681	111.69
470.901	92.69
471.12	80.69
471.339	94.69
471.558	83.69
471.777	67.69
471.997	73.69
472.216	102.69
472.435	114.69
472.654	79.69
472.873	69.69
473.092	75.69
473.311	70.69
473.53	82.69
473.749	90.69
473.968	87.69
474.187	103.69
474.406	95.69
474.625	85.69
474.844	96.69
475.063	95.69
475.282	80.69
475.501	87.69
475.72	84.69
475.939	98.69
476.158	70.69
476.377	73.69
476.596	72.69
476.814	92.69
477.033	92.69
477.252	88.69
477.471	80.69
477.69	89.69
477.908	84.69
478.127	103.69
478.346	83.69
478.564	96.69
478.783	88.69
479.002	88.69
479.22	87.69
479.439	88.69
479.658	94.69
479.876	98.69
480.095	90.69
480.313	95.69
480.532	75.69
480.751	78.69
480.969	102.69
481.188	143.69
481.406	110.69
481.624	87.69
481.843	91.69
482.061	92.69
482.28	88.69
482.498	83.69
482.717	84.69
482.935	94.69
483.153	86.69
483.372	93.69
483.59	86.69
483.808	91.69
484.027	82.69
484.245	92.69
484.463	94.69
484.681	89.69
484.9	82.69
485.118	86.69
485.336	103.69
485.554	100.69
485.772	111.69
485.99	111.69
486.209	107.69
486.427	107.69
486.645	100.69
486.863	101.69
487.081	98.69
487.299	93.69
487.517	97.69
487.735	83.69
487.953	96.69
488.171	87.69
488.389	98.69
488.607	110.69
488.825	104.69
489.043	103.69
489.261	86.69
489.479	77.69
489.696	79.69
489.914	89.69
490.132	81.69
490.35	93.69
490.568	76.69
490.786	91.69
491.003	87.69
491.221	89.69
491.439	100.69
491.657	96.69
491.874	96.69
492.092	115.69
492.31	84.69
492.527	99.69
492.745	96.69
492.963	78.69
493.18	98.69
493.398	81.69
493.615	86.69
493.833	99.69
494.05	96.69
494.268	96.69
494.485	82.69
494.703	94.69
494.92	92.69
495.138	89.69
495.355	94.69
495.573	102.69
495.79	88.69
496.008	101.69
496.225	100.69
496.442	96.69
496.66	97.69
496.877	80.69
497.094	95.69
497.312	73.69
497.529	82.69
497.746	95.69
497.963	87.69
498.181	79.69
498.398	80.69
498.615	101.69
498.832	105.69
499.049	79.69
499.267	89.69
499.484	86.69
499.701	91.69
499.918	84.69
500.135	89.69
500.352	111.69
500.569	92.69
500.786	94.69
501.003	96.69
501.22	82.69
501.437	90.69
501.654	83.69
501.871	115.69
502.088	84.69
502.305	102.69
502.522	80.69
502.739	71.69
502.956	87.69
503.172	102.69
503.389	94.69
503.606	100.69
503.823	89.69
504.04	91.69
504.256	91.69
504.473	79.69
504.69	95.69
504.907	98.69
505.123	95.69
505.34	96.69
505.557	101.69
505.773	94.69
505.99	82.69
506.207	82.69
506.423	87.69
506.64	91.69
506.856	82.69
507.073	89.69
507.289	88.69
507.506	88.69
507.722	84.69
507.939	94.69
508.155	79.69
508.372	85.69
508.588	84.69
508.805	91.69
509.021	78.69
509.238	92.69
509.454	89.69
509.67	116.69
509.887	103.69
510.103	122.69
510.319	195.69
510.536	700.69
510.752	2093.69
510.968	580.69
511.184	128.69
511.401	100.69
511.617	94.69
511.833	85.69
512.049	94.69
512.265	73.69
512.481	94.69
512.698	90.69
512.914	83.69
513.13	86.69
513.346	99.69
513.562	90.69
513.778	103.69
513.994	95.69
514.21	105.69
514.426	123.69
514.642	119.69
514.858	106.69
515.074	150.69
515.29	416.69
515.506	1271.69
515.721	460.69
515.937	142.69
516.153	114.69
516.369	97.69
516.585	91.69
