Data from Uncirc_1983_H10_HRD10591_00040.txt Node
Date: Wed Jan 03 12:25:40 EST 2024
User: Yrep
Spectrometer: HR+D1059
Trigger mode: 1
Integration Time (sec): 1.000000E-1
Scans to average: 1
Electric dark correction enabled: true
Nonlinearity correction enabled: false
Boxcar width: 0
XAxis mode: Wavelengths
Number of Pixels in Spectrum: 2048
>>>>>Begin Spectral Data<<<<<
223.165	-22.88
223.4	-22.88
223.635	-22.88
223.869	-7.88
224.104	-18.88
224.338	-14.88
224.573	-22.88
224.808	-4.88
225.042	-0.88
225.277	7.12
225.511	-6.88
225.746	-2.88
225.98	6.12
226.215	8.12
226.449	5.12
226.683	24.12
226.918	30.12
227.152	22.12
227.387	43.12
227.621	58.12
227.856	50.12
228.09	54.12
228.324	41.12
228.559	50.12
228.793	72.12
229.027	62.12
229.262	65.12
229.496	97.12
229.73	83.12
229.964	64.12
230.199	98.12
230.433	83.12
230.667	87.12
230.901	73.12
231.136	81.12
231.37	72.12
231.604	89.12
231.838	77.12
232.072	89.12
232.306	88.12
232.541	86.12
232.775	76.12
233.009	98.12
233.243	87.12
233.477	80.12
233.711	88.12
233.945	81.12
234.179	63.12
234.413	94.12
234.647	90.12
234.881	82.12
235.115	87.12
235.349	68.12
235.583	73.12
235.817	73.12
236.051	74.12
236.285	85.12
236.519	82.12
236.753	76.12
236.987	76.12
237.221	84.12
237.455	80.12
237.689	82.12
237.922	80.12
238.156	82.12
238.39	82.12
238.624	88.12
238.858	84.12
239.091	79.12
239.325	72.12
239.559	91.12
239.793	78.12
240.027	86.12
240.26	91.12
240.494	77.12
240.728	80.12
240.961	62.12
241.195	85.12
241.429	76.12
241.662	76.12
241.896	80.12
242.13	78.12
242.363	63.12
242.597	80.12
242.83	74.12
243.064	92.12
243.298	82.12
243.531	79.12
243.765	82.12
243.998	86.12
244.232	77.12
244.465	82.12
244.699	85.12
244.932	84.12
245.166	88.12
245.399	85.12
245.633	95.12
245.866	88.12
246.099	90.12
246.333	89.12
246.566	85.12
246.8	76.12
247.033	96.12
247.266	78.12
247.5	90.12
247.733	94.12
247.966	81.12
248.2	88.12
248.433	80.12
248.666	81.12
248.899	73.12
249.133	95.12
249.366	105.12
249.599	90.12
249.832	88.12
250.066	82.12
250.299	96.12
250.532	97.12
250.765	82.12
250.998	73.12
251.231	89.12
251.465	91.12
251.698	82.12
251.931	85.12
252.164	78.12
252.397	90.12
252.63	77.12
252.863	99.12
253.096	78.12
253.329	97.12
253.562	89.12
253.795	88.12
254.028	89.12
254.261	84.12
254.494	86.12
254.727	104.12
254.96	74.12
255.193	99.12
255.426	78.12
255.659	97.12
255.892	90.12
256.124	90.12
256.357	97.12
256.59	92.12
256.823	69.12
257.056	79.12
257.289	84.12
257.521	93.12
257.754	84.12
257.987	80.12
258.22	104.12
258.452	98.12
258.685	88.12
258.918	97.12
259.151	79.12
259.383	81.12
259.616	90.12
259.849	89.12
260.081	80.12
260.314	78.12
260.547	69.12
260.779	88.12
261.012	104.12
261.244	88.12
261.477	84.12
261.71	87.12
261.942	110.12
262.175	112.12
262.407	85.12
262.64	86.12
262.872	73.12
263.105	86.12
263.337	100.12
263.57	91.12
263.802	92.12
264.035	88.12
264.267	86.12
264.499	93.12
264.732	98.12
264.964	94.12
265.197	87.12
265.429	91.12
265.661	88.12
265.894	71.12
266.126	91.12
266.358	84.12
266.591	98.12
266.823	86.12
267.055	74.12
267.287	76.12
267.52	87.12
267.752	96.12
267.984	88.12
268.216	89.12
268.448	83.12
268.681	94.12
268.913	91.12
269.145	82.12
269.377	81.12
269.609	93.12
269.841	103.12
270.073	93.12
270.306	82.12
270.538	92.12
270.77	78.12
271.002	88.12
271.234	103.12
271.466	88.12
271.698	80.12
271.93	89.12
272.162	96.12
272.394	96.12
272.626	94.12
272.858	92.12
273.09	80.12
273.322	82.12
273.553	92.12
273.785	92.12
274.017	91.12
274.249	88.12
274.481	90.12
274.713	94.12
274.945	73.12
275.176	78.12
275.408	97.12
275.64	82.12
275.872	93.12
276.104	92.12
276.335	107.12
276.567	106.12
276.799	105.12
277.031	110.12
277.262	88.12
277.494	73.12
277.726	80.12
277.957	88.12
278.189	84.12
278.421	79.12
278.652	88.12
278.884	107.12
279.115	97.12
279.347	81.12
279.579	89.12
279.81	92.12
280.042	97.12
280.273	85.12
280.505	77.12
280.736	80.12
280.968	91.12
281.199	95.12
281.431	91.12
281.662	91.12
281.894	112.12
282.125	117.12
282.356	113.12
282.588	127.12
282.819	123.12
283.051	80.12
283.282	81.12
283.513	97.12
283.745	88.12
283.976	81.12
284.207	84.12
284.439	77.12
284.67	102.12
284.901	81.12
285.132	89.12
285.364	91.12
285.595	92.12
285.826	101.12
286.057	92.12
286.288	93.12
286.52	85.12
286.751	80.12
286.982	100.12
287.213	91.12
287.444	99.12
287.675	68.12
287.906	90.12
288.138	104.12
288.369	102.12
288.6	92.12
288.831	96.12
289.062	84.12
289.293	92.12
289.524	84.12
289.755	92.12
289.986	86.12
290.217	93.12
290.448	92.12
290.679	93.12
290.91	85.12
291.141	96.12
291.371	106.12
291.602	95.12
291.833	90.12
292.064	95.12
292.295	79.12
292.526	90.12
292.757	86.12
292.987	78.12
293.218	88.12
293.449	90.12
293.68	97.12
293.91	74.12
294.141	101.12
294.372	84.12
294.603	102.12
294.833	78.12
295.064	91.12
295.295	104.12
295.525	98.12
295.756	112.12
295.987	118.12
296.217	119.12
296.448	109.12
296.679	100.12
296.909	96.12
297.14	78.12
297.37	83.12
297.601	103.12
297.831	96.12
298.062	93.12
298.292	94.12
298.523	87.12
298.753	90.12
298.984	96.12
299.214	100.12
299.445	89.12
299.675	86.12
299.905	90.12
300.136	88.12
300.366	106.12
300.597	99.12
300.827	110.12
301.057	114.12
301.288	90.12
301.518	111.12
301.748	88.12
301.979	110.12
302.209	88.12
302.439	87.12
302.669	91.12
302.9	88.12
303.13	109.12
303.36	97.12
303.59	95.12
303.82	103.12
304.051	97.12
304.281	96.12
304.511	98.12
304.741	83.12
304.971	91.12
305.201	79.12
305.431	95.12
305.661	96.12
305.891	93.12
306.121	108.12
306.352	105.12
306.582	109.12
306.812	95.12
307.042	101.12
307.272	93.12
307.502	103.12
307.731	109.12
307.961	95.12
308.191	95.12
308.421	108.12
308.651	89.12
308.881	97.12
309.111	96.12
309.341	107.12
309.571	100.12
309.8	98.12
310.03	93.12
310.26	90.12
310.49	106.12
310.72	108.12
310.949	98.12
311.179	109.12
311.409	98.12
311.639	101.12
311.868	95.12
312.098	88.12
312.328	89.12
312.557	116.12
312.787	111.12
313.017	93.12
313.246	102.12
313.476	98.12
313.706	90.12
313.935	101.12
314.165	101.12
314.394	95.12
314.624	97.12
314.853	113.12
315.083	114.12
315.312	106.12
315.542	94.12
315.771	97.12
316.001	98.12
316.23	97.12
316.46	79.12
316.689	88.12
316.919	91.12
317.148	90.12
317.377	103.12
317.607	102.12
317.836	79.12
318.065	97.12
318.295	104.12
318.524	104.12
318.753	103.12
318.983	102.12
319.212	97.12
319.441	101.12
319.67	112.12
319.9	95.12
320.129	100.12
320.358	98.12
320.587	102.12
320.816	100.12
321.046	110.12
321.275	91.12
321.504	98.12
321.733	90.12
321.962	95.12
322.191	112.12
322.42	103.12
322.649	114.12
322.878	111.12
323.108	118.12
323.337	132.12
323.566	137.12
323.795	143.12
324.024	177.12
324.253	355.12
324.482	756.12
324.71	1532.12
324.939	1982.12
325.168	727.12
325.397	235.12
325.626	151.12
325.855	136.12
326.084	136.12
326.313	145.12
326.542	146.12
326.77	229.12
326.999	440.12
327.228	860.12
327.457	1524.12
327.686	1222.12
327.914	346.12
328.143	195.12
328.372	145.12
328.6	128.12
328.829	116.12
329.058	116.12
329.287	124.12
329.515	111.12
329.744	97.12
329.972	92.12
330.201	100.12
330.43	124.12
330.658	114.12
330.887	133.12
331.115	112.12
331.344	109.12
331.572	111.12
331.801	95.12
332.03	104.12
332.258	87.12
332.486	103.12
332.715	101.12
332.943	111.12
333.172	104.12
333.4	101.12
333.629	121.12
333.857	132.12
334.085	105.12
334.314	118.12
334.542	114.12
334.771	117.12
334.999	101.12
335.227	103.12
335.455	85.12
335.684	100.12
335.912	100.12
336.14	103.12
336.369	101.12
336.597	112.12
336.825	102.12
337.053	98.12
337.281	93.12
337.51	103.12
337.738	88.12
337.966	85.12
338.194	100.12
338.422	89.12
338.65	81.12
338.878	88.12
339.106	94.12
339.334	88.12
339.562	95.12
339.79	92.12
340.018	94.12
340.246	102.12
340.474	98.12
340.702	110.12
340.93	102.12
341.158	94.12
341.386	97.12
341.614	99.12
341.842	91.12
342.07	88.12
342.298	98.12
342.526	84.12
342.754	101.12
342.981	102.12
343.209	106.12
343.437	105.12
343.665	87.12
343.893	89.12
344.12	85.12
344.348	93.12
344.576	87.12
344.804	97.12
345.031	92.12
345.259	96.12
345.487	92.12
345.714	80.12
345.942	90.12
346.17	101.12
346.397	92.12
346.625	99.12
346.853	104.12
347.08	90.12
347.308	97.12
347.535	105.12
347.763	107.12
347.99	89.12
348.218	100.12
348.445	98.12
348.673	93.12
348.9	111.12
349.128	111.12
349.355	101.12
349.583	97.12
349.81	91.12
350.037	88.12
350.265	86.12
350.492	94.12
350.72	99.12
350.947	105.12
351.174	108.12
351.402	105.12
351.629	117.12
351.856	98.12
352.083	97.12
352.311	108.12
352.538	125.12
352.765	113.12
352.992	122.12
353.22	113.12
353.447	105.12
353.674	95.12
353.901	87.12
354.128	110.12
354.355	97.12
354.583	102.12
354.81	90.12
355.037	105.12
355.264	90.12
355.491	110.12
355.718	89.12
355.945	106.12
356.172	97.12
356.399	110.12
356.626	104.12
356.853	95.12
357.08	98.12
357.307	83.12
357.534	94.12
357.761	94.12
357.988	102.12
358.215	93.12
358.441	100.12
358.668	93.12
358.895	99.12
359.122	107.12
359.349	85.12
359.576	92.12
359.802	101.12
360.029	113.12
360.256	110.12
360.483	103.12
360.709	97.12
360.936	100.12
361.163	110.12
361.39	90.12
361.616	105.12
361.843	94.12
362.07	99.12
362.296	102.12
362.523	97.12
362.749	87.12
362.976	82.12
363.203	98.12
363.429	98.12
363.656	92.12
363.882	92.12
364.109	95.12
364.335	98.12
364.562	94.12
364.788	87.12
365.015	98.12
365.241	103.12
365.468	101.12
365.694	103.12
365.92	97.12
366.147	94.12
366.373	81.12
366.599	98.12
366.826	98.12
367.052	90.12
367.278	90.12
367.505	102.12
367.731	109.12
367.957	102.12
368.184	102.12
368.41	84.12
368.636	107.12
368.862	103.12
369.089	105.12
369.315	101.12
369.541	99.12
369.767	90.12
369.993	84.12
370.219	99.12
370.445	95.12
370.672	97.12
370.898	88.12
371.124	98.12
371.35	92.12
371.576	89.12
371.802	102.12
372.028	80.12
372.254	101.12
372.48	90.12
372.706	85.12
372.932	88.12
373.158	86.12
373.384	92.12
373.61	95.12
373.835	98.12
374.061	85.12
374.287	105.12
374.513	109.12
374.739	94.12
374.965	103.12
375.191	94.12
375.416	91.12
375.642	106.12
375.868	97.12
376.094	91.12
376.319	80.12
376.545	85.12
376.771	100.12
376.997	99.12
377.222	95.12
377.448	92.12
377.674	96.12
377.899	86.12
378.125	86.12
378.35	77.12
378.576	86.12
378.802	106.12
379.027	92.12
379.253	95.12
379.478	116.12
379.704	91.12
379.929	103.12
380.155	86.12
380.38	98.12
380.606	107.12
380.831	99.12
381.057	107.12
381.282	109.12
381.507	101.12
381.733	104.12
381.958	93.12
382.184	84.12
382.409	92.12
382.634	111.12
382.86	111.12
383.085	102.12
383.31	87.12
383.535	109.12
383.761	130.12
383.986	103.12
384.211	99.12
384.436	93.12
384.662	100.12
384.887	122.12
385.112	111.12
385.337	109.12
385.562	112.12
385.787	98.12
386.013	119.12
386.238	112.12
386.463	102.12
386.688	105.12
386.913	105.12
387.138	98.12
387.363	103.12
387.588	105.12
387.813	100.12
388.038	109.12
388.263	112.12
388.488	105.12
388.713	106.12
388.938	94.12
389.163	96.12
389.387	88.12
389.612	106.12
389.837	93.12
390.062	104.12
390.287	97.12
390.512	94.12
390.736	89.12
390.961	107.12
391.186	104.12
391.411	94.12
391.636	103.12
391.86	86.12
392.085	104.12
392.31	82.12
392.534	87.12
392.759	92.12
392.984	98.12
393.208	92.12
393.433	116.12
393.658	103.12
393.882	106.12
394.107	93.12
394.331	102.12
394.556	92.12
394.78	93.12
395.005	102.12
395.229	94.12
395.454	84.12
395.678	89.12
395.903	100.12
396.127	98.12
396.352	92.12
396.576	99.12
396.801	102.12
397.025	90.12
397.249	82.12
397.474	116.12
397.698	84.12
397.922	88.12
398.147	105.12
398.371	96.12
398.595	97.12
398.82	93.12
399.044	90.12
399.268	102.12
399.492	84.12
399.717	81.12
399.941	88.12
400.165	90.12
400.389	108.12
400.613	109.12
400.837	96.12
401.062	89.12
401.286	85.12
401.51	94.12
401.734	90.12
401.958	118.12
402.182	117.12
402.406	136.12
402.63	111.12
402.854	107.12
403.078	80.12
403.302	90.12
403.526	87.12
403.75	80.12
403.974	90.12
404.198	87.12
404.422	97.12
404.645	95.12
404.869	89.12
405.093	100.12
405.317	100.12
405.541	87.12
405.765	102.12
405.988	105.12
406.212	157.12
406.436	197.12
406.66	135.12
406.883	120.12
407.107	121.12
407.331	106.12
407.555	105.12
407.778	101.12
408.002	104.12
408.226	104.12
408.449	109.12
408.673	77.12
408.896	108.12
409.12	90.12
409.344	98.12
409.567	107.12
409.791	84.12
410.014	108.12
410.238	85.12
410.461	94.12
410.685	100.12
410.908	112.12
411.132	96.12
411.355	91.12
411.578	101.12
411.802	94.12
412.025	103.12
412.249	104.12
412.472	88.12
412.695	82.12
412.919	86.12
413.142	80.12
413.365	88.12
413.589	95.12
413.812	88.12
414.035	95.12
414.258	84.12
414.482	84.12
414.705	95.12
414.928	84.12
415.151	90.12
415.374	98.12
415.597	90.12
415.821	89.12
416.044	93.12
416.267	90.12
416.49	102.12
416.713	91.12
416.936	97.12
417.159	77.12
417.382	95.12
417.605	106.12
417.828	94.12
418.051	85.12
418.274	75.12
418.497	79.12
418.72	105.12
418.943	92.12
419.166	92.12
419.389	100.12
419.611	82.12
419.834	91.12
420.057	91.12
420.28	90.12
420.503	86.12
420.726	87.12
420.948	97.12
421.171	93.12
421.394	103.12
421.617	92.12
421.839	92.12
422.062	96.12
422.285	94.12
422.507	97.12
422.73	108.12
422.953	107.12
423.175	87.12
423.398	90.12
423.621	101.12
423.843	98.12
424.066	89.12
424.288	90.12
424.511	105.12
424.733	117.12
424.956	122.12
425.178	100.12
425.401	96.12
425.623	102.12
425.846	89.12
426.068	92.12
426.291	87.12
426.513	98.12
426.735	104.12
426.958	100.12
427.18	110.12
427.402	141.12
427.625	176.12
427.847	110.12
428.069	103.12
428.292	88.12
428.514	80.12
428.736	86.12
428.958	88.12
429.181	103.12
429.403	99.12
429.625	98.12
429.847	89.12
430.069	97.12
430.292	90.12
430.514	81.12
430.736	88.12
430.958	88.12
431.18	91.12
431.402	100.12
431.624	95.12
431.846	84.12
432.068	91.12
432.29	79.12
432.512	92.12
432.734	89.12
432.956	109.12
433.178	102.12
433.4	100.12
433.622	96.12
433.844	101.12
434.066	79.12
434.287	82.12
434.509	99.12
434.731	106.12
434.953	98.12
435.175	102.12
435.397	96.12
435.618	87.12
435.84	98.12
436.062	112.12
436.284	123.12
436.505	106.12
436.727	84.12
436.949	95.12
437.17	96.12
437.392	93.12
437.614	100.12
437.835	119.12
438.057	114.12
438.278	91.12
438.5	93.12
438.721	122.12
438.943	107.12
439.165	86.12
439.386	97.12
439.608	90.12
439.829	95.12
440.05	117.12
440.272	135.12
440.493	110.12
440.715	93.12
440.936	95.12
441.158	106.12
441.379	99.12
441.6	88.12
441.822	74.12
442.043	97.12
442.264	112.12
442.486	104.12
442.707	96.12
442.928	106.12
443.149	136.12
443.371	134.12
443.592	111.12
443.813	111.12
444.034	110.12
444.255	106.12
444.476	105.12
444.698	92.12
444.919	88.12
445.14	147.12
445.361	130.12
445.582	121.12
445.803	130.12
446.024	121.12
446.245	137.12
446.466	128.12
446.687	105.12
446.908	97.12
447.129	88.12
447.35	77.12
447.571	98.12
447.792	92.12
448.013	101.12
448.234	100.12
448.455	93.12
448.675	106.12
448.896	112.12
449.117	100.12
449.338	108.12
449.559	129.12
449.779	136.12
450	102.12
450.221	92.12
450.442	89.12
450.662	113.12
450.883	111.12
451.104	112.12
451.324	96.12
451.545	86.12
451.766	87.12
451.986	80.12
452.207	88.12
452.428	106.12
452.648	94.12
452.869	103.12
453.089	113.12
453.31	109.12
453.53	103.12
453.751	104.12
453.971	100.12
454.192	98.12
454.412	94.12
454.633	90.12
454.853	94.12
455.073	98.12
455.294	107.12
455.514	97.12
455.734	97.12
455.955	96.12
456.175	99.12
456.395	102.12
456.616	106.12
456.836	101.12
457.056	95.12
457.276	75.12
457.497	92.12
457.717	84.12
457.937	100.12
458.157	101.12
458.377	87.12
458.598	87.12
458.818	123.12
459.038	149.12
459.258	105.12
459.478	105.12
459.698	95.12
459.918	90.12
460.138	80.12
460.358	92.12
460.578	81.12
460.798	92.12
461.018	100.12
461.238	90.12
461.458	89.12
461.678	100.12
461.898	86.12
462.118	99.12
462.338	103.12
462.558	89.12
462.777	104.12
462.997	95.12
463.217	89.12
463.437	102.12
463.657	91.12
463.876	100.12
464.096	91.12
464.316	90.12
464.536	89.12
464.755	100.12
464.975	100.12
465.195	152.12
465.414	143.12
465.634	101.12
465.854	103.12
466.073	111.12
466.293	87.12
466.512	100.12
466.732	79.12
466.951	87.12
467.171	105.12
467.391	99.12
467.61	104.12
467.829	95.12
468.049	90.12
468.268	93.12
468.488	97.12
468.707	89.12
468.927	84.12
469.146	91.12
469.365	91.12
469.585	90.12
469.804	92.12
470.023	107.12
470.243	106.12
470.462	90.12
470.681	108.12
470.901	92.12
471.12	101.12
471.339	86.12
471.558	95.12
471.777	74.12
471.997	85.12
472.216	98.12
472.435	87.12
472.654	78.12
472.873	91.12
473.092	104.12
473.311	101.12
473.53	104.12
473.749	80.12
473.968	103.12
474.187	96.12
474.406	103.12
474.625	96.12
474.844	70.12
475.063	94.12
475.282	100.12
475.501	93.12
475.72	84.12
475.939	85.12
476.158	88.12
476.377	94.12
476.596	77.12
476.814	94.12
477.033	102.12
477.252	82.12
477.471	98.12
477.69	100.12
477.908	91.12
478.127	90.12
478.346	90.12
478.564	104.12
478.783	112.12
479.002	95.12
479.22	89.12
479.439	105.12
479.658	105.12
479.876	93.12
480.095	100.12
480.313	89.12
480.532	103.12
480.751	106.12
480.969	95.12
481.188	118.12
481.406	117.12
481.624	101.12
481.843	90.12
482.061	113.12
482.28	98.12
482.498	90.12
482.717	93.12
482.935	97.12
483.153	101.12
483.372	99.12
483.59	101.12
483.808	90.12
484.027	89.12
484.245	106.12
484.463	98.12
484.681	113.12
484.9	103.12
485.118	101.12
485.336	99.12
485.554	110.12
485.772	99.12
485.99	95.12
486.209	113.12
486.427	133.12
486.645	106.12
486.863	104.12
487.081	105.12
487.299	98.12
487.517	92.12
487.735	103.12
487.953	92.12
488.171	100.12
488.389	87.12
488.607	97.12
488.825	94.12
489.043	95.12
489.261	112.12
489.479	111.12
489.696	111.12
489.914	87.12
490.132	92.12
490.35	81.12
490.568	96.12
490.786	100.12
491.003	88.12
491.221	96.12
491.439	106.12
491.657	107.12
491.874	72.12
492.092	99.12
492.31	100.12
492.527	95.12
492.745	77.12
492.963	102.12
493.18	83.12
493.398	100.12
493.615	90.12
493.833	89.12
494.05	78.12
494.268	86.12
494.485	90.12
494.703	97.12
494.92	91.12
495.138	92.12
495.355	96.12
495.573	96.12
495.79	91.12
496.008	90.12
496.225	89.12
496.442	90.12
496.66	101.12
496.877	98.12
497.094	114.12
497.312	97.12
497.529	81.12
497.746	93.12
497.963	94.12
498.181	90.12
498.398	102.12
498.615	132.12
498.832	106.12
499.049	90.12
499.267	103.12
499.484	93.12
499.701	102.12
499.918	87.12
500.135	99.12
500.352	94.12
500.569	92.12
500.786	92.12
501.003	101.12
501.22	98.12
501.437	93.12
501.654	85.12
501.871	104.12
502.088	95.12
502.305	99.12
502.522	89.12
502.739	100.12
502.956	81.12
503.172	102.12
503.389	84.12
503.606	111.12
503.823	93.12
504.04	96.12
504.256	86.12
504.473	102.12
504.69	99.12
504.907	105.12
505.123	92.12
505.34	98.12
505.557	93.12
505.773	105.12
505.99	80.12
506.207	92.12
506.423	94.12
506.64	95.12
506.856	88.12
507.073	99.12
507.289	108.12
507.506	101.12
507.722	113.12
507.939	118.12
508.155	99.12
508.372	99.12
508.588	87.12
508.805	110.12
509.021	89.12
509.238	94.12
509.454	105.12
509.67	117.12
509.887	112.12
510.103	126.12
510.319	217.12
510.536	724.12
510.752	2130.12
510.968	585.12
511.184	146.12
511.401	120.12
511.617	113.12
511.833	102.12
512.049	104.12
512.265	111.12
512.481	107.12
512.698	92.12
512.914	95.12
513.13	88.12
513.346	99.12
513.562	98.12
