Data from Uncirc_1983_H10_HRD10591_00095.txt Node
Date: Wed Jan 03 12:25:51 EST 2024
User: Yrep
Spectrometer: HR+D1059
Trigger mode: 1
Integration Time (sec): 1.000000E-1
Scans to average: 1
Electric dark correction enabled: true
Nonlinearity correction enabled: false
Boxcar width: 0
XAxis mode: Wavelengths
Number of Pixels in Spectrum: 2048
>>>>>Begin Spectral Data<<<<<
223.165	-16
223.4	-16
223.635	-16
223.869	-25
224.104	-16
224.338	-9
224.573	-13
224.808	-18
225.042	-20
225.277	-2
225.511	-6
225.746	4
225.98	14
226.215	13
226.449	17
226.683	18
226.918	34
227.152	25
227.387	26
227.621	43
227.856	48
228.09	46
228.324	53
228.559	57
228.793	64
229.027	65
229.262	59
229.496	73
229.73	81
229.964	83
230.199	72
230.433	66
230.667	78
230.901	88
231.136	73
231.37	77
231.604	83
231.838	79
232.072	71
232.306	77
232.541	83
232.775	81
233.009	84
233.243	89
233.477	77
233.711	79
233.945	69
234.179	73
234.413	73
234.647	75
234.881	78
235.115	74
235.349	70
235.583	85
235.817	70
236.051	77
236.285	57
236.519	71
236.753	86
236.987	72
237.221	83
237.455	74
237.689	79
237.922	83
238.156	80
238.39	81
238.624	72
238.858	66
239.091	65
239.325	77
239.559	83
239.793	83
240.027	66
240.26	76
240.494	86
240.728	75
240.961	80
241.195	73
241.429	70
241.662	66
241.896	77
242.13	77
242.363	74
242.597	77
242.83	77
243.064	79
243.298	67
243.531	68
243.765	83
243.998	79
244.232	83
244.465	80
244.699	79
244.932	73
245.166	84
245.399	70
245.633	68
245.866	71
246.099	79
246.333	65
246.566	63
246.8	82
247.033	74
247.266	84
247.5	82
247.733	56
247.966	93
248.2	77
248.433	70
248.666	85
248.899	90
249.133	65
249.366	79
249.599	84
249.832	79
250.066	86
250.299	91
250.532	78
250.765	91
250.998	89
251.231	82
251.465	78
251.698	79
251.931	80
252.164	74
252.397	70
252.63	78
252.863	90
253.096	74
253.329	71
253.562	65
253.795	72
254.028	75
254.261	70
254.494	64
254.727	81
254.96	78
255.193	80
255.426	87
255.659	79
255.892	91
256.124	83
256.357	85
256.59	81
256.823	59
257.056	74
257.289	83
257.521	85
257.754	81
257.987	72
258.22	82
258.452	87
258.685	73
258.918	81
259.151	82
259.383	69
259.616	75
259.849	85
260.081	88
260.314	86
260.547	74
260.779	80
261.012	77
261.244	73
261.477	78
261.71	93
261.942	92
262.175	110
262.407	89
262.64	86
262.872	77
263.105	85
263.337	80
263.57	97
263.802	83
264.035	85
264.267	82
264.499	79
264.732	77
264.964	93
265.197	95
265.429	81
265.661	75
265.894	87
266.126	85
266.358	77
266.591	88
266.823	71
267.055	81
267.287	79
267.52	70
267.752	81
267.984	85
268.216	79
268.448	83
268.681	88
268.913	78
269.145	74
269.377	81
269.609	66
269.841	86
270.073	79
270.306	81
270.538	85
270.77	72
271.002	85
271.234	80
271.466	80
271.698	79
271.93	83
272.162	95
272.394	86
272.626	86
272.858	78
273.09	83
273.322	94
273.553	80
273.785	75
274.017	81
274.249	86
274.481	91
274.713	90
274.945	86
275.176	77
275.408	82
275.64	85
275.872	99
276.104	82
276.335	88
276.567	81
276.799	109
277.031	113
277.262	84
277.494	87
277.726	87
277.957	93
278.189	85
278.421	93
278.652	67
278.884	79
279.115	79
279.347	79
279.579	74
279.81	79
280.042	101
280.273	86
280.505	75
280.736	90
280.968	88
281.199	83
281.431	83
281.662	88
281.894	89
282.125	111
282.356	107
282.588	126
282.819	109
283.051	93
283.282	84
283.513	80
283.745	78
283.976	77
284.207	84
284.439	82
284.67	91
284.901	78
285.132	89
285.364	86
285.595	74
285.826	87
286.057	85
286.288	88
286.52	90
286.751	72
286.982	82
287.213	82
287.444	93
287.675	77
287.906	85
288.138	97
288.369	99
288.6	83
288.831	94
289.062	91
289.293	84
289.524	91
289.755	84
289.986	78
290.217	85
290.448	89
290.679	87
290.91	87
291.141	87
291.371	88
291.602	65
291.833	77
292.064	89
292.295	94
292.526	93
292.757	74
292.987	94
293.218	96
293.449	86
293.68	88
293.91	78
294.141	86
294.372	92
294.603	87
294.833	85
295.064	81
295.295	78
295.525	102
295.756	103
295.987	108
296.217	124
296.448	106
296.679	89
296.909	74
297.14	83
297.37	81
297.601	84
297.831	84
298.062	86
298.292	81
298.523	92
298.753	93
298.984	93
299.214	89
299.445	71
299.675	89
299.905	106
300.136	100
300.366	75
300.597	82
300.827	78
301.057	95
301.288	103
301.518	86
301.748	83
301.979	89
302.209	96
302.439	83
302.669	75
302.9	79
303.13	102
303.36	81
303.59	103
303.82	96
304.051	90
304.281	101
304.511	94
304.741	100
304.971	78
305.201	87
305.431	88
305.661	96
305.891	82
306.121	86
306.352	100
306.582	104
306.812	79
307.042	90
307.272	81
307.502	86
307.731	83
307.961	100
308.191	88
308.421	95
308.651	96
308.881	85
309.111	94
309.341	95
309.571	96
309.8	96
310.03	103
310.26	101
310.49	76
310.72	89
310.949	95
311.179	87
311.409	87
311.639	94
311.868	91
312.098	95
312.328	83
312.557	106
312.787	102
313.017	97
313.246	95
313.476	86
313.706	96
313.935	85
314.165	93
314.394	98
314.624	106
314.853	93
315.083	90
315.312	83
315.542	87
315.771	102
316.001	85
316.23	84
316.46	90
316.689	85
316.919	93
317.148	89
317.377	89
317.607	83
317.836	79
318.065	91
318.295	82
318.524	89
318.753	87
318.983	90
319.212	97
319.441	106
319.67	101
319.9	90
320.129	99
320.358	99
320.587	96
320.816	86
321.046	78
321.275	108
321.504	90
321.733	96
321.962	83
322.191	97
322.42	112
322.649	118
322.878	111
323.108	111
323.337	112
323.566	136
323.795	140
324.024	176
324.253	352
324.482	761
324.71	1518
324.939	2053
325.168	751
325.397	243
325.626	162
325.855	120
326.084	107
326.313	124
326.542	153
326.77	221
326.999	415
327.228	869
327.457	1565
327.686	1257
327.914	352
328.143	195
328.372	151
328.6	133
328.829	111
329.058	113
329.287	117
329.515	85
329.744	111
329.972	106
330.201	120
330.43	136
330.658	134
330.887	136
331.115	107
331.344	104
331.572	102
331.801	98
332.03	102
332.258	104
332.486	99
332.715	93
332.943	81
333.172	111
333.4	96
333.629	105
333.857	107
334.085	112
334.314	117
334.542	149
334.771	145
334.999	121
335.227	102
335.455	96
335.684	100
335.912	106
336.14	94
336.369	90
336.597	109
336.825	96
337.053	89
337.281	90
337.51	96
337.738	93
337.966	85
338.194	97
338.422	94
338.65	89
338.878	93
339.106	96
339.334	86
339.562	90
339.79	95
340.018	93
340.246	77
340.474	98
340.702	95
340.93	93
341.158	104
341.386	93
341.614	97
341.842	86
342.07	79
342.298	103
342.526	87
342.754	85
342.981	79
343.209	89
343.437	104
343.665	93
343.893	94
344.12	83
344.348	90
344.576	102
344.804	83
345.031	97
345.259	104
345.487	76
345.714	85
345.942	81
346.17	94
346.397	77
346.625	93
346.853	86
347.08	82
347.308	81
347.535	101
347.763	92
347.99	83
348.218	96
348.445	113
348.673	108
348.9	84
349.128	92
349.355	100
349.583	99
349.81	90
350.037	94
350.265	95
350.492	100
350.72	92
350.947	108
351.174	114
351.402	107
351.629	86
351.856	91
352.083	105
352.311	111
352.538	93
352.765	111
352.992	100
353.22	104
353.447	109
353.674	95
353.901	94
354.128	109
354.355	91
354.583	85
354.81	90
355.037	102
355.264	87
355.491	89
355.718	71
355.945	79
356.172	89
356.399	104
356.626	87
356.853	97
357.08	79
357.307	95
357.534	87
357.761	83
357.988	99
358.215	104
358.441	95
358.668	96
358.895	100
359.122	83
359.349	90
359.576	84
359.802	101
360.029	83
360.256	85
360.483	96
360.709	85
360.936	90
361.163	86
361.39	96
361.616	83
361.843	92
362.07	104
362.296	80
362.523	88
362.749	101
362.976	106
363.203	101
363.429	86
363.656	70
363.882	84
364.109	83
364.335	93
364.562	81
364.788	97
365.015	99
365.241	99
365.468	97
365.694	98
365.92	94
366.147	82
366.373	74
366.599	85
366.826	93
367.052	79
367.278	94
367.505	77
367.731	83
367.957	99
368.184	79
368.41	97
368.636	99
368.862	107
369.089	90
369.315	87
369.541	101
369.767	88
369.993	88
370.219	98
370.445	85
370.672	85
370.898	77
371.124	97
371.35	77
371.576	99
371.802	70
372.028	83
372.254	90
372.48	87
372.706	86
372.932	90
373.158	71
373.384	92
373.61	90
373.835	86
374.061	84
374.287	89
374.513	80
374.739	96
374.965	80
375.191	82
375.416	89
375.642	67
375.868	79
376.094	93
376.319	81
376.545	92
376.771	83
376.997	100
377.222	88
377.448	93
377.674	89
377.899	89
378.125	86
378.35	97
378.576	87
378.802	85
379.027	91
379.253	89
379.478	82
379.704	89
379.929	93
380.155	85
380.38	95
380.606	99
380.831	88
381.057	97
381.282	91
381.507	94
381.733	91
381.958	90
382.184	89
382.409	82
382.634	110
382.86	101
383.085	85
383.31	102
383.535	99
383.761	96
383.986	78
384.211	94
384.436	81
384.662	97
384.887	99
385.112	96
385.337	82
385.562	103
385.787	87
386.013	92
386.238	94
386.463	106
386.688	96
386.913	98
387.138	98
387.363	81
387.588	88
387.813	87
388.038	82
388.263	98
388.488	102
388.713	91
388.938	90
389.163	97
389.387	100
389.612	90
389.837	86
390.062	71
390.287	88
390.512	97
390.736	100
390.961	89
391.186	86
391.411	93
391.636	100
391.86	85
392.085	78
392.31	77
392.534	85
392.759	81
392.984	79
393.208	73
393.433	73
393.658	86
393.882	73
394.107	88
394.331	82
394.556	93
394.78	90
395.005	83
395.229	73
395.454	81
395.678	79
395.903	86
396.127	91
396.352	91
396.576	82
396.801	70
397.025	95
397.249	77
397.474	79
397.698	84
397.922	86
398.147	84
398.371	89
398.595	75
398.82	69
399.044	75
399.268	81
399.492	88
399.717	95
399.941	88
400.165	97
400.389	86
400.613	87
400.837	84
401.062	79
401.286	81
401.51	90
401.734	91
401.958	86
402.182	113
402.406	130
402.63	114
402.854	92
403.078	82
403.302	99
403.526	84
403.75	95
403.974	81
404.198	81
404.422	65
404.645	73
404.869	85
405.093	82
405.317	99
405.541	91
405.765	91
405.988	105
406.212	162
406.436	188
406.66	113
406.883	97
407.107	83
407.331	89
407.555	75
407.778	109
408.002	95
408.226	82
408.449	79
408.673	81
408.896	92
409.12	73
409.344	82
409.567	72
409.791	80
410.014	95
410.238	88
410.461	101
410.685	85
410.908	100
411.132	95
411.355	102
411.578	82
411.802	94
412.025	95
412.249	79
412.472	78
412.695	90
412.919	78
413.142	89
413.365	86
413.589	82
413.812	85
414.035	85
414.258	76
414.482	86
414.705	88
414.928	91
415.151	90
415.374	93
415.597	91
415.821	74
416.044	97
416.267	75
416.49	85
416.713	87
416.936	89
417.159	94
417.382	87
417.605	79
417.828	88
418.051	90
418.274	100
418.497	94
418.72	75
418.943	87
419.166	78
419.389	89
419.611	85
419.834	95
420.057	101
420.28	73
420.503	77
420.726	83
420.948	83
421.171	112
421.394	86
421.617	87
421.839	77
422.062	80
422.285	102
422.507	92
422.73	99
422.953	96
423.175	95
423.398	81
423.621	76
423.843	89
424.066	105
424.288	86
424.511	79
424.733	99
424.956	103
425.178	83
425.401	110
425.623	82
425.846	87
426.068	78
426.291	92
426.513	97
426.735	79
426.958	75
427.18	90
427.402	130
427.625	142
427.847	128
428.069	93
428.292	86
428.514	81
428.736	85
428.958	83
429.181	72
429.403	82
429.625	81
429.847	80
430.069	93
430.292	99
430.514	78
430.736	78
430.958	87
431.18	81
431.402	81
431.624	89
431.846	84
432.068	85
432.29	65
432.512	81
432.734	84
432.956	89
433.178	100
433.4	97
433.622	92
433.844	81
434.066	87
434.287	91
434.509	87
434.731	74
434.953	82
435.175	74
435.397	81
435.618	62
435.84	91
436.062	103
436.284	94
436.505	95
436.727	98
436.949	93
437.17	85
437.392	80
437.614	85
437.835	86
438.057	113
438.278	99
438.5	89
438.721	107
438.943	87
439.165	92
439.386	90
439.608	89
439.829	104
440.05	120
440.272	134
440.493	101
440.715	95
440.936	77
441.158	87
441.379	92
441.6	95
441.822	87
442.043	82
442.264	87
442.486	88
442.707	87
442.928	98
443.149	117
443.371	117
443.592	99
443.813	109
444.034	106
444.255	88
444.476	92
444.698	102
444.919	82
445.14	119
445.361	109
445.582	98
445.803	129
446.024	107
446.245	113
446.466	96
446.687	97
446.908	81
447.129	96
447.35	93
447.571	89
447.792	97
448.013	92
448.234	98
448.455	102
448.675	102
448.896	113
449.117	102
449.338	103
449.559	110
449.779	120
450	71
450.221	89
450.442	85
450.662	96
450.883	105
451.104	110
451.324	85
451.545	59
451.766	82
451.986	82
452.207	90
452.428	85
452.648	97
452.869	106
453.089	103
453.31	96
453.53	79
453.751	94
453.971	79
454.192	102
454.412	84
454.633	75
454.853	93
455.073	95
455.294	89
455.514	86
455.734	79
455.955	75
456.175	93
456.395	93
456.616	87
456.836	92
457.056	80
457.276	75
457.497	79
457.717	77
457.937	80
458.157	82
458.377	85
458.598	105
458.818	132
459.038	139
459.258	109
459.478	93
459.698	79
459.918	84
460.138	80
460.358	77
460.578	78
460.798	86
461.018	87
461.238	104
461.458	77
461.678	78
461.898	70
462.118	77
462.338	85
462.558	88
462.777	78
462.997	88
463.217	97
463.437	73
463.657	79
463.876	83
464.096	81
464.316	82
464.536	94
464.755	78
464.975	96
465.195	127
465.414	125
465.634	88
465.854	86
466.073	83
466.293	64
466.512	86
466.732	88
466.951	87
467.171	96
467.391	87
467.61	85
467.829	81
468.049	99
468.268	107
468.488	89
468.707	105
468.927	87
469.146	83
469.365	81
469.585	83
469.804	88
470.023	92
470.243	97
470.462	86
470.681	102
470.901	81
471.12	81
471.339	96
471.558	80
471.777	79
471.997	92
472.216	146
472.435	187
472.654	108
472.873	91
473.092	78
473.311	80
473.53	73
473.749	94
473.968	89
474.187	100
474.406	85
474.625	78
474.844	75
475.063	77
475.282	85
475.501	94
475.72	81
475.939	83
476.158	74
476.377	86
476.596	98
476.814	84
477.033	90
477.252	74
477.471	80
477.69	91
477.908	81
478.127	93
478.346	89
478.564	94
478.783	101
479.002	79
479.22	95
479.439	95
479.658	88
479.876	97
480.095	94
480.313	109
480.532	67
480.751	103
480.969	126
481.188	263
481.406	183
481.624	99
481.843	97
482.061	77
482.28	73
482.498	82
482.717	85
482.935	88
483.153	87
483.372	80
483.59	75
483.808	88
484.027	88
484.245	95
484.463	96
484.681	85
484.9	91
485.118	95
485.336	77
485.554	88
485.772	101
485.99	106
486.209	76
486.427	97
486.645	112
486.863	91
487.081	103
487.299	89
487.517	86
487.735	80
487.953	96
488.171	102
488.389	85
488.607	100
488.825	88
489.043	90
489.261	80
489.479	82
489.696	103
489.914	83
490.132	88
490.35	92
490.568	85
490.786	95
491.003	73
491.221	74
491.439	88
491.657	90
491.874	81
492.092	98
492.31	94
492.527	84
492.745	86
492.963	73
493.18	71
493.398	88
493.615	97
493.833	94
494.05	80
494.268	88
494.485	103
494.703	74
494.92	97
495.138	90
495.355	74
495.573	91
495.79	102
496.008	97
496.225	92
496.442	101
496.66	92
496.877	81
497.094	101
497.312	83
497.529	89
497.746	91
497.963	88
498.181	87
498.398	87
498.615	105
498.832	92
499.049	93
499.267	92
499.484	83
499.701	93
499.918	88
500.135	71
500.352	95
500.569	78
500.786	91
501.003	90
501.22	82
501.437	83
501.654	83
501.871	102
502.088	77
502.305	78
502.522	83
502.739	96
502.956	93
503.172	86
503.389	95
503.606	98
503.823	103
504.04	93
504.256	91
504.473	95
504.69	81
504.907	101
505.123	88
505.34	83
505.557	81
505.773	88
505.99	77
506.207	88
506.423	91
506.64	87
506.856	71
507.073	86
507.289	95
507.506	89
507.722	98
507.939	90
508.155	94
508.372	81
508.588	95
508.805	91
509.021	101
509.238	94
509.454	83
509.67	113
509.887	93
510.103	135
510.319	197
510.536	686
510.752	2097
510.968	560
511.184	125
511.401	108
511.617	96
511.833	90
512.049	79
512.265	79
512.481	81
512.698	86
512.914	95
513.13	93
513.346	98
513.562	95
513.778	98
513.994	103
514.21	96
514.426	94
514.642	111
514.858	115
515.074	154
515.29	387
515.506	1231
515.721	461
515.937	141
516.153	102
516.369	82
516.585	91
516.801	87
517.016	101
517.232	86
517.448	86
517.664	90
517.879	86
518.095	91
518.311	87
518.527	95
518.742	86
518.958	94
519.173	87
519.389	95
519.605	86
519.82	100
520.036	99
520.251	102
520.467	121
520.682	98
520.898	94
521.113	113
521.329	127
521.544	182
521.76	491
521.975	2058
522.19	1224
522.406	279
522.621	116
522.836	94
523.052	104
523.267	98
523.482	94
523.698	113
523.913	119
524.128	101
524.343	90
524.559	97
524.774	102
524.989	91
525.204	96
525.419	111
525.634	91
525.849	77
526.064	86
526.28	91
526.495	95
526.71	89
526.925	65
527.14	90
527.355	89
527.57	75
527.785	95
527.999	84
528.214	91
528.429	118
528.644	91
528.859	85
529.074	93
529.289	117
529.503	168
529.718	92
529.933	87
530.148	109
530.363	80
530.577	96
530.792	82
531.007	91
531.221	93
531.436	93
531.651	99
531.865	96
532.08	88
532.295	87
532.509	98
532.724	93
532.938	70
533.153	96
533.367	98
533.582	91
533.796	104
534.011	83
534.225	90
534.44	84
534.654	105
534.868	98
535.083	88
535.297	83
535.511	99
535.726	107
535.94	93
536.154	73
536.369	82
536.583	87
536.797	77
537.011	84
537.225	91
537.44	96
537.654	83
537.868	97
538.082	91
538.296	94
538.51	89
538.724	88
538.938	81
539.153	102
539.367	96
539.581	98
539.795	96
540.009	87
540.222	87
540.436	89
540.65	85
540.864	87
541.078	98
541.292	84
541.506	85
541.72	74
541.934	92
542.147	75
542.361	94
542.575	103
542.789	99
543.002	87
543.216	86
543.43	103
543.644	73
543.857	71
544.071	90
544.285	83
544.498	89
544.712	90
544.925	101
545.139	87
545.352	94
545.566	92
545.779	85
545.993	89
546.206	96
546.42	80
546.633	90
546.847	89
547.06	82
547.274	82
547.487	92
547.7	62
547.914	83
548.127	83
548.34	85
548.554	74
548.767	97
548.98	81
549.193	77
549.407	81
549.62	96
549.833	78
550.046	95
550.259	81
550.473	78
550.686	79
550.899	98
551.112	103
551.325	81
551.538	77
551.751	85
551.964	99
552.177	94
552.39	84
552.603	79
552.816	103
553.029	86
553.242	86
553.455	87
553.667	88
553.88	108
554.093	84
554.306	86
554.519	97
554.732	99
554.944	89
555.157	99
555.37	103
555.583	91
555.795	90
556.008	99
556.221	91
556.433	99
556.646	95
556.859	96
557.071	88
557.284	76
557.496	93
557.709	92
557.921	81
558.134	98
558.346	91
558.559	99
558.771	83
558.984	83
559.196	90
559.409	91
559.621	86
559.833	81
560.046	84
560.258	82
560.47	88
560.683	96
560.895	85
561.107	83
561.32	90
561.532	94
561.744	99
561.956	82
562.168	91
562.381	80
562.593	94
562.805	98
563.017	95
563.229	93
563.441	102
563.653	103
563.865	90
564.077	92
564.289	87
564.501	86
564.713	89
564.925	96
565.137	92
565.349	107
565.561	81
565.773	82
565.985	78
566.197	82
566.408	77
566.62	77
566.832	83
567.044	83
567.255	86
567.467	77
567.679	91
567.891	81
568.102	84
568.314	87
568.526	82
568.737	81
568.949	105
569.161	71
569.372	70
569.584	90
569.795	93
570.007	121
570.218	228
570.43	117
570.641	84
570.853	103
571.064	85
571.276	93
571.487	95
571.698	87
571.91	72
572.121	80
572.333	89
572.544	67
572.755	77
572.966	96
573.178	87
573.389	92
573.6	95
573.811	74
574.023	83
574.234	99
574.445	85
574.656	89
574.867	101
575.078	71
575.289	94
575.501	78
575.712	83
575.923	88
576.134	68
576.345	95
576.556	98
576.767	85
576.978	88
577.188	98
577.399	89
577.61	84
577.821	99
578.032	113
578.243	242
578.454	683
578.665	186
578.875	111
579.086	77
579.297	97
579.508	87
579.718	86
579.929	90
580.14	89
580.35	89
580.561	75
580.772	99
580.982	81
581.193	92
581.403	89
581.614	83
581.825	77
582.035	83
582.246	88
582.456	89
582.667	84
582.877	71
583.087	85
583.298	81
583.508	90
583.719	92
583.929	83
584.139	96
584.35	94
584.56	83
584.77	83
584.981	81
585.191	89
585.401	90
585.611	85
585.821	79
