Data from Uncirc_1983_H10_HRD10591_00064.txt Node
Date: Wed Jan 03 12:25:44 EST 2024
User: Yrep
Spectrometer: HR+D1059
Trigger mode: 1
Integration Time (sec): 1.000000E-1
Scans to average: 1
Electric dark correction enabled: true
Nonlinearity correction enabled: false
Boxcar width: 0
XAxis mode: Wavelengths
Number of Pixels in Spectrum: 2048
>>>>>Begin Spectral Data<<<<<
223.165	-19.12
223.4	-19.12
223.635	-19.12
223.869	-15.12
224.104	-28.12
224.338	-25.12
224.573	-7.12
224.808	-13.12
225.042	-5.12
225.277	-13.12
225.511	-4.12
225.746	8.88
225.98	10.88
226.215	12.88
226.449	25.88
226.683	31.88
226.918	15.88
227.152	23.88
227.387	34.88
227.621	43.88
227.856	35.88
228.09	52.88
228.324	56.88
228.559	38.88
228.793	48.88
229.027	47.88
229.262	63.88
229.496	66.88
229.73	85.88
229.964	87.88
230.199	71.88
230.433	78.88
230.667	85.88
230.901	76.88
231.136	72.88
231.37	75.88
231.604	84.88
231.838	90.88
232.072	77.88
232.306	83.88
232.541	79.88
232.775	72.88
233.009	73.88
233.243	81.88
233.477	76.88
233.711	75.88
233.945	76.88
234.179	69.88
234.413	83.88
234.647	75.88
234.881	81.88
235.115	84.88
235.349	69.88
235.583	82.88
235.817	89.88
236.051	71.88
236.285	88.88
236.519	80.88
236.753	86.88
236.987	72.88
237.221	84.88
237.455	94.88
237.689	93.88
237.922	64.88
238.156	70.88
238.39	89.88
238.624	66.88
238.858	77.88
239.091	67.88
239.325	85.88
239.559	74.88
239.793	79.88
240.027	82.88
240.26	72.88
240.494	80.88
240.728	72.88
240.961	64.88
241.195	75.88
241.429	71.88
241.662	75.88
241.896	80.88
242.13	71.88
242.363	72.88
242.597	74.88
242.83	77.88
243.064	80.88
243.298	84.88
243.531	70.88
243.765	75.88
243.998	82.88
244.232	85.88
244.465	75.88
244.699	90.88
244.932	76.88
245.166	84.88
245.399	70.88
245.633	68.88
245.866	73.88
246.099	89.88
246.333	94.88
246.566	73.88
246.8	81.88
247.033	77.88
247.266	75.88
247.5	70.88
247.733	79.88
247.966	60.88
248.2	86.88
248.433	66.88
248.666	75.88
248.899	91.88
249.133	79.88
249.366	107.88
249.599	104.88
249.832	75.88
250.066	67.88
250.299	77.88
250.532	98.88
250.765	87.88
250.998	73.88
251.231	79.88
251.465	79.88
251.698	60.88
251.931	65.88
252.164	96.88
252.397	83.88
252.63	73.88
252.863	73.88
253.096	87.88
253.329	81.88
253.562	81.88
253.795	84.88
254.028	86.88
254.261	87.88
254.494	85.88
254.727	74.88
254.96	87.88
255.193	75.88
255.426	75.88
255.659	79.88
255.892	75.88
256.124	93.88
256.357	87.88
256.59	101.88
256.823	71.88
257.056	89.88
257.289	88.88
257.521	88.88
257.754	75.88
257.987	82.88
258.22	84.88
258.452	89.88
258.685	79.88
258.918	79.88
259.151	89.88
259.383	81.88
259.616	96.88
259.849	83.88
260.081	91.88
260.314	76.88
260.547	83.88
260.779	78.88
261.012	86.88
261.244	72.88
261.477	90.88
261.71	99.88
261.942	111.88
262.175	112.88
262.407	79.88
262.64	78.88
262.872	74.88
263.105	79.88
263.337	78.88
263.57	88.88
263.802	85.88
264.035	85.88
264.267	68.88
264.499	100.88
264.732	80.88
264.964	90.88
265.197	79.88
265.429	77.88
265.661	71.88
265.894	71.88
266.126	78.88
266.358	79.88
266.591	93.88
266.823	69.88
267.055	71.88
267.287	88.88
267.52	91.88
267.752	85.88
267.984	87.88
268.216	76.88
268.448	95.88
268.681	90.88
268.913	84.88
269.145	83.88
269.377	96.88
269.609	71.88
269.841	83.88
270.073	91.88
270.306	100.88
270.538	77.88
270.77	81.88
271.002	79.88
271.234	87.88
271.466	85.88
271.698	86.88
271.93	93.88
272.162	80.88
272.394	82.88
272.626	74.88
272.858	92.88
273.09	91.88
273.322	89.88
273.553	89.88
273.785	72.88
274.017	82.88
274.249	95.88
274.481	80.88
274.713	90.88
274.945	103.88
275.176	97.88
275.408	99.88
275.64	69.88
275.872	79.88
276.104	86.88
276.335	85.88
276.567	90.88
276.799	90.88
277.031	86.88
277.262	91.88
277.494	94.88
277.726	76.88
277.957	96.88
278.189	88.88
278.421	77.88
278.652	81.88
278.884	65.88
279.115	97.88
279.347	81.88
279.579	87.88
279.81	89.88
280.042	94.88
280.273	82.88
280.505	85.88
280.736	97.88
280.968	79.88
281.199	76.88
281.431	87.88
281.662	99.88
281.894	104.88
282.125	100.88
282.356	104.88
282.588	136.88
282.819	111.88
283.051	99.88
283.282	86.88
283.513	85.88
283.745	81.88
283.976	100.88
284.207	85.88
284.439	85.88
284.67	92.88
284.901	99.88
285.132	86.88
285.364	83.88
285.595	102.88
285.826	87.88
286.057	95.88
286.288	70.88
286.52	83.88
286.751	75.88
286.982	74.88
287.213	83.88
287.444	81.88
287.675	71.88
287.906	81.88
288.138	79.88
288.369	97.88
288.6	90.88
288.831	79.88
289.062	89.88
289.293	69.88
289.524	79.88
289.755	88.88
289.986	79.88
290.217	81.88
290.448	86.88
290.679	93.88
290.91	76.88
291.141	77.88
291.371	94.88
291.602	79.88
291.833	81.88
292.064	82.88
292.295	97.88
292.526	79.88
292.757	87.88
292.987	99.88
293.218	89.88
293.449	75.88
293.68	102.88
293.91	93.88
294.141	70.88
294.372	89.88
294.603	84.88
294.833	76.88
295.064	77.88
295.295	87.88
295.525	83.88
295.756	97.88
295.987	106.88
296.217	137.88
296.448	109.88
296.679	97.88
296.909	96.88
297.14	87.88
297.37	83.88
297.601	87.88
297.831	89.88
298.062	85.88
298.292	84.88
298.523	95.88
298.753	64.88
298.984	85.88
299.214	108.88
299.445	90.88
299.675	90.88
299.905	85.88
300.136	80.88
300.366	75.88
300.597	87.88
300.827	93.88
301.057	96.88
301.288	103.88
301.518	91.88
301.748	99.88
301.979	103.88
302.209	93.88
302.439	87.88
302.669	84.88
302.9	92.88
303.13	94.88
303.36	92.88
303.59	91.88
303.82	92.88
304.051	100.88
304.281	89.88
304.511	91.88
304.741	79.88
304.971	91.88
305.201	86.88
305.431	81.88
305.661	96.88
305.891	95.88
306.121	86.88
306.352	90.88
306.582	114.88
306.812	101.88
307.042	105.88
307.272	79.88
307.502	87.88
307.731	108.88
307.961	64.88
308.191	97.88
308.421	97.88
308.651	94.88
308.881	86.88
309.111	95.88
309.341	83.88
309.571	96.88
309.8	99.88
310.03	97.88
310.26	87.88
310.49	89.88
310.72	92.88
310.949	91.88
311.179	90.88
311.409	91.88
311.639	90.88
311.868	81.88
312.098	100.88
312.328	94.88
312.557	108.88
312.787	103.88
313.017	82.88
313.246	103.88
313.476	83.88
313.706	101.88
313.935	91.88
314.165	93.88
314.394	88.88
314.624	87.88
314.853	76.88
315.083	93.88
315.312	107.88
315.542	82.88
315.771	85.88
316.001	75.88
316.23	103.88
316.46	95.88
316.689	93.88
316.919	95.88
317.148	96.88
317.377	93.88
317.607	100.88
317.836	91.88
318.065	94.88
318.295	86.88
318.524	85.88
318.753	91.88
318.983	76.88
319.212	104.88
319.441	94.88
319.67	96.88
319.9	112.88
320.129	98.88
320.358	86.88
320.587	97.88
320.816	94.88
321.046	96.88
321.275	106.88
321.504	80.88
321.733	86.88
321.962	83.88
322.191	108.88
322.42	103.88
322.649	95.88
322.878	102.88
323.108	107.88
323.337	127.88
323.566	131.88
323.795	149.88
324.024	200.88
324.253	326.88
324.482	722.88
324.71	1436.88
324.939	1943.88
325.168	720.88
325.397	233.88
325.626	136.88
325.855	128.88
326.084	113.88
326.313	127.88
326.542	135.88
326.77	207.88
326.999	421.88
327.228	828.88
327.457	1483.88
327.686	1205.88
327.914	311.88
328.143	183.88
328.372	126.88
328.6	116.88
328.829	104.88
329.058	113.88
329.287	129.88
329.515	110.88
329.744	112.88
329.972	102.88
330.201	115.88
330.43	117.88
330.658	117.88
330.887	137.88
331.115	111.88
331.344	103.88
331.572	105.88
331.801	99.88
332.03	114.88
332.258	93.88
332.486	91.88
332.715	108.88
332.943	80.88
333.172	92.88
333.4	105.88
333.629	111.88
333.857	108.88
334.085	115.88
334.314	115.88
334.542	122.88
334.771	138.88
334.999	96.88
335.227	106.88
335.455	82.88
335.684	88.88
335.912	87.88
336.14	98.88
336.369	85.88
336.597	90.88
336.825	96.88
337.053	92.88
337.281	87.88
337.51	90.88
337.738	90.88
337.966	95.88
338.194	95.88
338.422	115.88
338.65	96.88
338.878	83.88
339.106	89.88
339.334	89.88
339.562	85.88
339.79	90.88
340.018	95.88
340.246	101.88
340.474	88.88
340.702	88.88
340.93	88.88
341.158	93.88
341.386	107.88
341.614	93.88
341.842	90.88
342.07	77.88
342.298	91.88
342.526	101.88
342.754	95.88
342.981	89.88
343.209	91.88
343.437	112.88
343.665	91.88
343.893	100.88
344.12	90.88
344.348	80.88
344.576	89.88
344.804	96.88
345.031	105.88
345.259	77.88
345.487	93.88
345.714	95.88
345.942	101.88
346.17	95.88
346.397	83.88
346.625	87.88
346.853	97.88
347.08	80.88
347.308	107.88
347.535	95.88
347.763	91.88
347.99	100.88
348.218	101.88
348.445	103.88
348.673	98.88
348.9	99.88
349.128	92.88
349.355	83.88
349.583	101.88
349.81	89.88
350.037	97.88
350.265	104.88
350.492	92.88
350.72	98.88
350.947	82.88
351.174	107.88
351.402	100.88
351.629	95.88
351.856	103.88
352.083	95.88
352.311	102.88
352.538	100.88
352.765	92.88
352.992	95.88
353.22	109.88
353.447	97.88
353.674	93.88
353.901	105.88
354.128	88.88
354.355	102.88
354.583	72.88
354.81	99.88
355.037	89.88
355.264	86.88
355.491	89.88
355.718	93.88
355.945	87.88
356.172	82.88
356.399	99.88
356.626	90.88
356.853	100.88
357.08	89.88
357.307	105.88
357.534	108.88
357.761	108.88
357.988	76.88
358.215	96.88
358.441	82.88
358.668	87.88
358.895	92.88
359.122	87.88
359.349	100.88
359.576	112.88
359.802	103.88
360.029	104.88
360.256	92.88
360.483	92.88
360.709	77.88
360.936	92.88
361.163	82.88
361.39	91.88
361.616	96.88
361.843	83.88
362.07	98.88
362.296	93.88
362.523	92.88
362.749	87.88
362.976	104.88
363.203	93.88
363.429	88.88
363.656	85.88
363.882	100.88
364.109	78.88
364.335	91.88
364.562	104.88
364.788	101.88
365.015	91.88
365.241	112.88
365.468	109.88
365.694	88.88
365.92	105.88
366.147	88.88
366.373	83.88
366.599	88.88
366.826	101.88
367.052	88.88
367.278	103.88
367.505	90.88
367.731	79.88
367.957	97.88
368.184	80.88
368.41	86.88
368.636	105.88
368.862	117.88
369.089	108.88
369.315	106.88
369.541	94.88
369.767	84.88
369.993	87.88
370.219	84.88
370.445	89.88
370.672	90.88
370.898	79.88
371.124	80.88
371.35	103.88
371.576	92.88
371.802	83.88
372.028	90.88
372.254	93.88
372.48	81.88
372.706	83.88
372.932	84.88
373.158	94.88
373.384	97.88
373.61	99.88
373.835	83.88
374.061	87.88
374.287	91.88
374.513	81.88
374.739	89.88
374.965	91.88
375.191	100.88
375.416	92.88
375.642	91.88
375.868	92.88
376.094	87.88
376.319	88.88
376.545	84.88
376.771	95.88
376.997	93.88
377.222	99.88
377.448	99.88
377.674	86.88
377.899	80.88
378.125	92.88
378.35	84.88
378.576	80.88
378.802	100.88
379.027	84.88
379.253	99.88
379.478	74.88
379.704	95.88
379.929	96.88
380.155	100.88
380.38	98.88
380.606	84.88
380.831	90.88
381.057	93.88
381.282	105.88
381.507	85.88
381.733	100.88
381.958	79.88
382.184	90.88
382.409	92.88
382.634	106.88
382.86	84.88
383.085	87.88
383.31	78.88
383.535	97.88
383.761	87.88
383.986	79.88
384.211	106.88
384.436	87.88
384.662	92.88
384.887	70.88
385.112	84.88
385.337	109.88
385.562	101.88
385.787	105.88
386.013	91.88
386.238	105.88
386.463	111.88
386.688	98.88
386.913	100.88
387.138	86.88
387.363	102.88
387.588	92.88
387.813	101.88
388.038	91.88
388.263	100.88
388.488	95.88
388.713	91.88
388.938	97.88
389.163	97.88
389.387	96.88
389.612	103.88
389.837	93.88
390.062	88.88
390.287	74.88
390.512	91.88
390.736	84.88
390.961	83.88
391.186	93.88
391.411	88.88
391.636	79.88
391.86	99.88
392.085	99.88
392.31	74.88
392.534	92.88
392.759	101.88
392.984	86.88
393.208	90.88
393.433	95.88
393.658	99.88
393.882	91.88
394.107	83.88
394.331	77.88
394.556	79.88
394.78	76.88
395.005	90.88
395.229	103.88
395.454	101.88
395.678	80.88
395.903	87.88
396.127	77.88
396.352	90.88
396.576	81.88
396.801	105.88
397.025	83.88
397.249	79.88
397.474	83.88
397.698	108.88
397.922	81.88
398.147	99.88
398.371	72.88
398.595	90.88
398.82	92.88
399.044	99.88
399.268	74.88
399.492	86.88
399.717	71.88
399.941	76.88
400.165	100.88
400.389	92.88
400.613	97.88
400.837	103.88
401.062	100.88
401.286	83.88
401.51	90.88
401.734	90.88
401.958	98.88
402.182	122.88
402.406	144.88
402.63	104.88
402.854	99.88
403.078	95.88
403.302	93.88
403.526	90.88
403.75	91.88
403.974	88.88
404.198	93.88
404.422	85.88
404.645	90.88
404.869	88.88
405.093	92.88
405.317	106.88
405.541	98.88
405.765	82.88
405.988	102.88
406.212	156.88
406.436	197.88
406.66	131.88
406.883	93.88
407.107	91.88
407.331	99.88
407.555	98.88
407.778	95.88
408.002	80.88
408.226	87.88
408.449	87.88
408.673	91.88
408.896	98.88
409.12	98.88
409.344	98.88
409.567	99.88
409.791	94.88
410.014	87.88
410.238	84.88
410.461	97.88
410.685	97.88
410.908	84.88
411.132	93.88
411.355	88.88
411.578	92.88
411.802	85.88
412.025	88.88
412.249	87.88
412.472	79.88
412.695	97.88
412.919	87.88
413.142	100.88
413.365	89.88
413.589	97.88
413.812	100.88
414.035	106.88
414.258	91.88
414.482	89.88
414.705	106.88
414.928	95.88
415.151	70.88
415.374	89.88
415.597	105.88
415.821	89.88
416.044	91.88
416.267	76.88
416.49	82.88
416.713	99.88
416.936	89.88
417.159	81.88
417.382	86.88
417.605	90.88
417.828	77.88
418.051	98.88
418.274	85.88
418.497	88.88
418.72	69.88
418.943	87.88
419.166	74.88
419.389	88.88
419.611	80.88
419.834	91.88
420.057	84.88
420.28	96.88
420.503	81.88
420.726	88.88
420.948	94.88
421.171	94.88
421.394	92.88
421.617	85.88
421.839	94.88
422.062	88.88
422.285	88.88
422.507	96.88
422.73	93.88
422.953	87.88
423.175	99.88
423.398	95.88
423.621	97.88
423.843	84.88
424.066	79.88
424.288	85.88
424.511	78.88
424.733	82.88
424.956	91.88
425.178	111.88
425.401	113.88
425.623	111.88
425.846	96.88
426.068	81.88
426.291	88.88
426.513	86.88
426.735	89.88
426.958	111.88
427.18	115.88
427.402	112.88
427.625	147.88
427.847	113.88
428.069	97.88
428.292	91.88
428.514	91.88
428.736	95.88
428.958	90.88
429.181	86.88
429.403	86.88
429.625	83.88
429.847	92.88
430.069	105.88
430.292	93.88
430.514	81.88
430.736	79.88
430.958	100.88
431.18	86.88
431.402	73.88
431.624	89.88
431.846	96.88
432.068	95.88
432.29	92.88
432.512	89.88
432.734	97.88
432.956	101.88
433.178	85.88
433.4	97.88
433.622	86.88
433.844	95.88
434.066	92.88
434.287	106.88
434.509	82.88
434.731	90.88
434.953	75.88
435.175	88.88
435.397	97.88
435.618	107.88
435.84	105.88
436.062	114.88
436.284	102.88
436.505	86.88
436.727	102.88
436.949	94.88
437.17	91.88
437.392	87.88
437.614	88.88
437.835	99.88
438.057	101.88
438.278	101.88
438.5	100.88
438.721	123.88
438.943	87.88
439.165	94.88
439.386	91.88
439.608	94.88
439.829	100.88
440.05	128.88
440.272	148.88
440.493	97.88
440.715	87.88
440.936	91.88
441.158	93.88
441.379	75.88
441.6	73.88
441.822	89.88
442.043	100.88
442.264	96.88
442.486	104.88
442.707	90.88
442.928	88.88
443.149	123.88
443.371	115.88
443.592	107.88
443.813	92.88
444.034	102.88
444.255	86.88
444.476	86.88
444.698	78.88
444.919	100.88
445.14	127.88
445.361	119.88
445.582	98.88
445.803	127.88
446.024	132.88
446.245	124.88
446.466	105.88
446.687	96.88
446.908	85.88
447.129	95.88
447.35	97.88
447.571	88.88
447.792	81.88
448.013	98.88
448.234	92.88
448.455	95.88
448.675	98.88
448.896	110.88
449.117	95.88
449.338	104.88
449.559	109.88
449.779	108.88
450	97.88
450.221	89.88
450.442	89.88
450.662	88.88
450.883	102.88
451.104	108.88
451.324	73.88
451.545	83.88
451.766	87.88
451.986	90.88
452.207	79.88
452.428	82.88
452.648	102.88
452.869	103.88
453.089	101.88
453.31	113.88
453.53	96.88
453.751	96.88
453.971	105.88
454.192	103.88
454.412	97.88
454.633	92.88
454.853	75.88
455.073	86.88
455.294	92.88
455.514	100.88
455.734	91.88
455.955	87.88
456.175	69.88
456.395	83.88
456.616	73.88
456.836	100.88
457.056	83.88
457.276	94.88
457.497	80.88
457.717	79.88
457.937	95.88
458.157	75.88
458.377	74.88
458.598	118.88
458.818	132.88
459.038	143.88
459.258	102.88
459.478	97.88
459.698	101.88
459.918	88.88
460.138	97.88
460.358	74.88
460.578	65.88
460.798	102.88
461.018	88.88
461.238	99.88
461.458	90.88
461.678	91.88
461.898	91.88
462.118	97.88
462.338	95.88
462.558	75.88
462.777	72.88
462.997	62.88
463.217	90.88
463.437	81.88
463.657	76.88
463.876	80.88
464.096	79.88
464.316	89.88
464.536	99.88
464.755	87.88
464.975	95.88
465.195	137.88
465.414	166.88
465.634	85.88
465.854	83.88
466.073	92.88
466.293	84.88
466.512	90.88
466.732	87.88
466.951	73.88
467.171	89.88
467.391	79.88
467.61	104.88
467.829	91.88
468.049	96.88
468.268	92.88
468.488	95.88
468.707	93.88
468.927	86.88
469.146	86.88
469.365	92.88
469.585	93.88
469.804	96.88
470.023	109.88
470.243	81.88
470.462	104.88
470.681	106.88
470.901	95.88
471.12	81.88
471.339	80.88
471.558	82.88
471.777	102.88
471.997	98.88
472.216	104.88
472.435	133.88
472.654	100.88
472.873	93.88
473.092	80.88
473.311	97.88
473.53	89.88
473.749	79.88
473.968	95.88
474.187	98.88
474.406	84.88
474.625	90.88
474.844	85.88
475.063	76.88
475.282	80.88
475.501	92.88
475.72	89.88
475.939	89.88
476.158	86.88
476.377	76.88
476.596	88.88
476.814	97.88
477.033	94.88
477.252	77.88
477.471	87.88
477.69	98.88
477.908	72.88
478.127	82.88
478.346	88.88
478.564	81.88
478.783	104.88
479.002	100.88
479.22	107.88
479.439	98.88
479.658	95.88
479.876	95.88
480.095	75.88
480.313	77.88
480.532	92.88
480.751	98.88
480.969	107.88
481.188	168.88
481.406	129.88
481.624	79.88
481.843	88.88
482.061	95.88
482.28	82.88
482.498	91.88
482.717	83.88
482.935	90.88
483.153	90.88
483.372	91.88
483.59	91.88
483.808	86.88
484.027	103.88
484.245	84.88
484.463	89.88
484.681	93.88
484.9	84.88
485.118	95.88
485.336	92.88
485.554	93.88
485.772	90.88
485.99	111.88
486.209	119.88
486.427	102.88
486.645	118.88
486.863	125.88
487.081	115.88
487.299	92.88
487.517	92.88
487.735	97.88
487.953	100.88
488.171	85.88
488.389	93.88
488.607	100.88
488.825	82.88
489.043	87.88
489.261	75.88
489.479	83.88
489.696	76.88
489.914	91.88
490.132	85.88
490.35	96.88
490.568	103.88
490.786	92.88
491.003	95.88
491.221	80.88
491.439	94.88
491.657	82.88
491.874	90.88
492.092	76.88
492.31	98.88
492.527	88.88
492.745	81.88
492.963	91.88
493.18	84.88
493.398	90.88
493.615	91.88
493.833	96.88
494.05	82.88
494.268	91.88
494.485	99.88
494.703	80.88
494.92	88.88
495.138	91.88
495.355	89.88
495.573	90.88
495.79	89.88
496.008	84.88
496.225	84.88
496.442	105.88
496.66	84.88
496.877	80.88
497.094	91.88
497.312	96.88
497.529	83.88
497.746	93.88
497.963	93.88
498.181	90.88
498.398	95.88
498.615	112.88
498.832	107.88
499.049	83.88
499.267	94.88
499.484	89.88
499.701	95.88
499.918	96.88
500.135	93.88
500.352	97.88
500.569	94.88
500.786	98.88
501.003	88.88
501.22	77.88
501.437	89.88
501.654	85.88
501.871	98.88
502.088	92.88
502.305	93.88
502.522	95.88
502.739	88.88
502.956	89.88
503.172	96.88
503.389	87.88
503.606	110.88
503.823	97.88
504.04	95.88
504.256	102.88
504.473	100.88
504.69	85.88
504.907	86.88
505.123	87.88
505.34	71.88
505.557	87.88
505.773	88.88
505.99	86.88
506.207	85.88
506.423	99.88
506.64	90.88
506.856	74.88
507.073	89.88
507.289	83.88
507.506	92.88
507.722	113.88
507.939	109.88
508.155	91.88
508.372	95.88
508.588	105.88
508.805	91.88
509.021	106.88
509.238	89.88
509.454	95.88
509.67	104.88
509.887	99.88
510.103	120.88
510.319	192.88
510.536	706.88
510.752	2298.88
510.968	635.88
511.184	136.88
511.401	114.88
511.617	102.88
511.833	101.88
512.049	91.88
512.265	86.88
512.481	93.88
512.698	104.88
512.914	102.88
513.13	88.88
513.346	94.88
513.562	91.88
513.778	93.88
513.994	99.88
514.21	113.88
514.426	109.88
514.642	135.88
514.858	106.88
515.074	159.88
515.29	413.88
515.506	1380.88
515.721	518.88
515.937	154.88
