Data from Uncirc_1983_H10_HRD10591_00007.txt Node
Date: Wed Jan 03 12:25:33 EST 2024
User: Yrep
Spectrometer: HR+D1059
Trigger mode: 1
Integration Time (sec): 1.000000E-1
Scans to average: 1
Electric dark correction enabled: true
Nonlinearity correction enabled: false
Boxcar width: 0
XAxis mode: Wavelengths
Number of Pixels in Spectrum: 2048
>>>>>Begin Spectral Data<<<<<
223.165	-27
223.4	-27
223.635	-27
223.869	-11
224.104	-6
224.338	-10
224.573	-19
224.808	-7
225.042	-3
225.277	-6
225.511	-14
225.746	0
225.98	5
226.215	7
226.449	13
226.683	27
226.918	12
227.152	39
227.387	33
227.621	42
227.856	53
228.09	31
228.324	53
228.559	63
228.793	61
229.027	59
229.262	70
229.496	67
229.73	85
229.964	83
230.199	75
230.433	69
230.667	62
230.901	69
231.136	89
231.37	99
231.604	95
231.838	76
232.072	86
232.306	78
232.541	71
232.775	103
233.009	83
233.243	74
233.477	91
233.711	75
233.945	84
234.179	89
234.413	87
234.647	102
234.881	97
235.115	78
235.349	73
235.583	71
235.817	74
236.051	73
236.285	88
236.519	77
236.753	92
236.987	80
237.221	84
237.455	89
237.689	75
237.922	69
238.156	80
238.39	77
238.624	77
238.858	77
239.091	94
239.325	70
239.559	79
239.793	76
240.027	73
240.26	89
240.494	72
240.728	61
240.961	70
241.195	82
241.429	83
241.662	86
241.896	74
242.13	73
242.363	94
242.597	81
242.83	70
243.064	78
243.298	85
243.531	65
243.765	73
243.998	77
244.232	84
244.465	90
244.699	78
244.932	80
245.166	85
245.399	74
245.633	86
245.866	83
246.099	86
246.333	86
246.566	75
246.8	76
247.033	75
247.266	85
247.5	85
247.733	68
247.966	94
248.2	95
248.433	86
248.666	95
248.899	89
249.133	77
249.366	85
249.599	106
249.832	85
250.066	89
250.299	91
250.532	78
250.765	83
250.998	85
251.231	72
251.465	73
251.698	78
251.931	83
252.164	74
252.397	91
252.63	92
252.863	85
253.096	69
253.329	82
253.562	84
253.795	57
254.028	71
254.261	74
254.494	78
254.727	89
254.96	96
255.193	83
255.426	62
255.659	92
255.892	88
256.124	73
256.357	85
256.59	90
256.823	89
257.056	74
257.289	89
257.521	89
257.754	90
257.987	110
258.22	85
258.452	91
258.685	76
258.918	91
259.151	83
259.383	93
259.616	83
259.849	82
260.081	83
260.314	93
260.547	90
260.779	93
261.012	89
261.244	76
261.477	97
261.71	85
261.942	102
262.175	107
262.407	92
262.64	76
262.872	81
263.105	79
263.337	75
263.57	83
263.802	74
264.035	87
264.267	74
264.499	82
264.732	81
264.964	88
265.197	101
265.429	105
265.661	88
265.894	106
266.126	106
266.358	81
266.591	83
266.823	83
267.055	96
267.287	81
267.52	79
267.752	83
267.984	79
268.216	90
268.448	91
268.681	84
268.913	99
269.145	78
269.377	87
269.609	95
269.841	94
270.073	83
270.306	74
270.538	78
270.77	84
271.002	93
271.234	85
271.466	87
271.698	101
271.93	95
272.162	97
272.394	97
272.626	95
272.858	79
273.09	89
273.322	103
273.553	86
273.785	71
274.017	84
274.249	81
274.481	86
274.713	86
274.945	85
275.176	92
275.408	71
275.64	71
275.872	85
276.104	102
276.335	91
276.567	110
276.799	95
277.031	101
277.262	86
277.494	110
277.726	83
277.957	77
278.189	88
278.421	90
278.652	75
278.884	101
279.115	93
279.347	88
279.579	106
279.81	79
280.042	97
280.273	93
280.505	86
280.736	95
280.968	81
281.199	82
281.431	80
281.662	91
281.894	95
282.125	84
282.356	108
282.588	122
282.819	114
283.051	98
283.282	76
283.513	98
283.745	84
283.976	65
284.207	93
284.439	83
284.67	96
284.901	85
285.132	92
285.364	87
285.595	86
285.826	77
286.057	91
286.288	81
286.52	102
286.751	95
286.982	88
287.213	92
287.444	89
287.675	92
287.906	79
288.138	87
288.369	99
288.6	86
288.831	105
289.062	89
289.293	82
289.524	73
289.755	81
289.986	85
290.217	85
290.448	82
290.679	109
290.91	97
291.141	85
291.371	93
291.602	69
291.833	75
292.064	86
292.295	100
292.526	94
292.757	101
292.987	95
293.218	90
293.449	99
293.68	92
293.91	79
294.141	87
294.372	99
294.603	94
294.833	98
295.064	85
295.295	109
295.525	83
295.756	95
295.987	101
296.217	119
296.448	102
296.679	102
296.909	78
297.14	87
297.37	106
297.601	91
297.831	97
298.062	95
298.292	85
298.523	88
298.753	81
298.984	93
299.214	87
299.445	95
299.675	78
299.905	87
300.136	92
300.366	90
300.597	106
300.827	85
301.057	100
301.288	94
301.518	92
301.748	99
301.979	97
302.209	90
302.439	100
302.669	101
302.9	94
303.13	83
303.36	94
303.59	109
303.82	105
304.051	93
304.281	86
304.511	93
304.741	94
304.971	84
305.201	85
305.431	90
305.661	95
305.891	95
306.121	98
306.352	91
306.582	100
306.812	89
307.042	97
307.272	81
307.502	97
307.731	107
307.961	83
308.191	80
308.421	87
308.651	105
308.881	84
309.111	75
309.341	88
309.571	95
309.8	76
310.03	87
310.26	93
310.49	92
310.72	104
310.949	111
311.179	99
311.409	102
311.639	94
311.868	94
312.098	85
312.328	99
312.557	98
312.787	96
313.017	107
313.246	111
313.476	103
313.706	93
313.935	95
314.165	108
314.394	115
314.624	87
314.853	103
315.083	91
315.312	90
315.542	92
315.771	94
316.001	102
316.23	91
316.46	103
316.689	89
316.919	69
317.148	93
317.377	98
317.607	107
317.836	93
318.065	82
318.295	100
318.524	89
318.753	95
318.983	92
319.212	106
319.441	100
319.67	100
319.9	90
320.129	97
320.358	100
320.587	98
320.816	93
321.046	110
321.275	93
321.504	86
321.733	109
321.962	91
322.191	91
322.42	88
322.649	121
322.878	107
323.108	113
323.337	117
323.566	117
323.795	126
324.024	190
324.253	321
324.482	667
324.71	1369
324.939	1742
325.168	670
325.397	196
325.626	135
325.855	106
326.084	120
326.313	109
326.542	145
326.77	207
326.999	406
327.228	786
327.457	1401
327.686	1090
327.914	297
328.143	169
328.372	132
328.6	109
328.829	108
329.058	134
329.287	130
329.515	110
329.744	110
329.972	95
330.201	115
330.43	106
330.658	111
330.887	122
331.115	129
331.344	102
331.572	98
331.801	99
332.03	98
332.258	99
332.486	83
332.715	92
332.943	106
333.172	95
333.4	98
333.629	94
333.857	94
334.085	94
334.314	98
334.542	100
334.771	97
334.999	92
335.227	89
335.455	98
335.684	95
335.912	103
336.14	99
336.369	107
336.597	89
336.825	91
337.053	91
337.281	90
337.51	94
337.738	100
337.966	96
338.194	107
338.422	91
338.65	106
338.878	103
339.106	90
339.334	97
339.562	93
339.79	89
340.018	88
340.246	104
340.474	103
340.702	97
340.93	89
341.158	93
341.386	95
341.614	91
341.842	85
342.07	85
342.298	99
342.526	101
342.754	84
342.981	102
343.209	87
343.437	108
343.665	101
343.893	108
344.12	102
344.348	81
344.576	100
344.804	106
345.031	97
345.259	83
345.487	99
345.714	82
345.942	106
346.17	95
346.397	97
346.625	95
346.853	90
347.08	85
347.308	103
347.535	93
347.763	91
347.99	93
348.218	85
348.445	94
348.673	85
348.9	102
349.128	85
349.355	102
349.583	109
349.81	96
350.037	88
350.265	102
350.492	94
350.72	97
350.947	101
351.174	108
351.402	108
351.629	91
351.856	107
352.083	123
352.311	99
352.538	85
352.765	102
352.992	101
353.22	107
353.447	111
353.674	93
353.901	90
354.128	92
354.355	103
354.583	109
354.81	100
355.037	91
355.264	86
355.491	97
355.718	92
355.945	103
356.172	106
356.399	98
356.626	106
356.853	108
357.08	103
357.307	98
357.534	99
357.761	108
357.988	114
358.215	97
358.441	95
358.668	97
358.895	93
359.122	83
359.349	93
359.576	105
359.802	99
360.029	105
360.256	91
360.483	92
360.709	83
360.936	89
361.163	89
361.39	94
361.616	91
361.843	89
362.07	90
362.296	98
362.523	85
362.749	90
362.976	92
363.203	94
363.429	83
363.656	85
363.882	101
364.109	88
364.335	86
364.562	97
364.788	98
365.015	89
365.241	90
365.468	92
365.694	74
365.92	81
366.147	84
366.373	97
366.599	83
366.826	86
367.052	96
367.278	94
367.505	93
367.731	87
367.957	98
368.184	100
368.41	90
368.636	102
368.862	106
369.089	107
369.315	101
369.541	90
369.767	93
369.993	100
370.219	88
370.445	92
370.672	89
370.898	103
371.124	100
371.35	103
371.576	97
371.802	106
372.028	111
372.254	98
372.48	86
372.706	95
372.932	81
373.158	91
373.384	107
373.61	88
373.835	83
374.061	83
374.287	86
374.513	90
374.739	89
374.965	86
375.191	91
375.416	86
375.642	81
375.868	79
376.094	91
376.319	78
376.545	97
376.771	99
376.997	88
377.222	99
377.448	83
377.674	100
377.899	98
378.125	83
378.35	101
378.576	85
378.802	98
379.027	91
379.253	90
379.478	93
379.704	100
379.929	101
380.155	111
380.38	109
380.606	93
380.831	97
381.057	105
381.282	100
381.507	101
381.733	96
381.958	95
382.184	97
382.409	97
382.634	109
382.86	115
383.085	127
383.31	109
383.535	105
383.761	87
383.986	99
384.211	108
384.436	111
384.662	115
384.887	111
385.112	111
385.337	122
385.562	109
385.787	111
386.013	119
386.238	121
386.463	115
386.688	116
386.913	124
387.138	117
387.363	120
387.588	94
387.813	113
388.038	119
388.263	111
388.488	116
388.713	90
388.938	91
389.163	82
389.387	102
389.612	95
389.837	94
390.062	85
390.287	93
390.512	81
390.736	95
390.961	84
391.186	105
391.411	93
391.636	97
391.86	93
392.085	93
392.31	97
392.534	86
392.759	100
392.984	107
393.208	105
393.433	116
393.658	107
393.882	87
394.107	90
394.331	87
394.556	93
394.78	95
395.005	93
395.229	104
395.454	95
395.678	87
395.903	103
396.127	92
396.352	74
396.576	77
396.801	96
397.025	107
397.249	101
397.474	84
397.698	88
397.922	77
398.147	88
398.371	101
398.595	89
398.82	98
399.044	81
399.268	81
399.492	84
399.717	103
399.941	87
400.165	93
400.389	97
400.613	77
400.837	85
401.062	87
401.286	97
401.51	90
401.734	106
401.958	95
402.182	133
402.406	119
402.63	104
402.854	89
403.078	97
403.302	87
403.526	98
403.75	92
403.974	98
404.198	82
404.422	97
404.645	85
404.869	105
405.093	95
405.317	105
405.541	93
405.765	97
405.988	118
406.212	157
406.436	190
406.66	104
406.883	99
407.107	84
407.331	73
407.555	87
407.778	99
408.002	81
408.226	90
408.449	87
408.673	86
408.896	107
409.12	100
409.344	93
409.567	84
409.791	97
410.014	105
410.238	99
410.461	96
410.685	109
410.908	113
411.132	111
411.355	107
411.578	101
411.802	85
412.025	83
412.249	98
412.472	89
412.695	84
412.919	86
413.142	100
413.365	82
413.589	94
413.812	99
414.035	99
414.258	84
414.482	97
414.705	107
414.928	89
415.151	89
415.374	102
415.597	92
415.821	98
416.044	84
416.267	94
416.49	102
416.713	95
416.936	99
417.159	85
417.382	81
417.605	92
417.828	92
418.051	78
418.274	100
418.497	81
418.72	91
418.943	97
419.166	100
419.389	90
419.611	107
419.834	83
420.057	76
420.28	101
420.503	75
420.726	93
420.948	89
421.171	95
421.394	89
421.617	90
421.839	91
422.062	93
422.285	101
422.507	93
422.73	120
422.953	86
423.175	94
423.398	85
423.621	82
423.843	89
424.066	86
424.288	73
424.511	99
424.733	95
424.956	100
425.178	82
425.401	115
425.623	99
425.846	83
426.068	93
426.291	91
426.513	82
426.735	97
426.958	91
427.18	108
427.402	119
427.625	131
427.847	101
428.069	99
428.292	106
428.514	86
428.736	82
428.958	77
429.181	90
429.403	81
429.625	79
429.847	101
430.069	91
430.292	97
430.514	89
430.736	70
430.958	91
431.18	88
431.402	84
431.624	87
431.846	65
432.068	71
432.29	90
432.512	99
432.734	101
432.956	92
433.178	109
433.4	90
433.622	82
433.844	90
434.066	89
434.287	87
434.509	94
434.731	94
434.953	89
435.175	83
435.397	89
435.618	81
435.84	99
436.062	107
436.284	103
436.505	108
436.727	97
436.949	101
437.17	86
437.392	76
437.614	81
437.835	100
438.057	106
438.278	105
438.5	106
438.721	111
438.943	86
439.165	92
439.386	94
439.608	90
439.829	99
440.05	111
440.272	127
440.493	106
440.715	72
440.936	82
441.158	90
441.379	93
441.6	105
441.822	88
442.043	90
442.264	117
442.486	97
442.707	91
442.928	101
443.149	110
443.371	112
443.592	78
443.813	102
444.034	108
444.255	90
444.476	90
444.698	98
444.919	86
445.14	125
445.361	111
445.582	105
445.803	130
446.024	125
446.245	121
446.466	93
446.687	87
446.908	89
447.129	97
447.35	77
447.571	106
447.792	83
448.013	105
448.234	111
448.455	109
448.675	115
448.896	110
449.117	93
449.338	86
449.559	124
449.779	115
450	96
450.221	102
450.442	106
450.662	102
450.883	107
451.104	108
451.324	99
451.545	82
451.766	93
451.986	84
452.207	87
452.428	104
452.648	102
452.869	120
453.089	110
453.31	118
453.53	102
453.751	85
453.971	104
454.192	101
454.412	88
454.633	89
454.853	98
455.073	92
455.294	95
455.514	104
455.734	82
455.955	85
456.175	73
456.395	69
456.616	70
456.836	73
457.056	93
457.276	89
457.497	81
457.717	80
457.937	85
458.157	72
458.377	90
458.598	114
458.818	132
459.038	147
459.258	113
459.478	84
459.698	95
459.918	96
460.138	99
460.358	87
460.578	88
460.798	85
461.018	99
461.238	85
461.458	84
461.678	93
461.898	89
462.118	91
462.338	93
462.558	96
462.777	92
462.997	87
463.217	82
463.437	93
463.657	66
463.876	84
464.096	94
464.316	79
464.536	89
464.755	77
464.975	75
465.195	134
465.414	123
465.634	85
465.854	94
466.073	84
466.293	96
466.512	88
466.732	89
466.951	85
467.171	102
467.391	115
467.61	98
467.829	86
468.049	95
468.268	85
468.488	84
468.707	89
468.927	76
469.146	80
469.365	87
469.585	93
469.804	85
470.023	103
470.243	93
470.462	89
470.681	116
470.901	83
471.12	101
471.339	94
471.558	89
471.777	99
471.997	100
472.216	90
472.435	109
472.654	100
472.873	86
473.092	99
473.311	92
473.53	90
473.749	81
473.968	99
474.187	100
474.406	81
474.625	94
474.844	76
475.063	91
475.282	87
475.501	91
475.72	91
475.939	89
476.158	90
476.377	93
476.596	94
476.814	87
477.033	104
477.252	100
477.471	88
477.69	98
477.908	95
478.127	88
478.346	89
478.564	79
478.783	92
479.002	98
479.22	93
479.439	108
479.658	93
479.876	97
480.095	100
480.313	110
480.532	95
480.751	100
480.969	95
481.188	89
481.406	92
481.624	99
481.843	87
482.061	86
482.28	82
482.498	91
482.717	99
482.935	84
483.153	100
483.372	89
483.59	91
483.808	91
484.027	83
484.245	90
484.463	102
484.681	92
484.9	81
485.118	98
485.336	101
485.554	103
485.772	116
485.99	102
486.209	92
486.427	119
486.645	95
486.863	102
487.081	99
487.299	99
487.517	90
487.735	86
487.953	85
488.171	100
488.389	117
488.607	88
488.825	95
489.043	80
489.261	93
489.479	87
489.696	85
489.914	89
490.132	84
490.35	85
490.568	96
490.786	89
491.003	98
491.221	101
491.439	85
491.657	100
491.874	90
492.092	91
492.31	97
492.527	90
492.745	97
492.963	92
493.18	88
493.398	108
493.615	90
493.833	92
494.05	93
494.268	92
494.485	110
494.703	101
494.92	99
495.138	92
495.355	98
495.573	97
495.79	93
496.008	104
496.225	101
496.442	86
496.66	98
496.877	95
497.094	94
497.312	104
497.529	82
497.746	81
497.963	90
498.181	93
498.398	107
498.615	104
498.832	101
499.049	105
499.267	91
499.484	91
499.701	101
499.918	90
500.135	92
500.352	102
500.569	90
500.786	108
501.003	91
501.22	96
501.437	98
501.654	99
501.871	95
502.088	76
502.305	102
502.522	90
502.739	84
502.956	93
503.172	101
503.389	92
503.606	112
503.823	101
504.04	89
504.256	83
504.473	86
504.69	82
504.907	83
505.123	78
505.34	69
505.557	86
505.773	80
505.99	80
506.207	84
506.423	92
506.64	89
506.856	91
507.073	103
507.289	92
507.506	107
507.722	116
507.939	90
508.155	91
508.372	90
508.588	85
508.805	89
509.021	83
509.238	95
509.454	104
509.67	106
509.887	119
510.103	124
510.319	182
510.536	603
510.752	1788
510.968	520
511.184	130
511.401	105
511.617	96
511.833	99
512.049	103
512.265	90
512.481	92
512.698	86
512.914	86
513.13	100
513.346	92
513.562	94
513.778	94
513.994	92
514.21	98
514.426	122
514.642	128
514.858	111
515.074	131
515.29	335
515.506	1091
515.721	421
515.937	137
516.153	119
516.369	90
516.585	85
516.801	94
517.016	108
517.232	94
517.448	97
517.664	100
517.879	90
518.095	98
518.311	100
518.527	102
518.742	97
518.958	85
519.173	98
519.389	98
519.605	102
519.82	101
520.036	95
520.251	99
520.467	112
520.682	115
520.898	111
521.113	93
521.329	126
521.544	167
521.76	431
521.975	1770
522.19	1011
522.406	246
522.621	107
522.836	103
523.052	108
523.267	100
523.482	86
523.698	108
523.913	131
524.128	110
524.343	87
524.559	77
524.774	103
524.989	93
525.204	102
525.419	105
525.634	76
525.849	98
526.064	96
526.28	96
526.495	98
526.71	85
526.925	77
527.14	91
527.355	90
527.57	94
527.785	91
527.999	88
528.214	88
528.429	80
528.644	77
528.859	92
529.074	95
529.289	130
529.503	133
529.718	93
529.933	96
530.148	93
530.363	87
530.577	100
530.792	83
531.007	97
531.221	103
531.436	93
531.651	100
531.865	78
532.08	92
532.295	86
532.509	89
532.724	91
532.938	107
533.153	105
533.367	99
533.582	103
533.796	96
534.011	81
534.225	87
534.44	93
534.654	106
534.868	98
535.083	102
535.297	94
535.511	104
535.726	108
535.94	101
536.154	97
536.369	92
536.583	70
536.797	87
537.011	93
537.225	93
537.44	84
537.654	98
537.868	93
538.082	92
538.296	85
538.51	99
538.724	87
538.938	85
539.153	97
539.367	90
539.581	107
539.795	110
540.009	99
540.222	107
540.436	83
540.65	90
540.864	85
541.078	91
541.292	91
541.506	86
541.72	88
541.934	85
542.147	96
542.361	94
542.575	95
542.789	99
543.002	93
543.216	88
543.43	97
543.644	89
543.857	95
544.071	99
544.285	89
544.498	82
544.712	99
544.925	79
545.139	94
545.352	85
545.566	97
545.779	94
545.993	85
546.206	87
546.42	92
546.633	112
546.847	110
547.06	85
547.274	84
547.487	88
547.7	96
547.914	84
548.127	95
548.34	89
548.554	90
548.767	79
548.98	103
549.193	91
549.407	87
549.62	79
549.833	86
550.046	93
550.259	88
550.473	63
550.686	83
550.899	95
551.112	87
551.325	92
551.538	87
551.751	91
551.964	94
552.177	88
552.39	106
552.603	93
552.816	79
553.029	86
553.242	95
553.455	88
553.667	100
553.88	93
554.093	92
554.306	95
554.519	109
554.732	106
554.944	93
555.157	101
555.37	93
555.583	85
555.795	102
556.008	83
556.221	75
556.433	98
556.646	103
556.859	111
557.071	95
557.284	86
557.496	74
557.709	86
557.921	97
558.134	104
558.346	80
558.559	98
558.771	97
558.984	90
559.196	95
559.409	92
559.621	100
559.833	118
560.046	97
560.258	90
560.47	89
560.683	86
560.895	94
561.107	102
561.32	91
561.532	91
561.744	90
561.956	102
562.168	105
562.381	98
562.593	92
562.805	84
563.017	87
563.229	103
563.441	100
563.653	101
563.865	90
564.077	103
564.289	91
564.501	95
564.713	105
564.925	89
565.137	98
565.349	93
565.561	93
565.773	95
565.985	102
566.197	75
566.408	84
566.62	85
566.832	103
567.044	103
567.255	79
567.467	95
567.679	90
567.891	76
568.102	86
568.314	85
568.526	102
568.737	101
568.949	94
569.161	92
569.372	83
569.584	78
569.795	95
570.007	117
570.218	212
570.43	133
570.641	85
570.853	94
571.064	87
571.276	75
571.487	91
571.698	94
571.91	89
572.121	89
572.333	96
572.544	95
572.755	85
572.966	95
573.178	92
573.389	87
573.6	102
573.811	88
574.023	72
574.234	83
574.445	100
574.656	99
574.867	94
575.078	93
575.289	94
575.501	88
575.712	95
575.923	79
576.134	78
576.345	103
576.556	81
576.767	84
576.978	89
577.188	95
577.399	100
577.61	93
577.821	104
578.032	110
578.243	238
578.454	608
578.665	200
578.875	94
579.086	85
579.297	95
579.508	99
579.718	108
579.929	98
580.14	95
580.35	85
580.561	73
580.772	96
580.982	83
581.193	96
581.403	81
581.614	104
581.825	98
582.035	91
582.246	81
582.456	85
582.667	100
582.877	83
583.087	85
