Data from Uncirc_1983_H10_HRD10591_00028.txt Node
Date: Wed Jan 03 12:25:37 EST 2024
User: Yrep
Spectrometer: HR+D1059
Trigger mode: 1
Integration Time (sec): 1.000000E-1
Scans to average: 1
Electric dark correction enabled: true
Nonlinearity correction enabled: false
Boxcar width: 0
XAxis mode: Wavelengths
Number of Pixels in Spectrum: 2048
>>>>>Begin Spectral Data<<<<<
223.165	-6.81
223.4	-6.81
223.635	-6.81
223.869	-13.81
224.104	-14.81
224.338	-24.81
224.573	-22.81
224.808	-15.81
225.042	-2.81
225.277	-8.81
225.511	-9.81
225.746	6.19
225.98	3.19
226.215	11.19
226.449	6.19
226.683	27.19
226.918	28.19
227.152	38.19
227.387	40.19
227.621	56.19
227.856	51.19
228.09	37.19
228.324	50.19
228.559	67.19
228.793	58.19
229.027	70.19
229.262	70.19
229.496	64.19
229.73	90.19
229.964	93.19
230.199	70.19
230.433	75.19
230.667	66.19
230.901	96.19
231.136	89.19
231.37	94.19
231.604	83.19
231.838	81.19
232.072	91.19
232.306	77.19
232.541	85.19
232.775	71.19
233.009	73.19
233.243	89.19
233.477	80.19
233.711	81.19
233.945	87.19
234.179	72.19
234.413	74.19
234.647	82.19
234.881	73.19
235.115	82.19
235.349	67.19
235.583	67.19
235.817	73.19
236.051	95.19
236.285	84.19
236.519	79.19
236.753	82.19
236.987	76.19
237.221	89.19
237.455	84.19
237.689	80.19
237.922	84.19
238.156	62.19
238.39	58.19
238.624	81.19
238.858	89.19
239.091	83.19
239.325	76.19
239.559	81.19
239.793	74.19
240.027	70.19
240.26	75.19
240.494	83.19
240.728	70.19
240.961	88.19
241.195	80.19
241.429	63.19
241.662	75.19
241.896	72.19
242.13	84.19
242.363	70.19
242.597	64.19
242.83	77.19
243.064	82.19
243.298	85.19
243.531	80.19
243.765	76.19
243.998	66.19
244.232	83.19
244.465	85.19
244.699	77.19
244.932	71.19
245.166	74.19
245.399	76.19
245.633	74.19
245.866	90.19
246.099	79.19
246.333	77.19
246.566	87.19
246.8	83.19
247.033	79.19
247.266	90.19
247.5	83.19
247.733	73.19
247.966	91.19
248.2	71.19
248.433	84.19
248.666	88.19
248.899	92.19
249.133	79.19
249.366	89.19
249.599	84.19
249.832	83.19
250.066	73.19
250.299	88.19
250.532	73.19
250.765	73.19
250.998	73.19
251.231	89.19
251.465	70.19
251.698	88.19
251.931	63.19
252.164	77.19
252.397	78.19
252.63	74.19
252.863	85.19
253.096	95.19
253.329	92.19
253.562	97.19
253.795	91.19
254.028	84.19
254.261	89.19
254.494	82.19
254.727	93.19
254.96	99.19
255.193	70.19
255.426	77.19
255.659	92.19
255.892	95.19
256.124	76.19
256.357	85.19
256.59	75.19
256.823	73.19
257.056	82.19
257.289	83.19
257.521	79.19
257.754	80.19
257.987	76.19
258.22	85.19
258.452	80.19
258.685	84.19
258.918	70.19
259.151	79.19
259.383	76.19
259.616	88.19
259.849	75.19
260.081	71.19
260.314	90.19
260.547	77.19
260.779	79.19
261.012	84.19
261.244	86.19
261.477	76.19
261.71	87.19
261.942	95.19
262.175	100.19
262.407	93.19
262.64	94.19
262.872	80.19
263.105	83.19
263.337	89.19
263.57	75.19
263.802	71.19
264.035	74.19
264.267	86.19
264.499	81.19
264.732	93.19
264.964	80.19
265.197	74.19
265.429	91.19
265.661	70.19
265.894	74.19
266.126	78.19
266.358	96.19
266.591	77.19
266.823	79.19
267.055	87.19
267.287	87.19
267.52	87.19
267.752	87.19
267.984	93.19
268.216	84.19
268.448	84.19
268.681	84.19
268.913	80.19
269.145	89.19
269.377	85.19
269.609	75.19
269.841	60.19
270.073	73.19
270.306	77.19
270.538	82.19
270.77	75.19
271.002	83.19
271.234	76.19
271.466	74.19
271.698	70.19
271.93	84.19
272.162	69.19
272.394	74.19
272.626	89.19
272.858	85.19
273.09	90.19
273.322	78.19
273.553	79.19
273.785	99.19
274.017	81.19
274.249	75.19
274.481	83.19
274.713	69.19
274.945	81.19
275.176	79.19
275.408	70.19
275.64	87.19
275.872	84.19
276.104	82.19
276.335	85.19
276.567	91.19
276.799	108.19
277.031	91.19
277.262	94.19
277.494	101.19
277.726	93.19
277.957	79.19
278.189	68.19
278.421	77.19
278.652	83.19
278.884	86.19
279.115	102.19
279.347	95.19
279.579	86.19
279.81	86.19
280.042	88.19
280.273	76.19
280.505	81.19
280.736	97.19
280.968	80.19
281.199	95.19
281.431	81.19
281.662	82.19
281.894	91.19
282.125	93.19
282.356	92.19
282.588	112.19
282.819	91.19
283.051	93.19
283.282	90.19
283.513	91.19
283.745	101.19
283.976	83.19
284.207	91.19
284.439	74.19
284.67	91.19
284.901	77.19
285.132	70.19
285.364	87.19
285.595	100.19
285.826	84.19
286.057	84.19
286.288	76.19
286.52	85.19
286.751	104.19
286.982	84.19
287.213	71.19
287.444	75.19
287.675	100.19
287.906	84.19
288.138	84.19
288.369	84.19
288.6	82.19
288.831	84.19
289.062	97.19
289.293	82.19
289.524	82.19
289.755	91.19
289.986	80.19
290.217	85.19
290.448	93.19
290.679	90.19
290.91	93.19
291.141	96.19
291.371	91.19
291.602	71.19
291.833	84.19
292.064	88.19
292.295	82.19
292.526	85.19
292.757	89.19
292.987	96.19
293.218	91.19
293.449	83.19
293.68	93.19
293.91	74.19
294.141	83.19
294.372	93.19
294.603	92.19
294.833	85.19
295.064	79.19
295.295	89.19
295.525	95.19
295.756	97.19
295.987	98.19
296.217	130.19
296.448	109.19
296.679	80.19
296.909	97.19
297.14	88.19
297.37	95.19
297.601	92.19
297.831	95.19
298.062	93.19
298.292	79.19
298.523	79.19
298.753	92.19
298.984	91.19
299.214	88.19
299.445	92.19
299.675	97.19
299.905	89.19
300.136	76.19
300.366	95.19
300.597	90.19
300.827	86.19
301.057	114.19
301.288	99.19
301.518	97.19
301.748	93.19
301.979	106.19
302.209	77.19
302.439	83.19
302.669	84.19
302.9	86.19
303.13	100.19
303.36	86.19
303.59	102.19
303.82	103.19
304.051	99.19
304.281	85.19
304.511	97.19
304.741	71.19
304.971	90.19
305.201	94.19
305.431	79.19
305.661	94.19
305.891	83.19
306.121	87.19
306.352	105.19
306.582	103.19
306.812	75.19
307.042	84.19
307.272	72.19
307.502	109.19
307.731	93.19
307.961	98.19
308.191	89.19
308.421	101.19
308.651	103.19
308.881	97.19
309.111	97.19
309.341	107.19
309.571	85.19
309.8	98.19
310.03	79.19
310.26	86.19
310.49	85.19
310.72	99.19
310.949	88.19
311.179	83.19
311.409	93.19
311.639	91.19
311.868	98.19
312.098	89.19
312.328	91.19
312.557	100.19
312.787	89.19
313.017	98.19
313.246	91.19
313.476	100.19
313.706	89.19
313.935	97.19
314.165	86.19
314.394	91.19
314.624	87.19
314.853	82.19
315.083	87.19
315.312	81.19
315.542	99.19
315.771	90.19
316.001	93.19
316.23	99.19
316.46	83.19
316.689	84.19
316.919	96.19
317.148	88.19
317.377	88.19
317.607	74.19
317.836	84.19
318.065	87.19
318.295	85.19
318.524	87.19
318.753	75.19
318.983	76.19
319.212	98.19
319.441	98.19
319.67	102.19
319.9	90.19
320.129	92.19
320.358	97.19
320.587	92.19
320.816	102.19
321.046	103.19
321.275	96.19
321.504	104.19
321.733	109.19
321.962	92.19
322.191	84.19
322.42	107.19
322.649	112.19
322.878	99.19
323.108	115.19
323.337	111.19
323.566	109.19
323.795	134.19
324.024	182.19
324.253	321.19
324.482	680.19
324.71	1361.19
324.939	1818.19
325.168	669.19
325.397	229.19
325.626	143.19
325.855	122.19
326.084	104.19
326.313	120.19
326.542	146.19
326.77	194.19
326.999	379.19
327.228	783.19
327.457	1435.19
327.686	1093.19
327.914	319.19
328.143	188.19
328.372	138.19
328.6	124.19
328.829	109.19
329.058	100.19
329.287	106.19
329.515	97.19
329.744	95.19
329.972	115.19
330.201	102.19
330.43	101.19
330.658	92.19
330.887	111.19
331.115	96.19
331.344	100.19
331.572	95.19
331.801	86.19
332.03	104.19
332.258	106.19
332.486	83.19
332.715	95.19
332.943	100.19
333.172	80.19
333.4	80.19
333.629	97.19
333.857	117.19
334.085	101.19
334.314	87.19
334.542	88.19
334.771	95.19
334.999	89.19
335.227	80.19
335.455	89.19
335.684	107.19
335.912	97.19
336.14	104.19
336.369	103.19
336.597	102.19
336.825	105.19
337.053	95.19
337.281	89.19
337.51	88.19
337.738	105.19
337.966	95.19
338.194	93.19
338.422	99.19
338.65	97.19
338.878	83.19
339.106	93.19
339.334	93.19
339.562	89.19
339.79	88.19
340.018	98.19
340.246	83.19
340.474	101.19
340.702	96.19
340.93	98.19
341.158	93.19
341.386	83.19
341.614	84.19
341.842	108.19
342.07	99.19
342.298	90.19
342.526	88.19
342.754	89.19
342.981	93.19
343.209	95.19
343.437	94.19
343.665	88.19
343.893	96.19
344.12	93.19
344.348	99.19
344.576	87.19
344.804	92.19
345.031	87.19
345.259	97.19
345.487	78.19
345.714	83.19
345.942	89.19
346.17	89.19
346.397	83.19
346.625	81.19
346.853	92.19
347.08	84.19
347.308	88.19
347.535	86.19
347.763	89.19
347.99	104.19
348.218	101.19
348.445	93.19
348.673	101.19
348.9	92.19
349.128	85.19
349.355	80.19
349.583	84.19
349.81	96.19
350.037	108.19
350.265	106.19
350.492	90.19
350.72	90.19
350.947	87.19
351.174	101.19
351.402	118.19
351.629	87.19
351.856	109.19
352.083	107.19
352.311	101.19
352.538	98.19
352.765	100.19
352.992	116.19
353.22	108.19
353.447	108.19
353.674	102.19
353.901	95.19
354.128	96.19
354.355	100.19
354.583	105.19
354.81	101.19
355.037	96.19
355.264	97.19
355.491	81.19
355.718	92.19
355.945	113.19
356.172	100.19
356.399	100.19
356.626	97.19
356.853	91.19
357.08	92.19
357.307	95.19
357.534	86.19
357.761	98.19
357.988	100.19
358.215	95.19
358.441	89.19
358.668	99.19
358.895	97.19
359.122	84.19
359.349	82.19
359.576	96.19
359.802	99.19
360.029	106.19
360.256	105.19
360.483	95.19
360.709	98.19
360.936	79.19
361.163	92.19
361.39	93.19
361.616	95.19
361.843	97.19
362.07	93.19
362.296	78.19
362.523	91.19
362.749	90.19
362.976	85.19
363.203	106.19
363.429	82.19
363.656	79.19
363.882	92.19
364.109	81.19
364.335	76.19
364.562	95.19
364.788	83.19
365.015	94.19
365.241	85.19
365.468	107.19
365.694	92.19
365.92	104.19
366.147	90.19
366.373	95.19
366.599	87.19
366.826	91.19
367.052	92.19
367.278	79.19
367.505	69.19
367.731	82.19
367.957	90.19
368.184	92.19
368.41	96.19
368.636	114.19
368.862	105.19
369.089	95.19
369.315	92.19
369.541	79.19
369.767	82.19
369.993	90.19
370.219	103.19
370.445	87.19
370.672	83.19
370.898	72.19
371.124	87.19
371.35	71.19
371.576	88.19
371.802	85.19
372.028	100.19
372.254	107.19
372.48	95.19
372.706	99.19
372.932	83.19
373.158	65.19
373.384	85.19
373.61	89.19
373.835	113.19
374.061	95.19
374.287	99.19
374.513	72.19
374.739	79.19
374.965	89.19
375.191	89.19
375.416	80.19
375.642	89.19
375.868	100.19
376.094	85.19
376.319	90.19
376.545	87.19
376.771	91.19
376.997	78.19
377.222	97.19
377.448	91.19
377.674	92.19
377.899	82.19
378.125	97.19
378.35	84.19
378.576	84.19
378.802	76.19
379.027	90.19
379.253	87.19
379.478	79.19
379.704	84.19
379.929	99.19
380.155	82.19
380.38	101.19
380.606	100.19
380.831	91.19
381.057	98.19
381.282	98.19
381.507	100.19
381.733	97.19
381.958	80.19
382.184	109.19
382.409	88.19
382.634	92.19
382.86	102.19
383.085	96.19
383.31	101.19
383.535	113.19
383.761	109.19
383.986	91.19
384.211	92.19
384.436	85.19
384.662	105.19
384.887	107.19
385.112	95.19
385.337	103.19
385.562	103.19
385.787	115.19
386.013	102.19
386.238	103.19
386.463	122.19
386.688	106.19
386.913	99.19
387.138	105.19
387.363	89.19
387.588	89.19
387.813	109.19
388.038	114.19
388.263	118.19
388.488	112.19
388.713	96.19
388.938	102.19
389.163	92.19
389.387	100.19
389.612	87.19
389.837	104.19
390.062	106.19
390.287	89.19
390.512	78.19
390.736	96.19
390.961	88.19
391.186	91.19
391.411	93.19
391.636	80.19
391.86	72.19
392.085	80.19
392.31	83.19
392.534	88.19
392.759	87.19
392.984	77.19
393.208	90.19
393.433	111.19
393.658	91.19
393.882	85.19
394.107	81.19
394.331	88.19
394.556	92.19
394.78	80.19
395.005	83.19
395.229	79.19
395.454	92.19
395.678	95.19
395.903	79.19
396.127	94.19
396.352	96.19
396.576	93.19
396.801	97.19
397.025	99.19
397.249	96.19
397.474	98.19
397.698	89.19
397.922	79.19
398.147	93.19
398.371	79.19
398.595	84.19
398.82	76.19
399.044	80.19
399.268	81.19
399.492	91.19
399.717	90.19
399.941	95.19
400.165	96.19
400.389	101.19
400.613	86.19
400.837	101.19
401.062	85.19
401.286	105.19
401.51	87.19
401.734	111.19
401.958	91.19
402.182	116.19
402.406	138.19
402.63	100.19
402.854	83.19
403.078	88.19
403.302	87.19
403.526	90.19
403.75	84.19
403.974	92.19
404.198	95.19
404.422	87.19
404.645	84.19
404.869	104.19
405.093	105.19
405.317	104.19
405.541	99.19
405.765	97.19
405.988	121.19
406.212	156.19
406.436	195.19
406.66	130.19
406.883	95.19
407.107	84.19
407.331	90.19
407.555	102.19
407.778	87.19
408.002	91.19
408.226	93.19
408.449	88.19
408.673	77.19
408.896	89.19
409.12	95.19
409.344	100.19
409.567	86.19
409.791	77.19
410.014	85.19
410.238	102.19
410.461	85.19
410.685	97.19
410.908	105.19
411.132	100.19
411.355	93.19
411.578	93.19
411.802	82.19
412.025	93.19
412.249	95.19
412.472	83.19
412.695	79.19
412.919	94.19
413.142	81.19
413.365	95.19
413.589	97.19
413.812	93.19
414.035	96.19
414.258	82.19
414.482	92.19
414.705	90.19
414.928	94.19
415.151	95.19
415.374	94.19
415.597	83.19
415.821	95.19
416.044	83.19
416.267	84.19
416.49	95.19
416.713	102.19
416.936	85.19
417.159	90.19
417.382	88.19
417.605	90.19
417.828	89.19
418.051	82.19
418.274	94.19
418.497	86.19
418.72	89.19
418.943	83.19
419.166	83.19
419.389	95.19
419.611	104.19
419.834	87.19
420.057	91.19
420.28	83.19
420.503	77.19
420.726	62.19
420.948	79.19
421.171	97.19
421.394	99.19
421.617	85.19
421.839	100.19
422.062	84.19
422.285	79.19
422.507	97.19
422.73	98.19
422.953	97.19
423.175	93.19
423.398	93.19
423.621	89.19
423.843	77.19
424.066	91.19
424.288	82.19
424.511	77.19
424.733	81.19
424.956	89.19
425.178	99.19
425.401	99.19
425.623	89.19
425.846	76.19
426.068	84.19
426.291	78.19
426.513	96.19
426.735	93.19
426.958	102.19
427.18	110.19
427.402	124.19
427.625	148.19
427.847	124.19
428.069	91.19
428.292	85.19
428.514	89.19
428.736	75.19
428.958	93.19
429.181	80.19
429.403	88.19
429.625	92.19
429.847	96.19
430.069	99.19
430.292	97.19
430.514	108.19
430.736	102.19
430.958	88.19
431.18	89.19
431.402	83.19
431.624	80.19
431.846	79.19
432.068	86.19
432.29	93.19
432.512	85.19
432.734	79.19
432.956	96.19
433.178	99.19
433.4	87.19
433.622	90.19
433.844	97.19
434.066	92.19
434.287	77.19
434.509	91.19
434.731	87.19
434.953	99.19
435.175	105.19
435.397	106.19
435.618	86.19
435.84	108.19
436.062	108.19
436.284	106.19
436.505	109.19
436.727	92.19
436.949	93.19
437.17	100.19
437.392	90.19
437.614	100.19
437.835	104.19
438.057	107.19
438.278	103.19
438.5	92.19
438.721	100.19
438.943	89.19
439.165	96.19
439.386	93.19
439.608	97.19
439.829	102.19
440.05	125.19
440.272	129.19
440.493	108.19
440.715	96.19
440.936	88.19
441.158	96.19
441.379	84.19
441.6	95.19
441.822	94.19
442.043	87.19
442.264	84.19
442.486	75.19
442.707	78.19
442.928	100.19
443.149	114.19
443.371	114.19
443.592	108.19
443.813	109.19
444.034	104.19
444.255	88.19
444.476	90.19
444.698	98.19
444.919	86.19
445.14	124.19
445.361	105.19
445.582	112.19
445.803	135.19
446.024	133.19
446.245	110.19
446.466	99.19
446.687	87.19
446.908	82.19
447.129	72.19
447.35	75.19
447.571	84.19
447.792	89.19
448.013	92.19
448.234	93.19
448.455	95.19
448.675	104.19
448.896	121.19
449.117	101.19
449.338	81.19
449.559	128.19
449.779	116.19
450	103.19
450.221	93.19
450.442	81.19
450.662	86.19
450.883	101.19
451.104	112.19
451.324	89.19
451.545	84.19
451.766	88.19
451.986	81.19
452.207	87.19
452.428	84.19
452.648	106.19
452.869	102.19
453.089	108.19
453.31	119.19
453.53	93.19
453.751	99.19
453.971	107.19
454.192	103.19
454.412	90.19
454.633	79.19
454.853	91.19
455.073	92.19
455.294	99.19
455.514	103.19
455.734	91.19
455.955	86.19
456.175	83.19
456.395	84.19
456.616	84.19
456.836	83.19
457.056	97.19
457.276	84.19
457.497	85.19
457.717	84.19
457.937	93.19
458.157	85.19
458.377	84.19
458.598	122.19
458.818	122.19
459.038	144.19
459.258	112.19
459.478	96.19
459.698	79.19
459.918	81.19
460.138	96.19
460.358	81.19
460.578	90.19
460.798	97.19
461.018	79.19
461.238	97.19
461.458	94.19
461.678	69.19
461.898	92.19
462.118	94.19
462.338	76.19
462.558	96.19
462.777	87.19
462.997	86.19
463.217	75.19
463.437	98.19
463.657	66.19
463.876	82.19
464.096	91.19
464.316	96.19
464.536	100.19
464.755	92.19
464.975	105.19
465.195	121.19
465.414	148.19
465.634	95.19
465.854	85.19
466.073	90.19
466.293	91.19
466.512	91.19
466.732	91.19
466.951	97.19
467.171	91.19
467.391	96.19
467.61	79.19
467.829	90.19
468.049	99.19
468.268	88.19
468.488	91.19
468.707	83.19
468.927	84.19
469.146	87.19
469.365	84.19
469.585	91.19
469.804	81.19
470.023	85.19
470.243	95.19
470.462	83.19
470.681	89.19
470.901	83.19
471.12	80.19
471.339	88.19
471.558	96.19
471.777	93.19
471.997	93.19
472.216	96.19
472.435	85.19
472.654	99.19
472.873	77.19
473.092	92.19
473.311	85.19
473.53	71.19
473.749	100.19
473.968	97.19
474.187	90.19
474.406	83.19
474.625	77.19
474.844	95.19
475.063	88.19
475.282	77.19
475.501	84.19
475.72	88.19
475.939	100.19
476.158	96.19
476.377	86.19
476.596	84.19
476.814	83.19
477.033	87.19
477.252	92.19
477.471	79.19
477.69	100.19
477.908	91.19
478.127	96.19
478.346	90.19
478.564	72.19
478.783	92.19
479.002	75.19
479.22	90.19
479.439	107.19
479.658	98.19
479.876	90.19
480.095	91.19
480.313	108.19
480.532	87.19
480.751	83.19
480.969	98.19
481.188	123.19
481.406	97.19
481.624	90.19
481.843	101.19
482.061	91.19
482.28	94.19
482.498	93.19
482.717	81.19
482.935	90.19
483.153	98.19
483.372	77.19
483.59	84.19
483.808	95.19
484.027	96.19
484.245	94.19
484.463	90.19
484.681	96.19
484.9	79.19
485.118	97.19
485.336	90.19
485.554	99.19
485.772	109.19
485.99	101.19
486.209	106.19
486.427	102.19
486.645	99.19
486.863	114.19
487.081	92.19
487.299	92.19
487.517	84.19
487.735	82.19
487.953	102.19
488.171	73.19
488.389	87.19
488.607	98.19
488.825	82.19
489.043	73.19
489.261	81.19
489.479	91.19
489.696	99.19
489.914	92.19
490.132	105.19
490.35	87.19
490.568	83.19
490.786	97.19
491.003	76.19
491.221	84.19
491.439	88.19
491.657	98.19
491.874	99.19
492.092	100.19
492.31	96.19
492.527	81.19
492.745	96.19
492.963	86.19
493.18	87.19
493.398	85.19
493.615	87.19
493.833	93.19
494.05	79.19
494.268	97.19
494.485	101.19
494.703	97.19
494.92	88.19
495.138	80.19
495.355	83.19
495.573	101.19
495.79	88.19
496.008	83.19
496.225	85.19
496.442	87.19
496.66	91.19
496.877	90.19
497.094	98.19
497.312	83.19
497.529	88.19
497.746	86.19
497.963	93.19
498.181	95.19
498.398	83.19
498.615	108.19
498.832	98.19
499.049	89.19
499.267	92.19
499.484	92.19
499.701	87.19
499.918	105.19
500.135	92.19
500.352	90.19
500.569	108.19
500.786	92.19
501.003	88.19
501.22	91.19
501.437	99.19
501.654	102.19
501.871	100.19
502.088	87.19
502.305	102.19
502.522	87.19
502.739	100.19
502.956	96.19
503.172	96.19
503.389	100.19
503.606	95.19
503.823	85.19
504.04	83.19
504.256	86.19
504.473	100.19
504.69	87.19
504.907	99.19
505.123	77.19
505.34	87.19
505.557	83.19
505.773	87.19
505.99	74.19
506.207	94.19
506.423	91.19
506.64	95.19
506.856	86.19
507.073	105.19
507.289	84.19
507.506	86.19
507.722	104.19
507.939	107.19
508.155	88.19
508.372	83.19
508.588	80.19
508.805	97.19
509.021	103.19
509.238	107.19
509.454	90.19
509.67	92.19
509.887	101.19
510.103	132.19
510.319	188.19
510.536	633.19
510.752	1873.19
510.968	529.19
511.184	124.19
511.401	99.19
511.617	94.19
511.833	93.19
512.049	87.19
512.265	92.19
512.481	97.19
512.698	90.19
512.914	92.19
513.13	101.19
513.346	93.19
513.562	85.19
513.778	99.19
513.994	97.19
514.21	91.19
514.426	118.19
514.642	126.19
514.858	115.19
515.074	156.19
515.29	367.19
515.506	1109.19
515.721	404.19
515.937	134.19
516.153	101.19
516.369	108.19
