Data from Uncirc_1983_H10_HRD10591_00057.txt Node
Date: Wed Jan 03 12:25:43 EST 2024
User: Yrep
Spectrometer: HR+D1059
Trigger mode: 1
Integration Time (sec): 1.000000E-1
Scans to average: 1
Electric dark correction enabled: true
Nonlinearity correction enabled: false
Boxcar width: 0
XAxis mode: Wavelengths
Number of Pixels in Spectrum: 2048
>>>>>Begin Spectral Data<<<<<
223.165	-2.88
223.4	-2.88
223.635	-2.88
223.869	-23.88
224.104	-23.88
224.338	-19.88
224.573	-5.88
224.808	-14.88
225.042	-20.88
225.277	-4.88
225.511	3.12
225.746	8.12
225.98	5.12
226.215	22.12
226.449	16.12
226.683	22.12
226.918	24.12
227.152	16.12
227.387	34.12
227.621	30.12
227.856	55.12
228.09	41.12
228.324	49.12
228.559	63.12
228.793	64.12
229.027	71.12
229.262	72.12
229.496	69.12
229.73	70.12
229.964	90.12
230.199	70.12
230.433	75.12
230.667	76.12
230.901	84.12
231.136	87.12
231.37	68.12
231.604	72.12
231.838	81.12
232.072	85.12
232.306	92.12
232.541	95.12
232.775	80.12
233.009	80.12
233.243	76.12
233.477	63.12
233.711	92.12
233.945	91.12
234.179	86.12
234.413	88.12
234.647	96.12
234.881	94.12
235.115	72.12
235.349	84.12
235.583	80.12
235.817	82.12
236.051	73.12
236.285	83.12
236.519	90.12
236.753	76.12
236.987	72.12
237.221	72.12
237.455	84.12
237.689	92.12
237.922	92.12
238.156	84.12
238.39	63.12
238.624	76.12
238.858	73.12
239.091	79.12
239.325	91.12
239.559	91.12
239.793	79.12
240.027	76.12
240.26	83.12
240.494	85.12
240.728	84.12
240.961	95.12
241.195	90.12
241.429	66.12
241.662	76.12
241.896	90.12
242.13	84.12
242.363	67.12
242.597	74.12
242.83	82.12
243.064	92.12
243.298	86.12
243.531	85.12
243.765	85.12
243.998	83.12
244.232	83.12
244.465	95.12
244.699	80.12
244.932	70.12
245.166	84.12
245.399	70.12
245.633	65.12
245.866	72.12
246.099	86.12
246.333	85.12
246.566	87.12
246.8	99.12
247.033	83.12
247.266	78.12
247.5	75.12
247.733	89.12
247.966	77.12
248.2	82.12
248.433	88.12
248.666	91.12
248.899	87.12
249.133	84.12
249.366	105.12
249.599	92.12
249.832	82.12
250.066	79.12
250.299	82.12
250.532	84.12
250.765	80.12
250.998	79.12
251.231	68.12
251.465	91.12
251.698	88.12
251.931	79.12
252.164	75.12
252.397	93.12
252.63	92.12
252.863	83.12
253.096	85.12
253.329	82.12
253.562	85.12
253.795	86.12
254.028	87.12
254.261	90.12
254.494	78.12
254.727	87.12
254.96	85.12
255.193	95.12
255.426	77.12
255.659	73.12
255.892	77.12
256.124	88.12
256.357	92.12
256.59	68.12
256.823	71.12
257.056	78.12
257.289	85.12
257.521	89.12
257.754	86.12
257.987	91.12
258.22	89.12
258.452	101.12
258.685	91.12
258.918	87.12
259.151	95.12
259.383	92.12
259.616	73.12
259.849	86.12
260.081	94.12
260.314	79.12
260.547	86.12
260.779	94.12
261.012	84.12
261.244	76.12
261.477	100.12
261.71	102.12
261.942	101.12
262.175	97.12
262.407	87.12
262.64	95.12
262.872	87.12
263.105	100.12
263.337	93.12
263.57	82.12
263.802	73.12
264.035	93.12
264.267	86.12
264.499	83.12
264.732	83.12
264.964	71.12
265.197	95.12
265.429	88.12
265.661	93.12
265.894	79.12
266.126	88.12
266.358	87.12
266.591	78.12
266.823	75.12
267.055	88.12
267.287	92.12
267.52	99.12
267.752	96.12
267.984	76.12
268.216	77.12
268.448	79.12
268.681	84.12
268.913	86.12
269.145	101.12
269.377	93.12
269.609	100.12
269.841	82.12
270.073	84.12
270.306	90.12
270.538	77.12
270.77	77.12
271.002	90.12
271.234	76.12
271.466	77.12
271.698	84.12
271.93	92.12
272.162	95.12
272.394	82.12
272.626	85.12
272.858	101.12
273.09	98.12
273.322	96.12
273.553	95.12
273.785	84.12
274.017	82.12
274.249	85.12
274.481	90.12
274.713	87.12
274.945	90.12
275.176	82.12
275.408	86.12
275.64	87.12
275.872	94.12
276.104	95.12
276.335	89.12
276.567	86.12
276.799	114.12
277.031	110.12
277.262	82.12
277.494	93.12
277.726	91.12
277.957	87.12
278.189	89.12
278.421	79.12
278.652	97.12
278.884	88.12
279.115	96.12
279.347	90.12
279.579	92.12
279.81	86.12
280.042	91.12
280.273	88.12
280.505	92.12
280.736	93.12
280.968	76.12
281.199	81.12
281.431	100.12
281.662	95.12
281.894	98.12
282.125	94.12
282.356	113.12
282.588	128.12
282.819	105.12
283.051	82.12
283.282	90.12
283.513	98.12
283.745	86.12
283.976	90.12
284.207	82.12
284.439	93.12
284.67	100.12
284.901	75.12
285.132	79.12
285.364	96.12
285.595	93.12
285.826	90.12
286.057	94.12
286.288	85.12
286.52	96.12
286.751	86.12
286.982	71.12
287.213	93.12
287.444	82.12
287.675	67.12
287.906	93.12
288.138	90.12
288.369	98.12
288.6	86.12
288.831	91.12
289.062	89.12
289.293	90.12
289.524	76.12
289.755	79.12
289.986	88.12
290.217	102.12
290.448	92.12
290.679	86.12
290.91	94.12
291.141	93.12
291.371	82.12
291.602	75.12
291.833	89.12
292.064	102.12
292.295	94.12
292.526	102.12
292.757	88.12
292.987	100.12
293.218	96.12
293.449	89.12
293.68	82.12
293.91	89.12
294.141	79.12
294.372	94.12
294.603	86.12
294.833	92.12
295.064	101.12
295.295	101.12
295.525	96.12
295.756	95.12
295.987	110.12
296.217	107.12
296.448	119.12
296.679	98.12
296.909	84.12
297.14	93.12
297.37	107.12
297.601	98.12
297.831	89.12
298.062	106.12
298.292	93.12
298.523	98.12
298.753	82.12
298.984	83.12
299.214	84.12
299.445	87.12
299.675	105.12
299.905	97.12
300.136	85.12
300.366	86.12
300.597	94.12
300.827	101.12
301.057	111.12
301.288	111.12
301.518	98.12
301.748	91.12
301.979	90.12
302.209	90.12
302.439	85.12
302.669	98.12
302.9	102.12
303.13	89.12
303.36	97.12
303.59	96.12
303.82	106.12
304.051	90.12
304.281	100.12
304.511	101.12
304.741	91.12
304.971	78.12
305.201	78.12
305.431	89.12
305.661	95.12
305.891	97.12
306.121	92.12
306.352	96.12
306.582	106.12
306.812	104.12
307.042	94.12
307.272	83.12
307.502	98.12
307.731	91.12
307.961	84.12
308.191	86.12
308.421	92.12
308.651	94.12
308.881	95.12
309.111	87.12
309.341	95.12
309.571	108.12
309.8	98.12
310.03	101.12
310.26	99.12
310.49	94.12
310.72	105.12
310.949	112.12
311.179	100.12
311.409	111.12
311.639	88.12
311.868	94.12
312.098	92.12
312.328	91.12
312.557	115.12
312.787	117.12
313.017	94.12
313.246	93.12
313.476	94.12
313.706	100.12
313.935	102.12
314.165	100.12
314.394	89.12
314.624	103.12
314.853	95.12
315.083	96.12
315.312	85.12
315.542	92.12
315.771	74.12
316.001	98.12
316.23	82.12
316.46	100.12
316.689	86.12
316.919	96.12
317.148	75.12
317.377	79.12
317.607	91.12
317.836	101.12
318.065	104.12
318.295	91.12
318.524	84.12
318.753	95.12
318.983	88.12
319.212	97.12
319.441	112.12
319.67	104.12
319.9	94.12
320.129	106.12
320.358	105.12
320.587	84.12
320.816	105.12
321.046	107.12
321.275	91.12
321.504	99.12
321.733	89.12
321.962	93.12
322.191	103.12
322.42	98.12
322.649	93.12
322.878	102.12
323.108	112.12
323.337	111.12
323.566	131.12
323.795	151.12
324.024	187.12
324.253	347.12
324.482	738.12
324.71	1510.12
324.939	1979.12
325.168	740.12
325.397	233.12
325.626	130.12
325.855	137.12
326.084	123.12
326.313	133.12
326.542	144.12
326.77	212.12
326.999	398.12
327.228	846.12
327.457	1561.12
327.686	1250.12
327.914	350.12
328.143	186.12
328.372	150.12
328.6	131.12
328.829	113.12
329.058	131.12
329.287	124.12
329.515	98.12
329.744	92.12
329.972	100.12
330.201	107.12
330.43	112.12
330.658	130.12
330.887	122.12
331.115	126.12
331.344	99.12
331.572	90.12
331.801	106.12
332.03	103.12
332.258	100.12
332.486	92.12
332.715	94.12
332.943	102.12
333.172	95.12
333.4	101.12
333.629	110.12
333.857	117.12
334.085	106.12
334.314	110.12
334.542	113.12
334.771	117.12
334.999	105.12
335.227	94.12
335.455	103.12
335.684	86.12
335.912	107.12
336.14	94.12
336.369	100.12
336.597	86.12
336.825	110.12
337.053	111.12
337.281	104.12
337.51	89.12
337.738	94.12
337.966	106.12
338.194	94.12
338.422	87.12
338.65	102.12
338.878	76.12
339.106	75.12
339.334	87.12
339.562	84.12
339.79	102.12
340.018	88.12
340.246	95.12
340.474	91.12
340.702	98.12
340.93	96.12
341.158	91.12
341.386	92.12
341.614	96.12
341.842	100.12
342.07	96.12
342.298	89.12
342.526	89.12
342.754	98.12
342.981	92.12
343.209	89.12
343.437	94.12
343.665	104.12
343.893	101.12
344.12	104.12
344.348	99.12
344.576	94.12
344.804	75.12
345.031	95.12
345.259	95.12
345.487	97.12
345.714	102.12
345.942	91.12
346.17	110.12
346.397	99.12
346.625	84.12
346.853	88.12
347.08	94.12
347.308	95.12
347.535	101.12
347.763	102.12
347.99	87.12
348.218	90.12
348.445	103.12
348.673	95.12
348.9	99.12
349.128	89.12
349.355	83.12
349.583	89.12
349.81	77.12
350.037	84.12
350.265	90.12
350.492	87.12
350.72	95.12
350.947	95.12
351.174	105.12
351.402	113.12
351.629	107.12
351.856	105.12
352.083	104.12
352.311	101.12
352.538	101.12
352.765	121.12
352.992	111.12
353.22	103.12
353.447	89.12
353.674	98.12
353.901	93.12
354.128	96.12
354.355	95.12
354.583	94.12
354.81	96.12
355.037	95.12
355.264	88.12
355.491	103.12
355.718	83.12
355.945	102.12
356.172	98.12
356.399	88.12
356.626	92.12
356.853	93.12
357.08	86.12
357.307	97.12
357.534	96.12
357.761	93.12
357.988	98.12
358.215	97.12
358.441	78.12
358.668	71.12
358.895	102.12
359.122	89.12
359.349	85.12
359.576	79.12
359.802	101.12
360.029	107.12
360.256	109.12
360.483	96.12
360.709	79.12
360.936	100.12
361.163	107.12
361.39	87.12
361.616	93.12
361.843	93.12
362.07	91.12
362.296	101.12
362.523	95.12
362.749	102.12
362.976	105.12
363.203	75.12
363.429	79.12
363.656	89.12
363.882	89.12
364.109	86.12
364.335	96.12
364.562	92.12
364.788	90.12
365.015	101.12
365.241	93.12
365.468	92.12
365.694	106.12
365.92	95.12
366.147	84.12
366.373	102.12
366.599	96.12
366.826	100.12
367.052	84.12
367.278	99.12
367.505	94.12
367.731	91.12
367.957	87.12
368.184	89.12
368.41	87.12
368.636	92.12
368.862	115.12
369.089	104.12
369.315	93.12
369.541	84.12
369.767	84.12
369.993	91.12
370.219	92.12
370.445	93.12
370.672	76.12
370.898	84.12
371.124	90.12
371.35	87.12
371.576	78.12
371.802	78.12
372.028	98.12
372.254	98.12
372.48	94.12
372.706	95.12
372.932	95.12
373.158	103.12
373.384	111.12
373.61	93.12
373.835	95.12
374.061	82.12
374.287	87.12
374.513	96.12
374.739	90.12
374.965	89.12
375.191	99.12
375.416	94.12
375.642	98.12
375.868	102.12
376.094	99.12
376.319	97.12
376.545	85.12
376.771	99.12
376.997	92.12
377.222	100.12
377.448	100.12
377.674	94.12
377.899	91.12
378.125	90.12
378.35	111.12
378.576	95.12
378.802	93.12
379.027	91.12
379.253	96.12
379.478	88.12
379.704	92.12
379.929	93.12
380.155	82.12
380.38	86.12
380.606	90.12
380.831	90.12
381.057	100.12
381.282	103.12
381.507	86.12
381.733	99.12
381.958	89.12
382.184	104.12
382.409	95.12
382.634	95.12
382.86	104.12
383.085	104.12
383.31	100.12
383.535	104.12
383.761	90.12
383.986	94.12
384.211	85.12
384.436	104.12
384.662	89.12
384.887	98.12
385.112	92.12
385.337	114.12
385.562	111.12
385.787	111.12
386.013	94.12
386.238	100.12
386.463	118.12
386.688	117.12
386.913	98.12
387.138	96.12
387.363	99.12
387.588	98.12
387.813	108.12
388.038	106.12
388.263	103.12
388.488	107.12
388.713	94.12
388.938	96.12
389.163	95.12
389.387	104.12
389.612	98.12
389.837	98.12
390.062	99.12
390.287	99.12
390.512	77.12
390.736	110.12
390.961	100.12
391.186	102.12
391.411	96.12
391.636	83.12
391.86	90.12
392.085	90.12
392.31	85.12
392.534	90.12
392.759	91.12
392.984	90.12
393.208	86.12
393.433	81.12
393.658	79.12
393.882	92.12
394.107	107.12
394.331	79.12
394.556	114.12
394.78	104.12
395.005	86.12
395.229	83.12
395.454	98.12
395.678	101.12
395.903	99.12
396.127	96.12
396.352	90.12
396.576	96.12
396.801	72.12
397.025	82.12
397.249	87.12
397.474	91.12
397.698	101.12
397.922	102.12
398.147	93.12
398.371	90.12
398.595	92.12
398.82	75.12
399.044	85.12
399.268	102.12
399.492	91.12
399.717	83.12
399.941	101.12
400.165	88.12
400.389	100.12
400.613	100.12
400.837	96.12
401.062	77.12
401.286	82.12
401.51	91.12
401.734	82.12
401.958	123.12
402.182	117.12
402.406	137.12
402.63	123.12
402.854	87.12
403.078	85.12
403.302	99.12
403.526	89.12
403.75	94.12
403.974	96.12
404.198	89.12
404.422	95.12
404.645	89.12
404.869	86.12
405.093	76.12
405.317	108.12
405.541	105.12
405.765	110.12
405.988	116.12
406.212	158.12
406.436	199.12
406.66	135.12
406.883	79.12
407.107	87.12
407.331	103.12
407.555	89.12
407.778	106.12
408.002	91.12
408.226	95.12
408.449	91.12
408.673	98.12
408.896	85.12
409.12	89.12
409.344	97.12
409.567	94.12
409.791	98.12
410.014	93.12
410.238	104.12
410.461	86.12
410.685	107.12
410.908	99.12
411.132	107.12
411.355	85.12
411.578	101.12
411.802	88.12
412.025	107.12
412.249	77.12
412.472	102.12
412.695	98.12
412.919	91.12
413.142	88.12
413.365	98.12
413.589	98.12
413.812	87.12
414.035	106.12
414.258	91.12
414.482	91.12
414.705	96.12
414.928	73.12
415.151	90.12
415.374	98.12
415.597	82.12
415.821	85.12
416.044	91.12
416.267	94.12
416.49	77.12
416.713	98.12
416.936	95.12
417.159	77.12
417.382	94.12
417.605	92.12
417.828	96.12
418.051	87.12
418.274	88.12
418.497	90.12
418.72	98.12
418.943	95.12
419.166	94.12
419.389	93.12
419.611	90.12
419.834	93.12
420.057	103.12
420.28	91.12
420.503	85.12
420.726	98.12
420.948	88.12
421.171	96.12
421.394	92.12
421.617	92.12
421.839	97.12
422.062	75.12
422.285	103.12
422.507	114.12
422.73	93.12
422.953	95.12
423.175	98.12
423.398	110.12
423.621	96.12
423.843	77.12
424.066	76.12
424.288	85.12
424.511	99.12
424.733	97.12
424.956	95.12
425.178	108.12
425.401	104.12
425.623	100.12
425.846	92.12
426.068	89.12
426.291	94.12
426.513	89.12
426.735	100.12
426.958	94.12
427.18	94.12
427.402	124.12
427.625	142.12
427.847	122.12
428.069	108.12
428.292	89.12
428.514	97.12
428.736	84.12
428.958	98.12
429.181	96.12
429.403	98.12
429.625	77.12
429.847	75.12
430.069	99.12
430.292	86.12
430.514	88.12
430.736	82.12
430.958	82.12
431.18	98.12
431.402	97.12
431.624	88.12
431.846	109.12
432.068	86.12
432.29	103.12
432.512	98.12
432.734	96.12
432.956	78.12
433.178	116.12
433.4	92.12
433.622	98.12
433.844	91.12
434.066	83.12
434.287	77.12
434.509	91.12
434.731	100.12
434.953	91.12
435.175	96.12
435.397	86.12
435.618	107.12
435.84	113.12
436.062	120.12
436.284	104.12
436.505	103.12
436.727	112.12
436.949	109.12
437.17	109.12
437.392	91.12
437.614	97.12
437.835	101.12
438.057	119.12
438.278	130.12
438.5	90.12
438.721	118.12
438.943	92.12
439.165	89.12
439.386	102.12
439.608	100.12
439.829	100.12
440.05	117.12
440.272	125.12
440.493	102.12
440.715	99.12
440.936	101.12
441.158	89.12
441.379	91.12
441.6	86.12
441.822	88.12
442.043	99.12
442.264	99.12
442.486	109.12
442.707	94.12
442.928	105.12
443.149	132.12
443.371	127.12
443.592	97.12
443.813	115.12
444.034	99.12
444.255	95.12
444.476	90.12
444.698	99.12
444.919	90.12
445.14	134.12
445.361	124.12
445.582	95.12
445.803	121.12
446.024	124.12
446.245	133.12
446.466	106.12
446.687	89.12
446.908	86.12
447.129	97.12
447.35	90.12
447.571	78.12
447.792	91.12
448.013	100.12
448.234	104.12
448.455	93.12
448.675	100.12
448.896	106.12
449.117	117.12
449.338	100.12
449.559	124.12
449.779	120.12
450	93.12
450.221	106.12
450.442	87.12
450.662	97.12
450.883	86.12
451.104	98.12
451.324	85.12
451.545	88.12
451.766	103.12
451.986	95.12
452.207	66.12
452.428	102.12
452.648	107.12
452.869	104.12
453.089	112.12
453.31	128.12
453.53	98.12
453.751	79.12
453.971	118.12
454.192	119.12
454.412	79.12
454.633	97.12
454.853	89.12
455.073	89.12
455.294	95.12
455.514	111.12
455.734	87.12
455.955	102.12
456.175	86.12
456.395	84.12
456.616	94.12
456.836	90.12
457.056	103.12
457.276	88.12
457.497	87.12
457.717	69.12
457.937	80.12
458.157	95.12
458.377	93.12
458.598	99.12
458.818	130.12
459.038	162.12
459.258	105.12
459.478	90.12
459.698	82.12
459.918	93.12
460.138	91.12
460.358	86.12
460.578	86.12
460.798	85.12
461.018	84.12
461.238	84.12
461.458	80.12
461.678	93.12
461.898	92.12
462.118	86.12
462.338	86.12
462.558	83.12
462.777	85.12
462.997	76.12
463.217	98.12
463.437	79.12
463.657	76.12
463.876	102.12
464.096	85.12
464.316	89.12
464.536	93.12
464.755	100.12
464.975	101.12
465.195	147.12
465.414	131.12
465.634	100.12
465.854	91.12
466.073	101.12
466.293	83.12
466.512	85.12
466.732	85.12
466.951	78.12
467.171	105.12
467.391	106.12
467.61	116.12
467.829	108.12
468.049	96.12
468.268	97.12
468.488	88.12
468.707	88.12
468.927	87.12
469.146	103.12
469.365	109.12
469.585	91.12
469.804	96.12
470.023	93.12
470.243	93.12
470.462	110.12
470.681	110.12
470.901	96.12
471.12	88.12
471.339	104.12
471.558	92.12
471.777	91.12
471.997	89.12
472.216	107.12
472.435	104.12
472.654	107.12
472.873	88.12
473.092	83.12
473.311	92.12
473.53	72.12
473.749	89.12
473.968	98.12
474.187	100.12
474.406	103.12
474.625	96.12
474.844	91.12
475.063	97.12
475.282	77.12
475.501	85.12
475.72	88.12
475.939	96.12
476.158	82.12
476.377	84.12
476.596	108.12
476.814	95.12
477.033	81.12
477.252	93.12
477.471	94.12
477.69	84.12
477.908	96.12
478.127	80.12
478.346	87.12
478.564	99.12
478.783	101.12
479.002	78.12
479.22	92.12
479.439	106.12
479.658	95.12
479.876	96.12
480.095	93.12
480.313	85.12
480.532	96.12
480.751	96.12
480.969	119.12
481.188	148.12
481.406	124.12
481.624	94.12
481.843	87.12
482.061	83.12
482.28	88.12
482.498	77.12
482.717	91.12
482.935	90.12
483.153	78.12
483.372	82.12
483.59	93.12
483.808	79.12
484.027	104.12
484.245	97.12
484.463	104.12
484.681	99.12
484.9	93.12
485.118	113.12
485.336	95.12
485.554	88.12
485.772	114.12
485.99	108.12
486.209	99.12
486.427	100.12
486.645	109.12
486.863	92.12
487.081	92.12
487.299	101.12
487.517	94.12
487.735	95.12
487.953	95.12
488.171	98.12
488.389	106.12
488.607	106.12
488.825	92.12
489.043	97.12
489.261	99.12
489.479	91.12
489.696	86.12
489.914	90.12
490.132	90.12
490.35	96.12
490.568	87.12
490.786	78.12
491.003	118.12
491.221	100.12
491.439	84.12
491.657	88.12
491.874	91.12
492.092	86.12
492.31	86.12
492.527	98.12
492.745	98.12
492.963	99.12
493.18	90.12
493.398	98.12
493.615	110.12
493.833	102.12
494.05	98.12
494.268	101.12
494.485	91.12
494.703	90.12
494.92	102.12
495.138	94.12
495.355	96.12
495.573	92.12
495.79	87.12
496.008	86.12
496.225	82.12
496.442	72.12
496.66	114.12
496.877	85.12
497.094	98.12
497.312	93.12
497.529	86.12
497.746	90.12
497.963	84.12
498.181	79.12
498.398	102.12
498.615	120.12
498.832	115.12
499.049	95.12
499.267	95.12
499.484	100.12
499.701	84.12
499.918	92.12
500.135	107.12
500.352	100.12
500.569	103.12
500.786	99.12
501.003	98.12
501.22	93.12
501.437	103.12
501.654	114.12
501.871	103.12
502.088	84.12
502.305	88.12
502.522	83.12
502.739	96.12
502.956	95.12
503.172	94.12
503.389	109.12
503.606	112.12
503.823	103.12
504.04	98.12
504.256	96.12
504.473	104.12
504.69	94.12
504.907	91.12
505.123	90.12
505.34	86.12
505.557	90.12
505.773	74.12
505.99	99.12
506.207	90.12
506.423	87.12
506.64	95.12
506.856	104.12
507.073	102.12
507.289	100.12
507.506	106.12
507.722	103.12
507.939	92.12
508.155	96.12
508.372	100.12
508.588	104.12
508.805	110.12
509.021	89.12
509.238	99.12
509.454	94.12
509.67	103.12
509.887	104.12
510.103	136.12
510.319	190.12
510.536	658.12
510.752	2142.12
510.968	592.12
511.184	150.12
511.401	92.12
511.617	84.12
511.833	102.12
512.049	82.12
512.265	86.12
512.481	102.12
512.698	94.12
512.914	98.12
513.13	97.12
513.346	92.12
513.562	87.12
513.778	103.12
513.994	109.12
514.21	110.12
514.426	113.12
514.642	114.12
514.858	117.12
