Data from Uncirc_1983_H10_HRD10591_00056.txt Node
Date: Wed Jan 03 12:25:43 EST 2024
User: Yrep
Spectrometer: HR+D1059
Trigger mode: 1
Integration Time (sec): 1.000000E-1
Scans to average: 1
Electric dark correction enabled: true
Nonlinearity correction enabled: false
Boxcar width: 0
XAxis mode: Wavelengths
Number of Pixels in Spectrum: 2048
>>>>>Begin Spectral Data<<<<<
223.165	-8.19
223.4	-8.19
223.635	-8.19
223.869	-23.19
224.104	-12.19
224.338	-13.19
224.573	-16.19
224.808	-12.19
225.042	-11.19
225.277	-6.19
225.511	-11.19
225.746	-0.19
225.98	16.81
226.215	10.81
226.449	19.81
226.683	15.81
226.918	24.81
227.152	25.81
227.387	26.81
227.621	48.81
227.856	41.81
228.09	56.81
228.324	60.81
228.559	46.81
228.793	78.81
229.027	60.81
229.262	77.81
229.496	62.81
229.73	87.81
229.964	88.81
230.199	63.81
230.433	78.81
230.667	83.81
230.901	92.81
231.136	97.81
231.37	75.81
231.604	77.81
231.838	89.81
232.072	96.81
232.306	78.81
232.541	86.81
232.775	72.81
233.009	81.81
233.243	74.81
233.477	92.81
233.711	78.81
233.945	88.81
234.179	98.81
234.413	83.81
234.647	72.81
234.881	84.81
235.115	94.81
235.349	78.81
235.583	73.81
235.817	73.81
236.051	76.81
236.285	78.81
236.519	78.81
236.753	74.81
236.987	79.81
237.221	85.81
237.455	87.81
237.689	75.81
237.922	90.81
238.156	73.81
238.39	84.81
238.624	80.81
238.858	79.81
239.091	87.81
239.325	85.81
239.559	76.81
239.793	52.81
240.027	49.81
240.26	86.81
240.494	70.81
240.728	87.81
240.961	79.81
241.195	93.81
241.429	69.81
241.662	82.81
241.896	73.81
242.13	90.81
242.363	62.81
242.597	69.81
242.83	58.81
243.064	101.81
243.298	85.81
243.531	75.81
243.765	85.81
243.998	91.81
244.232	68.81
244.465	84.81
244.699	74.81
244.932	78.81
245.166	94.81
245.399	87.81
245.633	86.81
245.866	75.81
246.099	82.81
246.333	77.81
246.566	84.81
246.8	66.81
247.033	83.81
247.266	90.81
247.5	68.81
247.733	77.81
247.966	84.81
248.2	83.81
248.433	82.81
248.666	87.81
248.899	88.81
249.133	100.81
249.366	99.81
249.599	98.81
249.832	87.81
250.066	85.81
250.299	77.81
250.532	84.81
250.765	86.81
250.998	77.81
251.231	70.81
251.465	104.81
251.698	85.81
251.931	84.81
252.164	73.81
252.397	84.81
252.63	80.81
252.863	81.81
253.096	73.81
253.329	95.81
253.562	92.81
253.795	86.81
254.028	84.81
254.261	78.81
254.494	76.81
254.727	82.81
254.96	85.81
255.193	70.81
255.426	78.81
255.659	85.81
255.892	86.81
256.124	75.81
256.357	78.81
256.59	99.81
256.823	95.81
257.056	90.81
257.289	92.81
257.521	72.81
257.754	78.81
257.987	78.81
258.22	86.81
258.452	78.81
258.685	78.81
258.918	86.81
259.151	70.81
259.383	92.81
259.616	78.81
259.849	95.81
260.081	78.81
260.314	72.81
260.547	87.81
260.779	94.81
261.012	72.81
261.244	77.81
261.477	84.81
261.71	82.81
261.942	102.81
262.175	115.81
262.407	87.81
262.64	75.81
262.872	74.81
263.105	71.81
263.337	98.81
263.57	86.81
263.802	84.81
264.035	77.81
264.267	92.81
264.499	89.81
264.732	98.81
264.964	79.81
265.197	105.81
265.429	97.81
265.661	83.81
265.894	96.81
266.126	99.81
266.358	89.81
266.591	69.81
266.823	86.81
267.055	85.81
267.287	84.81
267.52	80.81
267.752	87.81
267.984	95.81
268.216	82.81
268.448	89.81
268.681	81.81
268.913	99.81
269.145	89.81
269.377	84.81
269.609	64.81
269.841	87.81
270.073	84.81
270.306	85.81
270.538	86.81
270.77	91.81
271.002	85.81
271.234	86.81
271.466	99.81
271.698	99.81
271.93	95.81
272.162	87.81
272.394	85.81
272.626	79.81
272.858	80.81
273.09	88.81
273.322	90.81
273.553	78.81
273.785	75.81
274.017	84.81
274.249	83.81
274.481	91.81
274.713	80.81
274.945	94.81
275.176	91.81
275.408	90.81
275.64	93.81
275.872	91.81
276.104	97.81
276.335	96.81
276.567	92.81
276.799	120.81
277.031	98.81
277.262	91.81
277.494	90.81
277.726	82.81
277.957	95.81
278.189	93.81
278.421	89.81
278.652	90.81
278.884	94.81
279.115	102.81
279.347	78.81
279.579	96.81
279.81	98.81
280.042	93.81
280.273	94.81
280.505	78.81
280.736	82.81
280.968	91.81
281.199	100.81
281.431	95.81
281.662	87.81
281.894	86.81
282.125	94.81
282.356	123.81
282.588	134.81
282.819	126.81
283.051	95.81
283.282	82.81
283.513	86.81
283.745	93.81
283.976	90.81
284.207	94.81
284.439	96.81
284.67	83.81
284.901	93.81
285.132	96.81
285.364	91.81
285.595	86.81
285.826	82.81
286.057	108.81
286.288	93.81
286.52	86.81
286.751	98.81
286.982	86.81
287.213	93.81
287.444	91.81
287.675	90.81
287.906	85.81
288.138	104.81
288.369	85.81
288.6	92.81
288.831	89.81
289.062	101.81
289.293	87.81
289.524	92.81
289.755	76.81
289.986	87.81
290.217	85.81
290.448	98.81
290.679	98.81
290.91	80.81
291.141	72.81
291.371	87.81
291.602	89.81
291.833	93.81
292.064	101.81
292.295	100.81
292.526	88.81
292.757	93.81
292.987	89.81
293.218	82.81
293.449	92.81
293.68	81.81
293.91	94.81
294.141	86.81
294.372	99.81
294.603	91.81
294.833	87.81
295.064	85.81
295.295	85.81
295.525	106.81
295.756	103.81
295.987	107.81
296.217	122.81
296.448	127.81
296.679	119.81
296.909	86.81
297.14	87.81
297.37	93.81
297.601	80.81
297.831	98.81
298.062	88.81
298.292	83.81
298.523	89.81
298.753	98.81
298.984	99.81
299.214	79.81
299.445	88.81
299.675	101.81
299.905	83.81
300.136	95.81
300.366	82.81
300.597	101.81
300.827	101.81
301.057	110.81
301.288	109.81
301.518	99.81
301.748	96.81
301.979	107.81
302.209	104.81
302.439	114.81
302.669	90.81
302.9	84.81
303.13	84.81
303.36	99.81
303.59	96.81
303.82	100.81
304.051	88.81
304.281	98.81
304.511	87.81
304.741	80.81
304.971	76.81
305.201	85.81
305.431	94.81
305.661	102.81
305.891	83.81
306.121	86.81
306.352	111.81
306.582	99.81
306.812	100.81
307.042	91.81
307.272	93.81
307.502	85.81
307.731	86.81
307.961	94.81
308.191	98.81
308.421	101.81
308.651	88.81
308.881	92.81
309.111	111.81
309.341	98.81
309.571	110.81
309.8	110.81
310.03	105.81
310.26	99.81
310.49	102.81
310.72	88.81
310.949	102.81
311.179	83.81
311.409	85.81
311.639	109.81
311.868	99.81
312.098	102.81
312.328	92.81
312.557	100.81
312.787	91.81
313.017	109.81
313.246	91.81
313.476	85.81
313.706	83.81
313.935	100.81
314.165	94.81
314.394	107.81
314.624	97.81
314.853	98.81
315.083	102.81
315.312	87.81
315.542	88.81
315.771	102.81
316.001	105.81
316.23	78.81
316.46	83.81
316.689	91.81
316.919	96.81
317.148	94.81
317.377	97.81
317.607	78.81
317.836	78.81
318.065	94.81
318.295	100.81
318.524	101.81
318.753	91.81
318.983	90.81
319.212	98.81
319.441	108.81
319.67	103.81
319.9	96.81
320.129	97.81
320.358	92.81
320.587	86.81
320.816	108.81
321.046	104.81
321.275	88.81
321.504	88.81
321.733	88.81
321.962	107.81
322.191	88.81
322.42	96.81
322.649	101.81
322.878	101.81
323.108	116.81
323.337	123.81
323.566	121.81
323.795	145.81
324.024	198.81
324.253	345.81
324.482	724.81
324.71	1510.81
324.939	1917.81
325.168	700.81
325.397	231.81
325.626	146.81
325.855	131.81
326.084	130.81
326.313	133.81
326.542	143.81
326.77	211.81
326.999	406.81
327.228	823.81
327.457	1496.81
327.686	1188.81
327.914	329.81
328.143	166.81
328.372	138.81
328.6	119.81
328.829	104.81
329.058	118.81
329.287	124.81
329.515	98.81
329.744	121.81
329.972	93.81
330.201	113.81
330.43	111.81
330.658	131.81
330.887	133.81
331.115	112.81
331.344	103.81
331.572	105.81
331.801	109.81
332.03	101.81
332.258	104.81
332.486	94.81
332.715	87.81
332.943	82.81
333.172	99.81
333.4	92.81
333.629	102.81
333.857	106.81
334.085	103.81
334.314	124.81
334.542	109.81
334.771	112.81
334.999	101.81
335.227	98.81
335.455	106.81
335.684	80.81
335.912	109.81
336.14	100.81
336.369	97.81
336.597	101.81
336.825	99.81
337.053	111.81
337.281	99.81
337.51	93.81
337.738	103.81
337.966	92.81
338.194	103.81
338.422	99.81
338.65	95.81
338.878	95.81
339.106	74.81
339.334	82.81
339.562	96.81
339.79	93.81
340.018	98.81
340.246	103.81
340.474	102.81
340.702	103.81
340.93	90.81
341.158	78.81
341.386	84.81
341.614	103.81
341.842	90.81
342.07	90.81
342.298	103.81
342.526	101.81
342.754	83.81
342.981	95.81
343.209	94.81
343.437	89.81
343.665	103.81
343.893	92.81
344.12	103.81
344.348	93.81
344.576	86.81
344.804	86.81
345.031	98.81
345.259	98.81
345.487	89.81
345.714	86.81
345.942	88.81
346.17	90.81
346.397	91.81
346.625	103.81
346.853	83.81
347.08	103.81
347.308	91.81
347.535	71.81
347.763	104.81
347.99	100.81
348.218	106.81
348.445	98.81
348.673	105.81
348.9	102.81
349.128	100.81
349.355	82.81
349.583	93.81
349.81	104.81
350.037	111.81
350.265	89.81
350.492	88.81
350.72	98.81
350.947	103.81
351.174	101.81
351.402	108.81
351.629	110.81
351.856	88.81
352.083	103.81
352.311	90.81
352.538	102.81
352.765	107.81
352.992	98.81
353.22	112.81
353.447	100.81
353.674	98.81
353.901	93.81
354.128	93.81
354.355	105.81
354.583	104.81
354.81	95.81
355.037	94.81
355.264	87.81
355.491	87.81
355.718	94.81
355.945	101.81
356.172	103.81
356.399	89.81
356.626	100.81
356.853	103.81
357.08	82.81
357.307	107.81
357.534	80.81
357.761	90.81
357.988	86.81
358.215	84.81
358.441	108.81
358.668	83.81
358.895	95.81
359.122	104.81
359.349	84.81
359.576	86.81
359.802	94.81
360.029	104.81
360.256	103.81
360.483	100.81
360.709	84.81
360.936	105.81
361.163	109.81
361.39	93.81
361.616	85.81
361.843	89.81
362.07	100.81
362.296	107.81
362.523	86.81
362.749	97.81
362.976	90.81
363.203	95.81
363.429	98.81
363.656	104.81
363.882	88.81
364.109	83.81
364.335	98.81
364.562	92.81
364.788	89.81
365.015	102.81
365.241	96.81
365.468	104.81
365.694	106.81
365.92	92.81
366.147	98.81
366.373	90.81
366.599	100.81
366.826	87.81
367.052	82.81
367.278	86.81
367.505	85.81
367.731	94.81
367.957	90.81
368.184	82.81
368.41	86.81
368.636	109.81
368.862	109.81
369.089	111.81
369.315	88.81
369.541	86.81
369.767	91.81
369.993	86.81
370.219	84.81
370.445	71.81
370.672	93.81
370.898	90.81
371.124	97.81
371.35	92.81
371.576	96.81
371.802	91.81
372.028	102.81
372.254	91.81
372.48	99.81
372.706	99.81
372.932	83.81
373.158	95.81
373.384	97.81
373.61	103.81
373.835	95.81
374.061	92.81
374.287	86.81
374.513	97.81
374.739	107.81
374.965	87.81
375.191	93.81
375.416	102.81
375.642	86.81
375.868	102.81
376.094	86.81
376.319	94.81
376.545	80.81
376.771	87.81
376.997	92.81
377.222	84.81
377.448	90.81
377.674	103.81
377.899	100.81
378.125	85.81
378.35	96.81
378.576	93.81
378.802	94.81
379.027	87.81
379.253	95.81
379.478	94.81
379.704	96.81
379.929	98.81
380.155	102.81
380.38	89.81
380.606	104.81
380.831	87.81
381.057	105.81
381.282	92.81
381.507	106.81
381.733	109.81
381.958	89.81
382.184	98.81
382.409	107.81
382.634	107.81
382.86	112.81
383.085	109.81
383.31	104.81
383.535	96.81
383.761	96.81
383.986	106.81
384.211	99.81
384.436	110.81
384.662	100.81
384.887	104.81
385.112	94.81
385.337	87.81
385.562	86.81
385.787	98.81
386.013	111.81
386.238	96.81
386.463	110.81
386.688	111.81
386.913	112.81
387.138	115.81
387.363	92.81
387.588	97.81
387.813	99.81
388.038	106.81
388.263	98.81
388.488	107.81
388.713	80.81
388.938	97.81
389.163	102.81
389.387	104.81
389.612	93.81
389.837	83.81
390.062	78.81
390.287	106.81
390.512	106.81
390.736	98.81
390.961	94.81
391.186	100.81
391.411	94.81
391.636	94.81
391.86	87.81
392.085	78.81
392.31	87.81
392.534	93.81
392.759	83.81
392.984	95.81
393.208	89.81
393.433	85.81
393.658	103.81
393.882	88.81
394.107	83.81
394.331	86.81
394.556	86.81
394.78	101.81
395.005	90.81
395.229	88.81
395.454	95.81
395.678	79.81
395.903	96.81
396.127	93.81
396.352	90.81
396.576	87.81
396.801	85.81
397.025	92.81
397.249	78.81
397.474	87.81
397.698	94.81
397.922	76.81
398.147	99.81
398.371	83.81
398.595	106.81
398.82	82.81
399.044	101.81
399.268	78.81
399.492	86.81
399.717	93.81
399.941	82.81
400.165	107.81
400.389	110.81
400.613	90.81
400.837	92.81
401.062	85.81
401.286	88.81
401.51	87.81
401.734	99.81
401.958	103.81
402.182	115.81
402.406	139.81
402.63	104.81
402.854	83.81
403.078	84.81
403.302	92.81
403.526	91.81
403.75	98.81
403.974	90.81
404.198	90.81
404.422	83.81
404.645	99.81
404.869	98.81
405.093	86.81
405.317	105.81
405.541	99.81
405.765	102.81
405.988	116.81
406.212	156.81
406.436	202.81
406.66	140.81
406.883	98.81
407.107	96.81
407.331	97.81
407.555	97.81
407.778	91.81
408.002	97.81
408.226	84.81
408.449	84.81
408.673	89.81
408.896	83.81
409.12	86.81
409.344	87.81
409.567	84.81
409.791	94.81
410.014	114.81
410.238	88.81
410.461	100.81
410.685	98.81
410.908	108.81
411.132	106.81
411.355	102.81
411.578	87.81
411.802	100.81
412.025	85.81
412.249	104.81
412.472	86.81
412.695	106.81
412.919	93.81
413.142	76.81
413.365	96.81
413.589	99.81
413.812	87.81
414.035	100.81
414.258	95.81
414.482	81.81
414.705	84.81
414.928	96.81
415.151	99.81
415.374	90.81
415.597	107.81
415.821	110.81
416.044	88.81
416.267	87.81
416.49	98.81
416.713	107.81
416.936	101.81
417.159	90.81
417.382	86.81
417.605	84.81
417.828	107.81
418.051	97.81
418.274	96.81
418.497	77.81
418.72	88.81
418.943	93.81
419.166	78.81
419.389	93.81
419.611	90.81
419.834	100.81
420.057	86.81
420.28	93.81
420.503	94.81
420.726	83.81
420.948	104.81
421.171	90.81
421.394	94.81
421.617	104.81
421.839	88.81
422.062	84.81
422.285	93.81
422.507	88.81
422.73	111.81
422.953	79.81
423.175	94.81
423.398	93.81
423.621	95.81
423.843	84.81
424.066	91.81
424.288	82.81
424.511	97.81
424.733	92.81
424.956	102.81
425.178	95.81
425.401	109.81
425.623	104.81
425.846	93.81
426.068	94.81
426.291	94.81
426.513	93.81
426.735	94.81
426.958	89.81
427.18	99.81
427.402	130.81
427.625	143.81
427.847	141.81
428.069	109.81
428.292	93.81
428.514	95.81
428.736	75.81
428.958	87.81
429.181	87.81
429.403	79.81
429.625	99.81
429.847	105.81
430.069	98.81
430.292	102.81
430.514	84.81
430.736	62.81
430.958	85.81
431.18	86.81
431.402	87.81
431.624	86.81
431.846	95.81
432.068	100.81
432.29	90.81
432.512	98.81
432.734	76.81
432.956	92.81
433.178	89.81
433.4	102.81
433.622	99.81
433.844	87.81
434.066	84.81
434.287	93.81
434.509	89.81
434.731	78.81
434.953	89.81
435.175	98.81
435.397	98.81
435.618	103.81
435.84	105.81
436.062	121.81
436.284	124.81
436.505	105.81
436.727	96.81
436.949	98.81
437.17	94.81
437.392	90.81
437.614	85.81
437.835	105.81
438.057	120.81
438.278	122.81
438.5	120.81
438.721	120.81
438.943	100.81
439.165	85.81
439.386	82.81
439.608	93.81
439.829	103.81
440.05	118.81
440.272	132.81
440.493	105.81
440.715	89.81
440.936	82.81
441.158	95.81
441.379	98.81
441.6	90.81
441.822	89.81
442.043	93.81
442.264	99.81
442.486	112.81
442.707	95.81
442.928	97.81
443.149	107.81
443.371	132.81
443.592	108.81
443.813	120.81
444.034	105.81
444.255	83.81
444.476	91.81
444.698	75.81
444.919	102.81
445.14	149.81
445.361	113.81
445.582	110.81
445.803	135.81
446.024	120.81
446.245	127.81
446.466	85.81
446.687	92.81
446.908	96.81
447.129	83.81
447.35	89.81
447.571	92.81
447.792	94.81
448.013	104.81
448.234	112.81
448.455	99.81
448.675	102.81
448.896	116.81
449.117	95.81
449.338	93.81
449.559	115.81
449.779	133.81
450	96.81
450.221	95.81
450.442	93.81
450.662	92.81
450.883	89.81
451.104	105.81
451.324	101.81
451.545	102.81
451.766	85.81
451.986	93.81
452.207	76.81
452.428	88.81
452.648	103.81
452.869	104.81
453.089	116.81
453.31	104.81
453.53	92.81
453.751	94.81
453.971	101.81
454.192	105.81
454.412	92.81
454.633	102.81
454.853	87.81
455.073	82.81
455.294	79.81
455.514	106.81
455.734	84.81
455.955	95.81
456.175	82.81
456.395	93.81
456.616	71.81
456.836	86.81
457.056	97.81
457.276	93.81
457.497	95.81
457.717	95.81
457.937	94.81
458.157	103.81
458.377	91.81
458.598	108.81
458.818	148.81
459.038	139.81
459.258	116.81
459.478	92.81
459.698	94.81
459.918	89.81
460.138	86.81
460.358	83.81
460.578	102.81
460.798	92.81
461.018	102.81
461.238	94.81
461.458	82.81
461.678	91.81
461.898	103.81
462.118	88.81
462.338	80.81
462.558	92.81
462.777	87.81
462.997	92.81
463.217	91.81
463.437	94.81
463.657	84.81
463.876	86.81
464.096	87.81
464.316	83.81
464.536	90.81
464.755	102.81
464.975	106.81
465.195	149.81
465.414	142.81
465.634	98.81
465.854	95.81
466.073	90.81
466.293	99.81
466.512	102.81
466.732	80.81
466.951	91.81
467.171	86.81
467.391	99.81
467.61	97.81
467.829	87.81
468.049	95.81
468.268	104.81
468.488	81.81
468.707	91.81
468.927	88.81
469.146	85.81
469.365	91.81
469.585	98.81
469.804	92.81
470.023	100.81
470.243	84.81
470.462	84.81
470.681	88.81
470.901	79.81
471.12	90.81
471.339	85.81
471.558	89.81
471.777	79.81
471.997	100.81
472.216	97.81
472.435	122.81
472.654	90.81
472.873	101.81
473.092	87.81
473.311	82.81
473.53	83.81
473.749	89.81
473.968	98.81
474.187	96.81
474.406	88.81
474.625	94.81
474.844	86.81
475.063	80.81
475.282	88.81
475.501	89.81
475.72	90.81
475.939	99.81
476.158	84.81
476.377	87.81
476.596	94.81
476.814	98.81
477.033	77.81
477.252	83.81
477.471	82.81
477.69	98.81
477.908	91.81
478.127	101.81
478.346	91.81
478.564	92.81
478.783	88.81
479.002	94.81
479.22	89.81
479.439	102.81
479.658	98.81
479.876	104.81
480.095	95.81
480.313	95.81
480.532	92.81
480.751	83.81
480.969	110.81
481.188	177.81
481.406	136.81
481.624	102.81
481.843	94.81
482.061	100.81
482.28	90.81
482.498	94.81
482.717	95.81
482.935	95.81
483.153	99.81
483.372	82.81
483.59	95.81
483.808	88.81
484.027	92.81
484.245	93.81
484.463	101.81
484.681	95.81
484.9	88.81
485.118	102.81
485.336	98.81
485.554	87.81
485.772	107.81
485.99	110.81
486.209	107.81
486.427	110.81
486.645	117.81
486.863	115.81
487.081	108.81
487.299	96.81
487.517	109.81
487.735	114.81
487.953	114.81
488.171	110.81
488.389	102.81
488.607	110.81
488.825	113.81
489.043	93.81
489.261	83.81
489.479	94.81
489.696	95.81
489.914	91.81
490.132	95.81
490.35	78.81
490.568	98.81
490.786	98.81
491.003	92.81
491.221	101.81
491.439	107.81
491.657	105.81
491.874	95.81
492.092	100.81
492.31	104.81
492.527	87.81
492.745	95.81
492.963	91.81
493.18	87.81
493.398	98.81
493.615	104.81
493.833	110.81
494.05	91.81
494.268	90.81
494.485	100.81
494.703	82.81
494.92	94.81
495.138	92.81
495.355	91.81
495.573	94.81
495.79	95.81
496.008	93.81
496.225	91.81
496.442	97.81
496.66	82.81
496.877	85.81
497.094	107.81
497.312	94.81
497.529	87.81
497.746	89.81
497.963	91.81
498.181	85.81
498.398	103.81
498.615	104.81
498.832	93.81
499.049	92.81
499.267	103.81
499.484	96.81
499.701	91.81
499.918	90.81
500.135	98.81
500.352	106.81
500.569	74.81
500.786	98.81
501.003	87.81
501.22	95.81
501.437	86.81
501.654	81.81
501.871	80.81
502.088	77.81
502.305	90.81
502.522	92.81
502.739	102.81
502.956	82.81
503.172	91.81
503.389	88.81
503.606	107.81
503.823	98.81
504.04	84.81
504.256	109.81
504.473	77.81
504.69	87.81
504.907	95.81
505.123	106.81
505.34	82.81
505.557	96.81
505.773	94.81
505.99	75.81
506.207	90.81
506.423	82.81
506.64	89.81
506.856	89.81
507.073	91.81
507.289	75.81
507.506	90.81
507.722	108.81
507.939	116.81
508.155	93.81
508.372	106.81
508.588	103.81
508.805	105.81
509.021	92.81
509.238	96.81
509.454	111.81
509.67	106.81
509.887	102.81
510.103	132.81
510.319	213.81
510.536	665.81
510.752	2084.81
510.968	580.81
511.184	151.81
511.401	110.81
511.617	95.81
511.833	87.81
512.049	102.81
512.265	92.81
512.481	98.81
512.698	102.81
512.914	86.81
513.13	87.81
513.346	101.81
513.562	100.81
513.778	99.81
513.994	84.81
514.21	97.81
514.426	98.81
514.642	121.81
514.858	119.81
