Data from Uncirc_1983_H10_HRD10591_00059.txt Node
Date: Wed Jan 03 12:25:43 EST 2024
User: Yrep
Spectrometer: HR+D1059
Trigger mode: 1
Integration Time (sec): 1.000000E-1
Scans to average: 1
Electric dark correction enabled: true
Nonlinearity correction enabled: false
Boxcar width: 0
XAxis mode: Wavelengths
Number of Pixels in Spectrum: 2048
>>>>>Begin Spectral Data<<<<<
223.165	-6.81
223.4	-6.81
223.635	-6.81
223.869	-8.81
224.104	-20.81
224.338	-14.81
224.573	-17.81
224.808	-12.81
225.042	-12.81
225.277	-5.81
225.511	-9.81
225.746	-10.81
225.98	12.19
226.215	8.19
226.449	14.19
226.683	34.19
226.918	19.19
227.152	33.19
227.387	29.19
227.621	37.19
227.856	47.19
228.09	60.19
228.324	64.19
228.559	59.19
228.793	159.19
229.027	447.19
229.262	507.19
229.496	546.19
229.73	729.19
229.964	729.19
230.199	502.19
230.433	459.19
230.667	465.19
230.901	451.19
231.136	440.19
231.37	437.19
231.604	442.19
231.838	437.19
232.072	450.19
232.306	461.19
232.541	469.19
232.775	471.19
233.009	466.19
233.243	465.19
233.477	476.19
233.711	494.19
233.945	491.19
234.179	492.19
234.413	523.19
234.647	495.19
234.881	493.19
235.115	495.19
235.349	543.19
235.583	556.19
235.817	567.19
236.051	607.19
236.285	599.19
236.519	606.19
236.753	681.19
236.987	869.19
237.221	1229.19
237.455	1336.19
237.689	839.19
237.922	715.19
238.156	706.19
238.39	670.19
238.624	617.19
238.858	653.19
239.091	620.19
239.325	633.19
239.559	665.19
239.793	668.19
240.027	743.19
240.26	859.19
240.494	900.19
240.728	875.19
240.961	873.19
241.195	806.19
241.429	782.19
241.662	762.19
241.896	758.19
242.13	771.19
242.363	755.19
242.597	801.19
242.83	789.19
243.064	789.19
243.298	805.19
243.531	828.19
243.765	839.19
243.998	843.19
244.232	835.19
244.465	875.19
244.699	879.19
244.932	873.19
245.166	900.19
245.399	899.19
245.633	892.19
245.866	903.19
246.099	897.19
246.333	935.19
246.566	957.19
246.8	966.19
247.033	987.19
247.266	1009.19
247.5	1058.19
247.733	1116.19
247.966	1183.19
248.2	1137.19
248.433	1141.19
248.666	1193.19
248.899	1291.19
249.133	1360.19
249.366	1328.19
249.599	1239.19
249.832	1193.19
250.066	1232.19
250.299	1286.19
250.532	1348.19
250.765	1473.19
250.998	1634.19
251.231	1571.19
251.465	1451.19
251.698	1389.19
251.931	1383.19
252.164	1368.19
252.397	1350.19
252.63	1423.19
252.863	1489.19
253.096	1610.19
253.329	1636.19
253.562	1597.19
253.795	1486.19
254.028	1519.19
254.261	1547.19
254.494	1722.19
254.727	1975.19
254.96	2093.19
255.193	1905.19
255.426	1695.19
255.659	1629.19
255.892	1618.19
256.124	1643.19
256.357	1600.19
256.59	1535.19
256.823	1515.19
257.056	1501.19
257.289	1525.19
257.521	1515.19
257.754	1506.19
257.987	1496.19
258.22	1537.19
258.452	1501.19
258.685	1549.19
258.918	1538.19
259.151	1603.19
259.383	1617.19
259.616	1650.19
259.849	1689.19
260.081	1834.19
260.314	1976.19
260.547	1902.19
260.779	1811.19
261.012	1751.19
261.244	1674.19
261.477	1672.19
261.71	1674.19
261.942	1689.19
262.175	1729.19
262.407	1662.19
262.64	1625.19
262.872	1612.19
263.105	1575.19
263.337	1630.19
263.57	1634.19
263.802	1654.19
264.035	1639.19
264.267	1651.19
264.499	1672.19
264.732	1682.19
264.964	1676.19
265.197	1645.19
265.429	1681.19
265.661	1668.19
265.894	1708.19
266.126	1693.19
266.358	1743.19
266.591	1761.19
266.823	1803.19
267.055	1805.19
267.287	1822.19
267.52	1817.19
267.752	1804.19
267.984	1864.19
268.216	1874.19
268.448	1881.19
268.681	1989.19
268.913	2030.19
269.145	2188.19
269.377	2283.19
269.609	2230.19
269.841	2227.19
270.073	2279.19
270.306	2516.19
270.538	2658.19
270.77	2534.19
271.002	2391.19
271.234	2364.19
271.466	2515.19
271.698	2641.19
271.93	2638.19
272.162	2598.19
272.394	2533.19
272.626	2415.19
272.858	2286.19
273.09	2246.19
273.322	2217.19
273.553	2197.19
273.785	2168.19
274.017	2190.19
274.249	2199.19
274.481	2233.19
274.713	2219.19
274.945	2235.19
275.176	2261.19
275.408	2206.19
275.64	2218.19
275.872	2208.19
276.104	2250.19
276.335	2223.19
276.567	2330.19
276.799	2479.19
277.031	2660.19
277.262	2738.19
277.494	2643.19
277.726	2545.19
277.957	2458.19
278.189	2373.19
278.421	2378.19
278.652	2376.19
278.884	2372.19
279.115	2301.19
279.347	2370.19
279.579	2331.19
279.81	2302.19
280.042	2375.19
280.273	2369.19
280.505	2389.19
280.736	2362.19
280.968	2366.19
281.199	2367.19
281.431	2396.19
281.662	2431.19
281.894	2421.19
282.125	2484.19
282.356	2670.19
282.588	2712.19
282.819	2657.19
283.051	2550.19
283.282	2543.19
283.513	2541.19
283.745	2522.19
283.976	2581.19
284.207	2593.19
284.439	2593.19
284.67	2605.19
284.901	2590.19
285.132	2614.19
285.364	2572.19
285.595	2570.19
285.826	2593.19
286.057	2624.19
286.288	2641.19
286.52	2638.19
286.751	2714.19
286.982	2693.19
287.213	2639.19
287.444	2692.19
287.675	2750.19
287.906	2812.19
288.138	2875.19
288.369	2849.19
288.6	2893.19
288.831	2844.19
289.062	2763.19
289.293	2796.19
289.524	2799.19
289.755	2753.19
289.986	2747.19
290.217	2737.19
290.448	2782.19
290.679	2810.19
290.91	2787.19
291.141	2784.19
291.371	2786.19
291.602	2779.19
291.833	2779.19
292.064	2779.19
292.295	2828.19
292.526	2851.19
292.757	2764.19
292.987	2789.19
293.218	2782.19
293.449	2861.19
293.68	2845.19
293.91	2827.19
294.141	2820.19
294.372	2794.19
294.603	2845.19
294.833	2859.19
295.064	2821.19
295.295	2820.19
295.525	2838.19
295.756	2882.19
295.987	2967.19
296.217	3123.19
296.448	3022.19
296.679	2931.19
296.909	2901.19
297.14	2969.19
297.37	2991.19
297.601	3017.19
297.831	2969.19
298.062	3070.19
298.292	3067.19
298.523	3062.19
298.753	3075.19
298.984	3061.19
299.214	3077.19
299.445	3047.19
299.675	3109.19
299.905	3084.19
300.136	3115.19
300.366	3142.19
300.597	3172.19
300.827	3258.19
301.057	3282.19
301.288	3330.19
301.518	3211.19
301.748	3306.19
301.979	3309.19
302.209	3375.19
302.439	3334.19
302.669	3320.19
302.9	3281.19
303.13	3282.19
303.36	3313.19
303.59	3310.19
303.82	3373.19
304.051	3354.19
304.281	3320.19
304.511	3236.19
304.741	3237.19
304.971	3290.19
305.201	3219.19
305.431	3273.19
305.661	3237.19
305.891	3235.19
306.121	3284.19
306.352	3316.19
306.582	3288.19
306.812	3174.19
307.042	3241.19
307.272	3251.19
307.502	3259.19
307.731	3274.19
307.961	3182.19
308.191	3262.19
308.421	3228.19
308.651	3303.19
308.881	3241.19
309.111	3283.19
309.341	3306.19
309.571	3402.19
309.8	3455.19
310.03	3479.19
310.26	3502.19
310.49	3475.19
310.72	3589.19
310.949	3653.19
311.179	3622.19
311.409	3562.19
311.639	3552.19
311.868	3541.19
312.098	3612.19
312.328	3681.19
312.557	3748.19
312.787	3864.19
313.017	3730.19
313.246	3719.19
313.476	3655.19
313.706	3708.19
313.935	3779.19
314.165	3841.19
314.394	3876.19
314.624	3862.19
314.853	3742.19
315.083	3638.19
315.312	3605.19
315.542	3641.19
315.771	3641.19
316.001	3598.19
316.23	3588.19
316.46	3590.19
316.689	3704.19
316.919	3716.19
317.148	3717.19
317.377	3671.19
317.607	3664.19
317.836	3670.19
318.065	3614.19
318.295	3640.19
318.524	3678.19
318.753	3585.19
318.983	3651.19
319.212	3621.19
319.441	3653.19
319.67	3758.19
319.9	3604.19
320.129	3644.19
320.358	3670.19
320.587	3698.19
320.816	3682.19
321.046	3754.19
321.275	3753.19
321.504	3783.19
321.733	3837.19
321.962	3828.19
322.191	3899.19
322.42	3923.19
322.649	4008.19
322.878	4094.19
323.108	4179.19
323.337	4303.19
323.566	4457.19
323.795	4769.19
324.024	5154.19
324.253	6571.19
324.482	9615.19
324.71	14140.19
324.939	15631.19
325.168	10623.19
325.397	6117.19
325.626	4997.19
325.855	4685.19
326.084	4523.19
326.313	4619.19
326.542	4756.19
326.77	5247.19
326.999	6424.19
327.228	9089.19
327.457	13157.19
327.686	12141.19
327.914	6746.19
328.143	5454.19
328.372	5215.19
328.6	4998.19
328.829	4969.19
329.058	5014.19
329.287	5004.19
329.515	4797.19
329.744	4627.19
329.972	4726.19
330.201	4902.19
330.43	5086.19
330.658	5204.19
330.887	5329.19
331.115	5042.19
331.344	4822.19
331.572	4780.19
331.801	4827.19
332.03	4923.19
332.258	4883.19
332.486	4895.19
332.715	4975.19
332.943	5177.19
333.172	5301.19
333.4	5407.19
333.629	5580.19
333.857	5681.19
334.085	5589.19
334.314	5576.19
334.542	5624.19
334.771	5564.19
334.999	5321.19
335.227	5179.19
335.455	5064.19
335.684	5026.19
335.912	4969.19
336.14	4802.19
336.369	4886.19
336.597	4876.19
336.825	4872.19
337.053	4825.19
337.281	4737.19
337.51	4731.19
337.738	4610.19
337.966	4589.19
338.194	4677.19
338.422	4522.19
338.65	4461.19
338.878	4509.19
339.106	4446.19
339.334	4412.19
339.562	4461.19
339.79	4379.19
340.018	4359.19
340.246	4348.19
340.474	4372.19
340.702	4288.19
340.93	4352.19
341.158	4311.19
341.386	4350.19
341.614	4355.19
341.842	4233.19
342.07	4297.19
342.298	4226.19
342.526	4219.19
342.754	4236.19
342.981	4267.19
343.209	4362.19
343.437	4545.19
343.665	4859.19
343.893	5142.19
344.12	5155.19
344.348	4865.19
344.576	4788.19
344.804	4662.19
345.031	4542.19
345.259	4508.19
345.487	4382.19
345.714	4338.19
345.942	4197.19
346.17	4185.19
346.397	4165.19
346.625	4145.19
346.853	4097.19
347.08	4098.19
347.308	4142.19
347.535	4252.19
347.763	4232.19
347.99	4152.19
348.218	4234.19
348.445	4204.19
348.673	4143.19
348.9	4081.19
349.128	4070.19
349.355	4030.19
349.583	4024.19
349.81	3953.19
350.037	3959.19
350.265	3963.19
350.492	3947.19
350.72	4056.19
350.947	4025.19
351.174	4077.19
351.402	4109.19
351.629	3989.19
351.856	4054.19
352.083	4072.19
352.311	4139.19
352.538	4105.19
352.765	4096.19
352.992	4072.19
353.22	4031.19
353.447	3973.19
353.674	3964.19
353.901	3922.19
354.128	3884.19
354.355	3934.19
354.583	3919.19
354.81	3902.19
355.037	3965.19
355.264	3842.19
355.491	3884.19
355.718	3925.19
355.945	3886.19
356.172	3944.19
356.399	3965.19
356.626	3913.19
356.853	3962.19
357.08	3893.19
357.307	3894.19
357.534	3909.19
357.761	3968.19
357.988	3934.19
358.215	3923.19
358.441	3933.19
358.668	3896.19
358.895	3951.19
359.122	3974.19
359.349	4078.19
359.576	4172.19
359.802	4344.19
360.029	4417.19
360.256	4415.19
360.483	4271.19
360.709	4129.19
360.936	4102.19
361.163	4061.19
361.39	4138.19
361.616	4081.19
361.843	4089.19
362.07	4033.19
362.296	4130.19
362.523	4035.19
362.749	4063.19
362.976	4029.19
363.203	3987.19
363.429	3948.19
363.656	3942.19
363.882	4038.19
364.109	3982.19
364.335	3939.19
364.562	3942.19
364.788	3948.19
365.015	4052.19
365.241	3991.19
365.468	3990.19
365.694	4065.19
365.92	3973.19
366.147	3926.19
366.373	3997.19
366.599	3961.19
366.826	3933.19
367.052	3938.19
367.278	4010.19
367.505	3981.19
367.731	4034.19
367.957	4013.19
368.184	4011.19
368.41	4141.19
368.636	4174.19
368.862	4173.19
369.089	4134.19
369.315	4101.19
369.541	4148.19
369.767	4107.19
369.993	4072.19
370.219	4142.19
370.445	4142.19
370.672	4209.19
370.898	4180.19
371.124	4266.19
371.35	4255.19
371.576	4265.19
371.802	4226.19
372.028	4259.19
372.254	4283.19
372.48	4305.19
372.706	4366.19
372.932	4423.19
373.158	4379.19
373.384	4294.19
373.61	4279.19
373.835	4323.19
374.061	4369.19
374.287	4414.19
374.513	4478.19
374.739	4641.19
374.965	4731.19
375.191	4656.19
375.416	4628.19
375.642	4518.19
375.868	4430.19
376.094	4424.19
376.319	4309.19
376.545	4300.19
376.771	4315.19
376.997	4277.19
377.222	4269.19
377.448	4223.19
377.674	4307.19
377.899	4194.19
378.125	4223.19
378.35	4215.19
378.576	4154.19
378.802	4191.19
379.027	4292.19
379.253	4184.19
379.478	4236.19
379.704	4205.19
379.929	4293.19
380.155	4260.19
380.38	4271.19
380.606	4295.19
380.831	4293.19
381.057	4287.19
381.282	4286.19
381.507	4306.19
381.733	4360.19
381.958	4420.19
382.184	4470.19
382.409	4521.19
382.634	4527.19
382.86	4486.19
383.085	4536.19
383.31	4707.19
383.535	4793.19
383.761	4785.19
383.986	4820.19
384.211	4897.19
384.436	5002.19
384.662	5038.19
384.887	5121.19
385.112	5119.19
385.337	5145.19
385.562	5214.19
385.787	5251.19
386.013	5216.19
386.238	5285.19
386.463	5299.19
386.688	5319.19
386.913	5081.19
387.138	5195.19
387.363	5146.19
387.588	5043.19
387.813	5108.19
388.038	5161.19
388.263	5125.19
388.488	5148.19
388.713	5113.19
388.938	5055.19
389.163	5092.19
389.387	5114.19
389.612	5053.19
389.837	5049.19
390.062	5043.19
390.287	5078.19
390.512	5032.19
390.736	5108.19
390.961	5206.19
391.186	5313.19
391.411	5488.19
391.636	5569.19
391.86	5737.19
392.085	5804.19
392.31	5676.19
392.534	5595.19
392.759	5427.19
392.984	5350.19
393.208	5367.19
393.433	5330.19
393.658	5371.19
393.882	5327.19
394.107	5331.19
394.331	5468.19
394.556	5489.19
394.78	5491.19
395.005	5483.19
395.229	5536.19
395.454	5738.19
395.678	5899.19
395.903	5789.19
396.127	5759.19
396.352	5690.19
396.576	5437.19
396.801	5487.19
397.025	5529.19
397.249	5688.19
397.474	5775.19
397.698	5778.19
397.922	5979.19
398.147	6041.19
398.371	6127.19
398.595	6306.19
398.82	6575.19
399.044	7174.19
399.268	7957.19
399.492	9085.19
399.717	9724.19
399.941	9420.19
400.165	8767.19
400.389	7993.19
400.613	7301.19
400.837	6747.19
401.062	6634.19
401.286	6519.19
401.51	6433.19
401.734	6449.19
401.958	6523.19
402.182	6691.19
402.406	6789.19
402.63	6873.19
402.854	7010.19
403.078	6996.19
403.302	7162.19
403.526	7324.19
403.75	7310.19
403.974	7458.19
404.198	7336.19
404.422	7426.19
404.645	7434.19
404.869	7345.19
405.093	7676.19
405.317	7779.19
405.541	7699.19
405.765	7332.19
405.988	7243.19
406.212	7355.19
406.436	7574.19
406.66	7715.19
406.883	7643.19
407.107	8225.19
407.331	8905.19
407.555	9219.19
407.778	8889.19
408.002	8172.19
408.226	7806.19
408.449	7726.19
408.673	7608.19
408.896	7832.19
409.12	7938.19
409.344	7452.19
409.567	7205.19
409.791	7111.19
410.014	6999.19
410.238	6945.19
410.461	6969.19
410.685	7045.19
410.908	7032.19
411.132	7183.19
411.355	7309.19
411.578	6933.19
411.802	6701.19
412.025	6798.19
412.249	6883.19
412.472	7022.19
412.695	7056.19
412.919	6822.19
413.142	6551.19
413.365	6463.19
413.589	6521.19
413.812	6368.19
414.035	6315.19
414.258	6374.19
414.482	6446.19
414.705	6453.19
414.928	6441.19
415.151	6409.19
415.374	6452.19
415.597	6325.19
415.821	6184.19
416.044	6188.19
416.267	6228.19
416.49	6240.19
416.713	6188.19
416.936	6366.19
417.159	6294.19
417.382	6404.19
417.605	6327.19
417.828	6508.19
418.051	6643.19
418.274	6447.19
418.497	6444.19
418.72	6546.19
418.943	6487.19
419.166	6887.19
419.389	7268.19
419.611	7206.19
419.834	6859.19
420.057	6732.19
420.28	6676.19
420.503	6413.19
420.726	6442.19
420.948	6571.19
421.171	6972.19
421.394	6851.19
421.617	6471.19
421.839	6570.19
422.062	6635.19
422.285	6742.19
422.507	7319.19
422.73	7751.19
422.953	7280.19
423.175	6927.19
423.398	6931.19
423.621	6923.19
423.843	7186.19
424.066	7237.19
424.288	7128.19
424.511	7195.19
424.733	7654.19
424.956	7949.19
425.178	7566.19
425.401	7708.19
425.623	7623.19
425.846	6750.19
426.068	6574.19
426.291	6465.19
426.513	6508.19
426.735	6587.19
426.958	6930.19
427.18	7617.19
427.402	8692.19
427.625	8670.19
427.847	7339.19
428.069	6799.19
428.292	6392.19
428.514	6000.19
428.736	5933.19
428.958	5938.19
429.181	5805.19
429.403	5805.19
429.625	5919.19
429.847	6174.19
430.069	6647.19
430.292	6252.19
430.514	5746.19
430.736	5774.19
430.958	5629.19
431.18	5685.19
431.402	5624.19
431.624	5590.19
431.846	5725.19
432.068	5686.19
432.29	5805.19
432.512	5716.19
432.734	5815.19
432.956	5738.19
433.178	5758.19
433.4	5775.19
433.622	5755.19
433.844	5735.19
434.066	5724.19
434.287	5859.19
434.509	6069.19
434.731	6300.19
434.953	6452.19
435.175	6547.19
435.397	6621.19
435.618	6472.19
435.84	6880.19
436.062	7546.19
436.284	7394.19
436.505	6386.19
436.727	6155.19
436.949	5861.19
437.17	5833.19
437.392	5725.19
437.614	5894.19
437.835	6243.19
438.057	7085.19
438.278	7709.19
438.5	7627.19
438.721	8283.19
438.943	7351.19
439.165	6240.19
439.386	6101.19
439.608	6140.19
439.829	6197.19
440.05	6517.19
440.272	6777.19
440.493	6308.19
440.715	6094.19
440.936	6086.19
441.158	6109.19
441.379	6214.19
441.6	6531.19
441.822	6713.19
442.043	7140.19
442.264	7859.19
442.486	7525.19
442.707	6875.19
442.928	6665.19
443.149	6850.19
443.371	6928.19
443.592	7457.19
443.813	8412.19
444.034	8285.19
444.255	7471.19
444.476	7204.19
444.698	7483.19
444.919	7583.19
445.14	7334.19
445.361	7222.19
445.582	7142.19
445.803	7597.19
446.024	8201.19
446.245	7899.19
446.466	7139.19
446.687	6257.19
446.908	6042.19
447.129	5740.19
447.35	5673.19
447.571	5605.19
447.792	5461.19
448.013	5631.19
448.234	5757.19
448.455	6325.19
448.675	7402.19
448.896	7795.19
449.117	6558.19
449.338	6753.19
449.559	7906.19
449.779	7993.19
450	6213.19
450.221	5689.19
450.442	5442.19
450.662	5372.19
450.883	5469.19
451.104	5509.19
451.324	5307.19
451.545	5276.19
451.766	5151.19
451.986	5047.19
452.207	4983.19
452.428	5045.19
452.648	5042.19
452.869	5101.19
453.089	5043.19
453.31	5195.19
453.53	5052.19
453.751	4987.19
453.971	4993.19
454.192	5093.19
454.412	4883.19
454.633	4849.19
454.853	4894.19
455.073	4833.19
455.294	5245.19
455.514	5637.19
455.734	5225.19
455.955	4737.19
456.175	4639.19
456.395	4622.19
456.616	4671.19
456.836	4633.19
457.056	4597.19
457.276	4501.19
457.497	4716.19
457.717	4708.19
457.937	4771.19
458.157	4805.19
458.377	4900.19
458.598	5224.19
458.818	5826.19
459.038	6353.19
459.258	6310.19
459.478	5885.19
459.698	5786.19
459.918	5908.19
460.138	6105.19
460.358	6204.19
460.578	6254.19
460.798	6325.19
461.018	6391.19
461.238	6189.19
461.458	6222.19
461.678	6179.19
461.898	6416.19
462.118	6371.19
462.338	6745.19
462.558	6828.19
462.777	7117.19
462.997	7777.19
463.217	8255.19
463.437	7990.19
463.657	7405.19
463.876	7179.19
464.096	7240.19
464.316	7091.19
464.536	7187.19
464.755	6995.19
464.975	6819.19
465.195	6796.19
465.414	6737.19
465.634	6060.19
465.854	5736.19
466.073	5621.19
466.293	5459.19
466.512	5302.19
466.732	5181.19
466.951	5148.19
467.171	5195.19
467.391	5295.19
467.61	5280.19
467.829	5267.19
468.049	5190.19
468.268	5045.19
468.488	5011.19
468.707	4898.19
468.927	4960.19
469.146	4900.19
469.365	5138.19
469.585	4999.19
469.804	5170.19
470.023	5442.19
470.243	5376.19
470.462	5419.19
470.681	5593.19
470.901	5466.19
471.12	5279.19
471.339	5325.19
471.558	5213.19
471.777	5182.19
471.997	5104.19
472.216	5130.19
472.435	5189.19
472.654	5033.19
472.873	4921.19
473.092	4919.19
473.311	4940.19
473.53	5057.19
473.749	5055.19
473.968	5513.19
474.187	6406.19
474.406	5894.19
474.625	5261.19
474.844	4959.19
475.063	4974.19
475.282	4947.19
475.501	5061.19
475.72	5105.19
475.939	5051.19
476.158	5145.19
476.377	5174.19
476.596	5108.19
476.814	5305.19
477.033	5353.19
477.252	5435.19
477.471	5441.19
477.69	5587.19
477.908	5657.19
478.127	5926.19
478.346	5943.19
478.564	6014.19
478.783	6122.19
479.002	6341.19
479.22	6235.19
479.439	6408.19
479.658	6421.19
479.876	6505.19
480.095	6707.19
480.313	7118.19
480.532	6982.19
480.751	6882.19
480.969	6745.19
481.188	6904.19
481.406	6726.19
481.624	6310.19
481.843	6135.19
482.061	6079.19
482.28	5993.19
482.498	5894.19
482.717	5844.19
482.935	5790.19
483.153	5789.19
483.372	5871.19
483.59	5899.19
483.808	5857.19
484.027	5897.19
484.245	5891.19
484.463	5872.19
484.681	5990.19
484.9	6030.19
485.118	6088.19
485.336	6022.19
485.554	6185.19
485.772	6215.19
485.99	6179.19
486.209	6226.19
486.427	6302.19
486.645	6273.19
486.863	6408.19
487.081	6469.19
487.299	6355.19
487.517	6285.19
487.735	6217.19
487.953	6145.19
