Data from Uncirc_1983_H10_HRD10591_00060.txt Node
Date: Wed Jan 03 12:25:44 EST 2024
User: Yrep
Spectrometer: HR+D1059
Trigger mode: 1
Integration Time (sec): 1.000000E-1
Scans to average: 1
Electric dark correction enabled: true
Nonlinearity correction enabled: false
Boxcar width: 0
XAxis mode: Wavelengths
Number of Pixels in Spectrum: 2048
>>>>>Begin Spectral Data<<<<<
223.165	3.56
223.4	3.56
223.635	3.56
223.869	-16.44
224.104	-20.44
224.338	-13.44
224.573	-7.44
224.808	-26.44
225.042	-19.44
225.277	-12.44
225.511	4.56
225.746	3.56
225.98	2.56
226.215	-1.44
226.449	14.56
226.683	15.56
226.918	31.56
227.152	41.56
227.387	35.56
227.621	27.56
227.856	35.56
228.09	51.56
228.324	53.56
228.559	51.56
228.793	54.56
229.027	61.56
229.262	51.56
229.496	75.56
229.73	77.56
229.964	74.56
230.199	61.56
230.433	72.56
230.667	83.56
230.901	79.56
231.136	80.56
231.37	73.56
231.604	79.56
231.838	67.56
232.072	71.56
232.306	85.56
232.541	79.56
232.775	80.56
233.009	73.56
233.243	72.56
233.477	84.56
233.711	74.56
233.945	58.56
234.179	77.56
234.413	75.56
234.647	66.56
234.881	78.56
235.115	69.56
235.349	67.56
235.583	81.56
235.817	90.56
236.051	71.56
236.285	68.56
236.519	83.56
236.753	70.56
236.987	77.56
237.221	86.56
237.455	68.56
237.689	77.56
237.922	73.56
238.156	71.56
238.39	78.56
238.624	81.56
238.858	73.56
239.091	75.56
239.325	71.56
239.559	72.56
239.793	69.56
240.027	81.56
240.26	63.56
240.494	69.56
240.728	73.56
240.961	76.56
241.195	79.56
241.429	78.56
241.662	75.56
241.896	79.56
242.13	75.56
242.363	70.56
242.597	80.56
242.83	72.56
243.064	87.56
243.298	71.56
243.531	70.56
243.765	64.56
243.998	65.56
244.232	56.56
244.465	64.56
244.699	76.56
244.932	67.56
245.166	88.56
245.399	75.56
245.633	83.56
245.866	87.56
246.099	74.56
246.333	83.56
246.566	86.56
246.8	65.56
247.033	79.56
247.266	75.56
247.5	65.56
247.733	78.56
247.966	74.56
248.2	80.56
248.433	79.56
248.666	69.56
248.899	77.56
249.133	86.56
249.366	93.56
249.599	85.56
249.832	92.56
250.066	82.56
250.299	79.56
250.532	76.56
250.765	70.56
250.998	74.56
251.231	68.56
251.465	77.56
251.698	84.56
251.931	91.56
252.164	75.56
252.397	65.56
252.63	80.56
252.863	74.56
253.096	83.56
253.329	90.56
253.562	77.56
253.795	95.56
254.028	73.56
254.261	68.56
254.494	66.56
254.727	89.56
254.96	81.56
255.193	77.56
255.426	80.56
255.659	92.56
255.892	66.56
256.124	89.56
256.357	73.56
256.59	80.56
256.823	75.56
257.056	82.56
257.289	78.56
257.521	84.56
257.754	87.56
257.987	85.56
258.22	80.56
258.452	79.56
258.685	79.56
258.918	81.56
259.151	93.56
259.383	83.56
259.616	71.56
259.849	84.56
260.081	73.56
260.314	85.56
260.547	98.56
260.779	80.56
261.012	78.56
261.244	85.56
261.477	93.56
261.71	97.56
261.942	103.56
262.175	102.56
262.407	81.56
262.64	85.56
262.872	88.56
263.105	96.56
263.337	89.56
263.57	78.56
263.802	89.56
264.035	88.56
264.267	73.56
264.499	79.56
264.732	67.56
264.964	87.56
265.197	80.56
265.429	81.56
265.661	71.56
265.894	93.56
266.126	87.56
266.358	91.56
266.591	87.56
266.823	66.56
267.055	79.56
267.287	67.56
267.52	80.56
267.752	84.56
267.984	97.56
268.216	85.56
268.448	88.56
268.681	70.56
268.913	81.56
269.145	85.56
269.377	92.56
269.609	78.56
269.841	66.56
270.073	93.56
270.306	86.56
270.538	90.56
270.77	89.56
271.002	85.56
271.234	70.56
271.466	82.56
271.698	91.56
271.93	71.56
272.162	87.56
272.394	90.56
272.626	81.56
272.858	77.56
273.09	88.56
273.322	80.56
273.553	79.56
273.785	92.56
274.017	72.56
274.249	85.56
274.481	83.56
274.713	83.56
274.945	95.56
275.176	74.56
275.408	85.56
275.64	74.56
275.872	79.56
276.104	88.56
276.335	74.56
276.567	95.56
276.799	110.56
277.031	88.56
277.262	87.56
277.494	90.56
277.726	78.56
277.957	72.56
278.189	77.56
278.421	79.56
278.652	73.56
278.884	89.56
279.115	84.56
279.347	89.56
279.579	79.56
279.81	73.56
280.042	76.56
280.273	82.56
280.505	77.56
280.736	87.56
280.968	92.56
281.199	71.56
281.431	89.56
281.662	81.56
281.894	88.56
282.125	90.56
282.356	117.56
282.588	115.56
282.819	102.56
283.051	85.56
283.282	81.56
283.513	105.56
283.745	80.56
283.976	83.56
284.207	86.56
284.439	75.56
284.67	73.56
284.901	72.56
285.132	98.56
285.364	75.56
285.595	95.56
285.826	82.56
286.057	81.56
286.288	70.56
286.52	89.56
286.751	89.56
286.982	75.56
287.213	77.56
287.444	73.56
287.675	89.56
287.906	98.56
288.138	71.56
288.369	83.56
288.6	81.56
288.831	100.56
289.062	92.56
289.293	93.56
289.524	85.56
289.755	88.56
289.986	90.56
290.217	80.56
290.448	95.56
290.679	93.56
290.91	87.56
291.141	78.56
291.371	89.56
291.602	86.56
291.833	81.56
292.064	93.56
292.295	83.56
292.526	77.56
292.757	83.56
292.987	81.56
293.218	87.56
293.449	86.56
293.68	86.56
293.91	75.56
294.141	98.56
294.372	85.56
294.603	87.56
294.833	87.56
295.064	86.56
295.295	84.56
295.525	85.56
295.756	98.56
295.987	117.56
296.217	138.56
296.448	111.56
296.679	108.56
296.909	92.56
297.14	96.56
297.37	83.56
297.601	87.56
297.831	78.56
298.062	86.56
298.292	86.56
298.523	87.56
298.753	84.56
298.984	79.56
299.214	83.56
299.445	86.56
299.675	91.56
299.905	103.56
300.136	84.56
300.366	95.56
300.597	89.56
300.827	96.56
301.057	93.56
301.288	85.56
301.518	92.56
301.748	84.56
301.979	101.56
302.209	78.56
302.439	89.56
302.669	83.56
302.9	91.56
303.13	85.56
303.36	98.56
303.59	89.56
303.82	96.56
304.051	91.56
304.281	99.56
304.511	99.56
304.741	85.56
304.971	91.56
305.201	88.56
305.431	99.56
305.661	81.56
305.891	87.56
306.121	92.56
306.352	82.56
306.582	103.56
306.812	86.56
307.042	93.56
307.272	87.56
307.502	102.56
307.731	96.56
307.961	82.56
308.191	97.56
308.421	101.56
308.651	82.56
308.881	89.56
309.111	74.56
309.341	91.56
309.571	83.56
309.8	101.56
310.03	95.56
310.26	102.56
310.49	91.56
310.72	86.56
310.949	105.56
311.179	95.56
311.409	92.56
311.639	97.56
311.868	88.56
312.098	87.56
312.328	101.56
312.557	92.56
312.787	102.56
313.017	102.56
313.246	88.56
313.476	89.56
313.706	94.56
313.935	81.56
314.165	110.56
314.394	88.56
314.624	86.56
314.853	86.56
315.083	85.56
315.312	89.56
315.542	92.56
315.771	90.56
316.001	97.56
316.23	102.56
316.46	94.56
316.689	94.56
316.919	83.56
317.148	97.56
317.377	86.56
317.607	77.56
317.836	90.56
318.065	88.56
318.295	81.56
318.524	82.56
318.753	94.56
318.983	91.56
319.212	102.56
319.441	109.56
319.67	100.56
319.9	79.56
320.129	89.56
320.358	89.56
320.587	94.56
320.816	96.56
321.046	98.56
321.275	98.56
321.504	92.56
321.733	91.56
321.962	102.56
322.191	107.56
322.42	99.56
322.649	114.56
322.878	107.56
323.108	117.56
323.337	121.56
323.566	117.56
323.795	137.56
324.024	197.56
324.253	365.56
324.482	783.56
324.71	1569.56
324.939	2071.56
325.168	769.56
325.397	233.56
325.626	158.56
325.855	125.56
326.084	111.56
326.313	131.56
326.542	147.56
326.77	217.56
326.999	447.56
327.228	917.56
327.457	1638.56
327.686	1268.56
327.914	337.56
328.143	177.56
328.372	134.56
328.6	129.56
328.829	93.56
329.058	124.56
329.287	117.56
329.515	101.56
329.744	105.56
329.972	89.56
330.201	109.56
330.43	116.56
330.658	121.56
330.887	127.56
331.115	100.56
331.344	98.56
331.572	94.56
331.801	96.56
332.03	88.56
332.258	81.56
332.486	92.56
332.715	89.56
332.943	96.56
333.172	101.56
333.4	101.56
333.629	104.56
333.857	118.56
334.085	86.56
334.314	95.56
334.542	117.56
334.771	133.56
334.999	104.56
335.227	89.56
335.455	95.56
335.684	97.56
335.912	95.56
336.14	95.56
336.369	96.56
336.597	95.56
336.825	88.56
337.053	89.56
337.281	106.56
337.51	87.56
337.738	97.56
337.966	89.56
338.194	84.56
338.422	99.56
338.65	85.56
338.878	86.56
339.106	92.56
339.334	95.56
339.562	77.56
339.79	93.56
340.018	81.56
340.246	89.56
340.474	91.56
340.702	100.56
340.93	92.56
341.158	80.56
341.386	96.56
341.614	81.56
341.842	106.56
342.07	74.56
342.298	97.56
342.526	79.56
342.754	90.56
342.981	88.56
343.209	86.56
343.437	94.56
343.665	93.56
343.893	87.56
344.12	100.56
344.348	82.56
344.576	97.56
344.804	94.56
345.031	86.56
345.259	95.56
345.487	87.56
345.714	99.56
345.942	92.56
346.17	89.56
346.397	106.56
346.625	94.56
346.853	91.56
347.08	98.56
347.308	96.56
347.535	97.56
347.763	85.56
347.99	88.56
348.218	96.56
348.445	107.56
348.673	89.56
348.9	85.56
349.128	99.56
349.355	87.56
349.583	97.56
349.81	81.56
350.037	99.56
350.265	97.56
350.492	93.56
350.72	97.56
350.947	107.56
351.174	99.56
351.402	105.56
351.629	98.56
351.856	102.56
352.083	116.56
352.311	99.56
352.538	92.56
352.765	101.56
352.992	104.56
353.22	106.56
353.447	88.56
353.674	105.56
353.901	101.56
354.128	84.56
354.355	85.56
354.583	101.56
354.81	98.56
355.037	92.56
355.264	86.56
355.491	97.56
355.718	94.56
355.945	99.56
356.172	98.56
356.399	77.56
356.626	96.56
356.853	100.56
357.08	93.56
357.307	86.56
357.534	81.56
357.761	90.56
357.988	103.56
358.215	80.56
358.441	79.56
358.668	93.56
358.895	98.56
359.122	74.56
359.349	91.56
359.576	90.56
359.802	113.56
360.029	119.56
360.256	101.56
360.483	94.56
360.709	79.56
360.936	96.56
361.163	89.56
361.39	90.56
361.616	93.56
361.843	95.56
362.07	93.56
362.296	95.56
362.523	87.56
362.749	82.56
362.976	84.56
363.203	90.56
363.429	96.56
363.656	91.56
363.882	87.56
364.109	84.56
364.335	89.56
364.562	89.56
364.788	95.56
365.015	88.56
365.241	85.56
365.468	107.56
365.694	112.56
365.92	103.56
366.147	84.56
366.373	66.56
366.599	89.56
366.826	96.56
367.052	83.56
367.278	93.56
367.505	98.56
367.731	87.56
367.957	89.56
368.184	65.56
368.41	105.56
368.636	104.56
368.862	103.56
369.089	113.56
369.315	87.56
369.541	97.56
369.767	102.56
369.993	89.56
370.219	88.56
370.445	82.56
370.672	94.56
370.898	92.56
371.124	94.56
371.35	86.56
371.576	76.56
371.802	72.56
372.028	102.56
372.254	81.56
372.48	85.56
372.706	85.56
372.932	75.56
373.158	93.56
373.384	84.56
373.61	88.56
373.835	71.56
374.061	72.56
374.287	91.56
374.513	93.56
374.739	89.56
374.965	93.56
375.191	69.56
375.416	96.56
375.642	89.56
375.868	95.56
376.094	91.56
376.319	81.56
376.545	97.56
376.771	94.56
376.997	106.56
377.222	87.56
377.448	93.56
377.674	69.56
377.899	67.56
378.125	76.56
378.35	93.56
378.576	99.56
378.802	81.56
379.027	100.56
379.253	99.56
379.478	86.56
379.704	83.56
379.929	96.56
380.155	96.56
380.38	101.56
380.606	104.56
380.831	105.56
381.057	102.56
381.282	93.56
381.507	86.56
381.733	96.56
381.958	112.56
382.184	91.56
382.409	91.56
382.634	105.56
382.86	95.56
383.085	100.56
383.31	100.56
383.535	92.56
383.761	114.56
383.986	98.56
384.211	94.56
384.436	93.56
384.662	93.56
384.887	90.56
385.112	95.56
385.337	111.56
385.562	102.56
385.787	97.56
386.013	101.56
386.238	98.56
386.463	95.56
386.688	105.56
386.913	91.56
387.138	99.56
387.363	98.56
387.588	93.56
387.813	84.56
388.038	94.56
388.263	88.56
388.488	111.56
388.713	90.56
388.938	78.56
389.163	90.56
389.387	89.56
389.612	89.56
389.837	80.56
390.062	110.56
390.287	95.56
390.512	97.56
390.736	98.56
390.961	86.56
391.186	95.56
391.411	99.56
391.636	89.56
391.86	72.56
392.085	83.56
392.31	94.56
392.534	93.56
392.759	89.56
392.984	87.56
393.208	86.56
393.433	91.56
393.658	73.56
393.882	81.56
394.107	98.56
394.331	83.56
394.556	69.56
394.78	81.56
395.005	82.56
395.229	86.56
395.454	85.56
395.678	87.56
395.903	67.56
396.127	77.56
396.352	98.56
396.576	92.56
396.801	80.56
397.025	86.56
397.249	81.56
397.474	83.56
397.698	95.56
397.922	85.56
398.147	71.56
398.371	90.56
398.595	93.56
398.82	90.56
399.044	87.56
399.268	78.56
399.492	81.56
399.717	87.56
399.941	84.56
400.165	94.56
400.389	88.56
400.613	89.56
400.837	87.56
401.062	80.56
401.286	95.56
401.51	86.56
401.734	89.56
401.958	95.56
402.182	113.56
402.406	129.56
402.63	114.56
402.854	86.56
403.078	80.56
403.302	84.56
403.526	84.56
403.75	85.56
403.974	89.56
404.198	74.56
404.422	83.56
404.645	77.56
404.869	95.56
405.093	85.56
405.317	88.56
405.541	82.56
405.765	95.56
405.988	117.56
406.212	173.56
406.436	214.56
406.66	129.56
406.883	89.56
407.107	96.56
407.331	89.56
407.555	104.56
407.778	97.56
408.002	88.56
408.226	102.56
408.449	97.56
408.673	81.56
408.896	101.56
409.12	88.56
409.344	93.56
409.567	97.56
409.791	104.56
410.014	83.56
410.238	102.56
410.461	97.56
410.685	79.56
410.908	90.56
411.132	122.56
411.355	98.56
411.578	89.56
411.802	110.56
412.025	96.56
412.249	84.56
412.472	93.56
412.695	88.56
412.919	68.56
413.142	95.56
413.365	92.56
413.589	73.56
413.812	87.56
414.035	88.56
414.258	98.56
414.482	88.56
414.705	93.56
414.928	91.56
415.151	96.56
415.374	88.56
415.597	75.56
415.821	81.56
416.044	90.56
416.267	84.56
416.49	85.56
416.713	94.56
416.936	87.56
417.159	71.56
417.382	104.56
417.605	91.56
417.828	76.56
418.051	78.56
418.274	95.56
418.497	77.56
418.72	81.56
418.943	82.56
419.166	82.56
419.389	100.56
419.611	71.56
419.834	85.56
420.057	89.56
420.28	76.56
420.503	84.56
420.726	72.56
420.948	89.56
421.171	90.56
421.394	102.56
421.617	88.56
421.839	86.56
422.062	82.56
422.285	85.56
422.507	85.56
422.73	92.56
422.953	87.56
423.175	86.56
423.398	82.56
423.621	76.56
423.843	90.56
424.066	81.56
424.288	87.56
424.511	91.56
424.733	93.56
424.956	122.56
425.178	85.56
425.401	93.56
425.623	93.56
425.846	94.56
426.068	84.56
426.291	81.56
426.513	102.56
426.735	74.56
426.958	86.56
427.18	93.56
427.402	128.56
427.625	151.56
427.847	123.56
428.069	122.56
428.292	99.56
428.514	83.56
428.736	81.56
428.958	83.56
429.181	79.56
429.403	95.56
429.625	89.56
429.847	101.56
430.069	100.56
430.292	85.56
430.514	87.56
430.736	86.56
430.958	70.56
431.18	81.56
431.402	81.56
431.624	64.56
431.846	72.56
432.068	88.56
432.29	91.56
432.512	87.56
432.734	86.56
432.956	93.56
433.178	101.56
433.4	84.56
433.622	97.56
433.844	91.56
434.066	100.56
434.287	104.56
434.509	79.56
434.731	101.56
434.953	91.56
435.175	73.56
435.397	86.56
435.618	86.56
435.84	99.56
436.062	107.56
436.284	113.56
436.505	99.56
436.727	96.56
436.949	74.56
437.17	96.56
437.392	94.56
437.614	93.56
437.835	87.56
438.057	121.56
438.278	105.56
438.5	106.56
438.721	111.56
438.943	99.56
439.165	82.56
439.386	87.56
439.608	70.56
439.829	121.56
440.05	117.56
440.272	126.56
440.493	80.56
440.715	88.56
440.936	89.56
441.158	87.56
441.379	88.56
441.6	83.56
441.822	85.56
442.043	82.56
442.264	106.56
442.486	88.56
442.707	88.56
442.928	95.56
443.149	123.56
443.371	130.56
443.592	99.56
443.813	101.56
444.034	104.56
444.255	84.56
444.476	75.56
444.698	73.56
444.919	91.56
445.14	148.56
445.361	130.56
445.582	99.56
445.803	130.56
446.024	128.56
446.245	123.56
446.466	114.56
446.687	87.56
446.908	91.56
447.129	86.56
447.35	90.56
447.571	90.56
447.792	97.56
448.013	112.56
448.234	98.56
448.455	96.56
448.675	93.56
448.896	111.56
449.117	96.56
449.338	97.56
449.559	126.56
449.779	129.56
450	96.56
450.221	97.56
450.442	95.56
450.662	104.56
450.883	110.56
451.104	108.56
451.324	91.56
451.545	83.56
451.766	79.56
451.986	87.56
452.207	85.56
452.428	81.56
452.648	84.56
452.869	111.56
453.089	103.56
453.31	111.56
453.53	97.56
453.751	79.56
453.971	98.56
454.192	98.56
454.412	89.56
454.633	86.56
454.853	90.56
455.073	98.56
455.294	104.56
455.514	93.56
455.734	86.56
455.955	84.56
456.175	81.56
456.395	71.56
456.616	80.56
456.836	86.56
457.056	114.56
457.276	87.56
457.497	83.56
457.717	103.56
457.937	75.56
458.157	93.56
458.377	92.56
458.598	88.56
458.818	142.56
459.038	154.56
459.258	121.56
459.478	96.56
459.698	86.56
459.918	74.56
460.138	81.56
460.358	67.56
460.578	76.56
460.798	79.56
461.018	83.56
461.238	98.56
461.458	84.56
461.678	101.56
461.898	85.56
462.118	79.56
462.338	81.56
462.558	85.56
462.777	90.56
462.997	87.56
463.217	79.56
463.437	84.56
463.657	79.56
463.876	74.56
464.096	89.56
464.316	83.56
464.536	101.56
464.755	101.56
464.975	102.56
465.195	142.56
465.414	155.56
465.634	97.56
465.854	83.56
466.073	81.56
466.293	87.56
466.512	73.56
466.732	89.56
466.951	87.56
467.171	90.56
467.391	94.56
467.61	113.56
467.829	89.56
468.049	88.56
468.268	86.56
468.488	64.56
468.707	85.56
468.927	70.56
469.146	92.56
469.365	85.56
469.585	98.56
469.804	82.56
470.023	89.56
470.243	94.56
470.462	85.56
470.681	110.56
470.901	87.56
471.12	82.56
471.339	90.56
471.558	88.56
471.777	88.56
471.997	96.56
472.216	91.56
472.435	120.56
472.654	80.56
472.873	85.56
473.092	73.56
473.311	77.56
473.53	75.56
473.749	87.56
473.968	77.56
474.187	89.56
474.406	87.56
474.625	91.56
474.844	93.56
475.063	86.56
475.282	86.56
475.501	85.56
475.72	74.56
475.939	81.56
476.158	89.56
476.377	84.56
476.596	78.56
476.814	106.56
477.033	85.56
477.252	77.56
477.471	89.56
477.69	82.56
477.908	78.56
478.127	74.56
478.346	84.56
478.564	85.56
478.783	101.56
479.002	96.56
479.22	91.56
479.439	94.56
479.658	106.56
479.876	85.56
480.095	85.56
480.313	86.56
480.532	89.56
480.751	90.56
480.969	119.56
481.188	160.56
481.406	119.56
481.624	95.56
481.843	88.56
482.061	89.56
482.28	97.56
482.498	85.56
482.717	74.56
482.935	80.56
483.153	71.56
483.372	75.56
483.59	84.56
483.808	95.56
484.027	91.56
484.245	98.56
484.463	86.56
484.681	97.56
484.9	86.56
485.118	100.56
485.336	96.56
485.554	103.56
485.772	96.56
485.99	90.56
486.209	95.56
486.427	100.56
486.645	103.56
486.863	106.56
487.081	102.56
487.299	97.56
487.517	86.56
487.735	81.56
487.953	92.56
488.171	82.56
488.389	89.56
488.607	103.56
488.825	91.56
489.043	81.56
489.261	96.56
489.479	80.56
489.696	83.56
489.914	92.56
490.132	82.56
490.35	90.56
490.568	93.56
490.786	74.56
491.003	93.56
491.221	95.56
491.439	70.56
491.657	87.56
491.874	98.56
492.092	97.56
492.31	92.56
492.527	83.56
492.745	91.56
492.963	86.56
493.18	87.56
493.398	101.56
493.615	91.56
493.833	93.56
494.05	91.56
494.268	95.56
494.485	97.56
494.703	85.56
494.92	96.56
495.138	82.56
495.355	78.56
495.573	93.56
495.79	95.56
496.008	100.56
496.225	81.56
496.442	71.56
496.66	97.56
496.877	97.56
497.094	92.56
497.312	83.56
497.529	103.56
497.746	95.56
497.963	94.56
498.181	88.56
498.398	81.56
498.615	109.56
498.832	102.56
499.049	71.56
499.267	87.56
499.484	77.56
499.701	100.56
499.918	85.56
500.135	80.56
500.352	78.56
500.569	95.56
500.786	87.56
501.003	97.56
501.22	90.56
501.437	83.56
501.654	101.56
501.871	111.56
502.088	87.56
502.305	94.56
502.522	87.56
502.739	83.56
502.956	75.56
503.172	96.56
503.389	94.56
503.606	105.56
503.823	112.56
504.04	89.56
504.256	75.56
504.473	90.56
504.69	84.56
504.907	86.56
505.123	73.56
505.34	87.56
505.557	102.56
505.773	88.56
505.99	81.56
506.207	88.56
506.423	89.56
506.64	93.56
506.856	93.56
507.073	100.56
507.289	77.56
507.506	94.56
507.722	93.56
507.939	107.56
508.155	97.56
508.372	103.56
508.588	82.56
508.805	93.56
509.021	96.56
509.238	99.56
509.454	103.56
509.67	107.56
509.887	113.56
510.103	137.56
510.319	203.56
510.536	748.56
510.752	2419.56
510.968	633.56
511.184	154.56
511.401	113.56
511.617	94.56
511.833	81.56
512.049	82.56
512.265	77.56
512.481	86.56
512.698	82.56
512.914	90.56
513.13	79.56
513.346	97.56
513.562	82.56
513.778	90.56
513.994	95.56
514.21	96.56
514.426	111.56
514.642	131.56
514.858	118.56
515.074	148.56
515.29	429.56
515.506	1396.56
515.721	493.56
515.937	139.56
516.153	89.56
516.369	99.56
516.585	97.56
516.801	79.56
