Data from Uncirc_1983_H10_HRD10591_00049.txt Node
Date: Wed Jan 03 12:25:41 EST 2024
User: Yrep
Spectrometer: HR+D1059
Trigger mode: 1
Integration Time (sec): 1.000000E-1
Scans to average: 1
Electric dark correction enabled: true
Nonlinearity correction enabled: false
Boxcar width: 0
XAxis mode: Wavelengths
Number of Pixels in Spectrum: 2048
>>>>>Begin Spectral Data<<<<<
223.165	-3.06
223.4	-3.06
223.635	-3.06
223.869	-22.06
224.104	-11.06
224.338	-24.06
224.573	-19.06
224.808	-12.06
225.042	-14.06
225.277	-12.06
225.511	3.94
225.746	-5.06
225.98	16.94
226.215	9.94
226.449	5.94
226.683	23.94
226.918	23.94
227.152	37.94
227.387	35.94
227.621	34.94
227.856	32.94
228.09	36.94
228.324	55.94
228.559	63.94
228.793	69.94
229.027	42.94
229.262	80.94
229.496	71.94
229.73	66.94
229.964	65.94
230.199	86.94
230.433	71.94
230.667	75.94
230.901	69.94
231.136	63.94
231.37	71.94
231.604	82.94
231.838	79.94
232.072	71.94
232.306	81.94
232.541	87.94
232.775	82.94
233.009	63.94
233.243	73.94
233.477	78.94
233.711	87.94
233.945	78.94
234.179	80.94
234.413	94.94
234.647	85.94
234.881	78.94
235.115	73.94
235.349	72.94
235.583	76.94
235.817	72.94
236.051	72.94
236.285	87.94
236.519	77.94
236.753	75.94
236.987	87.94
237.221	85.94
237.455	70.94
237.689	82.94
237.922	67.94
238.156	67.94
238.39	71.94
238.624	71.94
238.858	70.94
239.091	73.94
239.325	78.94
239.559	79.94
239.793	74.94
240.027	91.94
240.26	73.94
240.494	77.94
240.728	79.94
240.961	71.94
241.195	79.94
241.429	74.94
241.662	81.94
241.896	66.94
242.13	88.94
242.363	66.94
242.597	71.94
242.83	73.94
243.064	63.94
243.298	68.94
243.531	73.94
243.765	77.94
243.998	58.94
244.232	87.94
244.465	70.94
244.699	85.94
244.932	87.94
245.166	67.94
245.399	88.94
245.633	73.94
245.866	70.94
246.099	77.94
246.333	73.94
246.566	72.94
246.8	58.94
247.033	86.94
247.266	73.94
247.5	80.94
247.733	67.94
247.966	75.94
248.2	64.94
248.433	62.94
248.666	67.94
248.899	68.94
249.133	83.94
249.366	93.94
249.599	84.94
249.832	78.94
250.066	72.94
250.299	83.94
250.532	67.94
250.765	82.94
250.998	65.94
251.231	83.94
251.465	80.94
251.698	79.94
251.931	74.94
252.164	65.94
252.397	67.94
252.63	80.94
252.863	84.94
253.096	81.94
253.329	69.94
253.562	82.94
253.795	77.94
254.028	74.94
254.261	62.94
254.494	80.94
254.727	76.94
254.96	79.94
255.193	64.94
255.426	70.94
255.659	79.94
255.892	60.94
256.124	66.94
256.357	69.94
256.59	77.94
256.823	80.94
257.056	81.94
257.289	84.94
257.521	69.94
257.754	72.94
257.987	80.94
258.22	74.94
258.452	85.94
258.685	79.94
258.918	91.94
259.151	79.94
259.383	77.94
259.616	73.94
259.849	85.94
260.081	73.94
260.314	77.94
260.547	81.94
260.779	86.94
261.012	73.94
261.244	77.94
261.477	79.94
261.71	92.94
261.942	104.94
262.175	98.94
262.407	85.94
262.64	87.94
262.872	55.94
263.105	81.94
263.337	81.94
263.57	82.94
263.802	63.94
264.035	78.94
264.267	74.94
264.499	67.94
264.732	77.94
264.964	93.94
265.197	84.94
265.429	82.94
265.661	78.94
265.894	77.94
266.126	80.94
266.358	87.94
266.591	71.94
266.823	86.94
267.055	82.94
267.287	88.94
267.52	84.94
267.752	90.94
267.984	66.94
268.216	70.94
268.448	91.94
268.681	86.94
268.913	85.94
269.145	89.94
269.377	88.94
269.609	88.94
269.841	90.94
270.073	78.94
270.306	80.94
270.538	73.94
270.77	86.94
271.002	101.94
271.234	80.94
271.466	91.94
271.698	89.94
271.93	78.94
272.162	73.94
272.394	78.94
272.626	91.94
272.858	78.94
273.09	71.94
273.322	87.94
273.553	79.94
273.785	86.94
274.017	94.94
274.249	95.94
274.481	68.94
274.713	94.94
274.945	79.94
275.176	87.94
275.408	80.94
275.64	90.94
275.872	85.94
276.104	95.94
276.335	89.94
276.567	93.94
276.799	94.94
277.031	91.94
277.262	83.94
277.494	89.94
277.726	89.94
277.957	69.94
278.189	90.94
278.421	83.94
278.652	87.94
278.884	77.94
279.115	91.94
279.347	76.94
279.579	79.94
279.81	73.94
280.042	82.94
280.273	93.94
280.505	79.94
280.736	83.94
280.968	75.94
281.199	70.94
281.431	89.94
281.662	85.94
281.894	83.94
282.125	106.94
282.356	105.94
282.588	124.94
282.819	105.94
283.051	78.94
283.282	87.94
283.513	81.94
283.745	87.94
283.976	91.94
284.207	87.94
284.439	102.94
284.67	86.94
284.901	68.94
285.132	85.94
285.364	63.94
285.595	79.94
285.826	75.94
286.057	89.94
286.288	93.94
286.52	87.94
286.751	85.94
286.982	90.94
287.213	84.94
287.444	80.94
287.675	81.94
287.906	83.94
288.138	75.94
288.369	89.94
288.6	90.94
288.831	99.94
289.062	83.94
289.293	82.94
289.524	87.94
289.755	89.94
289.986	86.94
290.217	95.94
290.448	74.94
290.679	90.94
290.91	81.94
291.141	93.94
291.371	81.94
291.602	86.94
291.833	88.94
292.064	81.94
292.295	93.94
292.526	80.94
292.757	75.94
292.987	90.94
293.218	84.94
293.449	85.94
293.68	97.94
293.91	70.94
294.141	89.94
294.372	90.94
294.603	86.94
294.833	83.94
295.064	90.94
295.295	82.94
295.525	82.94
295.756	103.94
295.987	104.94
296.217	115.94
296.448	121.94
296.679	82.94
296.909	83.94
297.14	82.94
297.37	65.94
297.601	88.94
297.831	93.94
298.062	104.94
298.292	85.94
298.523	89.94
298.753	72.94
298.984	92.94
299.214	93.94
299.445	86.94
299.675	99.94
299.905	97.94
300.136	87.94
300.366	96.94
300.597	74.94
300.827	86.94
301.057	91.94
301.288	98.94
301.518	88.94
301.748	96.94
301.979	101.94
302.209	78.94
302.439	92.94
302.669	80.94
302.9	97.94
303.13	93.94
303.36	102.94
303.59	90.94
303.82	101.94
304.051	98.94
304.281	97.94
304.511	98.94
304.741	77.94
304.971	77.94
305.201	89.94
305.431	101.94
305.661	81.94
305.891	94.94
306.121	101.94
306.352	105.94
306.582	113.94
306.812	96.94
307.042	82.94
307.272	95.94
307.502	92.94
307.731	87.94
307.961	86.94
308.191	106.94
308.421	79.94
308.651	93.94
308.881	80.94
309.111	89.94
309.341	92.94
309.571	82.94
309.8	93.94
310.03	91.94
310.26	86.94
310.49	93.94
310.72	85.94
310.949	100.94
311.179	94.94
311.409	79.94
311.639	103.94
311.868	80.94
312.098	106.94
312.328	95.94
312.557	92.94
312.787	83.94
313.017	88.94
313.246	91.94
313.476	92.94
313.706	90.94
313.935	83.94
314.165	89.94
314.394	95.94
314.624	102.94
314.853	95.94
315.083	89.94
315.312	84.94
315.542	75.94
315.771	77.94
316.001	72.94
316.23	90.94
316.46	84.94
316.689	85.94
316.919	73.94
317.148	95.94
317.377	101.94
317.607	95.94
317.836	97.94
318.065	101.94
318.295	85.94
318.524	81.94
318.753	82.94
318.983	105.94
319.212	111.94
319.441	93.94
319.67	103.94
319.9	107.94
320.129	106.94
320.358	96.94
320.587	88.94
320.816	95.94
321.046	84.94
321.275	86.94
321.504	81.94
321.733	97.94
321.962	93.94
322.191	111.94
322.42	90.94
322.649	101.94
322.878	107.94
323.108	112.94
323.337	104.94
323.566	127.94
323.795	130.94
324.024	176.94
324.253	326.94
324.482	691.94
324.71	1418.94
324.939	1898.94
325.168	688.94
325.397	229.94
325.626	130.94
325.855	124.94
326.084	115.94
326.313	135.94
326.542	153.94
326.77	200.94
326.999	390.94
327.228	794.94
327.457	1449.94
327.686	1118.94
327.914	309.94
328.143	179.94
328.372	141.94
328.6	112.94
328.829	112.94
329.058	113.94
329.287	119.94
329.515	98.94
329.744	106.94
329.972	97.94
330.201	110.94
330.43	120.94
330.658	118.94
330.887	122.94
331.115	97.94
331.344	90.94
331.572	83.94
331.801	97.94
332.03	97.94
332.258	96.94
332.486	96.94
332.715	88.94
332.943	86.94
333.172	93.94
333.4	95.94
333.629	113.94
333.857	102.94
334.085	98.94
334.314	111.94
334.542	114.94
334.771	93.94
334.999	89.94
335.227	85.94
335.455	96.94
335.684	99.94
335.912	84.94
336.14	80.94
336.369	92.94
336.597	102.94
336.825	94.94
337.053	88.94
337.281	86.94
337.51	82.94
337.738	93.94
337.966	101.94
338.194	98.94
338.422	81.94
338.65	93.94
338.878	104.94
339.106	94.94
339.334	93.94
339.562	101.94
339.79	98.94
340.018	89.94
340.246	81.94
340.474	88.94
340.702	94.94
340.93	83.94
341.158	90.94
341.386	93.94
341.614	88.94
341.842	87.94
342.07	68.94
342.298	81.94
342.526	101.94
342.754	90.94
342.981	97.94
343.209	97.94
343.437	96.94
343.665	77.94
343.893	94.94
344.12	92.94
344.348	99.94
344.576	80.94
344.804	83.94
345.031	97.94
345.259	91.94
345.487	89.94
345.714	89.94
345.942	95.94
346.17	102.94
346.397	93.94
346.625	93.94
346.853	71.94
347.08	100.94
347.308	83.94
347.535	91.94
347.763	106.94
347.99	105.94
348.218	99.94
348.445	97.94
348.673	91.94
348.9	88.94
349.128	90.94
349.355	85.94
349.583	99.94
349.81	92.94
350.037	87.94
350.265	99.94
350.492	88.94
350.72	97.94
350.947	100.94
351.174	113.94
351.402	99.94
351.629	92.94
351.856	103.94
352.083	108.94
352.311	98.94
352.538	110.94
352.765	116.94
352.992	108.94
353.22	112.94
353.447	110.94
353.674	96.94
353.901	105.94
354.128	89.94
354.355	107.94
354.583	93.94
354.81	77.94
355.037	96.94
355.264	94.94
355.491	111.94
355.718	104.94
355.945	81.94
356.172	96.94
356.399	102.94
356.626	93.94
356.853	91.94
357.08	81.94
357.307	97.94
357.534	81.94
357.761	102.94
357.988	91.94
358.215	94.94
358.441	93.94
358.668	100.94
358.895	100.94
359.122	99.94
359.349	99.94
359.576	82.94
359.802	96.94
360.029	91.94
360.256	98.94
360.483	95.94
360.709	92.94
360.936	96.94
361.163	78.94
361.39	86.94
361.616	89.94
361.843	95.94
362.07	102.94
362.296	98.94
362.523	77.94
362.749	81.94
362.976	89.94
363.203	82.94
363.429	81.94
363.656	96.94
363.882	87.94
364.109	93.94
364.335	93.94
364.562	81.94
364.788	75.94
365.015	105.94
365.241	95.94
365.468	111.94
365.694	104.94
365.92	96.94
366.147	89.94
366.373	92.94
366.599	84.94
366.826	75.94
367.052	81.94
367.278	81.94
367.505	82.94
367.731	84.94
367.957	83.94
368.184	87.94
368.41	93.94
368.636	108.94
368.862	107.94
369.089	106.94
369.315	82.94
369.541	84.94
369.767	81.94
369.993	83.94
370.219	90.94
370.445	94.94
370.672	69.94
370.898	85.94
371.124	89.94
371.35	88.94
371.576	85.94
371.802	74.94
372.028	83.94
372.254	74.94
372.48	78.94
372.706	75.94
372.932	83.94
373.158	89.94
373.384	91.94
373.61	83.94
373.835	94.94
374.061	89.94
374.287	94.94
374.513	91.94
374.739	86.94
374.965	77.94
375.191	91.94
375.416	81.94
375.642	84.94
375.868	95.94
376.094	93.94
376.319	92.94
376.545	80.94
376.771	71.94
376.997	87.94
377.222	91.94
377.448	87.94
377.674	87.94
377.899	100.94
378.125	87.94
378.35	81.94
378.576	89.94
378.802	82.94
379.027	88.94
379.253	98.94
379.478	101.94
379.704	87.94
379.929	83.94
380.155	94.94
380.38	93.94
380.606	110.94
380.831	96.94
381.057	83.94
381.282	91.94
381.507	104.94
381.733	94.94
381.958	93.94
382.184	100.94
382.409	90.94
382.634	85.94
382.86	83.94
383.085	106.94
383.31	83.94
383.535	81.94
383.761	94.94
383.986	90.94
384.211	100.94
384.436	97.94
384.662	82.94
384.887	109.94
385.112	106.94
385.337	105.94
385.562	105.94
385.787	104.94
386.013	102.94
386.238	98.94
386.463	104.94
386.688	78.94
386.913	99.94
387.138	116.94
387.363	87.94
387.588	96.94
387.813	97.94
388.038	104.94
388.263	103.94
388.488	104.94
388.713	95.94
388.938	104.94
389.163	81.94
389.387	95.94
389.612	91.94
389.837	83.94
390.062	100.94
390.287	95.94
390.512	91.94
390.736	84.94
390.961	79.94
391.186	79.94
391.411	103.94
391.636	97.94
391.86	86.94
392.085	92.94
392.31	97.94
392.534	77.94
392.759	103.94
392.984	88.94
393.208	89.94
393.433	78.94
393.658	96.94
393.882	81.94
394.107	81.94
394.331	83.94
394.556	68.94
394.78	82.94
395.005	79.94
395.229	83.94
395.454	84.94
395.678	86.94
395.903	85.94
396.127	89.94
396.352	83.94
396.576	94.94
396.801	77.94
397.025	88.94
397.249	72.94
397.474	92.94
397.698	83.94
397.922	95.94
398.147	88.94
398.371	80.94
398.595	86.94
398.82	89.94
399.044	89.94
399.268	78.94
399.492	58.94
399.717	78.94
399.941	91.94
400.165	88.94
400.389	85.94
400.613	90.94
400.837	87.94
401.062	89.94
401.286	94.94
401.51	88.94
401.734	95.94
401.958	94.94
402.182	111.94
402.406	151.94
402.63	105.94
402.854	88.94
403.078	85.94
403.302	96.94
403.526	84.94
403.75	97.94
403.974	93.94
404.198	81.94
404.422	87.94
404.645	85.94
404.869	89.94
405.093	95.94
405.317	90.94
405.541	99.94
405.765	104.94
405.988	111.94
406.212	162.94
406.436	189.94
406.66	133.94
406.883	81.94
407.107	81.94
407.331	82.94
407.555	79.94
407.778	82.94
408.002	90.94
408.226	74.94
408.449	94.94
408.673	87.94
408.896	83.94
409.12	98.94
409.344	82.94
409.567	87.94
409.791	82.94
410.014	103.94
410.238	81.94
410.461	88.94
410.685	88.94
410.908	94.94
411.132	101.94
411.355	86.94
411.578	87.94
411.802	101.94
412.025	88.94
412.249	101.94
412.472	73.94
412.695	102.94
412.919	73.94
413.142	78.94
413.365	87.94
413.589	80.94
413.812	100.94
414.035	93.94
414.258	82.94
414.482	84.94
414.705	91.94
414.928	93.94
415.151	99.94
415.374	92.94
415.597	85.94
415.821	77.94
416.044	90.94
416.267	98.94
416.49	85.94
416.713	82.94
416.936	95.94
417.159	90.94
417.382	102.94
417.605	87.94
417.828	84.94
418.051	95.94
418.274	89.94
418.497	67.94
418.72	86.94
418.943	91.94
419.166	81.94
419.389	81.94
419.611	97.94
419.834	85.94
420.057	83.94
420.28	82.94
420.503	82.94
420.726	88.94
420.948	82.94
421.171	81.94
421.394	91.94
421.617	93.94
421.839	85.94
422.062	87.94
422.285	80.94
422.507	99.94
422.73	87.94
422.953	88.94
423.175	92.94
423.398	77.94
423.621	87.94
423.843	75.94
424.066	81.94
424.288	91.94
424.511	95.94
424.733	90.94
424.956	93.94
425.178	81.94
425.401	93.94
425.623	115.94
425.846	98.94
426.068	78.94
426.291	79.94
426.513	81.94
426.735	101.94
426.958	81.94
427.18	104.94
427.402	116.94
427.625	142.94
427.847	113.94
428.069	107.94
428.292	97.94
428.514	84.94
428.736	85.94
428.958	83.94
429.181	91.94
429.403	81.94
429.625	87.94
429.847	93.94
430.069	96.94
430.292	86.94
430.514	88.94
430.736	91.94
430.958	64.94
431.18	94.94
431.402	94.94
431.624	86.94
431.846	71.94
432.068	85.94
432.29	89.94
432.512	84.94
432.734	91.94
432.956	86.94
433.178	81.94
433.4	105.94
433.622	79.94
433.844	99.94
434.066	79.94
434.287	83.94
434.509	90.94
434.731	81.94
434.953	92.94
435.175	88.94
435.397	81.94
435.618	87.94
435.84	90.94
436.062	106.94
436.284	103.94
436.505	82.94
436.727	96.94
436.949	95.94
437.17	89.94
437.392	82.94
437.614	103.94
437.835	110.94
438.057	90.94
438.278	96.94
438.5	106.94
438.721	94.94
438.943	91.94
439.165	92.94
439.386	90.94
439.608	77.94
439.829	94.94
440.05	120.94
440.272	117.94
440.493	99.94
440.715	83.94
440.936	91.94
441.158	84.94
441.379	66.94
441.6	75.94
441.822	89.94
442.043	93.94
442.264	98.94
442.486	105.94
442.707	101.94
442.928	91.94
443.149	115.94
443.371	128.94
443.592	106.94
443.813	109.94
444.034	99.94
444.255	85.94
444.476	90.94
444.698	87.94
444.919	79.94
445.14	126.94
445.361	109.94
445.582	106.94
445.803	120.94
446.024	107.94
446.245	119.94
446.466	93.94
446.687	85.94
446.908	81.94
447.129	93.94
447.35	57.94
447.571	93.94
447.792	89.94
448.013	89.94
448.234	102.94
448.455	84.94
448.675	109.94
448.896	116.94
449.117	102.94
449.338	88.94
449.559	121.94
449.779	107.94
450	83.94
450.221	86.94
450.442	71.94
450.662	85.94
450.883	90.94
451.104	94.94
451.324	85.94
451.545	81.94
451.766	76.94
451.986	70.94
452.207	100.94
452.428	77.94
452.648	97.94
452.869	99.94
453.089	110.94
453.31	101.94
453.53	96.94
453.751	101.94
453.971	103.94
454.192	102.94
454.412	90.94
454.633	85.94
454.853	82.94
455.073	98.94
455.294	94.94
455.514	96.94
455.734	83.94
455.955	78.94
456.175	82.94
456.395	77.94
456.616	85.94
456.836	92.94
457.056	72.94
457.276	85.94
457.497	82.94
457.717	77.94
457.937	83.94
458.157	85.94
458.377	99.94
458.598	93.94
458.818	120.94
459.038	145.94
459.258	101.94
459.478	72.94
459.698	99.94
459.918	85.94
460.138	89.94
460.358	80.94
460.578	90.94
460.798	80.94
461.018	82.94
461.238	82.94
461.458	82.94
461.678	64.94
461.898	84.94
462.118	87.94
462.338	63.94
462.558	68.94
462.777	80.94
462.997	78.94
463.217	79.94
463.437	72.94
463.657	74.94
463.876	79.94
464.096	85.94
464.316	73.94
464.536	82.94
464.755	81.94
464.975	111.94
465.195	150.94
465.414	147.94
465.634	92.94
465.854	82.94
466.073	68.94
466.293	81.94
466.512	102.94
466.732	84.94
466.951	97.94
467.171	95.94
467.391	66.94
467.61	97.94
467.829	112.94
468.049	90.94
468.268	90.94
468.488	72.94
468.707	74.94
468.927	89.94
469.146	91.94
469.365	74.94
469.585	83.94
469.804	95.94
470.023	103.94
470.243	99.94
470.462	93.94
470.681	91.94
470.901	95.94
471.12	82.94
471.339	81.94
471.558	80.94
471.777	86.94
471.997	94.94
472.216	89.94
472.435	113.94
472.654	83.94
472.873	86.94
473.092	86.94
473.311	85.94
473.53	84.94
473.749	83.94
473.968	86.94
474.187	100.94
474.406	98.94
474.625	80.94
474.844	85.94
475.063	89.94
475.282	88.94
475.501	87.94
475.72	90.94
475.939	78.94
476.158	88.94
476.377	85.94
476.596	85.94
476.814	82.94
477.033	91.94
477.252	93.94
477.471	84.94
477.69	100.94
477.908	99.94
478.127	88.94
478.346	69.94
478.564	86.94
478.783	84.94
479.002	81.94
479.22	90.94
479.439	98.94
479.658	98.94
479.876	101.94
480.095	83.94
480.313	86.94
480.532	73.94
480.751	85.94
480.969	100.94
481.188	135.94
481.406	115.94
481.624	85.94
481.843	81.94
482.061	84.94
482.28	99.94
482.498	74.94
482.717	63.94
482.935	86.94
483.153	81.94
483.372	88.94
483.59	86.94
483.808	81.94
484.027	99.94
484.245	88.94
484.463	77.94
484.681	89.94
484.9	83.94
485.118	92.94
485.336	110.94
485.554	93.94
485.772	90.94
485.99	99.94
486.209	106.94
486.427	96.94
486.645	91.94
486.863	115.94
487.081	109.94
487.299	90.94
487.517	106.94
487.735	88.94
487.953	92.94
488.171	66.94
488.389	101.94
488.607	87.94
488.825	81.94
489.043	83.94
489.261	86.94
489.479	77.94
489.696	83.94
489.914	91.94
490.132	80.94
490.35	80.94
490.568	91.94
490.786	99.94
491.003	73.94
491.221	75.94
491.439	83.94
491.657	101.94
491.874	93.94
492.092	73.94
492.31	100.94
492.527	87.94
492.745	90.94
492.963	81.94
493.18	90.94
493.398	91.94
493.615	88.94
493.833	91.94
494.05	87.94
494.268	86.94
494.485	107.94
494.703	92.94
494.92	88.94
495.138	78.94
495.355	77.94
495.573	83.94
495.79	86.94
496.008	105.94
496.225	81.94
496.442	78.94
496.66	98.94
496.877	106.94
497.094	82.94
497.312	82.94
497.529	98.94
497.746	88.94
497.963	80.94
498.181	99.94
498.398	90.94
498.615	108.94
498.832	111.94
499.049	93.94
499.267	93.94
499.484	74.94
499.701	79.94
499.918	96.94
500.135	77.94
500.352	98.94
500.569	90.94
500.786	91.94
501.003	75.94
501.22	80.94
501.437	89.94
501.654	94.94
501.871	101.94
502.088	73.94
502.305	84.94
502.522	83.94
502.739	91.94
502.956	84.94
503.172	75.94
503.389	90.94
503.606	89.94
503.823	102.94
504.04	100.94
504.256	83.94
504.473	82.94
504.69	86.94
504.907	91.94
505.123	88.94
505.34	89.94
505.557	86.94
505.773	82.94
505.99	88.94
506.207	84.94
506.423	85.94
506.64	77.94
506.856	80.94
507.073	93.94
507.289	85.94
507.506	87.94
507.722	95.94
507.939	101.94
508.155	77.94
508.372	99.94
508.588	87.94
508.805	88.94
509.021	89.94
509.238	87.94
509.454	93.94
509.67	94.94
509.887	104.94
510.103	136.94
510.319	215.94
510.536	723.94
510.752	2170.94
510.968	582.94
511.184	154.94
511.401	105.94
511.617	84.94
511.833	93.94
512.049	102.94
512.265	88.94
512.481	100.94
512.698	79.94
512.914	103.94
513.13	79.94
513.346	91.94
513.562	94.94
513.778	89.94
513.994	107.94
514.21	117.94
514.426	118.94
514.642	123.94
514.858	131.94
515.074	156.94
515.29	395.94
515.506	1282.94
515.721	470.94
515.937	144.94
516.153	99.94
516.369	87.94
516.585	107.94
516.801	77.94
