Data from Uncirc_1983_H10_HRD10591_00062.txt Node
Date: Wed Jan 03 12:25:44 EST 2024
User: Yrep
Spectrometer: HR+D1059
Trigger mode: 1
Integration Time (sec): 1.000000E-1
Scans to average: 1
Electric dark correction enabled: true
Nonlinearity correction enabled: false
Boxcar width: 0
XAxis mode: Wavelengths
Number of Pixels in Spectrum: 2048
>>>>>Begin Spectral Data<<<<<
223.165	-29.5
223.4	-29.5
223.635	-29.5
223.869	-13.5
224.104	-13.5
224.338	-9.5
224.573	-5.5
224.808	-24.5
225.042	-8.5
225.277	-5.5
225.511	6.5
225.746	0.5
225.98	1.5
226.215	15.5
226.449	18.5
226.683	19.5
226.918	18.5
227.152	29.5
227.387	54.5
227.621	37.5
227.856	32.5
228.09	53.5
228.324	62.5
228.559	82.5
228.793	64.5
229.027	62.5
229.262	59.5
229.496	67.5
229.73	73.5
229.964	71.5
230.199	80.5
230.433	74.5
230.667	85.5
230.901	89.5
231.136	96.5
231.37	77.5
231.604	78.5
231.838	86.5
232.072	77.5
232.306	84.5
232.541	82.5
232.775	75.5
233.009	78.5
233.243	79.5
233.477	74.5
233.711	77.5
233.945	98.5
234.179	97.5
234.413	91.5
234.647	86.5
234.881	79.5
235.115	72.5
235.349	79.5
235.583	68.5
235.817	74.5
236.051	74.5
236.285	79.5
236.519	86.5
236.753	79.5
236.987	86.5
237.221	92.5
237.455	80.5
237.689	86.5
237.922	89.5
238.156	72.5
238.39	75.5
238.624	76.5
238.858	76.5
239.091	84.5
239.325	90.5
239.559	83.5
239.793	78.5
240.027	66.5
240.26	76.5
240.494	85.5
240.728	84.5
240.961	90.5
241.195	77.5
241.429	75.5
241.662	81.5
241.896	70.5
242.13	65.5
242.363	77.5
242.597	73.5
242.83	77.5
243.064	87.5
243.298	65.5
243.531	80.5
243.765	76.5
243.998	78.5
244.232	83.5
244.465	75.5
244.699	92.5
244.932	91.5
245.166	84.5
245.399	81.5
245.633	88.5
245.866	85.5
246.099	71.5
246.333	79.5
246.566	84.5
246.8	74.5
247.033	88.5
247.266	66.5
247.5	74.5
247.733	85.5
247.966	92.5
248.2	83.5
248.433	87.5
248.666	87.5
248.899	91.5
249.133	79.5
249.366	113.5
249.599	93.5
249.832	94.5
250.066	79.5
250.299	77.5
250.532	87.5
250.765	71.5
250.998	76.5
251.231	93.5
251.465	91.5
251.698	89.5
251.931	75.5
252.164	94.5
252.397	81.5
252.63	88.5
252.863	92.5
253.096	94.5
253.329	77.5
253.562	82.5
253.795	82.5
254.028	95.5
254.261	91.5
254.494	82.5
254.727	88.5
254.96	82.5
255.193	86.5
255.426	95.5
255.659	94.5
255.892	83.5
256.124	84.5
256.357	84.5
256.59	76.5
256.823	93.5
257.056	83.5
257.289	72.5
257.521	85.5
257.754	88.5
257.987	81.5
258.22	76.5
258.452	70.5
258.685	68.5
258.918	90.5
259.151	79.5
259.383	87.5
259.616	86.5
259.849	91.5
260.081	92.5
260.314	85.5
260.547	82.5
260.779	88.5
261.012	86.5
261.244	79.5
261.477	82.5
261.71	82.5
261.942	108.5
262.175	106.5
262.407	82.5
262.64	76.5
262.872	78.5
263.105	103.5
263.337	78.5
263.57	96.5
263.802	94.5
264.035	85.5
264.267	86.5
264.499	87.5
264.732	88.5
264.964	95.5
265.197	100.5
265.429	99.5
265.661	89.5
265.894	84.5
266.126	77.5
266.358	98.5
266.591	76.5
266.823	89.5
267.055	86.5
267.287	87.5
267.52	96.5
267.752	83.5
267.984	106.5
268.216	93.5
268.448	90.5
268.681	101.5
268.913	80.5
269.145	84.5
269.377	87.5
269.609	85.5
269.841	98.5
270.073	79.5
270.306	81.5
270.538	75.5
270.77	77.5
271.002	92.5
271.234	90.5
271.466	91.5
271.698	88.5
271.93	93.5
272.162	88.5
272.394	99.5
272.626	83.5
272.858	88.5
273.09	80.5
273.322	74.5
273.553	94.5
273.785	91.5
274.017	93.5
274.249	86.5
274.481	99.5
274.713	88.5
274.945	84.5
275.176	77.5
275.408	88.5
275.64	84.5
275.872	94.5
276.104	87.5
276.335	94.5
276.567	108.5
276.799	110.5
277.031	95.5
277.262	89.5
277.494	85.5
277.726	101.5
277.957	99.5
278.189	87.5
278.421	83.5
278.652	76.5
278.884	80.5
279.115	89.5
279.347	78.5
279.579	90.5
279.81	76.5
280.042	82.5
280.273	86.5
280.505	88.5
280.736	93.5
280.968	85.5
281.199	99.5
281.431	99.5
281.662	86.5
281.894	110.5
282.125	92.5
282.356	109.5
282.588	123.5
282.819	107.5
283.051	88.5
283.282	88.5
283.513	91.5
283.745	81.5
283.976	84.5
284.207	80.5
284.439	90.5
284.67	93.5
284.901	79.5
285.132	93.5
285.364	84.5
285.595	90.5
285.826	101.5
286.057	92.5
286.288	91.5
286.52	96.5
286.751	96.5
286.982	88.5
287.213	79.5
287.444	77.5
287.675	94.5
287.906	84.5
288.138	89.5
288.369	73.5
288.6	95.5
288.831	89.5
289.062	102.5
289.293	99.5
289.524	91.5
289.755	80.5
289.986	90.5
290.217	95.5
290.448	90.5
290.679	90.5
290.91	98.5
291.141	86.5
291.371	99.5
291.602	93.5
291.833	90.5
292.064	106.5
292.295	95.5
292.526	91.5
292.757	92.5
292.987	92.5
293.218	83.5
293.449	79.5
293.68	90.5
293.91	86.5
294.141	84.5
294.372	90.5
294.603	78.5
294.833	75.5
295.064	82.5
295.295	82.5
295.525	91.5
295.756	92.5
295.987	114.5
296.217	127.5
296.448	114.5
296.679	79.5
296.909	98.5
297.14	95.5
297.37	96.5
297.601	92.5
297.831	88.5
298.062	84.5
298.292	84.5
298.523	85.5
298.753	77.5
298.984	92.5
299.214	74.5
299.445	79.5
299.675	89.5
299.905	78.5
300.136	105.5
300.366	91.5
300.597	96.5
300.827	105.5
301.057	79.5
301.288	100.5
301.518	97.5
301.748	85.5
301.979	95.5
302.209	87.5
302.439	90.5
302.669	90.5
302.9	99.5
303.13	83.5
303.36	91.5
303.59	108.5
303.82	120.5
304.051	99.5
304.281	86.5
304.511	83.5
304.741	96.5
304.971	103.5
305.201	95.5
305.431	82.5
305.661	100.5
305.891	88.5
306.121	105.5
306.352	107.5
306.582	99.5
306.812	102.5
307.042	93.5
307.272	95.5
307.502	102.5
307.731	97.5
307.961	92.5
308.191	104.5
308.421	102.5
308.651	89.5
308.881	89.5
309.111	87.5
309.341	86.5
309.571	99.5
309.8	92.5
310.03	106.5
310.26	104.5
310.49	104.5
310.72	89.5
310.949	108.5
311.179	104.5
311.409	104.5
311.639	85.5
311.868	91.5
312.098	96.5
312.328	94.5
312.557	91.5
312.787	108.5
313.017	106.5
313.246	84.5
313.476	82.5
313.706	88.5
313.935	93.5
314.165	96.5
314.394	101.5
314.624	98.5
314.853	88.5
315.083	94.5
315.312	102.5
315.542	91.5
315.771	98.5
316.001	84.5
316.23	79.5
316.46	82.5
316.689	70.5
316.919	106.5
317.148	108.5
317.377	90.5
317.607	79.5
317.836	105.5
318.065	98.5
318.295	101.5
318.524	85.5
318.753	88.5
318.983	92.5
319.212	108.5
319.441	101.5
319.67	92.5
319.9	94.5
320.129	90.5
320.358	95.5
320.587	103.5
320.816	107.5
321.046	94.5
321.275	107.5
321.504	101.5
321.733	78.5
321.962	86.5
322.191	94.5
322.42	91.5
322.649	115.5
322.878	91.5
323.108	104.5
323.337	126.5
323.566	112.5
323.795	148.5
324.024	186.5
324.253	373.5
324.482	690.5
324.71	1439.5
324.939	1892.5
325.168	706.5
325.397	229.5
325.626	132.5
325.855	131.5
326.084	121.5
326.313	131.5
326.542	150.5
326.77	200.5
326.999	423.5
327.228	816.5
327.457	1498.5
327.686	1184.5
327.914	343.5
328.143	187.5
328.372	138.5
328.6	101.5
328.829	100.5
329.058	113.5
329.287	122.5
329.515	118.5
329.744	106.5
329.972	114.5
330.201	104.5
330.43	121.5
330.658	134.5
330.887	134.5
331.115	100.5
331.344	106.5
331.572	100.5
331.801	118.5
332.03	93.5
332.258	101.5
332.486	99.5
332.715	103.5
332.943	92.5
333.172	91.5
333.4	92.5
333.629	104.5
333.857	112.5
334.085	116.5
334.314	105.5
334.542	134.5
334.771	127.5
334.999	94.5
335.227	79.5
335.455	95.5
335.684	98.5
335.912	84.5
336.14	89.5
336.369	109.5
336.597	94.5
336.825	96.5
337.053	101.5
337.281	96.5
337.51	95.5
337.738	102.5
337.966	92.5
338.194	90.5
338.422	104.5
338.65	88.5
338.878	93.5
339.106	85.5
339.334	91.5
339.562	109.5
339.79	86.5
340.018	98.5
340.246	72.5
340.474	94.5
340.702	93.5
340.93	91.5
341.158	85.5
341.386	82.5
341.614	95.5
341.842	97.5
342.07	91.5
342.298	103.5
342.526	91.5
342.754	87.5
342.981	90.5
343.209	105.5
343.437	107.5
343.665	100.5
343.893	94.5
344.12	89.5
344.348	93.5
344.576	96.5
344.804	93.5
345.031	107.5
345.259	96.5
345.487	88.5
345.714	102.5
345.942	106.5
346.17	105.5
346.397	91.5
346.625	96.5
346.853	84.5
347.08	98.5
347.308	95.5
347.535	95.5
347.763	87.5
347.99	97.5
348.218	92.5
348.445	104.5
348.673	98.5
348.9	92.5
349.128	108.5
349.355	95.5
349.583	98.5
349.81	90.5
350.037	103.5
350.265	97.5
350.492	90.5
350.72	89.5
350.947	102.5
351.174	102.5
351.402	110.5
351.629	100.5
351.856	96.5
352.083	104.5
352.311	107.5
352.538	114.5
352.765	105.5
352.992	111.5
353.22	116.5
353.447	96.5
353.674	97.5
353.901	102.5
354.128	103.5
354.355	87.5
354.583	98.5
354.81	88.5
355.037	94.5
355.264	94.5
355.491	97.5
355.718	90.5
355.945	91.5
356.172	92.5
356.399	100.5
356.626	94.5
356.853	93.5
357.08	101.5
357.307	96.5
357.534	89.5
357.761	100.5
357.988	88.5
358.215	102.5
358.441	93.5
358.668	103.5
358.895	100.5
359.122	91.5
359.349	89.5
359.576	83.5
359.802	90.5
360.029	107.5
360.256	95.5
360.483	110.5
360.709	91.5
360.936	112.5
361.163	90.5
361.39	74.5
361.616	96.5
361.843	86.5
362.07	97.5
362.296	100.5
362.523	95.5
362.749	79.5
362.976	97.5
363.203	84.5
363.429	91.5
363.656	94.5
363.882	83.5
364.109	98.5
364.335	92.5
364.562	83.5
364.788	94.5
365.015	82.5
365.241	103.5
365.468	120.5
365.694	111.5
365.92	102.5
366.147	99.5
366.373	77.5
366.599	106.5
366.826	95.5
367.052	90.5
367.278	92.5
367.505	93.5
367.731	100.5
367.957	88.5
368.184	91.5
368.41	93.5
368.636	91.5
368.862	119.5
369.089	98.5
369.315	91.5
369.541	88.5
369.767	108.5
369.993	84.5
370.219	94.5
370.445	99.5
370.672	95.5
370.898	91.5
371.124	95.5
371.35	93.5
371.576	88.5
371.802	90.5
372.028	91.5
372.254	87.5
372.48	94.5
372.706	86.5
372.932	93.5
373.158	88.5
373.384	90.5
373.61	85.5
373.835	99.5
374.061	89.5
374.287	94.5
374.513	79.5
374.739	82.5
374.965	88.5
375.191	95.5
375.416	89.5
375.642	90.5
375.868	83.5
376.094	98.5
376.319	88.5
376.545	88.5
376.771	87.5
376.997	82.5
377.222	80.5
377.448	81.5
377.674	73.5
377.899	98.5
378.125	98.5
378.35	87.5
378.576	94.5
378.802	95.5
379.027	100.5
379.253	99.5
379.478	88.5
379.704	81.5
379.929	92.5
380.155	91.5
380.38	103.5
380.606	88.5
380.831	95.5
381.057	99.5
381.282	103.5
381.507	89.5
381.733	100.5
381.958	99.5
382.184	89.5
382.409	101.5
382.634	103.5
382.86	112.5
383.085	92.5
383.31	123.5
383.535	112.5
383.761	85.5
383.986	90.5
384.211	108.5
384.436	113.5
384.662	98.5
384.887	98.5
385.112	100.5
385.337	111.5
385.562	85.5
385.787	112.5
386.013	100.5
386.238	112.5
386.463	106.5
386.688	105.5
386.913	101.5
387.138	109.5
387.363	107.5
387.588	102.5
387.813	89.5
388.038	114.5
388.263	112.5
388.488	113.5
388.713	98.5
388.938	94.5
389.163	85.5
389.387	93.5
389.612	91.5
389.837	107.5
390.062	95.5
390.287	97.5
390.512	87.5
390.736	94.5
390.961	91.5
391.186	87.5
391.411	86.5
391.636	96.5
391.86	92.5
392.085	80.5
392.31	82.5
392.534	91.5
392.759	79.5
392.984	90.5
393.208	78.5
393.433	90.5
393.658	95.5
393.882	94.5
394.107	96.5
394.331	70.5
394.556	82.5
394.78	84.5
395.005	98.5
395.229	78.5
395.454	83.5
395.678	90.5
395.903	92.5
396.127	92.5
396.352	102.5
396.576	86.5
396.801	87.5
397.025	96.5
397.249	86.5
397.474	88.5
397.698	93.5
397.922	74.5
398.147	86.5
398.371	94.5
398.595	90.5
398.82	96.5
399.044	101.5
399.268	89.5
399.492	77.5
399.717	87.5
399.941	93.5
400.165	94.5
400.389	99.5
400.613	89.5
400.837	86.5
401.062	91.5
401.286	100.5
401.51	80.5
401.734	91.5
401.958	95.5
402.182	119.5
402.406	123.5
402.63	106.5
402.854	91.5
403.078	96.5
403.302	89.5
403.526	92.5
403.75	90.5
403.974	84.5
404.198	100.5
404.422	95.5
404.645	85.5
404.869	90.5
405.093	93.5
405.317	110.5
405.541	96.5
405.765	98.5
405.988	107.5
406.212	169.5
406.436	203.5
406.66	130.5
406.883	90.5
407.107	93.5
407.331	86.5
407.555	110.5
407.778	104.5
408.002	92.5
408.226	95.5
408.449	92.5
408.673	73.5
408.896	100.5
409.12	96.5
409.344	91.5
409.567	79.5
409.791	92.5
410.014	89.5
410.238	112.5
410.461	87.5
410.685	100.5
410.908	102.5
411.132	100.5
411.355	88.5
411.578	97.5
411.802	90.5
412.025	94.5
412.249	90.5
412.472	103.5
412.695	102.5
412.919	87.5
413.142	96.5
413.365	75.5
413.589	92.5
413.812	89.5
414.035	102.5
414.258	88.5
414.482	87.5
414.705	95.5
414.928	90.5
415.151	97.5
415.374	108.5
415.597	79.5
415.821	96.5
416.044	82.5
416.267	91.5
416.49	108.5
416.713	90.5
416.936	84.5
417.159	109.5
417.382	86.5
417.605	90.5
417.828	94.5
418.051	82.5
418.274	75.5
418.497	66.5
418.72	90.5
418.943	93.5
419.166	89.5
419.389	88.5
419.611	92.5
419.834	83.5
420.057	85.5
420.28	90.5
420.503	83.5
420.726	87.5
420.948	88.5
421.171	90.5
421.394	102.5
421.617	91.5
421.839	82.5
422.062	99.5
422.285	94.5
422.507	106.5
422.73	99.5
422.953	84.5
423.175	90.5
423.398	93.5
423.621	82.5
423.843	88.5
424.066	90.5
424.288	74.5
424.511	94.5
424.733	102.5
424.956	95.5
425.178	88.5
425.401	111.5
425.623	93.5
425.846	81.5
426.068	76.5
426.291	88.5
426.513	104.5
426.735	107.5
426.958	86.5
427.18	98.5
427.402	131.5
427.625	148.5
427.847	130.5
428.069	105.5
428.292	82.5
428.514	85.5
428.736	93.5
428.958	99.5
429.181	86.5
429.403	84.5
429.625	93.5
429.847	90.5
430.069	99.5
430.292	86.5
430.514	77.5
430.736	75.5
430.958	82.5
431.18	63.5
431.402	101.5
431.624	98.5
431.846	80.5
432.068	92.5
432.29	90.5
432.512	90.5
432.734	87.5
432.956	84.5
433.178	92.5
433.4	105.5
433.622	96.5
433.844	90.5
434.066	91.5
434.287	97.5
434.509	102.5
434.731	85.5
434.953	88.5
435.175	90.5
435.397	86.5
435.618	93.5
435.84	114.5
436.062	135.5
436.284	117.5
436.505	92.5
436.727	110.5
436.949	96.5
437.17	83.5
437.392	84.5
437.614	99.5
437.835	107.5
438.057	108.5
438.278	97.5
438.5	100.5
438.721	122.5
438.943	91.5
439.165	86.5
439.386	82.5
439.608	95.5
439.829	89.5
440.05	118.5
440.272	123.5
440.493	92.5
440.715	92.5
440.936	88.5
441.158	90.5
441.379	78.5
441.6	83.5
441.822	82.5
442.043	99.5
442.264	85.5
442.486	106.5
442.707	88.5
442.928	101.5
443.149	123.5
443.371	111.5
443.592	105.5
443.813	100.5
444.034	93.5
444.255	100.5
444.476	82.5
444.698	90.5
444.919	87.5
445.14	133.5
445.361	125.5
445.582	114.5
445.803	123.5
446.024	125.5
446.245	146.5
446.466	107.5
446.687	92.5
446.908	95.5
447.129	80.5
447.35	84.5
447.571	97.5
447.792	88.5
448.013	108.5
448.234	88.5
448.455	97.5
448.675	99.5
448.896	112.5
449.117	95.5
449.338	97.5
449.559	119.5
449.779	125.5
450	96.5
450.221	101.5
450.442	92.5
450.662	99.5
450.883	100.5
451.104	112.5
451.324	100.5
451.545	92.5
451.766	85.5
451.986	79.5
452.207	105.5
452.428	93.5
452.648	103.5
452.869	106.5
453.089	90.5
453.31	108.5
453.53	86.5
453.751	99.5
453.971	110.5
454.192	110.5
454.412	106.5
454.633	86.5
454.853	94.5
455.073	91.5
455.294	84.5
455.514	104.5
455.734	108.5
455.955	98.5
456.175	88.5
456.395	89.5
456.616	70.5
456.836	86.5
457.056	88.5
457.276	80.5
457.497	82.5
457.717	99.5
457.937	91.5
458.157	99.5
458.377	104.5
458.598	109.5
458.818	133.5
459.038	146.5
459.258	119.5
459.478	91.5
459.698	93.5
459.918	96.5
460.138	101.5
460.358	95.5
460.578	82.5
460.798	93.5
461.018	94.5
461.238	92.5
461.458	84.5
461.678	84.5
461.898	77.5
462.118	107.5
462.338	96.5
462.558	78.5
462.777	93.5
462.997	86.5
463.217	97.5
463.437	88.5
463.657	90.5
463.876	90.5
464.096	98.5
464.316	90.5
464.536	94.5
464.755	92.5
464.975	104.5
465.195	149.5
465.414	135.5
465.634	95.5
465.854	98.5
466.073	105.5
466.293	79.5
466.512	92.5
466.732	82.5
466.951	105.5
467.171	102.5
467.391	91.5
467.61	98.5
467.829	86.5
468.049	85.5
468.268	104.5
468.488	95.5
468.707	92.5
468.927	86.5
469.146	83.5
469.365	79.5
469.585	103.5
469.804	94.5
470.023	93.5
470.243	96.5
470.462	98.5
470.681	109.5
470.901	86.5
471.12	73.5
471.339	85.5
471.558	96.5
471.777	92.5
471.997	99.5
472.216	106.5
472.435	136.5
472.654	103.5
472.873	98.5
473.092	79.5
473.311	83.5
473.53	95.5
473.749	85.5
473.968	101.5
474.187	98.5
474.406	85.5
474.625	91.5
474.844	92.5
475.063	87.5
475.282	67.5
475.501	85.5
475.72	108.5
475.939	84.5
476.158	91.5
476.377	93.5
476.596	89.5
476.814	93.5
477.033	100.5
477.252	80.5
477.471	91.5
477.69	96.5
477.908	88.5
478.127	90.5
478.346	96.5
478.564	108.5
478.783	112.5
479.002	98.5
479.22	90.5
479.439	98.5
479.658	101.5
479.876	92.5
480.095	102.5
480.313	88.5
480.532	94.5
480.751	100.5
480.969	117.5
481.188	174.5
481.406	125.5
481.624	87.5
481.843	88.5
482.061	69.5
482.28	94.5
482.498	94.5
482.717	93.5
482.935	104.5
483.153	83.5
483.372	76.5
483.59	92.5
483.808	88.5
484.027	101.5
484.245	98.5
484.463	92.5
484.681	90.5
484.9	95.5
485.118	95.5
485.336	101.5
485.554	95.5
485.772	93.5
485.99	98.5
486.209	115.5
486.427	110.5
486.645	106.5
486.863	121.5
487.081	104.5
487.299	88.5
487.517	105.5
487.735	109.5
487.953	91.5
488.171	82.5
488.389	105.5
488.607	106.5
488.825	88.5
489.043	96.5
489.261	96.5
489.479	92.5
489.696	88.5
489.914	90.5
490.132	91.5
490.35	95.5
490.568	103.5
490.786	97.5
491.003	92.5
491.221	78.5
491.439	89.5
491.657	86.5
491.874	93.5
492.092	92.5
492.31	101.5
492.527	103.5
492.745	79.5
492.963	101.5
493.18	88.5
493.398	92.5
493.615	103.5
493.833	100.5
494.05	93.5
494.268	95.5
494.485	98.5
494.703	101.5
494.92	101.5
495.138	111.5
495.355	105.5
495.573	98.5
495.79	95.5
496.008	94.5
496.225	106.5
496.442	101.5
496.66	96.5
496.877	86.5
497.094	103.5
497.312	105.5
497.529	104.5
497.746	109.5
497.963	105.5
498.181	94.5
498.398	93.5
498.615	113.5
498.832	94.5
499.049	98.5
499.267	82.5
499.484	89.5
499.701	96.5
499.918	100.5
500.135	96.5
500.352	85.5
500.569	92.5
500.786	101.5
501.003	96.5
501.22	107.5
501.437	103.5
501.654	91.5
501.871	112.5
502.088	87.5
502.305	103.5
502.522	88.5
502.739	84.5
502.956	104.5
503.172	83.5
503.389	88.5
503.606	107.5
503.823	101.5
504.04	78.5
504.256	78.5
504.473	112.5
504.69	108.5
504.907	102.5
505.123	103.5
505.34	107.5
505.557	94.5
505.773	90.5
505.99	92.5
506.207	101.5
506.423	78.5
506.64	77.5
506.856	85.5
507.073	94.5
507.289	101.5
507.506	84.5
507.722	110.5
507.939	115.5
508.155	90.5
508.372	99.5
508.588	107.5
508.805	101.5
509.021	94.5
509.238	93.5
509.454	107.5
509.67	101.5
509.887	104.5
510.103	138.5
510.319	211.5
510.536	682.5
510.752	2082.5
510.968	576.5
511.184	143.5
511.401	92.5
511.617	109.5
511.833	94.5
512.049	95.5
512.265	99.5
512.481	95.5
512.698	91.5
512.914	95.5
513.13	100.5
513.346	91.5
513.562	91.5
513.778	106.5
513.994	92.5
514.21	103.5
514.426	109.5
514.642	123.5
514.858	115.5
515.074	151.5
515.29	407.5
515.506	1234.5
515.721	471.5
515.937	141.5
516.153	94.5
516.369	93.5
516.585	90.5
516.801	86.5
517.016	110.5
517.232	95.5
517.448	96.5
517.664	90.5
517.879	104.5
518.095	84.5
518.311	97.5
518.527	99.5
518.742	94.5
518.958	102.5
519.173	87.5
519.389	96.5
519.605	85.5
519.82	97.5
520.036	111.5
520.251	114.5
520.467	100.5
520.682	88.5
520.898	107.5
521.113	105.5
521.329	127.5
521.544	189.5
521.76	467.5
521.975	2038.5
522.19	1187.5
522.406	276.5
522.621	126.5
522.836	108.5
523.052	111.5
523.267	99.5
523.482	96.5
523.698	122.5
523.913	118.5
524.128	117.5
524.343	96.5
524.559	96.5
524.774	100.5
524.989	94.5
525.204	105.5
525.419	92.5
525.634	100.5
525.849	87.5
526.064	107.5
526.28	94.5
526.495	98.5
526.71	101.5
526.925	103.5
527.14	96.5
527.355	102.5
527.57	102.5
527.785	78.5
527.999	92.5
528.214	91.5
528.429	95.5
528.644	99.5
528.859	94.5
529.074	111.5
529.289	127.5
529.503	137.5
529.718	99.5
529.933	106.5
530.148	90.5
530.363	92.5
530.577	93.5
530.792	95.5
531.007	109.5
531.221	90.5
531.436	105.5
531.651	89.5
531.865	78.5
532.08	105.5
532.295	105.5
532.509	93.5
532.724	95.5
532.938	95.5
533.153	96.5
533.367	94.5
533.582	92.5
533.796	93.5
534.011	84.5
534.225	93.5
534.44	102.5
