Data from Uncirc_1983_H10_HRD10591_00096.txt Node
Date: Wed Jan 03 12:25:51 EST 2024
User: Yrep
Spectrometer: HR+D1059
Trigger mode: 1
Integration Time (sec): 1.000000E-1
Scans to average: 1
Electric dark correction enabled: true
Nonlinearity correction enabled: false
Boxcar width: 0
XAxis mode: Wavelengths
Number of Pixels in Spectrum: 2048
>>>>>Begin Spectral Data<<<<<
223.165	-7.56
223.4	-7.56
223.635	-7.56
223.869	-22.56
224.104	-11.56
224.338	-13.56
224.573	-20.56
224.808	-11.56
225.042	-11.56
225.277	2.44
225.511	-5.56
225.746	-1.56
225.98	-0.56
226.215	8.44
226.449	7.44
226.683	30.44
226.918	24.44
227.152	33.44
227.387	35.44
227.621	23.44
227.856	50.44
228.09	42.44
228.324	51.44
228.559	43.44
228.793	65.44
229.027	65.44
229.262	78.44
229.496	76.44
229.73	78.44
229.964	73.44
230.199	67.44
230.433	76.44
230.667	69.44
230.901	80.44
231.136	74.44
231.37	81.44
231.604	81.44
231.838	70.44
232.072	75.44
232.306	89.44
232.541	87.44
232.775	84.44
233.009	83.44
233.243	81.44
233.477	83.44
233.711	79.44
233.945	57.44
234.179	82.44
234.413	91.44
234.647	82.44
234.881	70.44
235.115	79.44
235.349	94.44
235.583	78.44
235.817	76.44
236.051	64.44
236.285	89.44
236.519	82.44
236.753	90.44
236.987	70.44
237.221	73.44
237.455	76.44
237.689	77.44
237.922	67.44
238.156	83.44
238.39	83.44
238.624	74.44
238.858	69.44
239.091	72.44
239.325	90.44
239.559	70.44
239.793	82.44
240.027	80.44
240.26	66.44
240.494	73.44
240.728	86.44
240.961	74.44
241.195	80.44
241.429	70.44
241.662	82.44
241.896	62.44
242.13	78.44
242.363	76.44
242.597	88.44
242.83	80.44
243.064	79.44
243.298	85.44
243.531	74.44
243.765	67.44
243.998	84.44
244.232	89.44
244.465	91.44
244.699	91.44
244.932	96.44
245.166	73.44
245.399	88.44
245.633	82.44
245.866	72.44
246.099	80.44
246.333	83.44
246.566	70.44
246.8	84.44
247.033	82.44
247.266	66.44
247.5	82.44
247.733	75.44
247.966	71.44
248.2	90.44
248.433	52.44
248.666	80.44
248.899	73.44
249.133	92.44
249.366	86.44
249.599	87.44
249.832	97.44
250.066	76.44
250.299	74.44
250.532	73.44
250.765	83.44
250.998	80.44
251.231	77.44
251.465	92.44
251.698	73.44
251.931	79.44
252.164	62.44
252.397	69.44
252.63	87.44
252.863	74.44
253.096	84.44
253.329	79.44
253.562	82.44
253.795	69.44
254.028	85.44
254.261	78.44
254.494	74.44
254.727	77.44
254.96	72.44
255.193	78.44
255.426	86.44
255.659	92.44
255.892	82.44
256.124	79.44
256.357	87.44
256.59	77.44
256.823	82.44
257.056	86.44
257.289	75.44
257.521	70.44
257.754	69.44
257.987	90.44
258.22	79.44
258.452	79.44
258.685	71.44
258.918	83.44
259.151	78.44
259.383	74.44
259.616	62.44
259.849	79.44
260.081	77.44
260.314	82.44
260.547	82.44
260.779	61.44
261.012	76.44
261.244	75.44
261.477	90.44
261.71	74.44
261.942	108.44
262.175	114.44
262.407	96.44
262.64	70.44
262.872	79.44
263.105	72.44
263.337	84.44
263.57	86.44
263.802	78.44
264.035	90.44
264.267	99.44
264.499	93.44
264.732	90.44
264.964	82.44
265.197	82.44
265.429	79.44
265.661	82.44
265.894	72.44
266.126	80.44
266.358	72.44
266.591	72.44
266.823	87.44
267.055	81.44
267.287	79.44
267.52	85.44
267.752	84.44
267.984	88.44
268.216	85.44
268.448	71.44
268.681	72.44
268.913	97.44
269.145	72.44
269.377	82.44
269.609	82.44
269.841	83.44
270.073	90.44
270.306	84.44
270.538	72.44
270.77	80.44
271.002	78.44
271.234	73.44
271.466	82.44
271.698	80.44
271.93	95.44
272.162	91.44
272.394	90.44
272.626	55.44
272.858	73.44
273.09	78.44
273.322	88.44
273.553	79.44
273.785	89.44
274.017	83.44
274.249	100.44
274.481	82.44
274.713	78.44
274.945	88.44
275.176	93.44
275.408	78.44
275.64	86.44
275.872	70.44
276.104	73.44
276.335	79.44
276.567	92.44
276.799	105.44
277.031	99.44
277.262	84.44
277.494	86.44
277.726	87.44
277.957	87.44
278.189	72.44
278.421	79.44
278.652	89.44
278.884	96.44
279.115	80.44
279.347	92.44
279.579	80.44
279.81	73.44
280.042	75.44
280.273	98.44
280.505	82.44
280.736	81.44
280.968	84.44
281.199	73.44
281.431	79.44
281.662	84.44
281.894	103.44
282.125	112.44
282.356	98.44
282.588	126.44
282.819	87.44
283.051	80.44
283.282	94.44
283.513	80.44
283.745	75.44
283.976	79.44
284.207	78.44
284.439	92.44
284.67	80.44
284.901	85.44
285.132	92.44
285.364	78.44
285.595	75.44
285.826	90.44
286.057	80.44
286.288	67.44
286.52	79.44
286.751	82.44
286.982	84.44
287.213	86.44
287.444	87.44
287.675	98.44
287.906	97.44
288.138	89.44
288.369	82.44
288.6	83.44
288.831	82.44
289.062	83.44
289.293	78.44
289.524	89.44
289.755	83.44
289.986	94.44
290.217	91.44
290.448	88.44
290.679	75.44
290.91	99.44
291.141	75.44
291.371	86.44
291.602	86.44
291.833	90.44
292.064	70.44
292.295	90.44
292.526	81.44
292.757	88.44
292.987	84.44
293.218	96.44
293.449	94.44
293.68	95.44
293.91	97.44
294.141	86.44
294.372	75.44
294.603	90.44
294.833	90.44
295.064	72.44
295.295	74.44
295.525	90.44
295.756	81.44
295.987	111.44
296.217	118.44
296.448	120.44
296.679	90.44
296.909	95.44
297.14	81.44
297.37	91.44
297.601	89.44
297.831	83.44
298.062	81.44
298.292	82.44
298.523	100.44
298.753	87.44
298.984	82.44
299.214	83.44
299.445	81.44
299.675	91.44
299.905	88.44
300.136	90.44
300.366	88.44
300.597	90.44
300.827	69.44
301.057	87.44
301.288	81.44
301.518	86.44
301.748	84.44
301.979	101.44
302.209	85.44
302.439	103.44
302.669	87.44
302.9	82.44
303.13	98.44
303.36	85.44
303.59	88.44
303.82	92.44
304.051	90.44
304.281	85.44
304.511	83.44
304.741	86.44
304.971	87.44
305.201	96.44
305.431	73.44
305.661	86.44
305.891	83.44
306.121	99.44
306.352	92.44
306.582	92.44
306.812	95.44
307.042	99.44
307.272	112.44
307.502	97.44
307.731	84.44
307.961	95.44
308.191	89.44
308.421	81.44
308.651	103.44
308.881	93.44
309.111	80.44
309.341	87.44
309.571	97.44
309.8	101.44
310.03	87.44
310.26	96.44
310.49	104.44
310.72	90.44
310.949	106.44
311.179	96.44
311.409	82.44
311.639	98.44
311.868	96.44
312.098	98.44
312.328	91.44
312.557	92.44
312.787	113.44
313.017	96.44
313.246	87.44
313.476	99.44
313.706	83.44
313.935	99.44
314.165	99.44
314.394	99.44
314.624	96.44
314.853	106.44
315.083	74.44
315.312	105.44
315.542	92.44
315.771	86.44
316.001	99.44
316.23	88.44
316.46	73.44
316.689	92.44
316.919	100.44
317.148	95.44
317.377	99.44
317.607	85.44
317.836	88.44
318.065	80.44
318.295	110.44
318.524	95.44
318.753	84.44
318.983	94.44
319.212	94.44
319.441	99.44
319.67	107.44
319.9	93.44
320.129	95.44
320.358	72.44
320.587	104.44
320.816	94.44
321.046	107.44
321.275	93.44
321.504	91.44
321.733	101.44
321.962	101.44
322.191	69.44
322.42	91.44
322.649	119.44
322.878	104.44
323.108	106.44
323.337	115.44
323.566	127.44
323.795	143.44
324.024	195.44
324.253	344.44
324.482	798.44
324.71	1561.44
324.939	2030.44
325.168	760.44
325.397	246.44
325.626	148.44
325.855	122.44
326.084	125.44
326.313	135.44
326.542	150.44
326.77	235.44
326.999	432.44
327.228	883.44
327.457	1627.44
327.686	1258.44
327.914	342.44
328.143	183.44
328.372	144.44
328.6	127.44
328.829	100.44
329.058	114.44
329.287	122.44
329.515	112.44
329.744	89.44
329.972	102.44
330.201	121.44
330.43	147.44
330.658	138.44
330.887	125.44
331.115	104.44
331.344	99.44
331.572	92.44
331.801	99.44
332.03	100.44
332.258	105.44
332.486	109.44
332.715	98.44
332.943	110.44
333.172	102.44
333.4	99.44
333.629	96.44
333.857	100.44
334.085	114.44
334.314	128.44
334.542	184.44
334.771	146.44
334.999	106.44
335.227	98.44
335.455	87.44
335.684	105.44
335.912	94.44
336.14	96.44
336.369	86.44
336.597	98.44
336.825	91.44
337.053	94.44
337.281	84.44
337.51	84.44
337.738	85.44
337.966	99.44
338.194	96.44
338.422	88.44
338.65	94.44
338.878	95.44
339.106	86.44
339.334	87.44
339.562	94.44
339.79	63.44
340.018	83.44
340.246	93.44
340.474	91.44
340.702	98.44
340.93	101.44
341.158	89.44
341.386	97.44
341.614	85.44
341.842	99.44
342.07	72.44
342.298	82.44
342.526	96.44
342.754	81.44
342.981	83.44
343.209	88.44
343.437	102.44
343.665	93.44
343.893	98.44
344.12	82.44
344.348	89.44
344.576	89.44
344.804	84.44
345.031	92.44
345.259	94.44
345.487	102.44
345.714	98.44
345.942	92.44
346.17	99.44
346.397	89.44
346.625	88.44
346.853	90.44
347.08	83.44
347.308	88.44
347.535	85.44
347.763	90.44
347.99	97.44
348.218	99.44
348.445	96.44
348.673	103.44
348.9	113.44
349.128	87.44
349.355	84.44
349.583	91.44
349.81	85.44
350.037	91.44
350.265	86.44
350.492	96.44
350.72	90.44
350.947	101.44
351.174	94.44
351.402	103.44
351.629	103.44
351.856	92.44
352.083	103.44
352.311	104.44
352.538	101.44
352.765	105.44
352.992	108.44
353.22	110.44
353.447	96.44
353.674	88.44
353.901	89.44
354.128	95.44
354.355	98.44
354.583	102.44
354.81	104.44
355.037	91.44
355.264	93.44
355.491	89.44
355.718	106.44
355.945	101.44
356.172	92.44
356.399	90.44
356.626	99.44
356.853	95.44
357.08	86.44
357.307	88.44
357.534	93.44
357.761	95.44
357.988	101.44
358.215	86.44
358.441	88.44
358.668	84.44
358.895	79.44
359.122	85.44
359.349	83.44
359.576	94.44
359.802	99.44
360.029	94.44
360.256	94.44
360.483	104.44
360.709	92.44
360.936	111.44
361.163	96.44
361.39	84.44
361.616	90.44
361.843	82.44
362.07	75.44
362.296	104.44
362.523	95.44
362.749	91.44
362.976	92.44
363.203	87.44
363.429	86.44
363.656	89.44
363.882	89.44
364.109	92.44
364.335	85.44
364.562	85.44
364.788	87.44
365.015	94.44
365.241	102.44
365.468	101.44
365.694	94.44
365.92	89.44
366.147	86.44
366.373	85.44
366.599	95.44
366.826	94.44
367.052	83.44
367.278	78.44
367.505	89.44
367.731	99.44
367.957	96.44
368.184	85.44
368.41	87.44
368.636	102.44
368.862	99.44
369.089	109.44
369.315	91.44
369.541	104.44
369.767	82.44
369.993	86.44
370.219	80.44
370.445	97.44
370.672	86.44
370.898	88.44
371.124	98.44
371.35	83.44
371.576	93.44
371.802	103.44
372.028	70.44
372.254	92.44
372.48	71.44
372.706	92.44
372.932	88.44
373.158	88.44
373.384	97.44
373.61	91.44
373.835	104.44
374.061	73.44
374.287	78.44
374.513	93.44
374.739	91.44
374.965	91.44
375.191	76.44
375.416	87.44
375.642	86.44
375.868	97.44
376.094	100.44
376.319	87.44
376.545	83.44
376.771	81.44
376.997	90.44
377.222	79.44
377.448	99.44
377.674	82.44
377.899	93.44
378.125	90.44
378.35	80.44
378.576	89.44
378.802	99.44
379.027	94.44
379.253	91.44
379.478	98.44
379.704	86.44
379.929	92.44
380.155	90.44
380.38	95.44
380.606	84.44
380.831	100.44
381.057	82.44
381.282	84.44
381.507	113.44
381.733	91.44
381.958	99.44
382.184	88.44
382.409	94.44
382.634	100.44
382.86	79.44
383.085	112.44
383.31	108.44
383.535	88.44
383.761	97.44
383.986	82.44
384.211	88.44
384.436	85.44
384.662	98.44
384.887	91.44
385.112	96.44
385.337	108.44
385.562	100.44
385.787	91.44
386.013	101.44
386.238	86.44
386.463	93.44
386.688	109.44
386.913	79.44
387.138	96.44
387.363	72.44
387.588	98.44
387.813	90.44
388.038	90.44
388.263	101.44
388.488	106.44
388.713	102.44
388.938	86.44
389.163	86.44
389.387	99.44
389.612	95.44
389.837	84.44
390.062	96.44
390.287	94.44
390.512	99.44
390.736	78.44
390.961	81.44
391.186	87.44
391.411	98.44
391.636	78.44
391.86	87.44
392.085	84.44
392.31	80.44
392.534	98.44
392.759	74.44
392.984	93.44
393.208	73.44
393.433	99.44
393.658	89.44
393.882	85.44
394.107	78.44
394.331	80.44
394.556	87.44
394.78	85.44
395.005	105.44
395.229	76.44
395.454	87.44
395.678	82.44
395.903	84.44
396.127	90.44
396.352	84.44
396.576	80.44
396.801	77.44
397.025	86.44
397.249	87.44
397.474	73.44
397.698	88.44
397.922	84.44
398.147	91.44
398.371	74.44
398.595	71.44
398.82	85.44
399.044	90.44
399.268	83.44
399.492	81.44
399.717	71.44
399.941	81.44
400.165	86.44
400.389	90.44
400.613	70.44
400.837	78.44
401.062	74.44
401.286	92.44
401.51	82.44
401.734	73.44
401.958	87.44
402.182	119.44
402.406	145.44
402.63	127.44
402.854	96.44
403.078	94.44
403.302	71.44
403.526	103.44
403.75	86.44
403.974	88.44
404.198	74.44
404.422	89.44
404.645	92.44
404.869	94.44
405.093	103.44
405.317	96.44
405.541	63.44
405.765	78.44
405.988	97.44
406.212	164.44
406.436	219.44
406.66	129.44
406.883	93.44
407.107	93.44
407.331	106.44
407.555	96.44
407.778	94.44
408.002	92.44
408.226	74.44
408.449	80.44
408.673	85.44
408.896	94.44
409.12	90.44
409.344	97.44
409.567	86.44
409.791	96.44
410.014	100.44
410.238	90.44
410.461	87.44
410.685	104.44
410.908	98.44
411.132	108.44
411.355	100.44
411.578	88.44
411.802	90.44
412.025	84.44
412.249	86.44
412.472	86.44
412.695	100.44
412.919	86.44
413.142	76.44
413.365	86.44
413.589	72.44
413.812	94.44
414.035	82.44
414.258	87.44
414.482	104.44
414.705	111.44
414.928	83.44
415.151	72.44
415.374	90.44
415.597	84.44
415.821	75.44
416.044	87.44
416.267	85.44
416.49	87.44
416.713	80.44
416.936	76.44
417.159	72.44
417.382	91.44
417.605	78.44
417.828	99.44
418.051	96.44
418.274	95.44
418.497	104.44
418.72	89.44
418.943	76.44
419.166	73.44
419.389	94.44
419.611	78.44
419.834	86.44
420.057	79.44
420.28	92.44
420.503	76.44
420.726	97.44
420.948	98.44
421.171	87.44
421.394	94.44
421.617	71.44
421.839	70.44
422.062	81.44
422.285	99.44
422.507	96.44
422.73	100.44
422.953	83.44
423.175	85.44
423.398	87.44
423.621	83.44
423.843	99.44
424.066	95.44
424.288	102.44
424.511	96.44
424.733	93.44
424.956	96.44
425.178	94.44
425.401	108.44
425.623	84.44
425.846	84.44
426.068	109.44
426.291	94.44
426.513	91.44
426.735	91.44
426.958	85.44
427.18	72.44
427.402	129.44
427.625	154.44
427.847	133.44
428.069	112.44
428.292	94.44
428.514	83.44
428.736	74.44
428.958	81.44
429.181	72.44
429.403	86.44
429.625	86.44
429.847	92.44
430.069	100.44
430.292	106.44
430.514	92.44
430.736	76.44
430.958	86.44
431.18	80.44
431.402	93.44
431.624	93.44
431.846	87.44
432.068	93.44
432.29	80.44
432.512	89.44
432.734	88.44
432.956	85.44
433.178	104.44
433.4	120.44
433.622	82.44
433.844	104.44
434.066	89.44
434.287	95.44
434.509	102.44
434.731	85.44
434.953	91.44
435.175	86.44
435.397	86.44
435.618	95.44
435.84	100.44
436.062	115.44
436.284	100.44
436.505	86.44
436.727	94.44
436.949	85.44
437.17	88.44
437.392	83.44
437.614	90.44
437.835	102.44
438.057	121.44
438.278	96.44
438.5	103.44
438.721	103.44
438.943	93.44
439.165	79.44
439.386	91.44
439.608	74.44
439.829	99.44
440.05	115.44
440.272	112.44
440.493	96.44
440.715	98.44
440.936	96.44
441.158	82.44
441.379	82.44
441.6	105.44
441.822	84.44
442.043	98.44
442.264	106.44
442.486	98.44
442.707	96.44
442.928	97.44
443.149	106.44
443.371	107.44
443.592	105.44
443.813	108.44
444.034	90.44
444.255	88.44
444.476	90.44
444.698	83.44
444.919	87.44
445.14	123.44
445.361	116.44
445.582	102.44
445.803	122.44
446.024	119.44
446.245	122.44
446.466	110.44
446.687	78.44
446.908	80.44
447.129	95.44
447.35	99.44
447.571	96.44
447.792	88.44
448.013	104.44
448.234	108.44
448.455	99.44
448.675	96.44
448.896	112.44
449.117	96.44
449.338	123.44
449.559	126.44
449.779	107.44
450	92.44
450.221	81.44
450.442	99.44
450.662	88.44
450.883	96.44
451.104	103.44
451.324	92.44
451.545	83.44
451.766	76.44
451.986	75.44
452.207	86.44
452.428	98.44
452.648	78.44
452.869	110.44
453.089	108.44
453.31	93.44
453.53	111.44
453.751	87.44
453.971	98.44
454.192	104.44
454.412	103.44
454.633	76.44
454.853	90.44
455.073	79.44
455.294	85.44
455.514	81.44
455.734	98.44
455.955	80.44
456.175	89.44
456.395	81.44
456.616	80.44
456.836	79.44
457.056	90.44
457.276	78.44
457.497	79.44
457.717	85.44
457.937	82.44
458.157	93.44
458.377	100.44
458.598	97.44
458.818	139.44
459.038	151.44
459.258	108.44
459.478	80.44
459.698	98.44
459.918	89.44
460.138	93.44
460.358	89.44
460.578	78.44
460.798	81.44
461.018	88.44
461.238	84.44
461.458	98.44
461.678	91.44
461.898	75.44
462.118	71.44
462.338	84.44
462.558	82.44
462.777	91.44
462.997	95.44
463.217	71.44
463.437	84.44
463.657	97.44
463.876	97.44
464.096	90.44
464.316	93.44
464.536	92.44
464.755	94.44
464.975	96.44
465.195	148.44
465.414	158.44
465.634	92.44
465.854	74.44
466.073	82.44
466.293	80.44
466.512	78.44
466.732	78.44
466.951	84.44
467.171	80.44
467.391	95.44
467.61	96.44
467.829	91.44
468.049	99.44
468.268	115.44
468.488	85.44
468.707	81.44
468.927	82.44
469.146	100.44
469.365	99.44
469.585	90.44
469.804	94.44
470.023	92.44
470.243	88.44
470.462	103.44
470.681	110.44
470.901	88.44
471.12	89.44
471.339	88.44
471.558	76.44
471.777	91.44
471.997	94.44
472.216	139.44
472.435	189.44
472.654	103.44
472.873	94.44
473.092	93.44
473.311	89.44
473.53	84.44
473.749	86.44
473.968	95.44
474.187	95.44
474.406	102.44
474.625	88.44
474.844	102.44
475.063	88.44
475.282	73.44
475.501	70.44
475.72	84.44
475.939	70.44
476.158	74.44
476.377	80.44
476.596	98.44
476.814	90.44
477.033	80.44
477.252	90.44
477.471	84.44
477.69	99.44
477.908	86.44
478.127	74.44
478.346	86.44
478.564	88.44
478.783	85.44
479.002	91.44
479.22	95.44
479.439	117.44
479.658	96.44
479.876	91.44
480.095	79.44
480.313	89.44
480.532	82.44
480.751	89.44
480.969	131.44
481.188	283.44
481.406	216.44
481.624	110.44
481.843	80.44
482.061	94.44
482.28	96.44
482.498	92.44
482.717	98.44
482.935	106.44
483.153	76.44
483.372	84.44
483.59	91.44
483.808	89.44
484.027	91.44
484.245	90.44
484.463	86.44
484.681	100.44
484.9	84.44
485.118	102.44
485.336	92.44
485.554	91.44
485.772	92.44
485.99	94.44
486.209	115.44
486.427	96.44
486.645	116.44
486.863	113.44
487.081	83.44
487.299	84.44
487.517	102.44
487.735	86.44
487.953	95.44
488.171	97.44
488.389	106.44
488.607	97.44
488.825	96.44
489.043	98.44
489.261	100.44
489.479	88.44
489.696	88.44
489.914	92.44
490.132	88.44
490.35	88.44
490.568	93.44
490.786	92.44
491.003	83.44
491.221	85.44
491.439	80.44
491.657	84.44
491.874	90.44
492.092	90.44
492.31	90.44
492.527	85.44
492.745	87.44
492.963	76.44
493.18	75.44
493.398	92.44
493.615	85.44
493.833	91.44
494.05	94.44
494.268	90.44
494.485	92.44
494.703	87.44
494.92	75.44
495.138	91.44
495.355	92.44
495.573	86.44
495.79	96.44
496.008	94.44
496.225	92.44
496.442	88.44
496.66	88.44
496.877	89.44
497.094	86.44
497.312	93.44
497.529	94.44
497.746	100.44
497.963	80.44
498.181	97.44
498.398	91.44
498.615	116.44
498.832	93.44
499.049	98.44
499.267	100.44
499.484	87.44
499.701	71.44
499.918	98.44
500.135	91.44
500.352	98.44
500.569	116.44
500.786	100.44
501.003	81.44
501.22	90.44
501.437	99.44
501.654	97.44
501.871	109.44
502.088	89.44
502.305	97.44
502.522	101.44
502.739	92.44
502.956	98.44
503.172	91.44
503.389	99.44
503.606	99.44
503.823	104.44
504.04	92.44
504.256	91.44
504.473	89.44
504.69	94.44
504.907	94.44
505.123	74.44
505.34	90.44
505.557	83.44
505.773	87.44
505.99	85.44
506.207	96.44
506.423	85.44
506.64	91.44
506.856	86.44
507.073	85.44
507.289	98.44
507.506	98.44
507.722	107.44
507.939	98.44
508.155	95.44
508.372	97.44
508.588	104.44
508.805	88.44
509.021	93.44
509.238	83.44
509.454	94.44
509.67	97.44
509.887	110.44
510.103	129.44
510.319	216.44
510.536	742.44
510.752	2378.44
510.968	641.44
511.184	155.44
511.401	99.44
511.617	89.44
511.833	91.44
512.049	90.44
512.265	100.44
512.481	87.44
512.698	90.44
512.914	101.44
513.13	99.44
513.346	101.44
513.562	97.44
513.778	111.44
513.994	82.44
514.21	101.44
514.426	96.44
514.642	124.44
514.858	113.44
515.074	169.44
515.29	428.44
515.506	1408.44
515.721	532.44
515.937	162.44
516.153	94.44
516.369	104.44
516.585	92.44
