Data from Uncirc_1983_H10_HRD10591_00099.txt Node
Date: Wed Jan 03 12:25:51 EST 2024
User: Yrep
Spectrometer: HR+D1059
Trigger mode: 1
Integration Time (sec): 1.000000E-1
Scans to average: 1
Electric dark correction enabled: true
Nonlinearity correction enabled: false
Boxcar width: 0
XAxis mode: Wavelengths
Number of Pixels in Spectrum: 2048
>>>>>Begin Spectral Data<<<<<
223.165	-3
223.4	-3
223.635	-3
223.869	-19
224.104	-16
224.338	-19
224.573	-18
224.808	-7
225.042	-11
225.277	-3
225.511	3
225.746	14
225.98	-1
226.215	11
226.449	3
226.683	22
226.918	17
227.152	27
227.387	29
227.621	48
227.856	47
228.09	49
228.324	63
228.559	57
228.793	58
229.027	56
229.262	66
229.496	62
229.73	72
229.964	87
230.199	67
230.433	83
230.667	85
230.901	81
231.136	76
231.37	78
231.604	95
231.838	101
232.072	91
232.306	82
232.541	87
232.775	87
233.009	85
233.243	85
233.477	87
233.711	86
233.945	77
234.179	93
234.413	77
234.647	77
234.881	75
235.115	79
235.349	72
235.583	86
235.817	75
236.051	73
236.285	91
236.519	85
236.753	87
236.987	82
237.221	76
237.455	81
237.689	81
237.922	87
238.156	80
238.39	87
238.624	83
238.858	83
239.091	91
239.325	88
239.559	73
239.793	78
240.027	77
240.26	85
240.494	78
240.728	86
240.961	57
241.195	80
241.429	81
241.662	86
241.896	70
242.13	81
242.363	70
242.597	81
242.83	101
243.064	88
243.298	81
243.531	75
243.765	77
243.998	90
244.232	89
244.465	82
244.699	85
244.932	85
245.166	73
245.399	76
245.633	87
245.866	75
246.099	61
246.333	76
246.566	77
246.8	76
247.033	73
247.266	85
247.5	71
247.733	73
247.966	91
248.2	79
248.433	80
248.666	86
248.899	86
249.133	83
249.366	101
249.599	110
249.832	74
250.066	73
250.299	67
250.532	82
250.765	84
250.998	82
251.231	90
251.465	66
251.698	92
251.931	80
252.164	95
252.397	79
252.63	77
252.863	68
253.096	78
253.329	88
253.562	99
253.795	78
254.028	67
254.261	80
254.494	84
254.727	85
254.96	82
255.193	80
255.426	85
255.659	83
255.892	82
256.124	81
256.357	80
256.59	82
256.823	74
257.056	77
257.289	70
257.521	85
257.754	73
257.987	67
258.22	93
258.452	86
258.685	94
258.918	91
259.151	76
259.383	94
259.616	69
259.849	75
260.081	85
260.314	89
260.547	77
260.779	67
261.012	75
261.244	78
261.477	84
261.71	89
261.942	102
262.175	114
262.407	89
262.64	77
262.872	91
263.105	91
263.337	79
263.57	73
263.802	86
264.035	100
264.267	91
264.499	106
264.732	99
264.964	61
265.197	90
265.429	89
265.661	90
265.894	88
266.126	102
266.358	87
266.591	86
266.823	88
267.055	81
267.287	78
267.52	89
267.752	93
267.984	90
268.216	87
268.448	90
268.681	81
268.913	86
269.145	104
269.377	99
269.609	92
269.841	93
270.073	77
270.306	81
270.538	82
270.77	93
271.002	85
271.234	79
271.466	74
271.698	93
271.93	90
272.162	95
272.394	91
272.626	92
272.858	82
273.09	75
273.322	78
273.553	84
273.785	73
274.017	101
274.249	91
274.481	83
274.713	82
274.945	90
275.176	99
275.408	93
275.64	81
275.872	90
276.104	84
276.335	97
276.567	102
276.799	107
277.031	101
277.262	91
277.494	73
277.726	85
277.957	74
278.189	83
278.421	87
278.652	94
278.884	84
279.115	87
279.347	97
279.579	95
279.81	79
280.042	93
280.273	95
280.505	101
280.736	71
280.968	90
281.199	89
281.431	74
281.662	83
281.894	101
282.125	98
282.356	119
282.588	118
282.819	94
283.051	93
283.282	91
283.513	88
283.745	88
283.976	86
284.207	86
284.439	98
284.67	95
284.901	91
285.132	96
285.364	85
285.595	94
285.826	92
286.057	94
286.288	93
286.52	87
286.751	71
286.982	67
287.213	69
287.444	85
287.675	87
287.906	98
288.138	92
288.369	99
288.6	92
288.831	96
289.062	87
289.293	74
289.524	89
289.755	88
289.986	69
290.217	93
290.448	99
290.679	97
290.91	97
291.141	79
291.371	90
291.602	89
291.833	89
292.064	90
292.295	94
292.526	91
292.757	92
292.987	81
293.218	70
293.449	89
293.68	78
293.91	89
294.141	100
294.372	87
294.603	79
294.833	78
295.064	78
295.295	88
295.525	101
295.756	95
295.987	118
296.217	134
296.448	126
296.679	93
296.909	94
297.14	79
297.37	99
297.601	89
297.831	99
298.062	83
298.292	81
298.523	84
298.753	91
298.984	86
299.214	95
299.445	87
299.675	97
299.905	103
300.136	100
300.366	85
300.597	97
300.827	90
301.057	94
301.288	107
301.518	100
301.748	78
301.979	102
302.209	99
302.439	95
302.669	94
302.9	99
303.13	99
303.36	105
303.59	103
303.82	109
304.051	98
304.281	89
304.511	85
304.741	96
304.971	101
305.201	104
305.431	92
305.661	99
305.891	81
306.121	104
306.352	95
306.582	81
306.812	92
307.042	97
307.272	95
307.502	89
307.731	86
307.961	99
308.191	109
308.421	81
308.651	93
308.881	101
309.111	97
309.341	97
309.571	85
309.8	95
310.03	88
310.26	98
310.49	103
310.72	108
310.949	106
311.179	99
311.409	87
311.639	89
311.868	111
312.098	115
312.328	101
312.557	102
312.787	101
313.017	97
313.246	101
313.476	82
313.706	90
313.935	81
314.165	110
314.394	96
314.624	85
314.853	89
315.083	90
315.312	84
315.542	99
315.771	97
316.001	107
316.23	73
316.46	94
316.689	83
316.919	99
317.148	84
317.377	95
317.607	109
317.836	90
318.065	82
318.295	98
318.524	93
318.753	95
318.983	88
319.212	100
319.441	110
319.67	96
319.9	91
320.129	98
320.358	89
320.587	91
320.816	91
321.046	101
321.275	105
321.504	98
321.733	95
321.962	89
322.191	93
322.42	89
322.649	112
322.878	115
323.108	125
323.337	115
323.566	149
323.795	142
324.024	199
324.253	349
324.482	789
324.71	1566
324.939	2083
325.168	750
325.397	246
325.626	158
325.855	132
326.084	118
326.313	144
326.542	134
326.77	222
326.999	425
327.228	913
327.457	1611
327.686	1305
327.914	342
328.143	197
328.372	165
328.6	113
328.829	122
329.058	100
329.287	116
329.515	108
329.744	97
329.972	129
330.201	140
330.43	163
330.658	123
330.887	138
331.115	119
331.344	102
331.572	97
331.801	100
332.03	111
332.258	87
332.486	95
332.715	87
332.943	82
333.172	104
333.4	91
333.629	90
333.857	95
334.085	113
334.314	125
334.542	159
334.771	181
334.999	95
335.227	108
335.455	88
335.684	90
335.912	94
336.14	85
336.369	105
336.597	105
336.825	98
337.053	97
337.281	105
337.51	91
337.738	76
337.966	105
338.194	86
338.422	95
338.65	83
338.878	93
339.106	90
339.334	94
339.562	86
339.79	92
340.018	76
340.246	92
340.474	86
340.702	100
340.93	94
341.158	78
341.386	101
341.614	102
341.842	107
342.07	101
342.298	86
342.526	81
342.754	76
342.981	99
343.209	88
343.437	105
343.665	101
343.893	95
344.12	98
344.348	99
344.576	101
344.804	98
345.031	105
345.259	97
345.487	90
345.714	85
345.942	94
346.17	88
346.397	97
346.625	87
346.853	92
347.08	102
347.308	91
347.535	93
347.763	85
347.99	96
348.218	100
348.445	123
348.673	97
348.9	90
349.128	100
349.355	91
349.583	110
349.81	117
350.037	110
350.265	95
350.492	99
350.72	90
350.947	86
351.174	123
351.402	108
351.629	105
351.856	103
352.083	102
352.311	101
352.538	102
352.765	102
352.992	117
353.22	104
353.447	111
353.674	89
353.901	87
354.128	103
354.355	87
354.583	95
354.81	114
355.037	92
355.264	101
355.491	88
355.718	97
355.945	95
356.172	102
356.399	105
356.626	106
356.853	92
357.08	90
357.307	101
357.534	87
357.761	91
357.988	111
358.215	94
358.441	90
358.668	100
358.895	99
359.122	86
359.349	81
359.576	91
359.802	95
360.029	107
360.256	107
360.483	98
360.709	88
360.936	101
361.163	101
361.39	77
361.616	108
361.843	100
362.07	95
362.296	99
362.523	86
362.749	86
362.976	95
363.203	85
363.429	100
363.656	79
363.882	89
364.109	88
364.335	88
364.562	96
364.788	83
365.015	92
365.241	99
365.468	101
365.694	113
365.92	93
366.147	83
366.373	83
366.599	93
366.826	89
367.052	104
367.278	89
367.505	94
367.731	99
367.957	98
368.184	85
368.41	105
368.636	91
368.862	115
369.089	114
369.315	85
369.541	77
369.767	86
369.993	101
370.219	98
370.445	101
370.672	89
370.898	86
371.124	88
371.35	87
371.576	78
371.802	99
372.028	89
372.254	87
372.48	90
372.706	85
372.932	78
373.158	93
373.384	101
373.61	93
373.835	96
374.061	94
374.287	103
374.513	99
374.739	82
374.965	95
375.191	88
375.416	89
375.642	85
375.868	93
376.094	98
376.319	89
376.545	93
376.771	85
376.997	85
377.222	82
377.448	98
377.674	76
377.899	99
378.125	97
378.35	84
378.576	88
378.802	95
379.027	93
379.253	100
379.478	97
379.704	89
379.929	85
380.155	93
380.38	96
380.606	91
380.831	93
381.057	106
381.282	102
381.507	98
381.733	86
381.958	98
382.184	96
382.409	81
382.634	102
382.86	91
383.085	99
383.31	95
383.535	104
383.761	103
383.986	109
384.211	100
384.436	109
384.662	88
384.887	91
385.112	101
385.337	102
385.562	109
385.787	103
386.013	91
386.238	101
386.463	121
386.688	116
386.913	113
387.138	94
387.363	94
387.588	101
387.813	96
388.038	110
388.263	117
388.488	111
388.713	89
388.938	92
389.163	93
389.387	92
389.612	85
389.837	88
390.062	76
390.287	78
390.512	81
390.736	85
390.961	83
391.186	93
391.411	100
391.636	94
391.86	85
392.085	84
392.31	84
392.534	99
392.759	100
392.984	92
393.208	93
393.433	78
393.658	93
393.882	75
394.107	93
394.331	82
394.556	95
394.78	85
395.005	92
395.229	78
395.454	78
395.678	93
395.903	94
396.127	91
396.352	102
396.576	96
396.801	98
397.025	94
397.249	98
397.474	71
397.698	92
397.922	102
398.147	92
398.371	86
398.595	90
398.82	99
399.044	77
399.268	94
399.492	86
399.717	95
399.941	96
400.165	97
400.389	95
400.613	91
400.837	79
401.062	76
401.286	95
401.51	88
401.734	94
401.958	101
402.182	105
402.406	158
402.63	106
402.854	88
403.078	97
403.302	84
403.526	84
403.75	95
403.974	87
404.198	78
404.422	75
404.645	93
404.869	91
405.093	114
405.317	108
405.541	93
405.765	88
405.988	110
406.212	142
406.436	210
406.66	137
406.883	102
407.107	94
407.331	104
407.555	101
407.778	87
408.002	98
408.226	99
408.449	81
408.673	97
408.896	99
409.12	87
409.344	100
409.567	85
409.791	90
410.014	93
410.238	104
410.461	104
410.685	94
410.908	93
411.132	101
411.355	100
411.578	94
411.802	89
412.025	100
412.249	91
412.472	100
412.695	109
412.919	100
413.142	93
413.365	93
413.589	92
413.812	85
414.035	99
414.258	90
414.482	86
414.705	81
414.928	102
415.151	85
415.374	103
415.597	92
415.821	91
416.044	92
416.267	77
416.49	72
416.713	89
416.936	86
417.159	79
417.382	83
417.605	71
417.828	81
418.051	89
418.274	91
418.497	89
418.72	96
418.943	88
419.166	71
419.389	81
419.611	81
419.834	92
420.057	97
420.28	91
420.503	83
420.726	81
420.948	97
421.171	92
421.394	91
421.617	90
421.839	81
422.062	88
422.285	97
422.507	101
422.73	99
422.953	98
423.175	86
423.398	89
423.621	69
423.843	94
424.066	88
424.288	107
424.511	101
424.733	119
424.956	100
425.178	95
425.401	85
425.623	106
425.846	93
426.068	101
426.291	85
426.513	92
426.735	93
426.958	109
427.18	113
427.402	120
427.625	169
427.847	132
428.069	113
428.292	105
428.514	105
428.736	95
428.958	82
429.181	91
429.403	89
429.625	82
429.847	86
430.069	90
430.292	91
430.514	85
430.736	83
430.958	85
431.18	86
431.402	97
431.624	83
431.846	86
432.068	82
432.29	67
432.512	85
432.734	103
432.956	81
433.178	102
433.4	95
433.622	92
433.844	87
434.066	81
434.287	77
434.509	81
434.731	106
434.953	100
435.175	87
435.397	87
435.618	106
435.84	103
436.062	123
436.284	106
436.505	107
436.727	99
436.949	85
437.17	95
437.392	103
437.614	95
437.835	102
438.057	124
438.278	121
438.5	87
438.721	111
438.943	93
439.165	92
439.386	79
439.608	97
439.829	107
440.05	100
440.272	125
440.493	92
440.715	74
440.936	95
441.158	101
441.379	99
441.6	91
441.822	94
442.043	112
442.264	105
442.486	102
442.707	93
442.928	107
443.149	122
443.371	112
443.592	103
443.813	111
444.034	104
444.255	99
444.476	74
444.698	85
444.919	82
445.14	125
445.361	122
445.582	114
445.803	131
446.024	111
446.245	135
446.466	104
446.687	92
446.908	88
447.129	90
447.35	88
447.571	101
447.792	96
448.013	94
448.234	84
448.455	104
448.675	117
448.896	113
449.117	95
449.338	105
449.559	111
449.779	120
450	90
450.221	84
450.442	91
450.662	92
450.883	102
451.104	112
451.324	78
451.545	97
451.766	103
451.986	79
452.207	93
452.428	109
452.648	103
452.869	98
453.089	111
453.31	102
453.53	96
453.751	90
453.971	89
454.192	103
454.412	85
454.633	89
454.853	94
455.073	88
455.294	85
455.514	92
455.734	105
455.955	88
456.175	94
456.395	79
456.616	83
456.836	90
457.056	89
457.276	69
457.497	89
457.717	83
457.937	80
458.157	99
458.377	91
458.598	102
458.818	117
459.038	158
459.258	113
459.478	85
459.698	88
459.918	92
460.138	87
460.358	86
460.578	95
460.798	83
461.018	87
461.238	96
461.458	97
461.678	93
461.898	79
462.118	70
462.338	79
462.558	89
462.777	83
462.997	81
463.217	87
463.437	82
463.657	81
463.876	81
464.096	89
464.316	102
464.536	95
464.755	91
464.975	100
465.195	142
465.414	151
465.634	95
465.854	84
466.073	76
466.293	71
466.512	81
466.732	89
466.951	85
467.171	85
467.391	83
467.61	93
467.829	114
468.049	111
468.268	121
468.488	97
468.707	81
468.927	83
469.146	83
469.365	95
469.585	84
469.804	115
470.023	108
470.243	84
470.462	103
470.681	114
470.901	88
471.12	92
471.339	84
471.558	97
471.777	93
471.997	99
472.216	135
472.435	194
472.654	117
472.873	106
473.092	94
473.311	93
473.53	93
473.749	97
473.968	92
474.187	108
474.406	105
474.625	97
474.844	93
475.063	82
475.282	91
475.501	102
475.72	103
475.939	93
476.158	86
476.377	92
476.596	92
476.814	105
477.033	77
477.252	89
477.471	89
477.69	83
477.908	94
478.127	94
478.346	98
478.564	94
478.783	102
479.002	96
479.22	74
479.439	91
479.658	97
479.876	87
480.095	89
480.313	94
480.532	89
480.751	97
480.969	139
481.188	301
481.406	200
481.624	101
481.843	99
482.061	87
482.28	79
482.498	90
482.717	91
482.935	106
483.153	90
483.372	86
483.59	99
483.808	86
484.027	76
484.245	103
484.463	103
484.681	102
484.9	101
485.118	85
485.336	98
485.554	87
485.772	105
485.99	101
486.209	87
486.427	102
486.645	115
486.863	96
487.081	102
487.299	102
487.517	96
487.735	79
487.953	101
488.171	91
488.389	93
488.607	87
488.825	94
489.043	88
489.261	91
489.479	94
489.696	91
489.914	87
490.132	94
490.35	100
490.568	86
490.786	81
491.003	76
491.221	93
491.439	112
491.657	101
491.874	105
492.092	105
492.31	86
492.527	94
492.745	85
492.963	85
493.18	90
493.398	94
493.615	93
493.833	107
494.05	86
494.268	80
494.485	95
494.703	95
494.92	91
495.138	89
495.355	93
495.573	99
495.79	89
496.008	101
496.225	78
496.442	89
496.66	97
496.877	101
497.094	74
497.312	88
497.529	87
497.746	96
497.963	87
498.181	93
498.398	81
498.615	115
498.832	110
499.049	97
499.267	97
499.484	85
499.701	83
499.918	104
500.135	101
500.352	98
500.569	107
500.786	95
501.003	91
501.22	99
501.437	100
501.654	81
501.871	103
502.088	111
502.305	105
502.522	81
502.739	79
502.956	104
503.172	85
503.389	91
503.606	106
503.823	86
504.04	98
504.256	90
504.473	83
504.69	82
504.907	84
505.123	82
505.34	97
505.557	89
505.773	106
505.99	100
506.207	98
506.423	95
506.64	90
506.856	105
507.073	90
507.289	84
507.506	102
507.722	119
507.939	102
508.155	93
508.372	87
508.588	101
508.805	100
509.021	104
509.238	97
509.454	93
509.67	102
509.887	106
510.103	126
510.319	211
510.536	724
510.752	2251
510.968	597
511.184	133
511.401	101
511.617	97
511.833	91
512.049	111
512.265	82
512.481	87
512.698	82
512.914	99
513.13	108
513.346	87
513.562	88
513.778	96
513.994	79
514.21	93
514.426	104
514.642	133
514.858	121
515.074	159
515.29	406
515.506	1329
515.721	486
515.937	146
516.153	111
516.369	101
516.585	94
516.801	92
517.016	99
517.232	111
517.448	103
517.664	97
517.879	104
518.095	95
518.311	92
518.527	101
518.742	93
518.958	82
519.173	106
519.389	88
519.605	90
519.82	84
520.036	108
520.251	97
520.467	105
520.682	95
520.898	101
521.113	121
521.329	138
521.544	209
521.76	516
521.975	2278
522.19	1331
522.406	300
522.621	113
522.836	103
523.052	97
523.267	93
523.482	87
523.698	103
523.913	110
524.128	107
524.343	114
524.559	94
524.774	103
524.989	107
525.204	110
525.419	93
525.634	100
525.849	85
526.064	90
526.28	101
526.495	91
526.71	86
526.925	93
527.14	91
527.355	94
527.57	98
527.785	90
527.999	82
528.214	87
528.429	97
528.644	102
528.859	77
529.074	89
529.289	103
529.503	173
529.718	101
529.933	92
530.148	95
530.363	85
530.577	87
530.792	84
531.007	84
531.221	90
531.436	92
531.651	90
531.865	95
532.08	92
532.295	107
532.509	106
532.724	93
532.938	101
533.153	93
533.367	89
533.582	90
533.796	99
534.011	102
534.225	87
534.44	91
534.654	89
534.868	90
535.083	97
535.297	91
535.511	110
535.726	101
535.94	87
536.154	90
536.369	104
536.583	107
536.797	96
537.011	86
537.225	95
537.44	97
537.654	90
537.868	93
538.082	91
538.296	93
538.51	85
538.724	99
538.938	109
539.153	85
539.367	109
539.581	103
539.795	86
540.009	89
540.222	97
540.436	105
540.65	93
540.864	94
541.078	91
541.292	102
541.506	85
541.72	106
541.934	82
542.147	97
542.361	98
542.575	88
542.789	87
543.002	94
543.216	102
543.43	98
543.644	87
543.857	101
544.071	91
544.285	91
544.498	94
544.712	77
544.925	91
545.139	105
545.352	96
545.566	79
545.779	106
545.993	93
546.206	83
546.42	82
546.633	89
546.847	98
547.06	82
547.274	90
547.487	105
547.7	109
547.914	87
548.127	90
548.34	94
548.554	100
548.767	104
548.98	92
549.193	85
549.407	91
549.62	89
549.833	93
550.046	85
550.259	91
550.473	100
550.686	90
550.899	96
551.112	105
551.325	102
551.538	82
551.751	89
551.964	93
552.177	91
552.39	78
552.603	98
552.816	88
553.029	94
553.242	87
553.455	102
553.667	99
553.88	94
554.093	96
554.306	90
554.519	106
554.732	89
554.944	74
555.157	86
555.37	92
555.583	91
555.795	85
556.008	78
556.221	91
556.433	106
556.646	96
556.859	85
557.071	93
557.284	82
557.496	84
557.709	94
557.921	99
558.134	93
558.346	94
558.559	88
558.771	91
558.984	91
559.196	84
559.409	75
559.621	73
559.833	91
560.046	90
560.258	75
560.47	79
560.683	86
560.895	95
561.107	97
561.32	101
561.532	81
561.744	99
561.956	97
562.168	89
562.381	92
562.593	89
562.805	73
563.017	89
563.229	102
563.441	80
563.653	96
563.865	74
564.077	103
564.289	88
564.501	94
564.713	101
564.925	87
565.137	97
565.349	100
565.561	97
565.773	96
565.985	79
566.197	101
566.408	93
566.62	93
566.832	86
567.044	85
567.255	92
567.467	86
567.679	89
567.891	95
568.102	97
568.314	98
568.526	76
568.737	93
568.949	84
569.161	90
569.372	89
569.584	87
569.795	106
570.007	117
570.218	235
570.43	136
570.641	90
570.853	78
571.064	93
571.276	90
571.487	90
571.698	85
571.91	89
572.121	98
572.333	93
572.544	90
572.755	92
572.966	93
573.178	90
573.389	96
573.6	95
573.811	92
574.023	105
574.234	91
574.445	85
574.656	87
574.867	82
575.078	84
575.289	87
575.501	89
575.712	94
575.923	101
576.134	89
576.345	89
576.556	98
576.767	87
576.978	82
577.188	108
577.399	102
577.61	91
577.821	81
578.032	119
578.243	262
578.454	739
578.665	211
578.875	113
579.086	102
579.297	89
579.508	101
579.718	98
579.929	93
580.14	73
580.35	86
580.561	84
580.772	87
580.982	89
581.193	95
581.403	88
581.614	93
581.825	96
582.035	98
582.246	85
582.456	93
582.667	77
582.877	81
583.087	76
