Data from Uncirc_1983_H10_HRD10591_00054.txt Node
Date: Wed Jan 03 12:25:42 EST 2024
User: Yrep
Spectrometer: HR+D1059
Trigger mode: 1
Integration Time (sec): 1.000000E-1
Scans to average: 1
Electric dark correction enabled: true
Nonlinearity correction enabled: false
Boxcar width: 0
XAxis mode: Wavelengths
Number of Pixels in Spectrum: 2048
>>>>>Begin Spectral Data<<<<<
223.165	-8.81
223.4	-8.81
223.635	-8.81
223.869	-14.81
224.104	-26.81
224.338	-13.81
224.573	-10.81
224.808	-8.81
225.042	-11.81
225.277	-12.81
225.511	-2.81
225.746	2.19
225.98	16.19
226.215	9.19
226.449	10.19
226.683	22.19
226.918	23.19
227.152	28.19
227.387	34.19
227.621	36.19
227.856	48.19
228.09	36.19
228.324	41.19
228.559	60.19
228.793	160.19
229.027	401.19
229.262	506.19
229.496	562.19
229.73	727.19
229.964	746.19
230.199	497.19
230.433	460.19
230.667	446.19
230.901	442.19
231.136	418.19
231.37	433.19
231.604	436.19
231.838	428.19
232.072	434.19
232.306	427.19
232.541	453.19
232.775	470.19
233.009	470.19
233.243	485.19
233.477	463.19
233.711	491.19
233.945	482.19
234.179	506.19
234.413	488.19
234.647	486.19
234.881	512.19
235.115	520.19
235.349	529.19
235.583	537.19
235.817	586.19
236.051	607.19
236.285	576.19
236.519	608.19
236.753	675.19
236.987	862.19
237.221	1249.19
237.455	1360.19
237.689	852.19
237.922	715.19
238.156	685.19
238.39	657.19
238.624	642.19
238.858	642.19
239.091	676.19
239.325	652.19
239.559	678.19
239.793	677.19
240.027	756.19
240.26	892.19
240.494	912.19
240.728	897.19
240.961	880.19
241.195	794.19
241.429	791.19
241.662	753.19
241.896	741.19
242.13	767.19
242.363	778.19
242.597	780.19
242.83	799.19
243.064	807.19
243.298	808.19
243.531	819.19
243.765	799.19
243.998	816.19
244.232	823.19
244.465	857.19
244.699	885.19
244.932	902.19
245.166	883.19
245.399	873.19
245.633	891.19
245.866	893.19
246.099	900.19
246.333	926.19
246.566	938.19
246.8	984.19
247.033	997.19
247.266	1033.19
247.5	1069.19
247.733	1115.19
247.966	1095.19
248.2	1107.19
248.433	1120.19
248.666	1161.19
248.899	1271.19
249.133	1382.19
249.366	1341.19
249.599	1277.19
249.832	1201.19
250.066	1179.19
250.299	1247.19
250.532	1298.19
250.765	1470.19
250.998	1608.19
251.231	1541.19
251.465	1447.19
251.698	1361.19
251.931	1359.19
252.164	1354.19
252.397	1383.19
252.63	1428.19
252.863	1493.19
253.096	1599.19
253.329	1657.19
253.562	1567.19
253.795	1515.19
254.028	1486.19
254.261	1528.19
254.494	1720.19
254.727	2002.19
254.96	2071.19
255.193	1879.19
255.426	1719.19
255.659	1621.19
255.892	1587.19
256.124	1596.19
256.357	1575.19
256.59	1539.19
256.823	1505.19
257.056	1454.19
257.289	1492.19
257.521	1510.19
257.754	1483.19
257.987	1484.19
258.22	1503.19
258.452	1483.19
258.685	1555.19
258.918	1545.19
259.151	1615.19
259.383	1669.19
259.616	1695.19
259.849	1730.19
260.081	1834.19
260.314	2003.19
260.547	1911.19
260.779	1783.19
261.012	1735.19
261.244	1674.19
261.477	1625.19
261.71	1659.19
261.942	1689.19
262.175	1724.19
262.407	1626.19
262.64	1586.19
262.872	1627.19
263.105	1575.19
263.337	1599.19
263.57	1634.19
263.802	1641.19
264.035	1659.19
264.267	1666.19
264.499	1687.19
264.732	1682.19
264.964	1685.19
265.197	1684.19
265.429	1647.19
265.661	1684.19
265.894	1697.19
266.126	1726.19
266.358	1735.19
266.591	1746.19
266.823	1861.19
267.055	1830.19
267.287	1841.19
267.52	1796.19
267.752	1823.19
267.984	1817.19
268.216	1826.19
268.448	1900.19
268.681	1954.19
268.913	2068.19
269.145	2214.19
269.377	2243.19
269.609	2204.19
269.841	2134.19
270.073	2261.19
270.306	2564.19
270.538	2691.19
270.77	2530.19
271.002	2407.19
271.234	2367.19
271.466	2500.19
271.698	2578.19
271.93	2591.19
272.162	2639.19
272.394	2529.19
272.626	2412.19
272.858	2295.19
273.09	2244.19
273.322	2244.19
273.553	2182.19
273.785	2177.19
274.017	2148.19
274.249	2222.19
274.481	2179.19
274.713	2228.19
274.945	2247.19
275.176	2209.19
275.408	2200.19
275.64	2166.19
275.872	2211.19
276.104	2236.19
276.335	2218.19
276.567	2289.19
276.799	2420.19
277.031	2652.19
277.262	2790.19
277.494	2653.19
277.726	2504.19
277.957	2415.19
278.189	2353.19
278.421	2346.19
278.652	2304.19
278.884	2300.19
279.115	2313.19
279.347	2325.19
279.579	2334.19
279.81	2332.19
280.042	2322.19
280.273	2358.19
280.505	2372.19
280.736	2379.19
280.968	2379.19
281.199	2411.19
281.431	2413.19
281.662	2445.19
281.894	2455.19
282.125	2449.19
282.356	2606.19
282.588	2753.19
282.819	2527.19
283.051	2467.19
283.282	2452.19
283.513	2563.19
283.745	2556.19
283.976	2607.19
284.207	2590.19
284.439	2567.19
284.67	2591.19
284.901	2587.19
285.132	2584.19
285.364	2586.19
285.595	2626.19
285.826	2615.19
286.057	2630.19
286.288	2649.19
286.52	2614.19
286.751	2618.19
286.982	2678.19
287.213	2664.19
287.444	2674.19
287.675	2710.19
287.906	2819.19
288.138	2843.19
288.369	2793.19
288.6	2860.19
288.831	2825.19
289.062	2737.19
289.293	2805.19
289.524	2736.19
289.755	2736.19
289.986	2746.19
290.217	2730.19
290.448	2736.19
290.679	2792.19
290.91	2776.19
291.141	2778.19
291.371	2799.19
291.602	2811.19
291.833	2760.19
292.064	2756.19
292.295	2761.19
292.526	2766.19
292.757	2781.19
292.987	2762.19
293.218	2783.19
293.449	2785.19
293.68	2807.19
293.91	2779.19
294.141	2803.19
294.372	2781.19
294.603	2809.19
294.833	2854.19
295.064	2839.19
295.295	2825.19
295.525	2813.19
295.756	2898.19
295.987	2967.19
296.217	3083.19
296.448	3053.19
296.679	2920.19
296.909	2924.19
297.14	2937.19
297.37	2979.19
297.601	3013.19
297.831	2967.19
298.062	3001.19
298.292	3007.19
298.523	3061.19
298.753	3091.19
298.984	3051.19
299.214	3017.19
299.445	3048.19
299.675	3021.19
299.905	3102.19
300.136	3063.19
300.366	3095.19
300.597	3117.19
300.827	3171.19
301.057	3248.19
301.288	3333.19
301.518	3333.19
301.748	3335.19
301.979	3351.19
302.209	3313.19
302.439	3376.19
302.669	3253.19
302.9	3257.19
303.13	3252.19
303.36	3256.19
303.59	3273.19
303.82	3371.19
304.051	3287.19
304.281	3267.19
304.511	3207.19
304.741	3280.19
304.971	3234.19
305.201	3207.19
305.431	3252.19
305.661	3284.19
305.891	3200.19
306.121	3180.19
306.352	3234.19
306.582	3297.19
306.812	3158.19
307.042	3210.19
307.272	3241.19
307.502	3241.19
307.731	3252.19
307.961	3208.19
308.191	3261.19
308.421	3203.19
308.651	3271.19
308.881	3284.19
309.111	3232.19
309.341	3331.19
309.571	3328.19
309.8	3479.19
310.03	3493.19
310.26	3487.19
310.49	3444.19
310.72	3599.19
310.949	3655.19
311.179	3663.19
311.409	3553.19
311.639	3529.19
311.868	3583.19
312.098	3548.19
312.328	3659.19
312.557	3782.19
312.787	3805.19
313.017	3722.19
313.246	3654.19
313.476	3613.19
313.706	3651.19
313.935	3780.19
314.165	3812.19
314.394	3820.19
314.624	3821.19
314.853	3691.19
315.083	3713.19
315.312	3667.19
315.542	3657.19
315.771	3618.19
316.001	3596.19
316.23	3632.19
316.46	3641.19
316.689	3669.19
316.919	3619.19
317.148	3706.19
317.377	3713.19
317.607	3681.19
317.836	3635.19
318.065	3580.19
318.295	3605.19
318.524	3583.19
318.753	3617.19
318.983	3571.19
319.212	3562.19
319.441	3604.19
319.67	3707.19
319.9	3607.19
320.129	3615.19
320.358	3640.19
320.587	3657.19
320.816	3685.19
321.046	3755.19
321.275	3760.19
321.504	3746.19
321.733	3747.19
321.962	3805.19
322.191	3951.19
322.42	3932.19
322.649	4028.19
322.878	4051.19
323.108	4196.19
323.337	4383.19
323.566	4516.19
323.795	4751.19
324.024	5215.19
324.253	6757.19
324.482	10087.19
324.71	14442.19
324.939	15629.19
325.168	10911.19
325.397	6161.19
325.626	5007.19
325.855	4684.19
326.084	4647.19
326.313	4534.19
326.542	4733.19
326.77	5302.19
326.999	6605.19
327.228	9404.19
327.457	13457.19
327.686	12414.19
327.914	6775.19
328.143	5504.19
328.372	5210.19
328.6	4990.19
328.829	4919.19
329.058	5057.19
329.287	5007.19
329.515	4741.19
329.744	4593.19
329.972	4735.19
330.201	4891.19
330.43	5090.19
330.658	5199.19
330.887	5401.19
331.115	5087.19
331.344	4769.19
331.572	4748.19
331.801	4837.19
332.03	4856.19
332.258	4879.19
332.486	4839.19
332.715	4926.19
332.943	5105.19
333.172	5273.19
333.4	5424.19
333.629	5474.19
333.857	5513.19
334.085	5561.19
334.314	5536.19
334.542	5558.19
334.771	5562.19
334.999	5314.19
335.227	5166.19
335.455	5056.19
335.684	4961.19
335.912	4878.19
336.14	4855.19
336.369	4842.19
336.597	4908.19
336.825	4802.19
337.053	4758.19
337.281	4710.19
337.51	4588.19
337.738	4604.19
337.966	4635.19
338.194	4654.19
338.422	4516.19
338.65	4428.19
338.878	4395.19
339.106	4406.19
339.334	4391.19
339.562	4375.19
339.79	4289.19
340.018	4309.19
340.246	4345.19
340.474	4377.19
340.702	4339.19
340.93	4387.19
341.158	4371.19
341.386	4289.19
341.614	4329.19
341.842	4306.19
342.07	4224.19
342.298	4205.19
342.526	4276.19
342.754	4239.19
342.981	4266.19
343.209	4364.19
343.437	4604.19
343.665	4854.19
343.893	5157.19
344.12	5160.19
344.348	4891.19
344.576	4659.19
344.804	4615.19
345.031	4497.19
345.259	4492.19
345.487	4352.19
345.714	4293.19
345.942	4149.19
346.17	4202.19
346.397	4129.19
346.625	4159.19
346.853	4076.19
347.08	4083.19
347.308	4118.19
347.535	4201.19
347.763	4213.19
347.99	4159.19
348.218	4181.19
348.445	4189.19
348.673	4118.19
348.9	4088.19
349.128	4017.19
349.355	4012.19
349.583	3933.19
349.81	3968.19
350.037	3999.19
350.265	3987.19
350.492	3969.19
350.72	3996.19
350.947	4023.19
351.174	4090.19
351.402	4127.19
351.629	4031.19
351.856	4043.19
352.083	4084.19
352.311	4116.19
352.538	4140.19
352.765	4143.19
352.992	4030.19
353.22	4029.19
353.447	3981.19
353.674	3978.19
353.901	3915.19
354.128	3924.19
354.355	3918.19
354.583	3898.19
354.81	3883.19
355.037	3867.19
355.264	3880.19
355.491	3888.19
355.718	3917.19
355.945	3899.19
356.172	3899.19
356.399	3882.19
356.626	3921.19
356.853	3901.19
357.08	3885.19
357.307	3876.19
357.534	3905.19
357.761	3891.19
357.988	3945.19
358.215	3895.19
358.441	3948.19
358.668	3903.19
358.895	4010.19
359.122	4011.19
359.349	4050.19
359.576	4156.19
359.802	4294.19
360.029	4434.19
360.256	4404.19
360.483	4291.19
360.709	4124.19
360.936	4127.19
361.163	4111.19
361.39	4132.19
361.616	4100.19
361.843	4095.19
362.07	4114.19
362.296	4071.19
362.523	4066.19
362.749	4090.19
362.976	4036.19
363.203	4013.19
363.429	3992.19
363.656	3989.19
363.882	3986.19
364.109	3911.19
364.335	3950.19
364.562	3968.19
364.788	3913.19
365.015	3961.19
365.241	4000.19
365.468	4007.19
365.694	4035.19
365.92	3982.19
366.147	3972.19
366.373	3995.19
366.599	3914.19
366.826	3916.19
367.052	3928.19
367.278	4045.19
367.505	3955.19
367.731	4015.19
367.957	4024.19
368.184	4034.19
368.41	4095.19
368.636	4131.19
368.862	4200.19
369.089	4104.19
369.315	4037.19
369.541	4010.19
369.767	4148.19
369.993	4058.19
370.219	4094.19
370.445	4134.19
370.672	4152.19
370.898	4146.19
371.124	4195.19
371.35	4257.19
371.576	4235.19
371.802	4239.19
372.028	4265.19
372.254	4243.19
372.48	4215.19
372.706	4359.19
372.932	4433.19
373.158	4369.19
373.384	4315.19
373.61	4295.19
373.835	4334.19
374.061	4301.19
374.287	4403.19
374.513	4463.19
374.739	4583.19
374.965	4790.19
375.191	4681.19
375.416	4652.19
375.642	4493.19
375.868	4463.19
376.094	4359.19
376.319	4307.19
376.545	4259.19
376.771	4278.19
376.997	4269.19
377.222	4285.19
377.448	4204.19
377.674	4223.19
377.899	4168.19
378.125	4212.19
378.35	4205.19
378.576	4216.19
378.802	4193.19
379.027	4196.19
379.253	4219.19
379.478	4185.19
379.704	4213.19
379.929	4252.19
380.155	4231.19
380.38	4243.19
380.606	4305.19
380.831	4236.19
381.057	4289.19
381.282	4256.19
381.507	4265.19
381.733	4337.19
381.958	4375.19
382.184	4449.19
382.409	4368.19
382.634	4545.19
382.86	4533.19
383.085	4569.19
383.31	4665.19
383.535	4743.19
383.761	4714.19
383.986	4803.19
384.211	4940.19
384.436	5077.19
384.662	5013.19
384.887	5203.19
385.112	5137.19
385.337	5120.19
385.562	5179.19
385.787	5132.19
386.013	5268.19
386.238	5287.19
386.463	5213.19
386.688	5276.19
386.913	5001.19
387.138	5099.19
387.363	5110.19
387.588	5025.19
387.813	5126.19
388.038	5062.19
388.263	5165.19
388.488	5247.19
388.713	5063.19
388.938	5054.19
389.163	5010.19
389.387	5092.19
389.612	4948.19
389.837	4971.19
390.062	4956.19
390.287	5122.19
390.512	5050.19
390.736	5096.19
390.961	5233.19
391.186	5279.19
391.411	5468.19
391.636	5572.19
391.86	5694.19
392.085	5656.19
392.31	5648.19
392.534	5574.19
392.759	5441.19
392.984	5397.19
393.208	5299.19
393.433	5332.19
393.658	5296.19
393.882	5337.19
394.107	5331.19
394.331	5363.19
394.556	5363.19
394.78	5433.19
395.005	5567.19
395.229	5431.19
395.454	5732.19
395.678	5783.19
395.903	5769.19
396.127	5822.19
396.352	5612.19
396.576	5418.19
396.801	5408.19
397.025	5536.19
397.249	5626.19
397.474	5687.19
397.698	5755.19
397.922	5928.19
398.147	5967.19
398.371	6122.19
398.595	6184.19
398.82	6550.19
399.044	7020.19
399.268	7851.19
399.492	8929.19
399.717	9543.19
399.941	9338.19
400.165	8681.19
400.389	8007.19
400.613	7236.19
400.837	6748.19
401.062	6602.19
401.286	6543.19
401.51	6499.19
401.734	6489.19
401.958	6615.19
402.182	6712.19
402.406	6807.19
402.63	6815.19
402.854	6884.19
403.078	6940.19
403.302	7153.19
403.526	7264.19
403.75	7320.19
403.974	7438.19
404.198	7362.19
404.422	7447.19
404.645	7361.19
404.869	7441.19
405.093	7553.19
405.317	7725.19
405.541	7615.19
405.765	7282.19
405.988	7189.19
406.212	7322.19
406.436	7494.19
406.66	7603.19
406.883	7670.19
407.107	8245.19
407.331	8806.19
407.555	9305.19
407.778	8981.19
408.002	8245.19
408.226	7857.19
408.449	7704.19
408.673	7567.19
408.896	7702.19
409.12	7962.19
409.344	7466.19
409.567	7076.19
409.791	7130.19
410.014	6971.19
410.238	6911.19
410.461	6983.19
410.685	7019.19
410.908	7083.19
411.132	7298.19
411.355	7217.19
411.578	6969.19
411.802	6677.19
412.025	6754.19
412.249	6885.19
412.472	6908.19
412.695	6969.19
412.919	6644.19
413.142	6524.19
413.365	6433.19
413.589	6465.19
413.812	6320.19
414.035	6274.19
414.258	6338.19
414.482	6342.19
414.705	6386.19
414.928	6308.19
415.151	6398.19
415.374	6345.19
415.597	6280.19
415.821	6246.19
416.044	6202.19
416.267	6234.19
416.49	6229.19
416.713	6165.19
416.936	6243.19
417.159	6175.19
417.382	6328.19
417.605	6218.19
417.828	6427.19
418.051	6571.19
418.274	6524.19
418.497	6434.19
418.72	6481.19
418.943	6464.19
419.166	6908.19
419.389	7269.19
419.611	7068.19
419.834	6844.19
420.057	6802.19
420.28	6584.19
420.503	6392.19
420.726	6479.19
420.948	6591.19
421.171	6997.19
421.394	6873.19
421.617	6456.19
421.839	6499.19
422.062	6583.19
422.285	6690.19
422.507	7375.19
422.73	7784.19
422.953	7243.19
423.175	6870.19
423.398	7012.19
423.621	6938.19
423.843	7178.19
424.066	7145.19
424.288	7087.19
424.511	7314.19
424.733	7700.19
424.956	7977.19
425.178	7694.19
425.401	7688.19
425.623	7596.19
425.846	6783.19
426.068	6528.19
426.291	6467.19
426.513	6467.19
426.735	6629.19
426.958	6955.19
427.18	7736.19
427.402	8703.19
427.625	8750.19
427.847	7418.19
428.069	6751.19
428.292	6359.19
428.514	6051.19
428.736	5924.19
428.958	5953.19
429.181	5734.19
429.403	5747.19
429.625	5929.19
429.847	6201.19
430.069	6737.19
430.292	6259.19
430.514	5752.19
430.736	5829.19
430.958	5711.19
431.18	5571.19
431.402	5576.19
431.624	5605.19
431.846	5604.19
432.068	5651.19
432.29	5736.19
432.512	5636.19
432.734	5752.19
432.956	5688.19
433.178	5747.19
433.4	5756.19
433.622	5681.19
433.844	5798.19
434.066	5736.19
434.287	5830.19
434.509	6098.19
434.731	6337.19
434.953	6472.19
435.175	6609.19
435.397	6600.19
435.618	6467.19
435.84	6882.19
436.062	7539.19
436.284	7468.19
436.505	6468.19
436.727	6136.19
436.949	5899.19
437.17	5818.19
437.392	5750.19
437.614	5893.19
437.835	6253.19
438.057	7080.19
438.278	7620.19
438.5	7661.19
438.721	8450.19
438.943	7347.19
439.165	6267.19
439.386	6154.19
439.608	6106.19
439.829	6252.19
440.05	6569.19
440.272	6793.19
440.493	6319.19
440.715	6113.19
440.936	5971.19
441.158	6123.19
441.379	6301.19
441.6	6512.19
441.822	6822.19
442.043	7188.19
442.264	7777.19
442.486	7549.19
442.707	6803.19
442.928	6604.19
443.149	6840.19
443.371	6957.19
443.592	7456.19
443.813	8520.19
444.034	8427.19
444.255	7394.19
444.476	7256.19
444.698	7480.19
444.919	7594.19
445.14	7271.19
445.361	7150.19
445.582	7212.19
445.803	7709.19
446.024	8283.19
446.245	7965.19
446.466	7169.19
446.687	6274.19
446.908	6034.19
447.129	5734.19
447.35	5615.19
447.571	5576.19
447.792	5466.19
448.013	5512.19
448.234	5695.19
448.455	6327.19
448.675	7526.19
448.896	7888.19
449.117	6537.19
449.338	6771.19
449.559	7923.19
449.779	8037.19
450	6348.19
450.221	5658.19
450.442	5515.19
450.662	5310.19
450.883	5444.19
451.104	5545.19
451.324	5430.19
451.545	5276.19
451.766	5178.19
451.986	5033.19
452.207	5004.19
452.428	4958.19
452.648	5078.19
452.869	5015.19
453.089	5060.19
453.31	5160.19
453.53	5012.19
453.751	4953.19
453.971	4890.19
454.192	5071.19
454.412	4794.19
454.633	4834.19
454.853	4884.19
455.073	4838.19
455.294	5240.19
455.514	5716.19
455.734	5255.19
455.955	4748.19
456.175	4674.19
456.395	4611.19
456.616	4642.19
456.836	4616.19
457.056	4674.19
457.276	4549.19
457.497	4657.19
457.717	4626.19
457.937	4732.19
458.157	4711.19
458.377	4854.19
458.598	5247.19
458.818	5801.19
459.038	6526.19
459.258	6462.19
459.478	5946.19
459.698	5782.19
459.918	5818.19
460.138	6019.19
460.358	6274.19
460.578	6356.19
460.798	6341.19
461.018	6381.19
461.238	6169.19
461.458	6231.19
461.678	6130.19
461.898	6277.19
462.118	6338.19
462.338	6748.19
462.558	6835.19
462.777	7120.19
462.997	7711.19
463.217	8134.19
463.437	7859.19
463.657	7370.19
463.876	7098.19
464.096	7115.19
464.316	7160.19
464.536	7127.19
464.755	6892.19
464.975	6825.19
465.195	6939.19
465.414	6846.19
465.634	6049.19
465.854	5762.19
466.073	5539.19
466.293	5473.19
466.512	5267.19
466.732	5129.19
466.951	5191.19
467.171	5123.19
467.391	5281.19
467.61	5275.19
467.829	5233.19
468.049	5152.19
468.268	5031.19
468.488	4914.19
468.707	4909.19
468.927	4961.19
469.146	4861.19
469.365	5033.19
469.585	5003.19
469.804	5220.19
470.023	5361.19
470.243	5403.19
470.462	5431.19
470.681	5576.19
470.901	5426.19
471.12	5249.19
471.339	5199.19
471.558	5232.19
471.777	5106.19
471.997	5053.19
472.216	5097.19
472.435	5137.19
472.654	5010.19
472.873	4899.19
473.092	4834.19
473.311	4891.19
473.53	4963.19
473.749	4973.19
473.968	5526.19
474.187	6431.19
474.406	6003.19
474.625	5243.19
474.844	5071.19
475.063	4989.19
475.282	5031.19
475.501	4994.19
475.72	5071.19
475.939	5072.19
476.158	5115.19
476.377	5112.19
476.596	5118.19
476.814	5285.19
477.033	5332.19
477.252	5392.19
477.471	5461.19
477.69	5639.19
477.908	5619.19
478.127	5856.19
478.346	5932.19
478.564	6007.19
478.783	6026.19
479.002	6291.19
479.22	6220.19
479.439	6349.19
479.658	6403.19
479.876	6546.19
480.095	6699.19
480.313	7014.19
480.532	6956.19
480.751	6873.19
480.969	6764.19
481.188	6777.19
481.406	6638.19
481.624	6305.19
481.843	6123.19
482.061	5951.19
482.28	5921.19
482.498	5842.19
482.717	5811.19
482.935	5767.19
483.153	5787.19
483.372	5723.19
483.59	5863.19
483.808	5783.19
484.027	5774.19
484.245	5846.19
484.463	5939.19
484.681	5939.19
484.9	6062.19
485.118	5995.19
485.336	6015.19
485.554	6175.19
485.772	6209.19
485.99	6130.19
486.209	6212.19
486.427	6268.19
486.645	6213.19
486.863	6345.19
487.081	6330.19
487.299	6279.19
487.517	6221.19
487.735	6131.19
487.953	6185.19
