Data from Uncirc_1983_H10_HRD10591_00063.txt Node
Date: Wed Jan 03 12:25:44 EST 2024
User: Yrep
Spectrometer: HR+D1059
Trigger mode: 1
Integration Time (sec): 1.000000E-1
Scans to average: 1
Electric dark correction enabled: true
Nonlinearity correction enabled: false
Boxcar width: 0
XAxis mode: Wavelengths
Number of Pixels in Spectrum: 2048
>>>>>Begin Spectral Data<<<<<
223.165	-12.88
223.4	-12.88
223.635	-12.88
223.869	-17.88
224.104	-15.88
224.338	-14.88
224.573	-9.88
224.808	-28.88
225.042	-14.88
225.277	-4.88
225.511	1.12
225.746	10.12
225.98	3.12
226.215	0.12
226.449	21.12
226.683	36.12
226.918	16.12
227.152	32.12
227.387	49.12
227.621	14.12
227.856	34.12
228.09	41.12
228.324	52.12
228.559	38.12
228.793	168.12
229.027	441.12
229.262	519.12
229.496	585.12
229.73	752.12
229.964	797.12
230.199	511.12
230.433	474.12
230.667	474.12
230.901	452.12
231.136	418.12
231.37	436.12
231.604	468.12
231.838	448.12
232.072	457.12
232.306	469.12
232.541	471.12
232.775	453.12
233.009	466.12
233.243	452.12
233.477	477.12
233.711	483.12
233.945	508.12
234.179	497.12
234.413	520.12
234.647	494.12
234.881	522.12
235.115	536.12
235.349	543.12
235.583	544.12
235.817	605.12
236.051	615.12
236.285	593.12
236.519	634.12
236.753	711.12
236.987	880.12
237.221	1268.12
237.455	1379.12
237.689	862.12
237.922	715.12
238.156	704.12
238.39	680.12
238.624	607.12
238.858	620.12
239.091	652.12
239.325	658.12
239.559	658.12
239.793	689.12
240.027	740.12
240.26	886.12
240.494	963.12
240.728	884.12
240.961	860.12
241.195	804.12
241.429	766.12
241.662	761.12
241.896	753.12
242.13	765.12
242.363	771.12
242.597	784.12
242.83	820.12
243.064	819.12
243.298	811.12
243.531	829.12
243.765	827.12
243.998	835.12
244.232	847.12
244.465	903.12
244.699	904.12
244.932	891.12
245.166	896.12
245.399	900.12
245.633	928.12
245.866	939.12
246.099	938.12
246.333	946.12
246.566	946.12
246.8	982.12
247.033	1013.12
247.266	1020.12
247.5	1069.12
247.733	1150.12
247.966	1178.12
248.2	1131.12
248.433	1152.12
248.666	1204.12
248.899	1275.12
249.133	1395.12
249.366	1376.12
249.599	1275.12
249.832	1220.12
250.066	1219.12
250.299	1249.12
250.532	1377.12
250.765	1543.12
250.998	1664.12
251.231	1610.12
251.465	1501.12
251.698	1430.12
251.931	1390.12
252.164	1401.12
252.397	1397.12
252.63	1463.12
252.863	1532.12
253.096	1640.12
253.329	1664.12
253.562	1634.12
253.795	1547.12
254.028	1561.12
254.261	1646.12
254.494	1798.12
254.727	2038.12
254.96	2170.12
255.193	1903.12
255.426	1744.12
255.659	1667.12
255.892	1674.12
256.124	1711.12
256.357	1703.12
256.59	1581.12
256.823	1543.12
257.056	1549.12
257.289	1538.12
257.521	1542.12
257.754	1537.12
257.987	1514.12
258.22	1503.12
258.452	1530.12
258.685	1549.12
258.918	1557.12
259.151	1581.12
259.383	1680.12
259.616	1675.12
259.849	1731.12
260.081	1893.12
260.314	2098.12
260.547	1983.12
260.779	1815.12
261.012	1772.12
261.244	1684.12
261.477	1664.12
261.71	1691.12
261.942	1681.12
262.175	1757.12
262.407	1702.12
262.64	1624.12
262.872	1629.12
263.105	1611.12
263.337	1628.12
263.57	1641.12
263.802	1652.12
264.035	1623.12
264.267	1678.12
264.499	1704.12
264.732	1680.12
264.964	1720.12
265.197	1702.12
265.429	1734.12
265.661	1655.12
265.894	1701.12
266.126	1724.12
266.358	1753.12
266.591	1770.12
266.823	1870.12
267.055	1856.12
267.287	1874.12
267.52	1819.12
267.752	1829.12
267.984	1828.12
268.216	1909.12
268.448	1891.12
268.681	1986.12
268.913	2071.12
269.145	2296.12
269.377	2340.12
269.609	2250.12
269.841	2230.12
270.073	2332.12
270.306	2555.12
270.538	2748.12
270.77	2634.12
271.002	2468.12
271.234	2411.12
271.466	2570.12
271.698	2683.12
271.93	2679.12
272.162	2637.12
272.394	2583.12
272.626	2418.12
272.858	2358.12
273.09	2295.12
273.322	2217.12
273.553	2232.12
273.785	2211.12
274.017	2185.12
274.249	2228.12
274.481	2234.12
274.713	2236.12
274.945	2243.12
275.176	2244.12
275.408	2252.12
275.64	2236.12
275.872	2198.12
276.104	2264.12
276.335	2311.12
276.567	2411.12
276.799	2552.12
277.031	2694.12
277.262	2852.12
277.494	2718.12
277.726	2578.12
277.957	2506.12
278.189	2417.12
278.421	2372.12
278.652	2359.12
278.884	2367.12
279.115	2344.12
279.347	2354.12
279.579	2332.12
279.81	2406.12
280.042	2388.12
280.273	2357.12
280.505	2405.12
280.736	2362.12
280.968	2441.12
281.199	2398.12
281.431	2426.12
281.662	2454.12
281.894	2471.12
282.125	2478.12
282.356	2626.12
282.588	2786.12
282.819	2668.12
283.051	2555.12
283.282	2504.12
283.513	2551.12
283.745	2577.12
283.976	2611.12
284.207	2616.12
284.439	2604.12
284.67	2589.12
284.901	2618.12
285.132	2662.12
285.364	2650.12
285.595	2645.12
285.826	2592.12
286.057	2658.12
286.288	2660.12
286.52	2661.12
286.751	2652.12
286.982	2693.12
287.213	2704.12
287.444	2730.12
287.675	2742.12
287.906	2830.12
288.138	2957.12
288.369	2915.12
288.6	2882.12
288.831	2850.12
289.062	2838.12
289.293	2786.12
289.524	2778.12
289.755	2747.12
289.986	2782.12
290.217	2837.12
290.448	2824.12
290.679	2854.12
290.91	2819.12
291.141	2779.12
291.371	2815.12
291.602	2853.12
291.833	2821.12
292.064	2848.12
292.295	2810.12
292.526	2841.12
292.757	2813.12
292.987	2827.12
293.218	2806.12
293.449	2888.12
293.68	2868.12
293.91	2834.12
294.141	2810.12
294.372	2795.12
294.603	2845.12
294.833	2864.12
295.064	2889.12
295.295	2904.12
295.525	2856.12
295.756	2938.12
295.987	2980.12
296.217	3144.12
296.448	3115.12
296.679	2965.12
296.909	2969.12
297.14	2969.12
297.37	3026.12
297.601	3091.12
297.831	3069.12
298.062	3065.12
298.292	3046.12
298.523	3103.12
298.753	3112.12
298.984	3104.12
299.214	3117.12
299.445	3120.12
299.675	3062.12
299.905	3179.12
300.136	3122.12
300.366	3100.12
300.597	3144.12
300.827	3287.12
301.057	3338.12
301.288	3347.12
301.518	3287.12
301.748	3303.12
301.979	3329.12
302.209	3397.12
302.439	3328.12
302.669	3314.12
302.9	3312.12
303.13	3300.12
303.36	3265.12
303.59	3324.12
303.82	3396.12
304.051	3327.12
304.281	3317.12
304.511	3244.12
304.741	3282.12
304.971	3294.12
305.201	3217.12
305.431	3205.12
305.661	3244.12
305.891	3180.12
306.121	3258.12
306.352	3278.12
306.582	3276.12
306.812	3234.12
307.042	3266.12
307.272	3240.12
307.502	3199.12
307.731	3263.12
307.961	3282.12
308.191	3255.12
308.421	3262.12
308.651	3266.12
308.881	3298.12
309.111	3352.12
309.341	3333.12
309.571	3448.12
309.8	3472.12
310.03	3529.12
310.26	3557.12
310.49	3546.12
310.72	3651.12
310.949	3716.12
311.179	3642.12
311.409	3523.12
311.639	3613.12
311.868	3577.12
312.098	3630.12
312.328	3711.12
312.557	3830.12
312.787	3892.12
313.017	3770.12
313.246	3782.12
313.476	3716.12
313.706	3744.12
313.935	3742.12
314.165	3901.12
314.394	3874.12
314.624	3884.12
314.853	3754.12
315.083	3756.12
315.312	3721.12
315.542	3688.12
315.771	3686.12
316.001	3696.12
316.23	3628.12
316.46	3694.12
316.689	3731.12
316.919	3726.12
317.148	3727.12
317.377	3725.12
317.607	3688.12
317.836	3656.12
318.065	3624.12
318.295	3685.12
318.524	3669.12
318.753	3615.12
318.983	3648.12
319.212	3595.12
319.441	3719.12
319.67	3719.12
319.9	3675.12
320.129	3624.12
320.358	3668.12
320.587	3702.12
320.816	3784.12
321.046	3798.12
321.275	3782.12
321.504	3769.12
321.733	3861.12
321.962	3877.12
322.191	4009.12
322.42	4041.12
322.649	4061.12
322.878	4171.12
323.108	4235.12
323.337	4481.12
323.566	4592.12
323.795	4794.12
324.024	5308.12
324.253	6893.12
324.482	10161.12
324.71	14615.12
324.939	15630.12
325.168	11450.12
325.397	6338.12
325.626	5062.12
325.855	4763.12
326.084	4654.12
326.313	4634.12
326.542	4746.12
326.77	5344.12
326.999	6617.12
327.228	9468.12
327.457	13676.12
327.686	12714.12
327.914	6970.12
328.143	5692.12
328.372	5280.12
328.6	5125.12
328.829	5012.12
329.058	5168.12
329.287	5138.12
329.515	4957.12
329.744	4727.12
329.972	4792.12
330.201	4980.12
330.43	5314.12
330.658	5280.12
330.887	5594.12
331.115	5184.12
331.344	4871.12
331.572	4853.12
331.801	4899.12
332.03	4900.12
332.258	4917.12
332.486	4905.12
332.715	5048.12
332.943	5223.12
333.172	5364.12
333.4	5436.12
333.629	5563.12
333.857	5643.12
334.085	5702.12
334.314	5740.12
334.542	5811.12
334.771	5784.12
334.999	5397.12
335.227	5229.12
335.455	5161.12
335.684	5039.12
335.912	5024.12
336.14	4938.12
336.369	4938.12
336.597	4980.12
336.825	4900.12
337.053	4806.12
337.281	4667.12
337.51	4781.12
337.738	4729.12
337.966	4733.12
338.194	4690.12
338.422	4614.12
338.65	4490.12
338.878	4524.12
339.106	4494.12
339.334	4500.12
339.562	4458.12
339.79	4375.12
340.018	4360.12
340.246	4376.12
340.474	4338.12
340.702	4324.12
340.93	4411.12
341.158	4331.12
341.386	4348.12
341.614	4378.12
341.842	4330.12
342.07	4350.12
342.298	4333.12
342.526	4261.12
342.754	4253.12
342.981	4333.12
343.209	4390.12
343.437	4600.12
343.665	4910.12
343.893	5171.12
344.12	5223.12
344.348	4939.12
344.576	4748.12
344.804	4675.12
345.031	4578.12
345.259	4521.12
345.487	4413.12
345.714	4306.12
345.942	4254.12
346.17	4230.12
346.397	4211.12
346.625	4198.12
346.853	4096.12
347.08	4135.12
347.308	4231.12
347.535	4265.12
347.763	4223.12
347.99	4258.12
348.218	4255.12
348.445	4290.12
348.673	4222.12
348.9	4161.12
349.128	4104.12
349.355	4058.12
349.583	4016.12
349.81	4017.12
350.037	4041.12
350.265	4016.12
350.492	4018.12
350.72	4057.12
350.947	4045.12
351.174	4109.12
351.402	4190.12
351.629	4093.12
351.856	4148.12
352.083	4162.12
352.311	4202.12
352.538	4200.12
352.765	4199.12
352.992	4071.12
353.22	4010.12
353.447	4020.12
353.674	3930.12
353.901	3965.12
354.128	3964.12
354.355	3924.12
354.583	3946.12
354.81	3928.12
355.037	3993.12
355.264	3916.12
355.491	3974.12
355.718	3930.12
355.945	3929.12
356.172	3923.12
356.399	3941.12
356.626	3938.12
356.853	3923.12
357.08	3838.12
357.307	3930.12
357.534	3957.12
357.761	3982.12
357.988	4000.12
358.215	3961.12
358.441	4043.12
358.668	4000.12
358.895	4008.12
359.122	4010.12
359.349	4106.12
359.576	4241.12
359.802	4416.12
360.029	4483.12
360.256	4516.12
360.483	4351.12
360.709	4145.12
360.936	4219.12
361.163	4147.12
361.39	4179.12
361.616	4171.12
361.843	4161.12
362.07	4167.12
362.296	4169.12
362.523	4089.12
362.749	4173.12
362.976	4036.12
363.203	4001.12
363.429	4074.12
363.656	4041.12
363.882	4006.12
364.109	3989.12
364.335	4000.12
364.562	3943.12
364.788	3980.12
365.015	4023.12
365.241	4019.12
365.468	4041.12
365.694	4060.12
365.92	4019.12
366.147	4013.12
366.373	3984.12
366.599	4016.12
366.826	4011.12
367.052	3947.12
367.278	4040.12
367.505	3987.12
367.731	4074.12
367.957	4042.12
368.184	4118.12
368.41	4156.12
368.636	4234.12
368.862	4279.12
369.089	4191.12
369.315	4210.12
369.541	4135.12
369.767	4146.12
369.993	4154.12
370.219	4164.12
370.445	4204.12
370.672	4184.12
370.898	4193.12
371.124	4246.12
371.35	4303.12
371.576	4264.12
371.802	4284.12
372.028	4235.12
372.254	4303.12
372.48	4329.12
372.706	4411.12
372.932	4496.12
373.158	4373.12
373.384	4337.12
373.61	4306.12
373.835	4374.12
374.061	4382.12
374.287	4444.12
374.513	4534.12
374.739	4688.12
374.965	4732.12
375.191	4705.12
375.416	4669.12
375.642	4487.12
375.868	4534.12
376.094	4376.12
376.319	4402.12
376.545	4381.12
376.771	4312.12
376.997	4312.12
377.222	4305.12
377.448	4308.12
377.674	4313.12
377.899	4263.12
378.125	4290.12
378.35	4282.12
378.576	4296.12
378.802	4253.12
379.027	4260.12
379.253	4231.12
379.478	4239.12
379.704	4221.12
379.929	4327.12
380.155	4299.12
380.38	4280.12
380.606	4305.12
380.831	4269.12
381.057	4374.12
381.282	4316.12
381.507	4341.12
381.733	4344.12
381.958	4420.12
382.184	4469.12
382.409	4519.12
382.634	4576.12
382.86	4469.12
383.085	4651.12
383.31	4624.12
383.535	4731.12
383.761	4796.12
383.986	4901.12
384.211	4960.12
384.436	5041.12
384.662	5145.12
384.887	5126.12
385.112	5152.12
385.337	5243.12
385.562	5192.12
385.787	5234.12
386.013	5269.12
386.238	5341.12
386.463	5287.12
386.688	5212.12
386.913	5145.12
387.138	5144.12
387.363	5148.12
387.588	5148.12
387.813	5159.12
388.038	5136.12
388.263	5173.12
388.488	5189.12
388.713	5170.12
388.938	5126.12
389.163	5105.12
389.387	5137.12
389.612	5038.12
389.837	5142.12
390.062	5115.12
390.287	5084.12
390.512	5090.12
390.736	5110.12
390.961	5228.12
391.186	5389.12
391.411	5476.12
391.636	5635.12
391.86	5665.12
392.085	5804.12
392.31	5770.12
392.534	5478.12
392.759	5542.12
392.984	5420.12
393.208	5369.12
393.433	5393.12
393.658	5360.12
393.882	5417.12
394.107	5358.12
394.331	5413.12
394.556	5462.12
394.78	5546.12
395.005	5531.12
395.229	5523.12
395.454	5742.12
395.678	5803.12
395.903	5811.12
396.127	5833.12
396.352	5682.12
396.576	5456.12
396.801	5432.12
397.025	5573.12
397.249	5681.12
397.474	5764.12
397.698	5860.12
397.922	5884.12
398.147	6060.12
398.371	6114.12
398.595	6324.12
398.82	6557.12
399.044	7164.12
399.268	7816.12
399.492	8982.12
399.717	9636.12
399.941	9466.12
400.165	8731.12
400.389	8019.12
400.613	7228.12
400.837	6888.12
401.062	6646.12
401.286	6596.12
401.51	6538.12
401.734	6532.12
401.958	6677.12
402.182	6723.12
402.406	6796.12
402.63	6907.12
402.854	6962.12
403.078	7146.12
403.302	7185.12
403.526	7281.12
403.75	7389.12
403.974	7552.12
404.198	7422.12
404.422	7518.12
404.645	7469.12
404.869	7343.12
405.093	7687.12
405.317	7851.12
405.541	7804.12
405.765	7428.12
405.988	7301.12
406.212	7494.12
406.436	7648.12
406.66	7790.12
406.883	7686.12
407.107	8345.12
407.331	8844.12
407.555	9298.12
407.778	9042.12
408.002	8341.12
408.226	7885.12
408.449	7808.12
408.673	7639.12
408.896	7809.12
409.12	7984.12
409.344	7564.12
409.567	7167.12
409.791	7181.12
410.014	6985.12
410.238	7074.12
410.461	7060.12
410.685	7049.12
410.908	7082.12
411.132	7385.12
411.355	7297.12
411.578	6953.12
411.802	6871.12
412.025	6777.12
412.249	6988.12
412.472	7220.12
412.695	7178.12
412.919	6816.12
413.142	6593.12
413.365	6525.12
413.589	6577.12
413.812	6457.12
414.035	6259.12
414.258	6398.12
414.482	6455.12
414.705	6525.12
414.928	6468.12
415.151	6424.12
415.374	6456.12
415.597	6323.12
415.821	6188.12
416.044	6280.12
416.267	6261.12
416.49	6253.12
416.713	6210.12
416.936	6294.12
417.159	6334.12
417.382	6376.12
417.605	6421.12
417.828	6462.12
418.051	6633.12
418.274	6504.12
418.497	6469.12
418.72	6540.12
418.943	6472.12
419.166	6900.12
419.389	7310.12
419.611	7189.12
419.834	6954.12
420.057	6908.12
420.28	6715.12
420.503	6474.12
420.726	6577.12
420.948	6645.12
421.171	7049.12
421.394	7033.12
421.617	6593.12
421.839	6623.12
422.062	6587.12
422.285	6764.12
422.507	7372.12
422.73	7941.12
422.953	7289.12
423.175	7084.12
423.398	7003.12
423.621	7028.12
423.843	7307.12
424.066	7227.12
424.288	7198.12
424.511	7333.12
424.733	7704.12
424.956	8152.12
425.178	7725.12
425.401	7818.12
425.623	7805.12
425.846	6789.12
426.068	6643.12
426.291	6513.12
426.513	6528.12
426.735	6592.12
426.958	7051.12
427.18	7765.12
427.402	8830.12
427.625	8835.12
427.847	7546.12
428.069	6826.12
428.292	6440.12
428.514	6145.12
428.736	5933.12
428.958	5995.12
429.181	5864.12
429.403	5808.12
429.625	5979.12
429.847	6327.12
430.069	6659.12
430.292	6308.12
430.514	5779.12
430.736	5819.12
430.958	5744.12
431.18	5754.12
431.402	5692.12
431.624	5720.12
431.846	5704.12
432.068	5802.12
432.29	5861.12
432.512	5715.12
432.734	5806.12
432.956	5716.12
433.178	5928.12
433.4	5768.12
433.622	5672.12
433.844	5825.12
434.066	5798.12
434.287	5828.12
434.509	6164.12
434.731	6362.12
434.953	6533.12
435.175	6640.12
435.397	6699.12
435.618	6534.12
435.84	6978.12
436.062	7715.12
436.284	7632.12
436.505	6442.12
436.727	6201.12
436.949	5908.12
437.17	5850.12
437.392	5723.12
437.614	5964.12
437.835	6331.12
438.057	7159.12
438.278	7871.12
438.5	7687.12
438.721	8536.12
438.943	7525.12
439.165	6269.12
439.386	6176.12
439.608	6200.12
439.829	6295.12
440.05	6559.12
440.272	6957.12
440.493	6289.12
440.715	6204.12
440.936	6100.12
441.158	6139.12
441.379	6237.12
441.6	6660.12
441.822	6876.12
442.043	7249.12
442.264	7878.12
442.486	7682.12
442.707	6906.12
442.928	6742.12
443.149	6923.12
443.371	7100.12
443.592	7596.12
443.813	8643.12
444.034	8462.12
444.255	7461.12
444.476	7363.12
444.698	7588.12
444.919	7687.12
445.14	7371.12
445.361	7232.12
445.582	7258.12
445.803	7788.12
446.024	8408.12
446.245	8077.12
446.466	7202.12
446.687	6369.12
446.908	6131.12
447.129	5800.12
447.35	5765.12
447.571	5668.12
447.792	5617.12
448.013	5683.12
448.234	5794.12
448.455	6455.12
448.675	7591.12
448.896	7922.12
449.117	6617.12
449.338	6874.12
449.559	8133.12
449.779	8276.12
450	6449.12
450.221	5752.12
450.442	5556.12
450.662	5432.12
450.883	5522.12
451.104	5549.12
451.324	5480.12
451.545	5341.12
451.766	5153.12
451.986	5095.12
452.207	5078.12
452.428	5061.12
452.648	5128.12
452.869	5111.12
453.089	5154.12
453.31	5234.12
453.53	5050.12
453.751	5030.12
453.971	5042.12
454.192	5102.12
454.412	4994.12
454.633	4869.12
454.853	4900.12
455.073	4948.12
455.294	5366.12
455.514	5724.12
455.734	5274.12
455.955	4786.12
456.175	4731.12
456.395	4728.12
456.616	4716.12
456.836	4703.12
457.056	4690.12
457.276	4564.12
457.497	4793.12
457.717	4760.12
457.937	4807.12
458.157	4846.12
458.377	4936.12
458.598	5240.12
458.818	5888.12
459.038	6607.12
459.258	6529.12
459.478	5957.12
459.698	5774.12
459.918	5950.12
460.138	5995.12
460.358	6310.12
460.578	6363.12
460.798	6366.12
461.018	6380.12
461.238	6271.12
461.458	6256.12
461.678	6252.12
461.898	6371.12
462.118	6369.12
462.338	6690.12
462.558	6872.12
462.777	7156.12
462.997	7801.12
463.217	8174.12
463.437	7952.12
463.657	7380.12
463.876	7248.12
464.096	7265.12
464.316	7220.12
464.536	7188.12
464.755	6965.12
464.975	6912.12
465.195	6986.12
465.414	6881.12
465.634	6112.12
465.854	5841.12
466.073	5659.12
466.293	5426.12
466.512	5337.12
466.732	5184.12
466.951	5250.12
467.171	5278.12
467.391	5238.12
467.61	5257.12
467.829	5260.12
468.049	5223.12
468.268	5124.12
468.488	5069.12
468.707	5047.12
468.927	4998.12
469.146	5012.12
469.365	5005.12
469.585	5100.12
469.804	5241.12
470.023	5488.12
470.243	5381.12
470.462	5510.12
470.681	5638.12
470.901	5536.12
471.12	5402.12
471.339	5314.12
471.558	5290.12
471.777	5225.12
471.997	5106.12
472.216	5149.12
472.435	5298.12
472.654	5138.12
472.873	5028.12
473.092	4978.12
473.311	4935.12
473.53	5080.12
473.749	5145.12
473.968	5654.12
474.187	6614.12
474.406	6054.12
474.625	5254.12
474.844	5044.12
475.063	4978.12
475.282	5021.12
475.501	5080.12
475.72	5106.12
475.939	5143.12
476.158	5194.12
476.377	5157.12
476.596	5208.12
476.814	5365.12
477.033	5371.12
477.252	5513.12
477.471	5497.12
477.69	5629.12
477.908	5770.12
478.127	5985.12
478.346	6033.12
478.564	6073.12
478.783	6138.12
479.002	6321.12
479.22	6368.12
479.439	6390.12
479.658	6562.12
479.876	6586.12
480.095	6759.12
480.313	7234.12
480.532	7029.12
480.751	6864.12
480.969	6860.12
481.188	7098.12
481.406	6867.12
481.624	6376.12
481.843	6178.12
482.061	6066.12
482.28	5968.12
482.498	5946.12
482.717	5913.12
482.935	5851.12
483.153	5881.12
483.372	5836.12
483.59	5831.12
483.808	5845.12
484.027	5856.12
484.245	5972.12
484.463	5960.12
484.681	6048.12
484.9	6075.12
485.118	6128.12
485.336	6200.12
485.554	6256.12
485.772	6251.12
485.99	6167.12
486.209	6279.12
486.427	6308.12
486.645	6354.12
486.863	6475.12
487.081	6434.12
487.299	6364.12
487.517	6300.12
487.735	6287.12
487.953	6343.12
