Data from Uncirc_1983_H10_HRD10591_00005.txt Node
Date: Wed Jan 03 12:25:33 EST 2024
User: Yrep
Spectrometer: HR+D1059
Trigger mode: 1
Integration Time (sec): 1.000000E-1
Scans to average: 1
Electric dark correction enabled: true
Nonlinearity correction enabled: false
Boxcar width: 0
XAxis mode: Wavelengths
Number of Pixels in Spectrum: 2048
>>>>>Begin Spectral Data<<<<<
223.165	-16.31
223.4	-16.31
223.635	-16.31
223.869	-15.31
224.104	-30.31
224.338	-11.31
224.573	-17.31
224.808	-20.31
225.042	-23.31
225.277	-3.31
225.511	3.69
225.746	10.69
225.98	11.69
226.215	19.69
226.449	3.69
226.683	22.69
226.918	33.69
227.152	31.69
227.387	25.69
227.621	31.69
227.856	48.69
228.09	42.69
228.324	59.69
228.559	62.69
228.793	73.69
229.027	67.69
229.262	52.69
229.496	80.69
229.73	77.69
229.964	59.69
230.199	67.69
230.433	73.69
230.667	79.69
230.901	83.69
231.136	90.69
231.37	83.69
231.604	80.69
231.838	90.69
232.072	85.69
232.306	70.69
232.541	96.69
232.775	63.69
233.009	68.69
233.243	85.69
233.477	77.69
233.711	81.69
233.945	84.69
234.179	86.69
234.413	84.69
234.647	92.69
234.881	67.69
235.115	83.69
235.349	85.69
235.583	64.69
235.817	87.69
236.051	75.69
236.285	80.69
236.519	81.69
236.753	82.69
236.987	72.69
237.221	72.69
237.455	88.69
237.689	75.69
237.922	65.69
238.156	62.69
238.39	65.69
238.624	64.69
238.858	78.69
239.091	79.69
239.325	66.69
239.559	69.69
239.793	69.69
240.027	71.69
240.26	78.69
240.494	76.69
240.728	87.69
240.961	86.69
241.195	80.69
241.429	73.69
241.662	75.69
241.896	70.69
242.13	73.69
242.363	68.69
242.597	76.69
242.83	70.69
243.064	80.69
243.298	63.69
243.531	79.69
243.765	68.69
243.998	87.69
244.232	67.69
244.465	78.69
244.699	73.69
244.932	69.69
245.166	75.69
245.399	82.69
245.633	63.69
245.866	88.69
246.099	90.69
246.333	78.69
246.566	84.69
246.8	69.69
247.033	75.69
247.266	89.69
247.5	70.69
247.733	69.69
247.966	81.69
248.2	79.69
248.433	79.69
248.666	83.69
248.899	96.69
249.133	66.69
249.366	85.69
249.599	94.69
249.832	71.69
250.066	71.69
250.299	97.69
250.532	78.69
250.765	71.69
250.998	67.69
251.231	70.69
251.465	82.69
251.698	75.69
251.931	68.69
252.164	75.69
252.397	82.69
252.63	81.69
252.863	68.69
253.096	89.69
253.329	72.69
253.562	79.69
253.795	85.69
254.028	83.69
254.261	86.69
254.494	73.69
254.727	80.69
254.96	82.69
255.193	83.69
255.426	78.69
255.659	78.69
255.892	74.69
256.124	62.69
256.357	65.69
256.59	91.69
256.823	75.69
257.056	83.69
257.289	85.69
257.521	89.69
257.754	84.69
257.987	77.69
258.22	71.69
258.452	79.69
258.685	91.69
258.918	72.69
259.151	93.69
259.383	85.69
259.616	87.69
259.849	83.69
260.081	73.69
260.314	82.69
260.547	74.69
260.779	72.69
261.012	89.69
261.244	81.69
261.477	85.69
261.71	94.69
261.942	95.69
262.175	110.69
262.407	70.69
262.64	79.69
262.872	96.69
263.105	80.69
263.337	71.69
263.57	79.69
263.802	76.69
264.035	77.69
264.267	70.69
264.499	87.69
264.732	87.69
264.964	73.69
265.197	79.69
265.429	89.69
265.661	85.69
265.894	83.69
266.126	87.69
266.358	83.69
266.591	80.69
266.823	75.69
267.055	95.69
267.287	79.69
267.52	75.69
267.752	81.69
267.984	82.69
268.216	85.69
268.448	92.69
268.681	79.69
268.913	83.69
269.145	86.69
269.377	74.69
269.609	87.69
269.841	83.69
270.073	78.69
270.306	72.69
270.538	81.69
270.77	77.69
271.002	84.69
271.234	78.69
271.466	84.69
271.698	85.69
271.93	96.69
272.162	86.69
272.394	85.69
272.626	94.69
272.858	75.69
273.09	77.69
273.322	85.69
273.553	88.69
273.785	85.69
274.017	86.69
274.249	93.69
274.481	96.69
274.713	75.69
274.945	81.69
275.176	75.69
275.408	96.69
275.64	93.69
275.872	77.69
276.104	91.69
276.335	89.69
276.567	90.69
276.799	101.69
277.031	87.69
277.262	71.69
277.494	83.69
277.726	84.69
277.957	86.69
278.189	90.69
278.421	81.69
278.652	68.69
278.884	90.69
279.115	78.69
279.347	87.69
279.579	82.69
279.81	96.69
280.042	80.69
280.273	89.69
280.505	76.69
280.736	74.69
280.968	81.69
281.199	85.69
281.431	74.69
281.662	72.69
281.894	98.69
282.125	93.69
282.356	106.69
282.588	121.69
282.819	106.69
283.051	91.69
283.282	73.69
283.513	83.69
283.745	89.69
283.976	84.69
284.207	90.69
284.439	93.69
284.67	70.69
284.901	84.69
285.132	78.69
285.364	86.69
285.595	89.69
285.826	72.69
286.057	91.69
286.288	91.69
286.52	86.69
286.751	99.69
286.982	82.69
287.213	72.69
287.444	89.69
287.675	91.69
287.906	90.69
288.138	88.69
288.369	85.69
288.6	85.69
288.831	75.69
289.062	95.69
289.293	87.69
289.524	82.69
289.755	83.69
289.986	93.69
290.217	84.69
290.448	92.69
290.679	81.69
290.91	86.69
291.141	87.69
291.371	85.69
291.602	90.69
291.833	82.69
292.064	87.69
292.295	83.69
292.526	74.69
292.757	79.69
292.987	83.69
293.218	82.69
293.449	78.69
293.68	84.69
293.91	69.69
294.141	81.69
294.372	81.69
294.603	70.69
294.833	92.69
295.064	83.69
295.295	74.69
295.525	83.69
295.756	92.69
295.987	100.69
296.217	125.69
296.448	100.69
296.679	79.69
296.909	93.69
297.14	83.69
297.37	97.69
297.601	85.69
297.831	87.69
298.062	79.69
298.292	84.69
298.523	79.69
298.753	94.69
298.984	95.69
299.214	86.69
299.445	89.69
299.675	81.69
299.905	94.69
300.136	94.69
300.366	106.69
300.597	86.69
300.827	90.69
301.057	73.69
301.288	84.69
301.518	88.69
301.748	92.69
301.979	94.69
302.209	89.69
302.439	76.69
302.669	81.69
302.9	86.69
303.13	79.69
303.36	86.69
303.59	95.69
303.82	90.69
304.051	75.69
304.281	75.69
304.511	82.69
304.741	74.69
304.971	83.69
305.201	88.69
305.431	99.69
305.661	81.69
305.891	97.69
306.121	97.69
306.352	98.69
306.582	89.69
306.812	81.69
307.042	71.69
307.272	91.69
307.502	90.69
307.731	82.69
307.961	88.69
308.191	70.69
308.421	95.69
308.651	92.69
308.881	86.69
309.111	85.69
309.341	87.69
309.571	86.69
309.8	95.69
310.03	106.69
310.26	102.69
310.49	99.69
310.72	93.69
310.949	98.69
311.179	101.69
311.409	87.69
311.639	85.69
311.868	96.69
312.098	96.69
312.328	83.69
312.557	89.69
312.787	113.69
313.017	105.69
313.246	93.69
313.476	94.69
313.706	82.69
313.935	101.69
314.165	86.69
314.394	88.69
314.624	95.69
314.853	85.69
315.083	90.69
315.312	83.69
315.542	90.69
315.771	93.69
316.001	84.69
316.23	83.69
316.46	77.69
316.689	86.69
316.919	100.69
317.148	97.69
317.377	83.69
317.607	82.69
317.836	82.69
318.065	101.69
318.295	84.69
318.524	112.69
318.753	89.69
318.983	104.69
319.212	83.69
319.441	83.69
319.67	90.69
319.9	84.69
320.129	104.69
320.358	107.69
320.587	90.69
320.816	84.69
321.046	82.69
321.275	98.69
321.504	93.69
321.733	97.69
321.962	91.69
322.191	97.69
322.42	90.69
322.649	93.69
322.878	100.69
323.108	105.69
323.337	110.69
323.566	114.69
323.795	136.69
324.024	182.69
324.253	291.69
324.482	623.69
324.71	1256.69
324.939	1660.69
325.168	623.69
325.397	201.69
325.626	125.69
325.855	121.69
326.084	111.69
326.313	121.69
326.542	136.69
326.77	195.69
326.999	350.69
327.228	744.69
327.457	1321.69
327.686	1048.69
327.914	312.69
328.143	162.69
328.372	120.69
328.6	100.69
328.829	101.69
329.058	109.69
329.287	110.69
329.515	89.69
329.744	95.69
329.972	113.69
330.201	97.69
330.43	94.69
330.658	103.69
330.887	126.69
331.115	89.69
331.344	90.69
331.572	99.69
331.801	97.69
332.03	106.69
332.258	101.69
332.486	86.69
332.715	89.69
332.943	86.69
333.172	107.69
333.4	98.69
333.629	96.69
333.857	99.69
334.085	90.69
334.314	88.69
334.542	97.69
334.771	90.69
334.999	108.69
335.227	104.69
335.455	87.69
335.684	90.69
335.912	85.69
336.14	106.69
336.369	104.69
336.597	94.69
336.825	87.69
337.053	90.69
337.281	81.69
337.51	87.69
337.738	99.69
337.966	87.69
338.194	81.69
338.422	98.69
338.65	87.69
338.878	94.69
339.106	82.69
339.334	91.69
339.562	79.69
339.79	79.69
340.018	94.69
340.246	97.69
340.474	94.69
340.702	89.69
340.93	90.69
341.158	87.69
341.386	97.69
341.614	86.69
341.842	82.69
342.07	92.69
342.298	102.69
342.526	88.69
342.754	93.69
342.981	88.69
343.209	83.69
343.437	89.69
343.665	85.69
343.893	81.69
344.12	82.69
344.348	86.69
344.576	91.69
344.804	72.69
345.031	83.69
345.259	96.69
345.487	83.69
345.714	95.69
345.942	99.69
346.17	75.69
346.397	92.69
346.625	97.69
346.853	94.69
347.08	101.69
347.308	102.69
347.535	94.69
347.763	80.69
347.99	88.69
348.218	90.69
348.445	96.69
348.673	88.69
348.9	102.69
349.128	89.69
349.355	93.69
349.583	90.69
349.81	87.69
350.037	85.69
350.265	106.69
350.492	95.69
350.72	103.69
350.947	96.69
351.174	106.69
351.402	96.69
351.629	99.69
351.856	93.69
352.083	107.69
352.311	93.69
352.538	98.69
352.765	109.69
352.992	109.69
353.22	103.69
353.447	103.69
353.674	106.69
353.901	95.69
354.128	90.69
354.355	101.69
354.583	99.69
354.81	91.69
355.037	89.69
355.264	93.69
355.491	96.69
355.718	84.69
355.945	91.69
356.172	90.69
356.399	79.69
356.626	93.69
356.853	92.69
357.08	107.69
357.307	92.69
357.534	79.69
357.761	86.69
357.988	98.69
358.215	91.69
358.441	99.69
358.668	94.69
358.895	109.69
359.122	75.69
359.349	80.69
359.576	91.69
359.802	99.69
360.029	104.69
360.256	100.69
360.483	92.69
360.709	93.69
360.936	106.69
361.163	96.69
361.39	87.69
361.616	87.69
361.843	84.69
362.07	87.69
362.296	97.69
362.523	81.69
362.749	90.69
362.976	103.69
363.203	93.69
363.429	81.69
363.656	88.69
363.882	93.69
364.109	99.69
364.335	89.69
364.562	93.69
364.788	73.69
365.015	82.69
365.241	104.69
365.468	106.69
365.694	94.69
365.92	86.69
366.147	77.69
366.373	83.69
366.599	94.69
366.826	97.69
367.052	85.69
367.278	86.69
367.505	86.69
367.731	94.69
367.957	109.69
368.184	89.69
368.41	100.69
368.636	83.69
368.862	114.69
369.089	86.69
369.315	81.69
369.541	92.69
369.767	93.69
369.993	89.69
370.219	87.69
370.445	94.69
370.672	91.69
370.898	75.69
371.124	83.69
371.35	94.69
371.576	85.69
371.802	91.69
372.028	78.69
372.254	97.69
372.48	90.69
372.706	88.69
372.932	93.69
373.158	102.69
373.384	79.69
373.61	90.69
373.835	81.69
374.061	91.69
374.287	101.69
374.513	78.69
374.739	90.69
374.965	82.69
375.191	85.69
375.416	85.69
375.642	97.69
375.868	99.69
376.094	91.69
376.319	72.69
376.545	90.69
376.771	101.69
376.997	86.69
377.222	82.69
377.448	86.69
377.674	80.69
377.899	95.69
378.125	105.69
378.35	104.69
378.576	85.69
378.802	85.69
379.027	89.69
379.253	99.69
379.478	94.69
379.704	88.69
379.929	89.69
380.155	97.69
380.38	86.69
380.606	89.69
380.831	103.69
381.057	93.69
381.282	97.69
381.507	88.69
381.733	86.69
381.958	94.69
382.184	96.69
382.409	98.69
382.634	100.69
382.86	104.69
383.085	104.69
383.31	103.69
383.535	95.69
383.761	101.69
383.986	102.69
384.211	118.69
384.436	102.69
384.662	107.69
384.887	111.69
385.112	103.69
385.337	103.69
385.562	100.69
385.787	121.69
386.013	102.69
386.238	126.69
386.463	117.69
386.688	130.69
386.913	119.69
387.138	111.69
387.363	96.69
387.588	110.69
387.813	97.69
388.038	119.69
388.263	129.69
388.488	117.69
388.713	103.69
388.938	83.69
389.163	106.69
389.387	75.69
389.612	87.69
389.837	89.69
390.062	79.69
390.287	78.69
390.512	86.69
390.736	102.69
390.961	89.69
391.186	95.69
391.411	77.69
391.636	84.69
391.86	98.69
392.085	77.69
392.31	86.69
392.534	78.69
392.759	95.69
392.984	110.69
393.208	133.69
393.433	178.69
393.658	164.69
393.882	98.69
394.107	101.69
394.331	94.69
394.556	101.69
394.78	94.69
395.005	81.69
395.229	91.69
395.454	83.69
395.678	90.69
395.903	81.69
396.127	97.69
396.352	100.69
396.576	102.69
396.801	119.69
397.025	132.69
397.249	92.69
397.474	97.69
397.698	103.69
397.922	89.69
398.147	90.69
398.371	78.69
398.595	79.69
398.82	91.69
399.044	84.69
399.268	93.69
399.492	71.69
399.717	97.69
399.941	94.69
400.165	85.69
400.389	68.69
400.613	83.69
400.837	81.69
401.062	79.69
401.286	91.69
401.51	83.69
401.734	72.69
401.958	113.69
402.182	105.69
402.406	116.69
402.63	103.69
402.854	88.69
403.078	103.69
403.302	85.69
403.526	87.69
403.75	85.69
403.974	101.69
404.198	107.69
404.422	69.69
404.645	83.69
404.869	68.69
405.093	80.69
405.317	83.69
405.541	90.69
405.765	103.69
405.988	104.69
406.212	136.69
406.436	165.69
406.66	112.69
406.883	112.69
407.107	88.69
407.331	103.69
407.555	79.69
407.778	83.69
408.002	89.69
408.226	78.69
408.449	80.69
408.673	89.69
408.896	92.69
409.12	79.69
409.344	91.69
409.567	91.69
409.791	90.69
410.014	92.69
410.238	92.69
410.461	104.69
410.685	95.69
410.908	107.69
411.132	98.69
411.355	96.69
411.578	93.69
411.802	79.69
412.025	89.69
412.249	88.69
412.472	85.69
412.695	91.69
412.919	92.69
413.142	78.69
413.365	88.69
413.589	97.69
413.812	89.69
414.035	95.69
414.258	85.69
414.482	87.69
414.705	80.69
414.928	89.69
415.151	86.69
415.374	74.69
415.597	81.69
415.821	98.69
416.044	98.69
416.267	103.69
416.49	70.69
416.713	84.69
416.936	82.69
417.159	84.69
417.382	98.69
417.605	85.69
417.828	88.69
418.051	92.69
418.274	88.69
418.497	97.69
418.72	88.69
418.943	87.69
419.166	82.69
419.389	82.69
419.611	80.69
419.834	88.69
420.057	83.69
420.28	85.69
420.503	78.69
420.726	75.69
420.948	81.69
421.171	89.69
421.394	80.69
421.617	89.69
421.839	69.69
422.062	94.69
422.285	97.69
422.507	110.69
422.73	118.69
422.953	104.69
423.175	75.69
423.398	83.69
423.621	94.69
423.843	84.69
424.066	93.69
424.288	96.69
424.511	95.69
424.733	85.69
424.956	89.69
425.178	97.69
425.401	93.69
425.623	112.69
425.846	78.69
426.068	89.69
426.291	87.69
426.513	79.69
426.735	75.69
426.958	85.69
427.18	91.69
427.402	125.69
427.625	139.69
427.847	110.69
428.069	100.69
428.292	86.69
428.514	87.69
428.736	67.69
428.958	74.69
429.181	59.69
429.403	81.69
429.625	89.69
429.847	82.69
430.069	86.69
430.292	93.69
430.514	79.69
430.736	78.69
430.958	85.69
431.18	86.69
431.402	87.69
431.624	93.69
431.846	72.69
432.068	80.69
432.29	79.69
432.512	83.69
432.734	72.69
432.956	67.69
433.178	94.69
433.4	93.69
433.622	89.69
433.844	89.69
434.066	85.69
434.287	77.69
434.509	97.69
434.731	96.69
434.953	90.69
435.175	94.69
435.397	84.69
435.618	92.69
435.84	112.69
436.062	108.69
436.284	102.69
436.505	93.69
436.727	83.69
436.949	85.69
437.17	88.69
437.392	94.69
437.614	80.69
437.835	91.69
438.057	95.69
438.278	96.69
438.5	91.69
438.721	107.69
438.943	97.69
439.165	88.69
439.386	86.69
439.608	97.69
439.829	85.69
440.05	114.69
440.272	111.69
440.493	102.69
440.715	84.69
440.936	77.69
441.158	79.69
441.379	82.69
441.6	89.69
441.822	87.69
442.043	88.69
442.264	92.69
442.486	96.69
442.707	91.69
442.928	97.69
443.149	107.69
443.371	123.69
443.592	91.69
443.813	108.69
444.034	105.69
444.255	98.69
444.476	82.69
444.698	95.69
444.919	77.69
445.14	119.69
445.361	127.69
445.582	115.69
445.803	104.69
446.024	123.69
446.245	101.69
446.466	95.69
446.687	75.69
446.908	89.69
447.129	90.69
447.35	91.69
447.571	81.69
447.792	88.69
448.013	101.69
448.234	82.69
448.455	84.69
448.675	97.69
448.896	127.69
449.117	96.69
449.338	93.69
449.559	125.69
449.779	106.69
450	83.69
450.221	85.69
450.442	80.69
450.662	85.69
450.883	91.69
451.104	107.69
451.324	88.69
451.545	93.69
451.766	79.69
451.986	82.69
452.207	96.69
452.428	78.69
452.648	88.69
452.869	90.69
453.089	89.69
453.31	103.69
453.53	84.69
453.751	87.69
453.971	96.69
454.192	82.69
454.412	92.69
454.633	83.69
454.853	95.69
455.073	87.69
455.294	99.69
455.514	84.69
455.734	87.69
455.955	87.69
456.175	79.69
456.395	85.69
456.616	89.69
456.836	89.69
457.056	82.69
457.276	81.69
457.497	85.69
457.717	72.69
457.937	76.69
458.157	82.69
458.377	81.69
458.598	98.69
458.818	109.69
459.038	139.69
459.258	109.69
459.478	95.69
459.698	71.69
459.918	89.69
460.138	82.69
460.358	80.69
460.578	87.69
460.798	83.69
461.018	85.69
461.238	93.69
461.458	82.69
461.678	81.69
461.898	88.69
462.118	93.69
462.338	91.69
462.558	80.69
462.777	86.69
462.997	80.69
463.217	81.69
463.437	69.69
463.657	78.69
463.876	82.69
464.096	88.69
464.316	84.69
464.536	92.69
464.755	100.69
464.975	95.69
465.195	133.69
465.414	129.69
465.634	77.69
465.854	91.69
466.073	83.69
466.293	78.69
466.512	101.69
466.732	100.69
466.951	91.69
467.171	78.69
467.391	71.69
467.61	87.69
467.829	95.69
468.049	81.69
468.268	71.69
468.488	87.69
468.707	81.69
468.927	90.69
469.146	93.69
469.365	86.69
469.585	77.69
469.804	84.69
470.023	92.69
470.243	79.69
470.462	105.69
470.681	100.69
470.901	88.69
471.12	82.69
471.339	80.69
471.558	83.69
471.777	94.69
471.997	67.69
472.216	77.69
472.435	84.69
472.654	93.69
472.873	87.69
473.092	81.69
473.311	97.69
473.53	86.69
473.749	87.69
473.968	91.69
474.187	92.69
474.406	85.69
474.625	81.69
474.844	78.69
475.063	78.69
475.282	94.69
475.501	83.69
475.72	85.69
475.939	72.69
476.158	73.69
476.377	85.69
476.596	93.69
476.814	90.69
477.033	113.69
477.252	98.69
477.471	99.69
477.69	88.69
477.908	89.69
478.127	100.69
478.346	89.69
478.564	91.69
478.783	90.69
479.002	93.69
479.22	83.69
479.439	100.69
479.658	86.69
479.876	77.69
480.095	94.69
480.313	82.69
480.532	92.69
480.751	77.69
480.969	90.69
481.188	108.69
481.406	85.69
481.624	87.69
481.843	69.69
482.061	84.69
482.28	87.69
482.498	83.69
482.717	79.69
482.935	103.69
483.153	86.69
483.372	74.69
483.59	72.69
483.808	78.69
484.027	77.69
484.245	96.69
484.463	86.69
484.681	93.69
484.9	86.69
485.118	107.69
485.336	97.69
485.554	69.69
485.772	94.69
485.99	95.69
486.209	94.69
486.427	101.69
486.645	102.69
486.863	97.69
487.081	103.69
487.299	86.69
487.517	87.69
487.735	106.69
487.953	98.69
488.171	105.69
488.389	109.69
488.607	98.69
488.825	81.69
489.043	91.69
489.261	79.69
489.479	83.69
489.696	87.69
489.914	80.69
490.132	85.69
490.35	78.69
490.568	85.69
490.786	93.69
491.003	99.69
491.221	84.69
491.439	85.69
491.657	87.69
491.874	88.69
492.092	91.69
492.31	86.69
492.527	87.69
492.745	84.69
492.963	99.69
493.18	86.69
493.398	81.69
493.615	107.69
493.833	99.69
494.05	81.69
494.268	100.69
494.485	80.69
494.703	95.69
494.92	86.69
495.138	85.69
495.355	83.69
495.573	89.69
495.79	103.69
496.008	98.69
496.225	84.69
496.442	95.69
496.66	80.69
496.877	90.69
497.094	94.69
497.312	94.69
497.529	92.69
497.746	94.69
497.963	84.69
498.181	84.69
498.398	93.69
498.615	106.69
498.832	94.69
499.049	89.69
499.267	85.69
499.484	91.69
499.701	91.69
499.918	86.69
500.135	82.69
500.352	79.69
500.569	88.69
500.786	91.69
501.003	83.69
501.22	92.69
501.437	84.69
501.654	94.69
501.871	93.69
502.088	83.69
502.305	96.69
502.522	84.69
502.739	84.69
502.956	108.69
503.172	85.69
503.389	104.69
503.606	104.69
503.823	99.69
504.04	99.69
504.256	93.69
504.473	91.69
504.69	96.69
504.907	104.69
505.123	95.69
505.34	84.69
505.557	88.69
505.773	86.69
505.99	86.69
506.207	97.69
506.423	94.69
506.64	95.69
506.856	105.69
507.073	93.69
507.289	92.69
507.506	108.69
507.722	114.69
507.939	114.69
508.155	93.69
508.372	86.69
508.588	86.69
508.805	84.69
509.021	86.69
509.238	91.69
509.454	101.69
509.67	90.69
509.887	95.69
510.103	103.69
510.319	171.69
510.536	510.69
510.752	1531.69
510.968	437.69
511.184	126.69
511.401	95.69
511.617	101.69
511.833	87.69
512.049	97.69
512.265	85.69
512.481	93.69
512.698	88.69
512.914	81.69
513.13	94.69
513.346	90.69
513.562	98.69
513.778	93.69
513.994	96.69
514.21	100.69
514.426	93.69
514.642	121.69
514.858	115.69
515.074	130.69
515.29	313.69
515.506	905.69
515.721	347.69
515.937	126.69
516.153	114.69
516.369	97.69
516.585	85.69
516.801	100.69
