Data from Uncirc_1983_H10_HRD10591_00050.txt Node
Date: Wed Jan 03 12:25:42 EST 2024
User: Yrep
Spectrometer: HR+D1059
Trigger mode: 1
Integration Time (sec): 1.000000E-1
Scans to average: 1
Electric dark correction enabled: true
Nonlinearity correction enabled: false
Boxcar width: 0
XAxis mode: Wavelengths
Number of Pixels in Spectrum: 2048
>>>>>Begin Spectral Data<<<<<
223.165	-17.06
223.4	-17.06
223.635	-17.06
223.869	-12.06
224.104	-13.06
224.338	0.94
224.573	-18.06
224.808	-19.06
225.042	-4.06
225.277	-3.06
225.511	-5.06
225.746	-4.06
225.98	1.94
226.215	17.94
226.449	11.94
226.683	12.94
226.918	21.94
227.152	27.94
227.387	37.94
227.621	41.94
227.856	52.94
228.09	54.94
228.324	38.94
228.559	54.94
228.793	54.94
229.027	54.94
229.262	69.94
229.496	76.94
229.73	80.94
229.964	68.94
230.199	73.94
230.433	76.94
230.667	58.94
230.901	82.94
231.136	84.94
231.37	80.94
231.604	71.94
231.838	76.94
232.072	85.94
232.306	76.94
232.541	86.94
232.775	74.94
233.009	77.94
233.243	83.94
233.477	70.94
233.711	76.94
233.945	86.94
234.179	90.94
234.413	72.94
234.647	90.94
234.881	84.94
235.115	88.94
235.349	85.94
235.583	96.94
235.817	75.94
236.051	77.94
236.285	70.94
236.519	76.94
236.753	76.94
236.987	93.94
237.221	67.94
237.455	78.94
237.689	84.94
237.922	66.94
238.156	69.94
238.39	84.94
238.624	71.94
238.858	70.94
239.091	77.94
239.325	69.94
239.559	69.94
239.793	78.94
240.027	84.94
240.26	80.94
240.494	80.94
240.728	56.94
240.961	69.94
241.195	76.94
241.429	65.94
241.662	72.94
241.896	82.94
242.13	88.94
242.363	74.94
242.597	88.94
242.83	99.94
243.064	71.94
243.298	90.94
243.531	76.94
243.765	84.94
243.998	81.94
244.232	82.94
244.465	88.94
244.699	84.94
244.932	71.94
245.166	97.94
245.399	78.94
245.633	84.94
245.866	73.94
246.099	89.94
246.333	80.94
246.566	72.94
246.8	71.94
247.033	93.94
247.266	64.94
247.5	75.94
247.733	84.94
247.966	74.94
248.2	70.94
248.433	67.94
248.666	74.94
248.899	88.94
249.133	87.94
249.366	85.94
249.599	89.94
249.832	74.94
250.066	62.94
250.299	77.94
250.532	79.94
250.765	82.94
250.998	81.94
251.231	78.94
251.465	70.94
251.698	87.94
251.931	85.94
252.164	91.94
252.397	94.94
252.63	92.94
252.863	84.94
253.096	76.94
253.329	77.94
253.562	78.94
253.795	94.94
254.028	91.94
254.261	66.94
254.494	72.94
254.727	74.94
254.96	76.94
255.193	93.94
255.426	76.94
255.659	76.94
255.892	72.94
256.124	83.94
256.357	75.94
256.59	101.94
256.823	91.94
257.056	90.94
257.289	77.94
257.521	80.94
257.754	88.94
257.987	75.94
258.22	93.94
258.452	88.94
258.685	76.94
258.918	85.94
259.151	76.94
259.383	87.94
259.616	90.94
259.849	78.94
260.081	89.94
260.314	86.94
260.547	84.94
260.779	86.94
261.012	81.94
261.244	88.94
261.477	78.94
261.71	84.94
261.942	105.94
262.175	107.94
262.407	84.94
262.64	90.94
262.872	89.94
263.105	85.94
263.337	74.94
263.57	98.94
263.802	84.94
264.035	80.94
264.267	88.94
264.499	89.94
264.732	74.94
264.964	72.94
265.197	87.94
265.429	75.94
265.661	86.94
265.894	80.94
266.126	84.94
266.358	89.94
266.591	86.94
266.823	92.94
267.055	72.94
267.287	85.94
267.52	82.94
267.752	84.94
267.984	84.94
268.216	81.94
268.448	84.94
268.681	89.94
268.913	91.94
269.145	77.94
269.377	86.94
269.609	84.94
269.841	86.94
270.073	104.94
270.306	92.94
270.538	95.94
270.77	93.94
271.002	85.94
271.234	78.94
271.466	81.94
271.698	73.94
271.93	90.94
272.162	78.94
272.394	68.94
272.626	83.94
272.858	76.94
273.09	84.94
273.322	93.94
273.553	88.94
273.785	86.94
274.017	72.94
274.249	90.94
274.481	83.94
274.713	81.94
274.945	91.94
275.176	90.94
275.408	80.94
275.64	88.94
275.872	84.94
276.104	70.94
276.335	86.94
276.567	92.94
276.799	106.94
277.031	85.94
277.262	93.94
277.494	92.94
277.726	83.94
277.957	77.94
278.189	73.94
278.421	88.94
278.652	70.94
278.884	85.94
279.115	97.94
279.347	85.94
279.579	80.94
279.81	75.94
280.042	88.94
280.273	85.94
280.505	95.94
280.736	91.94
280.968	100.94
281.199	95.94
281.431	92.94
281.662	95.94
281.894	104.94
282.125	98.94
282.356	93.94
282.588	135.94
282.819	118.94
283.051	94.94
283.282	95.94
283.513	84.94
283.745	88.94
283.976	86.94
284.207	78.94
284.439	96.94
284.67	87.94
284.901	100.94
285.132	85.94
285.364	85.94
285.595	82.94
285.826	80.94
286.057	92.94
286.288	73.94
286.52	94.94
286.751	81.94
286.982	86.94
287.213	78.94
287.444	94.94
287.675	90.94
287.906	92.94
288.138	85.94
288.369	89.94
288.6	90.94
288.831	85.94
289.062	100.94
289.293	100.94
289.524	88.94
289.755	96.94
289.986	84.94
290.217	88.94
290.448	91.94
290.679	90.94
290.91	76.94
291.141	94.94
291.371	86.94
291.602	81.94
291.833	99.94
292.064	94.94
292.295	80.94
292.526	90.94
292.757	85.94
292.987	93.94
293.218	77.94
293.449	90.94
293.68	94.94
293.91	78.94
294.141	96.94
294.372	95.94
294.603	87.94
294.833	99.94
295.064	97.94
295.295	88.94
295.525	90.94
295.756	104.94
295.987	107.94
296.217	129.94
296.448	104.94
296.679	99.94
296.909	87.94
297.14	79.94
297.37	87.94
297.601	92.94
297.831	82.94
298.062	87.94
298.292	87.94
298.523	85.94
298.753	84.94
298.984	90.94
299.214	99.94
299.445	96.94
299.675	97.94
299.905	96.94
300.136	84.94
300.366	86.94
300.597	99.94
300.827	81.94
301.057	87.94
301.288	99.94
301.518	97.94
301.748	92.94
301.979	97.94
302.209	71.94
302.439	86.94
302.669	90.94
302.9	92.94
303.13	97.94
303.36	101.94
303.59	100.94
303.82	115.94
304.051	93.94
304.281	85.94
304.511	88.94
304.741	95.94
304.971	81.94
305.201	90.94
305.431	82.94
305.661	90.94
305.891	88.94
306.121	90.94
306.352	102.94
306.582	108.94
306.812	89.94
307.042	94.94
307.272	97.94
307.502	103.94
307.731	90.94
307.961	104.94
308.191	99.94
308.421	111.94
308.651	106.94
308.881	103.94
309.111	92.94
309.341	87.94
309.571	95.94
309.8	90.94
310.03	95.94
310.26	94.94
310.49	89.94
310.72	101.94
310.949	87.94
311.179	104.94
311.409	90.94
311.639	109.94
311.868	108.94
312.098	107.94
312.328	98.94
312.557	99.94
312.787	109.94
313.017	88.94
313.246	90.94
313.476	93.94
313.706	93.94
313.935	94.94
314.165	115.94
314.394	99.94
314.624	104.94
314.853	93.94
315.083	92.94
315.312	99.94
315.542	92.94
315.771	88.94
316.001	94.94
316.23	89.94
316.46	90.94
316.689	88.94
316.919	81.94
317.148	95.94
317.377	82.94
317.607	98.94
317.836	97.94
318.065	106.94
318.295	92.94
318.524	80.94
318.753	86.94
318.983	92.94
319.212	91.94
319.441	112.94
319.67	109.94
319.9	94.94
320.129	91.94
320.358	96.94
320.587	103.94
320.816	101.94
321.046	99.94
321.275	99.94
321.504	91.94
321.733	98.94
321.962	106.94
322.191	91.94
322.42	102.94
322.649	113.94
322.878	107.94
323.108	103.94
323.337	120.94
323.566	131.94
323.795	139.94
324.024	184.94
324.253	365.94
324.482	728.94
324.71	1490.94
324.939	1982.94
325.168	733.94
325.397	233.94
325.626	138.94
325.855	132.94
326.084	128.94
326.313	129.94
326.542	140.94
326.77	235.94
326.999	399.94
327.228	845.94
327.457	1520.94
327.686	1219.94
327.914	322.94
328.143	192.94
328.372	137.94
328.6	124.94
328.829	115.94
329.058	126.94
329.287	116.94
329.515	98.94
329.744	90.94
329.972	100.94
330.201	116.94
330.43	122.94
330.658	105.94
330.887	135.94
331.115	118.94
331.344	100.94
331.572	94.94
331.801	96.94
332.03	94.94
332.258	108.94
332.486	101.94
332.715	100.94
332.943	99.94
333.172	93.94
333.4	91.94
333.629	102.94
333.857	100.94
334.085	103.94
334.314	98.94
334.542	99.94
334.771	108.94
334.999	109.94
335.227	96.94
335.455	115.94
335.684	95.94
335.912	103.94
336.14	110.94
336.369	100.94
336.597	98.94
336.825	101.94
337.053	102.94
337.281	85.94
337.51	86.94
337.738	85.94
337.966	90.94
338.194	98.94
338.422	95.94
338.65	83.94
338.878	91.94
339.106	84.94
339.334	98.94
339.562	99.94
339.79	96.94
340.018	89.94
340.246	100.94
340.474	104.94
340.702	96.94
340.93	100.94
341.158	92.94
341.386	103.94
341.614	88.94
341.842	107.94
342.07	77.94
342.298	85.94
342.526	91.94
342.754	89.94
342.981	80.94
343.209	87.94
343.437	100.94
343.665	96.94
343.893	93.94
344.12	98.94
344.348	110.94
344.576	89.94
344.804	92.94
345.031	86.94
345.259	89.94
345.487	105.94
345.714	91.94
345.942	97.94
346.17	103.94
346.397	94.94
346.625	90.94
346.853	91.94
347.08	73.94
347.308	83.94
347.535	91.94
347.763	78.94
347.99	101.94
348.218	94.94
348.445	110.94
348.673	90.94
348.9	80.94
349.128	81.94
349.355	104.94
349.583	84.94
349.81	88.94
350.037	101.94
350.265	92.94
350.492	90.94
350.72	101.94
350.947	108.94
351.174	109.94
351.402	120.94
351.629	99.94
351.856	88.94
352.083	92.94
352.311	92.94
352.538	114.94
352.765	110.94
352.992	113.94
353.22	112.94
353.447	102.94
353.674	86.94
353.901	104.94
354.128	95.94
354.355	103.94
354.583	109.94
354.81	115.94
355.037	104.94
355.264	94.94
355.491	97.94
355.718	99.94
355.945	99.94
356.172	87.94
356.399	92.94
356.626	93.94
356.853	105.94
357.08	89.94
357.307	93.94
357.534	94.94
357.761	81.94
357.988	110.94
358.215	102.94
358.441	107.94
358.668	95.94
358.895	91.94
359.122	91.94
359.349	75.94
359.576	92.94
359.802	96.94
360.029	101.94
360.256	105.94
360.483	99.94
360.709	98.94
360.936	93.94
361.163	105.94
361.39	97.94
361.616	84.94
361.843	87.94
362.07	92.94
362.296	100.94
362.523	91.94
362.749	97.94
362.976	74.94
363.203	88.94
363.429	94.94
363.656	88.94
363.882	66.94
364.109	88.94
364.335	90.94
364.562	94.94
364.788	92.94
365.015	98.94
365.241	98.94
365.468	114.94
365.694	89.94
365.92	84.94
366.147	86.94
366.373	87.94
366.599	96.94
366.826	87.94
367.052	61.94
367.278	90.94
367.505	95.94
367.731	82.94
367.957	76.94
368.184	84.94
368.41	89.94
368.636	107.94
368.862	117.94
369.089	99.94
369.315	95.94
369.541	98.94
369.767	92.94
369.993	89.94
370.219	90.94
370.445	92.94
370.672	96.94
370.898	104.94
371.124	97.94
371.35	90.94
371.576	107.94
371.802	99.94
372.028	82.94
372.254	81.94
372.48	89.94
372.706	72.94
372.932	98.94
373.158	78.94
373.384	79.94
373.61	99.94
373.835	88.94
374.061	83.94
374.287	80.94
374.513	94.94
374.739	90.94
374.965	86.94
375.191	87.94
375.416	113.94
375.642	84.94
375.868	88.94
376.094	100.94
376.319	92.94
376.545	82.94
376.771	91.94
376.997	82.94
377.222	107.94
377.448	92.94
377.674	89.94
377.899	94.94
378.125	88.94
378.35	81.94
378.576	90.94
378.802	96.94
379.027	99.94
379.253	74.94
379.478	88.94
379.704	101.94
379.929	89.94
380.155	101.94
380.38	98.94
380.606	96.94
380.831	97.94
381.057	89.94
381.282	83.94
381.507	72.94
381.733	86.94
381.958	109.94
382.184	83.94
382.409	87.94
382.634	121.94
382.86	93.94
383.085	109.94
383.31	88.94
383.535	98.94
383.761	89.94
383.986	100.94
384.211	95.94
384.436	102.94
384.662	92.94
384.887	93.94
385.112	96.94
385.337	100.94
385.562	99.94
385.787	101.94
386.013	107.94
386.238	101.94
386.463	112.94
386.688	126.94
386.913	86.94
387.138	103.94
387.363	110.94
387.588	98.94
387.813	104.94
388.038	104.94
388.263	108.94
388.488	109.94
388.713	101.94
388.938	93.94
389.163	111.94
389.387	100.94
389.612	84.94
389.837	81.94
390.062	98.94
390.287	86.94
390.512	97.94
390.736	100.94
390.961	96.94
391.186	90.94
391.411	85.94
391.636	93.94
391.86	92.94
392.085	85.94
392.31	85.94
392.534	79.94
392.759	82.94
392.984	75.94
393.208	92.94
393.433	82.94
393.658	95.94
393.882	77.94
394.107	92.94
394.331	84.94
394.556	96.94
394.78	92.94
395.005	104.94
395.229	91.94
395.454	88.94
395.678	85.94
395.903	91.94
396.127	91.94
396.352	98.94
396.576	88.94
396.801	89.94
397.025	77.94
397.249	76.94
397.474	96.94
397.698	87.94
397.922	98.94
398.147	101.94
398.371	83.94
398.595	82.94
398.82	90.94
399.044	90.94
399.268	91.94
399.492	84.94
399.717	88.94
399.941	88.94
400.165	90.94
400.389	78.94
400.613	89.94
400.837	92.94
401.062	85.94
401.286	90.94
401.51	95.94
401.734	86.94
401.958	100.94
402.182	118.94
402.406	146.94
402.63	115.94
402.854	108.94
403.078	83.94
403.302	78.94
403.526	86.94
403.75	88.94
403.974	72.94
404.198	90.94
404.422	92.94
404.645	88.94
404.869	93.94
405.093	84.94
405.317	92.94
405.541	98.94
405.765	101.94
405.988	104.94
406.212	158.94
406.436	213.94
406.66	116.94
406.883	108.94
407.107	90.94
407.331	97.94
407.555	89.94
407.778	95.94
408.002	90.94
408.226	103.94
408.449	87.94
408.673	93.94
408.896	88.94
409.12	91.94
409.344	84.94
409.567	77.94
409.791	90.94
410.014	110.94
410.238	97.94
410.461	86.94
410.685	98.94
410.908	85.94
411.132	93.94
411.355	100.94
411.578	97.94
411.802	82.94
412.025	94.94
412.249	96.94
412.472	84.94
412.695	84.94
412.919	94.94
413.142	78.94
413.365	94.94
413.589	103.94
413.812	88.94
414.035	84.94
414.258	90.94
414.482	100.94
414.705	94.94
414.928	89.94
415.151	84.94
415.374	100.94
415.597	87.94
415.821	80.94
416.044	94.94
416.267	92.94
416.49	102.94
416.713	95.94
416.936	92.94
417.159	88.94
417.382	99.94
417.605	87.94
417.828	95.94
418.051	86.94
418.274	94.94
418.497	92.94
418.72	103.94
418.943	88.94
419.166	88.94
419.389	88.94
419.611	100.94
419.834	84.94
420.057	93.94
420.28	76.94
420.503	89.94
420.726	97.94
420.948	100.94
421.171	96.94
421.394	99.94
421.617	85.94
421.839	84.94
422.062	93.94
422.285	78.94
422.507	112.94
422.73	96.94
422.953	78.94
423.175	85.94
423.398	97.94
423.621	85.94
423.843	96.94
424.066	92.94
424.288	82.94
424.511	86.94
424.733	92.94
424.956	106.94
425.178	94.94
425.401	88.94
425.623	108.94
425.846	100.94
426.068	77.94
426.291	92.94
426.513	93.94
426.735	90.94
426.958	97.94
427.18	92.94
427.402	140.94
427.625	145.94
427.847	115.94
428.069	99.94
428.292	97.94
428.514	88.94
428.736	80.94
428.958	93.94
429.181	74.94
429.403	74.94
429.625	75.94
429.847	88.94
430.069	96.94
430.292	98.94
430.514	76.94
430.736	82.94
430.958	84.94
431.18	96.94
431.402	88.94
431.624	82.94
431.846	88.94
432.068	113.94
432.29	97.94
432.512	90.94
432.734	84.94
432.956	94.94
433.178	106.94
433.4	84.94
433.622	74.94
433.844	86.94
434.066	86.94
434.287	102.94
434.509	101.94
434.731	89.94
434.953	94.94
435.175	91.94
435.397	82.94
435.618	102.94
435.84	104.94
436.062	115.94
436.284	107.94
436.505	117.94
436.727	101.94
436.949	81.94
437.17	84.94
437.392	92.94
437.614	103.94
437.835	105.94
438.057	123.94
438.278	104.94
438.5	104.94
438.721	117.94
438.943	103.94
439.165	96.94
439.386	99.94
439.608	103.94
439.829	88.94
440.05	101.94
440.272	144.94
440.493	80.94
440.715	84.94
440.936	72.94
441.158	93.94
441.379	90.94
441.6	81.94
441.822	104.94
442.043	84.94
442.264	92.94
442.486	95.94
442.707	93.94
442.928	92.94
443.149	122.94
443.371	108.94
443.592	108.94
443.813	109.94
444.034	109.94
444.255	100.94
444.476	113.94
444.698	83.94
444.919	84.94
445.14	141.94
445.361	128.94
445.582	104.94
445.803	109.94
446.024	123.94
446.245	115.94
446.466	103.94
446.687	114.94
446.908	96.94
447.129	92.94
447.35	97.94
447.571	92.94
447.792	82.94
448.013	96.94
448.234	96.94
448.455	102.94
448.675	120.94
448.896	120.94
449.117	95.94
449.338	110.94
449.559	116.94
449.779	114.94
450	100.94
450.221	96.94
450.442	91.94
450.662	92.94
450.883	106.94
451.104	91.94
451.324	79.94
451.545	80.94
451.766	92.94
451.986	94.94
452.207	96.94
452.428	96.94
452.648	105.94
452.869	118.94
453.089	119.94
453.31	112.94
453.53	91.94
453.751	86.94
453.971	101.94
454.192	101.94
454.412	86.94
454.633	73.94
454.853	93.94
455.073	94.94
455.294	102.94
455.514	101.94
455.734	76.94
455.955	84.94
456.175	77.94
456.395	92.94
456.616	82.94
456.836	95.94
457.056	88.94
457.276	82.94
457.497	82.94
457.717	61.94
457.937	80.94
458.157	88.94
458.377	92.94
458.598	113.94
458.818	133.94
459.038	128.94
459.258	96.94
459.478	85.94
459.698	88.94
459.918	76.94
460.138	85.94
460.358	78.94
460.578	96.94
460.798	97.94
461.018	86.94
461.238	76.94
461.458	88.94
461.678	84.94
461.898	84.94
462.118	93.94
462.338	73.94
462.558	86.94
462.777	73.94
462.997	82.94
463.217	93.94
463.437	86.94
463.657	96.94
463.876	100.94
464.096	100.94
464.316	94.94
464.536	91.94
464.755	102.94
464.975	105.94
465.195	161.94
465.414	151.94
465.634	97.94
465.854	94.94
466.073	82.94
466.293	85.94
466.512	102.94
466.732	95.94
466.951	103.94
467.171	96.94
467.391	105.94
467.61	93.94
467.829	94.94
468.049	93.94
468.268	91.94
468.488	72.94
468.707	92.94
468.927	85.94
469.146	80.94
469.365	76.94
469.585	87.94
469.804	91.94
470.023	89.94
470.243	87.94
470.462	102.94
470.681	113.94
470.901	92.94
471.12	97.94
471.339	96.94
471.558	77.94
471.777	72.94
471.997	94.94
472.216	105.94
472.435	117.94
472.654	85.94
472.873	102.94
473.092	90.94
473.311	82.94
473.53	84.94
473.749	77.94
473.968	95.94
474.187	107.94
474.406	99.94
474.625	91.94
474.844	84.94
475.063	68.94
475.282	81.94
475.501	84.94
475.72	90.94
475.939	75.94
476.158	93.94
476.377	89.94
476.596	96.94
476.814	85.94
477.033	84.94
477.252	92.94
477.471	91.94
477.69	87.94
477.908	99.94
478.127	104.94
478.346	98.94
478.564	88.94
478.783	84.94
479.002	87.94
479.22	110.94
479.439	99.94
479.658	88.94
479.876	88.94
480.095	96.94
480.313	101.94
480.532	98.94
480.751	96.94
480.969	90.94
481.188	128.94
481.406	116.94
481.624	96.94
481.843	84.94
482.061	101.94
482.28	82.94
482.498	82.94
482.717	80.94
482.935	76.94
483.153	86.94
483.372	81.94
483.59	87.94
483.808	101.94
484.027	101.94
484.245	90.94
484.463	97.94
484.681	95.94
484.9	97.94
485.118	92.94
485.336	96.94
485.554	99.94
485.772	93.94
485.99	112.94
486.209	104.94
486.427	86.94
486.645	96.94
486.863	113.94
487.081	114.94
487.299	98.94
487.517	90.94
487.735	77.94
487.953	99.94
488.171	92.94
488.389	90.94
488.607	102.94
488.825	91.94
489.043	90.94
489.261	106.94
489.479	93.94
489.696	96.94
489.914	95.94
490.132	78.94
490.35	91.94
490.568	109.94
490.786	86.94
491.003	92.94
491.221	98.94
491.439	86.94
491.657	88.94
491.874	98.94
492.092	93.94
492.31	85.94
492.527	86.94
492.745	98.94
492.963	92.94
493.18	95.94
493.398	93.94
493.615	98.94
493.833	89.94
494.05	93.94
494.268	84.94
494.485	107.94
494.703	95.94
494.92	86.94
495.138	104.94
495.355	72.94
495.573	96.94
495.79	77.94
496.008	91.94
496.225	84.94
496.442	103.94
496.66	103.94
496.877	91.94
497.094	78.94
497.312	89.94
497.529	86.94
497.746	100.94
497.963	82.94
498.181	92.94
498.398	86.94
498.615	110.94
498.832	107.94
499.049	93.94
499.267	88.94
499.484	103.94
499.701	94.94
499.918	93.94
500.135	79.94
500.352	96.94
500.569	89.94
500.786	89.94
501.003	83.94
501.22	93.94
501.437	82.94
501.654	104.94
501.871	90.94
502.088	93.94
502.305	75.94
502.522	100.94
502.739	101.94
502.956	88.94
503.172	95.94
503.389	80.94
503.606	99.94
503.823	115.94
504.04	92.94
504.256	88.94
504.473	92.94
504.69	98.94
504.907	103.94
505.123	77.94
505.34	94.94
505.557	92.94
505.773	100.94
505.99	96.94
506.207	86.94
506.423	82.94
506.64	90.94
506.856	82.94
507.073	88.94
507.289	75.94
507.506	91.94
507.722	111.94
507.939	94.94
508.155	96.94
508.372	90.94
508.588	92.94
508.805	105.94
509.021	102.94
509.238	87.94
509.454	114.94
509.67	111.94
509.887	105.94
510.103	124.94
510.319	215.94
510.536	732.94
510.752	2218.94
510.968	595.94
511.184	140.94
511.401	104.94
511.617	95.94
511.833	96.94
512.049	109.94
512.265	88.94
512.481	105.94
512.698	95.94
512.914	97.94
513.13	89.94
513.346	82.94
513.562	92.94
513.778	81.94
513.994	94.94
514.21	102.94
514.426	121.94
514.642	129.94
514.858	127.94
515.074	153.94
515.29	406.94
515.506	1310.94
515.721	478.94
