Data from Uncirc_1983_H10_HRD10591_00001.txt Node
Date: Wed Jan 03 12:25:32 EST 2024
User: Yrep
Spectrometer: HR+D1059
Trigger mode: 1
Integration Time (sec): 1.000000E-1
Scans to average: 1
Electric dark correction enabled: true
Nonlinearity correction enabled: false
Boxcar width: 0
XAxis mode: Wavelengths
Number of Pixels in Spectrum: 2048
>>>>>Begin Spectral Data<<<<<
223.165	-5.31
223.4	-5.31
223.635	-5.31
223.869	-19.31
224.104	-22.31
224.338	-25.31
224.573	-15.31
224.808	-7.31
225.042	1.69
225.277	2.69
225.511	-4.31
225.746	11.69
225.98	18.69
226.215	8.69
226.449	17.69
226.683	2.69
226.918	8.69
227.152	26.69
227.387	31.69
227.621	58.69
227.856	35.69
228.09	57.69
228.324	48.69
228.559	67.69
228.793	60.69
229.027	53.69
229.262	62.69
229.496	70.69
229.73	60.69
229.964	66.69
230.199	68.69
230.433	77.69
230.667	66.69
230.901	76.69
231.136	72.69
231.37	73.69
231.604	70.69
231.838	78.69
232.072	78.69
232.306	71.69
232.541	71.69
232.775	76.69
233.009	69.69
233.243	82.69
233.477	80.69
233.711	76.69
233.945	88.69
234.179	91.69
234.413	85.69
234.647	66.69
234.881	66.69
235.115	77.69
235.349	69.69
235.583	76.69
235.817	74.69
236.051	81.69
236.285	89.69
236.519	76.69
236.753	72.69
236.987	71.69
237.221	77.69
237.455	68.69
237.689	63.69
237.922	84.69
238.156	68.69
238.39	68.69
238.624	80.69
238.858	76.69
239.091	86.69
239.325	76.69
239.559	66.69
239.793	73.69
240.027	90.69
240.26	78.69
240.494	76.69
240.728	74.69
240.961	68.69
241.195	68.69
241.429	79.69
241.662	73.69
241.896	84.69
242.13	86.69
242.363	77.69
242.597	69.69
242.83	84.69
243.064	60.69
243.298	69.69
243.531	78.69
243.765	80.69
243.998	89.69
244.232	74.69
244.465	78.69
244.699	90.69
244.932	89.69
245.166	76.69
245.399	66.69
245.633	77.69
245.866	77.69
246.099	82.69
246.333	71.69
246.566	77.69
246.8	79.69
247.033	76.69
247.266	78.69
247.5	71.69
247.733	80.69
247.966	76.69
248.2	62.69
248.433	87.69
248.666	83.69
248.899	76.69
249.133	66.69
249.366	81.69
249.599	72.69
249.832	81.69
250.066	90.69
250.299	80.69
250.532	82.69
250.765	69.69
250.998	76.69
251.231	76.69
251.465	70.69
251.698	74.69
251.931	83.69
252.164	72.69
252.397	58.69
252.63	74.69
252.863	93.69
253.096	83.69
253.329	76.69
253.562	71.69
253.795	66.69
254.028	74.69
254.261	70.69
254.494	80.69
254.727	74.69
254.96	84.69
255.193	87.69
255.426	83.69
255.659	73.69
255.892	71.69
256.124	69.69
256.357	73.69
256.59	77.69
256.823	82.69
257.056	89.69
257.289	82.69
257.521	62.69
257.754	81.69
257.987	73.69
258.22	67.69
258.452	88.69
258.685	80.69
258.918	79.69
259.151	94.69
259.383	58.69
259.616	69.69
259.849	69.69
260.081	79.69
260.314	69.69
260.547	69.69
260.779	82.69
261.012	79.69
261.244	90.69
261.477	82.69
261.71	86.69
261.942	103.69
262.175	102.69
262.407	81.69
262.64	79.69
262.872	77.69
263.105	87.69
263.337	80.69
263.57	84.69
263.802	72.69
264.035	74.69
264.267	74.69
264.499	95.69
264.732	83.69
264.964	74.69
265.197	82.69
265.429	80.69
265.661	81.69
265.894	79.69
266.126	79.69
266.358	77.69
266.591	69.69
266.823	92.69
267.055	90.69
267.287	83.69
267.52	78.69
267.752	77.69
267.984	69.69
268.216	92.69
268.448	85.69
268.681	91.69
268.913	84.69
269.145	86.69
269.377	85.69
269.609	80.69
269.841	76.69
270.073	82.69
270.306	89.69
270.538	81.69
270.77	78.69
271.002	85.69
271.234	80.69
271.466	82.69
271.698	85.69
271.93	83.69
272.162	80.69
272.394	81.69
272.626	81.69
272.858	78.69
273.09	81.69
273.322	89.69
273.553	82.69
273.785	86.69
274.017	84.69
274.249	84.69
274.481	84.69
274.713	80.69
274.945	72.69
275.176	86.69
275.408	79.69
275.64	75.69
275.872	85.69
276.104	77.69
276.335	86.69
276.567	94.69
276.799	102.69
277.031	99.69
277.262	84.69
277.494	93.69
277.726	86.69
277.957	80.69
278.189	80.69
278.421	84.69
278.652	87.69
278.884	93.69
279.115	87.69
279.347	77.69
279.579	71.69
279.81	78.69
280.042	71.69
280.273	69.69
280.505	73.69
280.736	78.69
280.968	82.69
281.199	84.69
281.431	93.69
281.662	96.69
281.894	98.69
282.125	97.69
282.356	106.69
282.588	125.69
282.819	90.69
283.051	85.69
283.282	70.69
283.513	77.69
283.745	74.69
283.976	84.69
284.207	95.69
284.439	87.69
284.67	88.69
284.901	81.69
285.132	71.69
285.364	92.69
285.595	86.69
285.826	69.69
286.057	82.69
286.288	84.69
286.52	90.69
286.751	71.69
286.982	86.69
287.213	84.69
287.444	81.69
287.675	93.69
287.906	82.69
288.138	92.69
288.369	79.69
288.6	84.69
288.831	84.69
289.062	81.69
289.293	80.69
289.524	95.69
289.755	86.69
289.986	92.69
290.217	86.69
290.448	78.69
290.679	90.69
290.91	78.69
291.141	84.69
291.371	87.69
291.602	99.69
291.833	73.69
292.064	83.69
292.295	80.69
292.526	84.69
292.757	80.69
292.987	76.69
293.218	80.69
293.449	83.69
293.68	86.69
293.91	84.69
294.141	78.69
294.372	83.69
294.603	79.69
294.833	80.69
295.064	77.69
295.295	85.69
295.525	83.69
295.756	98.69
295.987	101.69
296.217	120.69
296.448	118.69
296.679	78.69
296.909	101.69
297.14	73.69
297.37	81.69
297.601	109.69
297.831	90.69
298.062	101.69
298.292	88.69
298.523	98.69
298.753	67.69
298.984	93.69
299.214	82.69
299.445	76.69
299.675	94.69
299.905	88.69
300.136	78.69
300.366	77.69
300.597	94.69
300.827	84.69
301.057	96.69
301.288	97.69
301.518	103.69
301.748	84.69
301.979	90.69
302.209	90.69
302.439	79.69
302.669	79.69
302.9	90.69
303.13	81.69
303.36	79.69
303.59	85.69
303.82	82.69
304.051	93.69
304.281	86.69
304.511	86.69
304.741	84.69
304.971	84.69
305.201	81.69
305.431	84.69
305.661	75.69
305.891	68.69
306.121	88.69
306.352	99.69
306.582	94.69
306.812	89.69
307.042	78.69
307.272	85.69
307.502	82.69
307.731	103.69
307.961	85.69
308.191	84.69
308.421	87.69
308.651	98.69
308.881	93.69
309.111	88.69
309.341	75.69
309.571	83.69
309.8	82.69
310.03	92.69
310.26	106.69
310.49	90.69
310.72	83.69
310.949	85.69
311.179	87.69
311.409	78.69
311.639	76.69
311.868	90.69
312.098	92.69
312.328	89.69
312.557	90.69
312.787	93.69
313.017	89.69
313.246	77.69
313.476	82.69
313.706	84.69
313.935	106.69
314.165	98.69
314.394	86.69
314.624	77.69
314.853	87.69
315.083	83.69
315.312	102.69
315.542	86.69
315.771	68.69
316.001	80.69
316.23	86.69
316.46	80.69
316.689	76.69
316.919	82.69
317.148	90.69
317.377	85.69
317.607	81.69
317.836	98.69
318.065	90.69
318.295	82.69
318.524	79.69
318.753	98.69
318.983	83.69
319.212	88.69
319.441	100.69
319.67	96.69
319.9	80.69
320.129	88.69
320.358	104.69
320.587	72.69
320.816	89.69
321.046	94.69
321.275	100.69
321.504	96.69
321.733	84.69
321.962	68.69
322.191	102.69
322.42	96.69
322.649	78.69
322.878	103.69
323.108	109.69
323.337	110.69
323.566	121.69
323.795	132.69
324.024	185.69
324.253	342.69
324.482	698.69
324.71	1445.69
324.939	1856.69
325.168	692.69
325.397	225.69
325.626	135.69
325.855	105.69
326.084	121.69
326.313	134.69
326.542	134.69
326.77	206.69
326.999	401.69
327.228	833.69
327.457	1474.69
327.686	1186.69
327.914	332.69
328.143	180.69
328.372	144.69
328.6	111.69
328.829	103.69
329.058	100.69
329.287	97.69
329.515	97.69
329.744	95.69
329.972	91.69
330.201	92.69
330.43	104.69
330.658	103.69
330.887	99.69
331.115	104.69
331.344	88.69
331.572	88.69
331.801	90.69
332.03	96.69
332.258	88.69
332.486	89.69
332.715	89.69
332.943	85.69
333.172	95.69
333.4	98.69
333.629	101.69
333.857	96.69
334.085	99.69
334.314	89.69
334.542	92.69
334.771	87.69
334.999	94.69
335.227	87.69
335.455	88.69
335.684	102.69
335.912	88.69
336.14	94.69
336.369	94.69
336.597	103.69
336.825	97.69
337.053	88.69
337.281	92.69
337.51	80.69
337.738	93.69
337.966	97.69
338.194	90.69
338.422	92.69
338.65	101.69
338.878	84.69
339.106	85.69
339.334	100.69
339.562	91.69
339.79	80.69
340.018	79.69
340.246	76.69
340.474	90.69
340.702	80.69
340.93	89.69
341.158	94.69
341.386	94.69
341.614	95.69
341.842	84.69
342.07	76.69
342.298	89.69
342.526	103.69
342.754	80.69
342.981	78.69
343.209	81.69
343.437	99.69
343.665	85.69
343.893	77.69
344.12	97.69
344.348	81.69
344.576	77.69
344.804	82.69
345.031	88.69
345.259	95.69
345.487	73.69
345.714	80.69
345.942	93.69
346.17	82.69
346.397	92.69
346.625	89.69
346.853	86.69
347.08	88.69
347.308	91.69
347.535	82.69
347.763	106.69
347.99	85.69
348.218	110.69
348.445	86.69
348.673	93.69
348.9	92.69
349.128	91.69
349.355	79.69
349.583	88.69
349.81	89.69
350.037	88.69
350.265	90.69
350.492	89.69
350.72	88.69
350.947	99.69
351.174	115.69
351.402	112.69
351.629	105.69
351.856	82.69
352.083	99.69
352.311	99.69
352.538	104.69
352.765	103.69
352.992	100.69
353.22	112.69
353.447	99.69
353.674	100.69
353.901	96.69
354.128	95.69
354.355	96.69
354.583	91.69
354.81	103.69
355.037	94.69
355.264	92.69
355.491	96.69
355.718	89.69
355.945	90.69
356.172	109.69
356.399	84.69
356.626	97.69
356.853	92.69
357.08	84.69
357.307	95.69
357.534	96.69
357.761	92.69
357.988	104.69
358.215	98.69
358.441	89.69
358.668	102.69
358.895	82.69
359.122	93.69
359.349	79.69
359.576	84.69
359.802	104.69
360.029	100.69
360.256	118.69
360.483	89.69
360.709	92.69
360.936	93.69
361.163	87.69
361.39	96.69
361.616	96.69
361.843	91.69
362.07	86.69
362.296	93.69
362.523	89.69
362.749	85.69
362.976	90.69
363.203	88.69
363.429	101.69
363.656	93.69
363.882	82.69
364.109	83.69
364.335	99.69
364.562	86.69
364.788	89.69
365.015	88.69
365.241	82.69
365.468	93.69
365.694	86.69
365.92	108.69
366.147	88.69
366.373	79.69
366.599	86.69
366.826	101.69
367.052	81.69
367.278	84.69
367.505	74.69
367.731	94.69
367.957	83.69
368.184	76.69
368.41	81.69
368.636	102.69
368.862	114.69
369.089	97.69
369.315	90.69
369.541	89.69
369.767	94.69
369.993	82.69
370.219	77.69
370.445	89.69
370.672	73.69
370.898	86.69
371.124	88.69
371.35	84.69
371.576	89.69
371.802	85.69
372.028	103.69
372.254	78.69
372.48	87.69
372.706	87.69
372.932	81.69
373.158	68.69
373.384	89.69
373.61	90.69
373.835	85.69
374.061	80.69
374.287	102.69
374.513	99.69
374.739	81.69
374.965	84.69
375.191	92.69
375.416	102.69
375.642	96.69
375.868	105.69
376.094	108.69
376.319	87.69
376.545	111.69
376.771	99.69
376.997	94.69
377.222	92.69
377.448	103.69
377.674	97.69
377.899	95.69
378.125	87.69
378.35	86.69
378.576	103.69
378.802	81.69
379.027	97.69
379.253	99.69
379.478	100.69
379.704	85.69
379.929	80.69
380.155	106.69
380.38	91.69
380.606	100.69
380.831	91.69
381.057	114.69
381.282	101.69
381.507	111.69
381.733	102.69
381.958	108.69
382.184	103.69
382.409	96.69
382.634	114.69
382.86	105.69
383.085	107.69
383.31	104.69
383.535	92.69
383.761	108.69
383.986	105.69
384.211	104.69
384.436	97.69
384.662	114.69
384.887	124.69
385.112	122.69
385.337	137.69
385.562	120.69
385.787	132.69
386.013	121.69
386.238	132.69
386.463	113.69
386.688	123.69
386.913	120.69
387.138	110.69
387.363	112.69
387.588	103.69
387.813	102.69
388.038	125.69
388.263	126.69
388.488	125.69
388.713	91.69
388.938	94.69
389.163	80.69
389.387	76.69
389.612	80.69
389.837	80.69
390.062	77.69
390.287	104.69
390.512	92.69
390.736	104.69
390.961	87.69
391.186	83.69
391.411	85.69
391.636	80.69
391.86	88.69
392.085	77.69
392.31	81.69
392.534	95.69
392.759	98.69
392.984	95.69
393.208	105.69
393.433	133.69
393.658	107.69
393.882	90.69
394.107	73.69
394.331	88.69
394.556	78.69
394.78	89.69
395.005	87.69
395.229	79.69
395.454	80.69
395.678	78.69
395.903	90.69
396.127	101.69
396.352	93.69
396.576	84.69
396.801	103.69
397.025	118.69
397.249	89.69
397.474	86.69
397.698	85.69
397.922	98.69
398.147	86.69
398.371	95.69
398.595	73.69
398.82	78.69
399.044	73.69
399.268	73.69
399.492	83.69
399.717	82.69
399.941	78.69
400.165	95.69
400.389	96.69
400.613	85.69
400.837	77.69
401.062	85.69
401.286	84.69
401.51	98.69
401.734	81.69
401.958	90.69
402.182	105.69
402.406	123.69
402.63	97.69
402.854	96.69
403.078	95.69
403.302	74.69
403.526	82.69
403.75	95.69
403.974	92.69
404.198	89.69
404.422	89.69
404.645	98.69
404.869	60.69
405.093	102.69
405.317	76.69
405.541	90.69
405.765	97.69
405.988	88.69
406.212	138.69
406.436	210.69
406.66	129.69
406.883	96.69
407.107	86.69
407.331	92.69
407.555	100.69
407.778	88.69
408.002	87.69
408.226	97.69
408.449	80.69
408.673	95.69
408.896	85.69
409.12	97.69
409.344	92.69
409.567	88.69
409.791	101.69
410.014	85.69
410.238	71.69
410.461	82.69
410.685	92.69
410.908	107.69
411.132	86.69
411.355	89.69
411.578	88.69
411.802	85.69
412.025	90.69
412.249	81.69
412.472	84.69
412.695	93.69
412.919	85.69
413.142	91.69
413.365	89.69
413.589	102.69
413.812	90.69
414.035	94.69
414.258	76.69
414.482	88.69
414.705	81.69
414.928	88.69
415.151	109.69
415.374	100.69
415.597	90.69
415.821	88.69
416.044	85.69
416.267	92.69
416.49	78.69
416.713	106.69
416.936	94.69
417.159	77.69
417.382	82.69
417.605	91.69
417.828	87.69
418.051	78.69
418.274	93.69
418.497	85.69
418.72	80.69
418.943	71.69
419.166	87.69
419.389	98.69
419.611	87.69
419.834	85.69
420.057	96.69
420.28	81.69
420.503	83.69
420.726	88.69
420.948	86.69
421.171	102.69
421.394	97.69
421.617	81.69
421.839	90.69
422.062	90.69
422.285	98.69
422.507	102.69
422.73	107.69
422.953	92.69
423.175	89.69
423.398	80.69
423.621	80.69
423.843	79.69
424.066	90.69
424.288	79.69
424.511	69.69
424.733	81.69
424.956	88.69
425.178	106.69
425.401	91.69
425.623	89.69
425.846	84.69
426.068	96.69
426.291	75.69
426.513	76.69
426.735	93.69
426.958	84.69
427.18	101.69
427.402	120.69
427.625	134.69
427.847	105.69
428.069	97.69
428.292	88.69
428.514	73.69
428.736	72.69
428.958	72.69
429.181	87.69
429.403	76.69
429.625	93.69
429.847	80.69
430.069	95.69
430.292	93.69
430.514	86.69
430.736	74.69
430.958	80.69
431.18	94.69
431.402	79.69
431.624	79.69
431.846	80.69
432.068	71.69
432.29	86.69
432.512	92.69
432.734	93.69
432.956	94.69
433.178	81.69
433.4	74.69
433.622	94.69
433.844	87.69
434.066	78.69
434.287	82.69
434.509	78.69
434.731	84.69
434.953	89.69
435.175	81.69
435.397	81.69
435.618	92.69
435.84	98.69
436.062	121.69
436.284	93.69
436.505	87.69
436.727	94.69
436.949	87.69
437.17	76.69
437.392	84.69
437.614	99.69
437.835	93.69
438.057	91.69
438.278	95.69
438.5	97.69
438.721	107.69
438.943	104.69
439.165	86.69
439.386	98.69
439.608	98.69
439.829	88.69
440.05	105.69
440.272	122.69
440.493	104.69
440.715	92.69
440.936	72.69
441.158	81.69
441.379	88.69
441.6	90.69
441.822	84.69
442.043	89.69
442.264	88.69
442.486	91.69
442.707	92.69
442.928	96.69
443.149	117.69
443.371	121.69
443.592	95.69
443.813	101.69
444.034	99.69
444.255	89.69
444.476	80.69
444.698	94.69
444.919	87.69
445.14	126.69
445.361	116.69
445.582	101.69
445.803	124.69
446.024	115.69
446.245	109.69
446.466	101.69
446.687	90.69
446.908	100.69
447.129	104.69
447.35	81.69
447.571	92.69
447.792	97.69
448.013	91.69
448.234	100.69
448.455	100.69
448.675	101.69
448.896	102.69
449.117	96.69
449.338	95.69
449.559	131.69
449.779	140.69
450	82.69
450.221	76.69
450.442	86.69
450.662	86.69
450.883	92.69
451.104	93.69
451.324	89.69
451.545	89.69
451.766	88.69
451.986	77.69
452.207	95.69
452.428	94.69
452.648	106.69
452.869	92.69
453.089	89.69
453.31	112.69
453.53	70.69
453.751	81.69
453.971	104.69
454.192	108.69
454.412	82.69
454.633	82.69
454.853	95.69
455.073	86.69
455.294	100.69
455.514	105.69
455.734	80.69
455.955	90.69
456.175	76.69
456.395	92.69
456.616	81.69
456.836	89.69
457.056	93.69
457.276	76.69
457.497	87.69
457.717	90.69
457.937	83.69
458.157	90.69
458.377	91.69
458.598	105.69
458.818	121.69
459.038	114.69
459.258	98.69
459.478	88.69
459.698	78.69
459.918	92.69
460.138	82.69
460.358	87.69
460.578	73.69
460.798	92.69
461.018	81.69
461.238	71.69
461.458	87.69
461.678	67.69
461.898	76.69
462.118	70.69
462.338	82.69
462.558	87.69
462.777	79.69
462.997	88.69
463.217	87.69
463.437	79.69
463.657	86.69
463.876	82.69
464.096	88.69
464.316	90.69
464.536	80.69
464.755	87.69
464.975	83.69
465.195	139.69
465.414	120.69
465.634	74.69
465.854	66.69
466.073	73.69
466.293	92.69
466.512	84.69
466.732	94.69
466.951	78.69
467.171	92.69
467.391	66.69
467.61	92.69
467.829	96.69
468.049	83.69
468.268	94.69
468.488	75.69
468.707	82.69
468.927	72.69
469.146	86.69
469.365	84.69
469.585	83.69
469.804	89.69
470.023	81.69
470.243	89.69
470.462	91.69
470.681	96.69
470.901	86.69
471.12	71.69
471.339	83.69
471.558	68.69
471.777	71.69
471.997	86.69
472.216	81.69
472.435	81.69
472.654	82.69
472.873	85.69
473.092	80.69
473.311	63.69
473.53	93.69
473.749	82.69
473.968	92.69
474.187	92.69
474.406	92.69
474.625	85.69
474.844	90.69
475.063	95.69
475.282	93.69
475.501	88.69
475.72	90.69
475.939	95.69
476.158	74.69
476.377	87.69
476.596	72.69
476.814	88.69
477.033	89.69
477.252	80.69
477.471	89.69
477.69	87.69
477.908	92.69
478.127	94.69
478.346	96.69
478.564	88.69
478.783	95.69
479.002	97.69
479.22	82.69
479.439	95.69
479.658	90.69
479.876	97.69
480.095	97.69
480.313	103.69
480.532	93.69
480.751	101.69
480.969	81.69
481.188	101.69
481.406	86.69
481.624	84.69
481.843	76.69
482.061	84.69
482.28	92.69
482.498	97.69
482.717	88.69
482.935	90.69
483.153	85.69
483.372	88.69
483.59	94.69
483.808	77.69
484.027	87.69
484.245	95.69
484.463	103.69
484.681	94.69
484.9	92.69
485.118	103.69
485.336	85.69
485.554	95.69
485.772	97.69
485.99	95.69
486.209	99.69
486.427	92.69
486.645	101.69
486.863	106.69
487.081	92.69
487.299	102.69
487.517	93.69
487.735	86.69
487.953	82.69
488.171	92.69
488.389	104.69
488.607	89.69
488.825	96.69
489.043	82.69
489.261	86.69
489.479	83.69
489.696	85.69
489.914	89.69
490.132	95.69
490.35	94.69
490.568	86.69
490.786	98.69
491.003	89.69
491.221	88.69
491.439	70.69
491.657	96.69
491.874	82.69
492.092	97.69
492.31	86.69
492.527	82.69
492.745	78.69
492.963	97.69
493.18	83.69
493.398	96.69
493.615	90.69
493.833	97.69
494.05	89.69
494.268	100.69
494.485	96.69
494.703	84.69
494.92	96.69
495.138	90.69
495.355	87.69
495.573	92.69
495.79	100.69
496.008	91.69
496.225	97.69
496.442	89.69
496.66	102.69
496.877	87.69
497.094	85.69
497.312	85.69
497.529	91.69
497.746	82.69
497.963	74.69
498.181	84.69
498.398	88.69
498.615	106.69
498.832	91.69
499.049	96.69
499.267	92.69
499.484	99.69
499.701	104.69
499.918	83.69
500.135	74.69
500.352	81.69
500.569	90.69
500.786	95.69
501.003	86.69
501.22	90.69
501.437	89.69
501.654	75.69
501.871	97.69
502.088	106.69
502.305	87.69
502.522	74.69
502.739	84.69
502.956	78.69
503.172	83.69
503.389	94.69
503.606	100.69
503.823	85.69
504.04	98.69
504.256	98.69
504.473	92.69
504.69	89.69
504.907	78.69
505.123	97.69
505.34	100.69
505.557	82.69
505.773	82.69
505.99	88.69
506.207	77.69
506.423	72.69
506.64	108.69
506.856	88.69
507.073	90.69
507.289	80.69
507.506	89.69
507.722	101.69
507.939	103.69
508.155	87.69
508.372	86.69
508.588	93.69
508.805	92.69
509.021	92.69
509.238	94.69
509.454	96.69
509.67	117.69
509.887	90.69
510.103	109.69
510.319	166.69
510.536	589.69
510.752	1716.69
510.968	470.69
511.184	131.69
511.401	99.69
511.617	72.69
511.833	88.69
512.049	90.69
512.265	81.69
512.481	72.69
512.698	96.69
512.914	95.69
513.13	106.69
513.346	73.69
513.562	94.69
513.778	95.69
513.994	97.69
514.21	94.69
514.426	99.69
514.642	124.69
514.858	114.69
515.074	136.69
515.29	351.69
515.506	995.69
515.721	391.69
515.937	122.69
516.153	112.69
516.369	88.69
516.585	94.69
516.801	80.69
517.016	91.69
