Data from Uncirc_1983_H10_HRD10591_00014.txt Node
Date: Wed Jan 03 12:25:34 EST 2024
User: Yrep
Spectrometer: HR+D1059
Trigger mode: 1
Integration Time (sec): 1.000000E-1
Scans to average: 1
Electric dark correction enabled: true
Nonlinearity correction enabled: false
Boxcar width: 0
XAxis mode: Wavelengths
Number of Pixels in Spectrum: 2048
>>>>>Begin Spectral Data<<<<<
223.165	-19.44
223.4	-19.44
223.635	-19.44
223.869	-30.44
224.104	-5.44
224.338	-14.44
224.573	-17.44
224.808	-3.44
225.042	-8.44
225.277	-10.44
225.511	-14.44
225.746	18.56
225.98	-2.44
226.215	7.56
226.449	23.56
226.683	13.56
226.918	44.56
227.152	18.56
227.387	39.56
227.621	41.56
227.856	52.56
228.09	51.56
228.324	56.56
228.559	56.56
228.793	57.56
229.027	62.56
229.262	62.56
229.496	70.56
229.73	85.56
229.964	82.56
230.199	65.56
230.433	81.56
230.667	81.56
230.901	82.56
231.136	77.56
231.37	58.56
231.604	75.56
231.838	87.56
232.072	62.56
232.306	91.56
232.541	88.56
232.775	85.56
233.009	69.56
233.243	92.56
233.477	79.56
233.711	96.56
233.945	83.56
234.179	71.56
234.413	83.56
234.647	71.56
234.881	81.56
235.115	81.56
235.349	86.56
235.583	74.56
235.817	72.56
236.051	87.56
236.285	78.56
236.519	86.56
236.753	71.56
236.987	78.56
237.221	67.56
237.455	92.56
237.689	98.56
237.922	74.56
238.156	74.56
238.39	79.56
238.624	79.56
238.858	82.56
239.091	82.56
239.325	75.56
239.559	74.56
239.793	81.56
240.027	62.56
240.26	79.56
240.494	86.56
240.728	66.56
240.961	72.56
241.195	78.56
241.429	75.56
241.662	86.56
241.896	71.56
242.13	67.56
242.363	90.56
242.597	76.56
242.83	72.56
243.064	87.56
243.298	67.56
243.531	79.56
243.765	76.56
243.998	64.56
244.232	73.56
244.465	86.56
244.699	70.56
244.932	77.56
245.166	81.56
245.399	71.56
245.633	71.56
245.866	82.56
246.099	81.56
246.333	59.56
246.566	75.56
246.8	72.56
247.033	72.56
247.266	78.56
247.5	84.56
247.733	82.56
247.966	77.56
248.2	72.56
248.433	72.56
248.666	74.56
248.899	81.56
249.133	79.56
249.366	91.56
249.599	98.56
249.832	73.56
250.066	84.56
250.299	76.56
250.532	86.56
250.765	75.56
250.998	79.56
251.231	67.56
251.465	87.56
251.698	79.56
251.931	70.56
252.164	62.56
252.397	82.56
252.63	81.56
252.863	81.56
253.096	76.56
253.329	85.56
253.562	101.56
253.795	98.56
254.028	77.56
254.261	71.56
254.494	81.56
254.727	75.56
254.96	68.56
255.193	83.56
255.426	81.56
255.659	82.56
255.892	77.56
256.124	89.56
256.357	72.56
256.59	81.56
256.823	71.56
257.056	77.56
257.289	87.56
257.521	70.56
257.754	71.56
257.987	82.56
258.22	85.56
258.452	87.56
258.685	82.56
258.918	79.56
259.151	67.56
259.383	90.56
259.616	84.56
259.849	74.56
260.081	85.56
260.314	86.56
260.547	81.56
260.779	81.56
261.012	82.56
261.244	77.56
261.477	84.56
261.71	79.56
261.942	106.56
262.175	112.56
262.407	85.56
262.64	65.56
262.872	97.56
263.105	76.56
263.337	85.56
263.57	76.56
263.802	82.56
264.035	73.56
264.267	79.56
264.499	97.56
264.732	87.56
264.964	89.56
265.197	94.56
265.429	81.56
265.661	86.56
265.894	77.56
266.126	88.56
266.358	87.56
266.591	99.56
266.823	88.56
267.055	110.56
267.287	78.56
267.52	106.56
267.752	89.56
267.984	74.56
268.216	91.56
268.448	97.56
268.681	74.56
268.913	90.56
269.145	67.56
269.377	94.56
269.609	74.56
269.841	78.56
270.073	72.56
270.306	83.56
270.538	101.56
270.77	78.56
271.002	76.56
271.234	62.56
271.466	89.56
271.698	85.56
271.93	90.56
272.162	91.56
272.394	83.56
272.626	72.56
272.858	89.56
273.09	68.56
273.322	74.56
273.553	85.56
273.785	82.56
274.017	90.56
274.249	84.56
274.481	82.56
274.713	93.56
274.945	88.56
275.176	75.56
275.408	83.56
275.64	89.56
275.872	82.56
276.104	95.56
276.335	94.56
276.567	89.56
276.799	101.56
277.031	97.56
277.262	81.56
277.494	89.56
277.726	85.56
277.957	84.56
278.189	86.56
278.421	87.56
278.652	90.56
278.884	98.56
279.115	82.56
279.347	96.56
279.579	94.56
279.81	91.56
280.042	94.56
280.273	84.56
280.505	86.56
280.736	89.56
280.968	91.56
281.199	87.56
281.431	79.56
281.662	89.56
281.894	91.56
282.125	89.56
282.356	96.56
282.588	104.56
282.819	122.56
283.051	79.56
283.282	95.56
283.513	93.56
283.745	101.56
283.976	78.56
284.207	89.56
284.439	97.56
284.67	90.56
284.901	85.56
285.132	61.56
285.364	90.56
285.595	83.56
285.826	93.56
286.057	92.56
286.288	90.56
286.52	71.56
286.751	89.56
286.982	86.56
287.213	87.56
287.444	94.56
287.675	86.56
287.906	92.56
288.138	90.56
288.369	90.56
288.6	102.56
288.831	70.56
289.062	82.56
289.293	85.56
289.524	98.56
289.755	89.56
289.986	90.56
290.217	86.56
290.448	89.56
290.679	69.56
290.91	79.56
291.141	89.56
291.371	90.56
291.602	87.56
291.833	91.56
292.064	72.56
292.295	81.56
292.526	93.56
292.757	87.56
292.987	93.56
293.218	96.56
293.449	86.56
293.68	89.56
293.91	81.56
294.141	103.56
294.372	77.56
294.603	87.56
294.833	78.56
295.064	89.56
295.295	102.56
295.525	95.56
295.756	97.56
295.987	104.56
296.217	127.56
296.448	114.56
296.679	86.56
296.909	108.56
297.14	87.56
297.37	101.56
297.601	97.56
297.831	83.56
298.062	95.56
298.292	115.56
298.523	90.56
298.753	93.56
298.984	75.56
299.214	94.56
299.445	88.56
299.675	83.56
299.905	89.56
300.136	86.56
300.366	93.56
300.597	93.56
300.827	96.56
301.057	100.56
301.288	92.56
301.518	87.56
301.748	79.56
301.979	91.56
302.209	83.56
302.439	80.56
302.669	87.56
302.9	80.56
303.13	103.56
303.36	85.56
303.59	94.56
303.82	82.56
304.051	85.56
304.281	106.56
304.511	98.56
304.741	83.56
304.971	90.56
305.201	99.56
305.431	83.56
305.661	86.56
305.891	97.56
306.121	94.56
306.352	84.56
306.582	96.56
306.812	86.56
307.042	93.56
307.272	97.56
307.502	81.56
307.731	85.56
307.961	90.56
308.191	87.56
308.421	96.56
308.651	101.56
308.881	97.56
309.111	86.56
309.341	87.56
309.571	101.56
309.8	93.56
310.03	83.56
310.26	85.56
310.49	99.56
310.72	94.56
310.949	106.56
311.179	106.56
311.409	88.56
311.639	85.56
311.868	90.56
312.098	81.56
312.328	94.56
312.557	97.56
312.787	119.56
313.017	107.56
313.246	98.56
313.476	93.56
313.706	85.56
313.935	92.56
314.165	82.56
314.394	77.56
314.624	73.56
314.853	89.56
315.083	91.56
315.312	88.56
315.542	100.56
315.771	99.56
316.001	91.56
316.23	76.56
316.46	97.56
316.689	83.56
316.919	94.56
317.148	106.56
317.377	100.56
317.607	87.56
317.836	78.56
318.065	87.56
318.295	79.56
318.524	94.56
318.753	89.56
318.983	100.56
319.212	93.56
319.441	96.56
319.67	96.56
319.9	100.56
320.129	98.56
320.358	75.56
320.587	91.56
320.816	97.56
321.046	92.56
321.275	92.56
321.504	86.56
321.733	95.56
321.962	86.56
322.191	104.56
322.42	101.56
322.649	103.56
322.878	97.56
323.108	104.56
323.337	132.56
323.566	130.56
323.795	154.56
324.024	179.56
324.253	350.56
324.482	718.56
324.71	1435.56
324.939	1875.56
325.168	685.56
325.397	217.56
325.626	137.56
325.855	113.56
326.084	113.56
326.313	120.56
326.542	150.56
326.77	204.56
326.999	417.56
327.228	828.56
327.457	1483.56
327.686	1195.56
327.914	334.56
328.143	176.56
328.372	129.56
328.6	114.56
328.829	121.56
329.058	123.56
329.287	105.56
329.515	98.56
329.744	91.56
329.972	108.56
330.201	97.56
330.43	109.56
330.658	107.56
330.887	123.56
331.115	111.56
331.344	85.56
331.572	106.56
331.801	97.56
332.03	101.56
332.258	88.56
332.486	94.56
332.715	77.56
332.943	80.56
333.172	102.56
333.4	93.56
333.629	94.56
333.857	97.56
334.085	112.56
334.314	86.56
334.542	93.56
334.771	92.56
334.999	101.56
335.227	99.56
335.455	91.56
335.684	92.56
335.912	100.56
336.14	95.56
336.369	115.56
336.597	95.56
336.825	88.56
337.053	105.56
337.281	101.56
337.51	99.56
337.738	76.56
337.966	94.56
338.194	79.56
338.422	115.56
338.65	93.56
338.878	110.56
339.106	88.56
339.334	100.56
339.562	83.56
339.79	89.56
340.018	88.56
340.246	96.56
340.474	100.56
340.702	88.56
340.93	93.56
341.158	91.56
341.386	107.56
341.614	102.56
341.842	94.56
342.07	83.56
342.298	89.56
342.526	102.56
342.754	103.56
342.981	88.56
343.209	91.56
343.437	110.56
343.665	100.56
343.893	106.56
344.12	87.56
344.348	89.56
344.576	89.56
344.804	71.56
345.031	79.56
345.259	109.56
345.487	97.56
345.714	89.56
345.942	81.56
346.17	93.56
346.397	85.56
346.625	94.56
346.853	107.56
347.08	98.56
347.308	102.56
347.535	105.56
347.763	112.56
347.99	106.56
348.218	91.56
348.445	116.56
348.673	111.56
348.9	99.56
349.128	87.56
349.355	93.56
349.583	91.56
349.81	95.56
350.037	98.56
350.265	91.56
350.492	93.56
350.72	105.56
350.947	99.56
351.174	102.56
351.402	93.56
351.629	97.56
351.856	92.56
352.083	99.56
352.311	111.56
352.538	97.56
352.765	98.56
352.992	107.56
353.22	105.56
353.447	94.56
353.674	99.56
353.901	101.56
354.128	111.56
354.355	98.56
354.583	87.56
354.81	98.56
355.037	99.56
355.264	91.56
355.491	97.56
355.718	93.56
355.945	95.56
356.172	88.56
356.399	98.56
356.626	98.56
356.853	97.56
357.08	112.56
357.307	99.56
357.534	100.56
357.761	90.56
357.988	97.56
358.215	96.56
358.441	101.56
358.668	94.56
358.895	93.56
359.122	95.56
359.349	95.56
359.576	98.56
359.802	91.56
360.029	89.56
360.256	97.56
360.483	94.56
360.709	93.56
360.936	101.56
361.163	100.56
361.39	101.56
361.616	103.56
361.843	92.56
362.07	83.56
362.296	95.56
362.523	90.56
362.749	94.56
362.976	94.56
363.203	71.56
363.429	93.56
363.656	103.56
363.882	101.56
364.109	101.56
364.335	83.56
364.562	91.56
364.788	97.56
365.015	92.56
365.241	103.56
365.468	111.56
365.694	88.56
365.92	82.56
366.147	82.56
366.373	82.56
366.599	86.56
366.826	105.56
367.052	63.56
367.278	100.56
367.505	79.56
367.731	97.56
367.957	96.56
368.184	87.56
368.41	93.56
368.636	111.56
368.862	112.56
369.089	104.56
369.315	85.56
369.541	91.56
369.767	97.56
369.993	75.56
370.219	78.56
370.445	92.56
370.672	93.56
370.898	96.56
371.124	76.56
371.35	91.56
371.576	112.56
371.802	101.56
372.028	86.56
372.254	82.56
372.48	95.56
372.706	85.56
372.932	98.56
373.158	93.56
373.384	82.56
373.61	78.56
373.835	88.56
374.061	81.56
374.287	93.56
374.513	95.56
374.739	93.56
374.965	98.56
375.191	90.56
375.416	94.56
375.642	87.56
375.868	86.56
376.094	103.56
376.319	101.56
376.545	83.56
376.771	94.56
376.997	99.56
377.222	103.56
377.448	103.56
377.674	94.56
377.899	99.56
378.125	102.56
378.35	109.56
378.576	103.56
378.802	102.56
379.027	86.56
379.253	92.56
379.478	100.56
379.704	83.56
379.929	92.56
380.155	88.56
380.38	111.56
380.606	83.56
380.831	94.56
381.057	92.56
381.282	98.56
381.507	93.56
381.733	102.56
381.958	111.56
382.184	105.56
382.409	106.56
382.634	103.56
382.86	132.56
383.085	101.56
383.31	99.56
383.535	106.56
383.761	89.56
383.986	89.56
384.211	94.56
384.436	120.56
384.662	105.56
384.887	114.56
385.112	97.56
385.337	105.56
385.562	103.56
385.787	106.56
386.013	105.56
386.238	117.56
386.463	106.56
386.688	114.56
386.913	111.56
387.138	119.56
387.363	97.56
387.588	108.56
387.813	104.56
388.038	110.56
388.263	128.56
388.488	110.56
388.713	99.56
388.938	95.56
389.163	97.56
389.387	100.56
389.612	106.56
389.837	113.56
390.062	88.56
390.287	93.56
390.512	97.56
390.736	102.56
390.961	115.56
391.186	97.56
391.411	92.56
391.636	85.56
391.86	90.56
392.085	88.56
392.31	90.56
392.534	93.56
392.759	90.56
392.984	99.56
393.208	103.56
393.433	109.56
393.658	95.56
393.882	79.56
394.107	92.56
394.331	74.56
394.556	97.56
394.78	99.56
395.005	84.56
395.229	100.56
395.454	87.56
395.678	79.56
395.903	88.56
396.127	83.56
396.352	91.56
396.576	83.56
396.801	92.56
397.025	83.56
397.249	85.56
397.474	90.56
397.698	89.56
397.922	79.56
398.147	81.56
398.371	78.56
398.595	97.56
398.82	90.56
399.044	77.56
399.268	96.56
399.492	87.56
399.717	108.56
399.941	105.56
400.165	103.56
400.389	95.56
400.613	99.56
400.837	99.56
401.062	88.56
401.286	102.56
401.51	105.56
401.734	93.56
401.958	90.56
402.182	124.56
402.406	136.56
402.63	106.56
402.854	87.56
403.078	91.56
403.302	76.56
403.526	81.56
403.75	83.56
403.974	98.56
404.198	83.56
404.422	74.56
404.645	101.56
404.869	91.56
405.093	106.56
405.317	79.56
405.541	91.56
405.765	92.56
405.988	98.56
406.212	135.56
406.436	194.56
406.66	126.56
406.883	99.56
407.107	100.56
407.331	92.56
407.555	79.56
407.778	103.56
408.002	92.56
408.226	89.56
408.449	78.56
408.673	98.56
408.896	97.56
409.12	98.56
409.344	84.56
409.567	90.56
409.791	98.56
410.014	91.56
410.238	90.56
410.461	102.56
410.685	102.56
410.908	91.56
411.132	96.56
411.355	95.56
411.578	99.56
411.802	104.56
412.025	87.56
412.249	89.56
412.472	100.56
412.695	100.56
412.919	76.56
413.142	87.56
413.365	89.56
413.589	83.56
413.812	78.56
414.035	88.56
414.258	89.56
414.482	97.56
414.705	91.56
414.928	87.56
415.151	97.56
415.374	95.56
415.597	103.56
415.821	83.56
416.044	103.56
416.267	76.56
416.49	83.56
416.713	89.56
416.936	76.56
417.159	77.56
417.382	78.56
417.605	101.56
417.828	106.56
418.051	110.56
418.274	86.56
418.497	96.56
418.72	95.56
418.943	96.56
419.166	95.56
419.389	90.56
419.611	110.56
419.834	88.56
420.057	78.56
420.28	85.56
420.503	91.56
420.726	95.56
420.948	91.56
421.171	100.56
421.394	103.56
421.617	95.56
421.839	88.56
422.062	88.56
422.285	98.56
422.507	102.56
422.73	99.56
422.953	103.56
423.175	105.56
423.398	98.56
423.621	90.56
423.843	91.56
424.066	77.56
424.288	87.56
424.511	108.56
424.733	97.56
424.956	99.56
425.178	102.56
425.401	97.56
425.623	106.56
425.846	104.56
426.068	99.56
426.291	98.56
426.513	71.56
426.735	82.56
426.958	101.56
427.18	94.56
427.402	121.56
427.625	158.56
427.847	109.56
428.069	109.56
428.292	102.56
428.514	84.56
428.736	74.56
428.958	73.56
429.181	79.56
429.403	85.56
429.625	79.56
429.847	92.56
430.069	89.56
430.292	82.56
430.514	104.56
430.736	89.56
430.958	85.56
431.18	96.56
431.402	87.56
431.624	74.56
431.846	95.56
432.068	83.56
432.29	79.56
432.512	96.56
432.734	84.56
432.956	97.56
433.178	89.56
433.4	93.56
433.622	92.56
433.844	106.56
434.066	85.56
434.287	101.56
434.509	81.56
434.731	84.56
434.953	91.56
435.175	96.56
435.397	92.56
435.618	101.56
435.84	105.56
436.062	132.56
436.284	110.56
436.505	113.56
436.727	94.56
436.949	93.56
437.17	89.56
437.392	74.56
437.614	89.56
437.835	105.56
438.057	104.56
438.278	109.56
438.5	112.56
438.721	106.56
438.943	89.56
439.165	93.56
439.386	89.56
439.608	88.56
439.829	99.56
440.05	132.56
440.272	130.56
440.493	110.56
440.715	95.56
440.936	82.56
441.158	91.56
441.379	98.56
441.6	89.56
441.822	85.56
442.043	92.56
442.264	89.56
442.486	93.56
442.707	90.56
442.928	122.56
443.149	106.56
443.371	122.56
443.592	111.56
443.813	105.56
444.034	100.56
444.255	93.56
444.476	90.56
444.698	91.56
444.919	84.56
445.14	138.56
445.361	129.56
445.582	119.56
445.803	139.56
446.024	113.56
446.245	123.56
446.466	99.56
446.687	81.56
446.908	80.56
447.129	81.56
447.35	74.56
447.571	87.56
447.792	81.56
448.013	95.56
448.234	103.56
448.455	92.56
448.675	92.56
448.896	110.56
449.117	100.56
449.338	97.56
449.559	119.56
449.779	116.56
450	89.56
450.221	87.56
450.442	83.56
450.662	100.56
450.883	97.56
451.104	100.56
451.324	108.56
451.545	90.56
451.766	92.56
451.986	89.56
452.207	88.56
452.428	100.56
452.648	98.56
452.869	105.56
453.089	118.56
453.31	107.56
453.53	101.56
453.751	88.56
453.971	107.56
454.192	93.56
454.412	88.56
454.633	87.56
454.853	82.56
455.073	74.56
455.294	95.56
455.514	97.56
455.734	99.56
455.955	94.56
456.175	84.56
456.395	89.56
456.616	86.56
456.836	72.56
457.056	97.56
457.276	83.56
457.497	86.56
457.717	84.56
457.937	84.56
458.157	92.56
458.377	84.56
458.598	98.56
458.818	135.56
459.038	139.56
459.258	110.56
459.478	82.56
459.698	90.56
459.918	95.56
460.138	96.56
460.358	81.56
460.578	91.56
460.798	101.56
461.018	94.56
461.238	95.56
461.458	85.56
461.678	83.56
461.898	91.56
462.118	98.56
462.338	81.56
462.558	89.56
462.777	105.56
462.997	75.56
463.217	77.56
463.437	84.56
463.657	83.56
463.876	91.56
464.096	90.56
464.316	75.56
464.536	89.56
464.755	88.56
464.975	97.56
465.195	151.56
465.414	129.56
465.634	91.56
465.854	99.56
466.073	89.56
466.293	92.56
466.512	68.56
466.732	78.56
466.951	88.56
467.171	97.56
467.391	104.56
467.61	92.56
467.829	102.56
468.049	99.56
468.268	87.56
468.488	88.56
468.707	83.56
468.927	88.56
469.146	89.56
469.365	80.56
469.585	93.56
469.804	101.56
470.023	97.56
470.243	83.56
470.462	97.56
470.681	97.56
470.901	92.56
471.12	94.56
471.339	92.56
471.558	84.56
471.777	112.56
471.997	82.56
472.216	84.56
472.435	91.56
472.654	95.56
472.873	84.56
473.092	79.56
473.311	97.56
473.53	91.56
473.749	79.56
473.968	87.56
474.187	95.56
474.406	98.56
474.625	96.56
474.844	85.56
475.063	74.56
475.282	92.56
475.501	78.56
475.72	96.56
475.939	86.56
476.158	86.56
476.377	97.56
476.596	91.56
476.814	92.56
477.033	94.56
477.252	102.56
477.471	83.56
477.69	75.56
477.908	84.56
478.127	88.56
478.346	88.56
478.564	108.56
478.783	92.56
479.002	104.56
479.22	92.56
479.439	81.56
479.658	104.56
479.876	83.56
480.095	87.56
480.313	91.56
480.532	76.56
480.751	85.56
480.969	88.56
481.188	93.56
481.406	82.56
481.624	76.56
481.843	87.56
482.061	89.56
482.28	94.56
482.498	92.56
482.717	83.56
482.935	72.56
483.153	83.56
483.372	92.56
483.59	89.56
483.808	86.56
484.027	95.56
484.245	93.56
484.463	97.56
484.681	90.56
484.9	102.56
485.118	83.56
485.336	99.56
485.554	109.56
485.772	100.56
485.99	110.56
486.209	105.56
486.427	109.56
486.645	102.56
486.863	103.56
487.081	97.56
487.299	102.56
487.517	93.56
487.735	87.56
487.953	97.56
488.171	81.56
488.389	92.56
488.607	102.56
488.825	94.56
489.043	93.56
489.261	92.56
489.479	77.56
489.696	85.56
489.914	85.56
490.132	103.56
490.35	101.56
490.568	89.56
490.786	86.56
491.003	85.56
491.221	83.56
491.439	98.56
491.657	101.56
491.874	93.56
492.092	111.56
492.31	99.56
492.527	90.56
492.745	97.56
492.963	104.56
493.18	91.56
493.398	97.56
493.615	88.56
493.833	104.56
494.05	92.56
494.268	97.56
494.485	95.56
494.703	71.56
494.92	86.56
495.138	89.56
495.355	74.56
495.573	91.56
495.79	102.56
496.008	100.56
496.225	84.56
496.442	104.56
496.66	110.56
496.877	91.56
497.094	103.56
497.312	92.56
497.529	91.56
497.746	104.56
497.963	89.56
498.181	99.56
498.398	85.56
498.615	95.56
498.832	92.56
499.049	90.56
499.267	88.56
499.484	84.56
499.701	87.56
499.918	94.56
500.135	89.56
500.352	85.56
500.569	89.56
500.786	93.56
501.003	85.56
501.22	95.56
501.437	83.56
501.654	94.56
501.871	106.56
502.088	98.56
502.305	90.56
502.522	104.56
502.739	91.56
502.956	97.56
503.172	91.56
503.389	96.56
503.606	95.56
503.823	106.56
504.04	100.56
504.256	91.56
504.473	89.56
504.69	89.56
504.907	77.56
505.123	95.56
505.34	95.56
505.557	87.56
505.773	93.56
505.99	94.56
506.207	92.56
506.423	99.56
506.64	93.56
506.856	95.56
507.073	90.56
507.289	84.56
507.506	102.56
507.722	101.56
507.939	101.56
508.155	102.56
508.372	99.56
508.588	92.56
508.805	95.56
509.021	104.56
509.238	105.56
509.454	95.56
509.67	102.56
509.887	91.56
510.103	103.56
510.319	183.56
510.536	615.56
510.752	1839.56
510.968	531.56
511.184	142.56
511.401	105.56
511.617	103.56
511.833	91.56
512.049	92.56
512.265	95.56
512.481	94.56
512.698	99.56
512.914	85.56
513.13	96.56
513.346	81.56
513.562	99.56
513.778	102.56
513.994	97.56
514.21	111.56
514.426	115.56
514.642	124.56
514.858	124.56
515.074	144.56
515.29	343.56
515.506	1105.56
