Data from Uncirc_1983_H10_HRD10591_00100.txt Node
Date: Wed Jan 03 12:25:52 EST 2024
User: Yrep
Spectrometer: HR+D1059
Trigger mode: 1
Integration Time (sec): 1.000000E-1
Scans to average: 1
Electric dark correction enabled: true
Nonlinearity correction enabled: false
Boxcar width: 0
XAxis mode: Wavelengths
Number of Pixels in Spectrum: 2048
>>>>>Begin Spectral Data<<<<<
223.165	-23.31
223.4	-23.31
223.635	-23.31
223.869	-19.31
224.104	-22.31
224.338	-12.31
224.573	-11.31
224.808	-15.31
225.042	-0.31
225.277	-2.31
225.511	-0.31
225.746	4.69
225.98	8.69
226.215	5.69
226.449	16.69
226.683	11.69
226.918	26.69
227.152	32.69
227.387	26.69
227.621	25.69
227.856	42.69
228.09	65.69
228.324	56.69
228.559	72.69
228.793	51.69
229.027	63.69
229.262	60.69
229.496	57.69
229.73	84.69
229.964	88.69
230.199	70.69
230.433	69.69
230.667	68.69
230.901	71.69
231.136	81.69
231.37	80.69
231.604	77.69
231.838	71.69
232.072	66.69
232.306	75.69
232.541	88.69
232.775	92.69
233.009	53.69
233.243	68.69
233.477	84.69
233.711	85.69
233.945	82.69
234.179	85.69
234.413	78.69
234.647	84.69
234.881	76.69
235.115	82.69
235.349	70.69
235.583	69.69
235.817	63.69
236.051	68.69
236.285	57.69
236.519	80.69
236.753	81.69
236.987	84.69
237.221	84.69
237.455	83.69
237.689	73.69
237.922	73.69
238.156	74.69
238.39	71.69
238.624	61.69
238.858	73.69
239.091	84.69
239.325	79.69
239.559	78.69
239.793	69.69
240.027	68.69
240.26	73.69
240.494	80.69
240.728	64.69
240.961	70.69
241.195	81.69
241.429	76.69
241.662	65.69
241.896	63.69
242.13	77.69
242.363	69.69
242.597	63.69
242.83	82.69
243.064	76.69
243.298	67.69
243.531	80.69
243.765	88.69
243.998	68.69
244.232	73.69
244.465	90.69
244.699	73.69
244.932	57.69
245.166	69.69
245.399	79.69
245.633	76.69
245.866	60.69
246.099	70.69
246.333	62.69
246.566	60.69
246.8	84.69
247.033	88.69
247.266	76.69
247.5	68.69
247.733	71.69
247.966	69.69
248.2	81.69
248.433	78.69
248.666	80.69
248.899	76.69
249.133	68.69
249.366	88.69
249.599	93.69
249.832	84.69
250.066	92.69
250.299	64.69
250.532	74.69
250.765	82.69
250.998	84.69
251.231	84.69
251.465	73.69
251.698	65.69
251.931	73.69
252.164	79.69
252.397	69.69
252.63	86.69
252.863	92.69
253.096	84.69
253.329	78.69
253.562	78.69
253.795	84.69
254.028	73.69
254.261	76.69
254.494	60.69
254.727	83.69
254.96	98.69
255.193	79.69
255.426	84.69
255.659	86.69
255.892	71.69
256.124	90.69
256.357	68.69
256.59	88.69
256.823	83.69
257.056	88.69
257.289	87.69
257.521	80.69
257.754	81.69
257.987	78.69
258.22	85.69
258.452	82.69
258.685	68.69
258.918	80.69
259.151	78.69
259.383	66.69
259.616	84.69
259.849	76.69
260.081	66.69
260.314	71.69
260.547	84.69
260.779	68.69
261.012	79.69
261.244	91.69
261.477	73.69
261.71	82.69
261.942	112.69
262.175	108.69
262.407	89.69
262.64	86.69
262.872	82.69
263.105	70.69
263.337	84.69
263.57	84.69
263.802	82.69
264.035	80.69
264.267	72.69
264.499	77.69
264.732	72.69
264.964	60.69
265.197	81.69
265.429	85.69
265.661	81.69
265.894	83.69
266.126	86.69
266.358	97.69
266.591	79.69
266.823	98.69
267.055	89.69
267.287	78.69
267.52	80.69
267.752	86.69
267.984	86.69
268.216	83.69
268.448	68.69
268.681	79.69
268.913	90.69
269.145	96.69
269.377	76.69
269.609	74.69
269.841	84.69
270.073	88.69
270.306	87.69
270.538	69.69
270.77	82.69
271.002	73.69
271.234	82.69
271.466	82.69
271.698	77.69
271.93	84.69
272.162	91.69
272.394	83.69
272.626	81.69
272.858	86.69
273.09	76.69
273.322	85.69
273.553	89.69
273.785	77.69
274.017	66.69
274.249	84.69
274.481	92.69
274.713	86.69
274.945	79.69
275.176	81.69
275.408	86.69
275.64	78.69
275.872	82.69
276.104	82.69
276.335	78.69
276.567	94.69
276.799	111.69
277.031	92.69
277.262	78.69
277.494	86.69
277.726	78.69
277.957	79.69
278.189	89.69
278.421	78.69
278.652	79.69
278.884	84.69
279.115	69.69
279.347	88.69
279.579	75.69
279.81	88.69
280.042	80.69
280.273	90.69
280.505	90.69
280.736	86.69
280.968	94.69
281.199	81.69
281.431	82.69
281.662	86.69
281.894	87.69
282.125	92.69
282.356	105.69
282.588	118.69
282.819	98.69
283.051	87.69
283.282	84.69
283.513	82.69
283.745	79.69
283.976	85.69
284.207	73.69
284.439	89.69
284.67	94.69
284.901	76.69
285.132	82.69
285.364	69.69
285.595	73.69
285.826	84.69
286.057	86.69
286.288	89.69
286.52	80.69
286.751	91.69
286.982	70.69
287.213	76.69
287.444	66.69
287.675	95.69
287.906	93.69
288.138	82.69
288.369	90.69
288.6	91.69
288.831	90.69
289.062	85.69
289.293	88.69
289.524	89.69
289.755	80.69
289.986	73.69
290.217	84.69
290.448	92.69
290.679	80.69
290.91	77.69
291.141	74.69
291.371	82.69
291.602	77.69
291.833	99.69
292.064	86.69
292.295	89.69
292.526	70.69
292.757	94.69
292.987	89.69
293.218	79.69
293.449	80.69
293.68	88.69
293.91	88.69
294.141	101.69
294.372	77.69
294.603	98.69
294.833	95.69
295.064	95.69
295.295	78.69
295.525	90.69
295.756	108.69
295.987	113.69
296.217	129.69
296.448	112.69
296.679	89.69
296.909	83.69
297.14	81.69
297.37	93.69
297.601	87.69
297.831	88.69
298.062	81.69
298.292	103.69
298.523	96.69
298.753	96.69
298.984	92.69
299.214	74.69
299.445	81.69
299.675	83.69
299.905	90.69
300.136	79.69
300.366	97.69
300.597	80.69
300.827	86.69
301.057	84.69
301.288	92.69
301.518	104.69
301.748	95.69
301.979	92.69
302.209	94.69
302.439	96.69
302.669	93.69
302.9	85.69
303.13	88.69
303.36	88.69
303.59	72.69
303.82	105.69
304.051	80.69
304.281	91.69
304.511	96.69
304.741	89.69
304.971	72.69
305.201	89.69
305.431	84.69
305.661	95.69
305.891	88.69
306.121	77.69
306.352	98.69
306.582	97.69
306.812	93.69
307.042	82.69
307.272	86.69
307.502	87.69
307.731	86.69
307.961	78.69
308.191	73.69
308.421	94.69
308.651	92.69
308.881	87.69
309.111	85.69
309.341	101.69
309.571	95.69
309.8	94.69
310.03	102.69
310.26	89.69
310.49	78.69
310.72	95.69
310.949	109.69
311.179	101.69
311.409	100.69
311.639	89.69
311.868	91.69
312.098	93.69
312.328	98.69
312.557	93.69
312.787	99.69
313.017	109.69
313.246	92.69
313.476	82.69
313.706	97.69
313.935	83.69
314.165	96.69
314.394	83.69
314.624	90.69
314.853	97.69
315.083	95.69
315.312	91.69
315.542	76.69
315.771	91.69
316.001	94.69
316.23	88.69
316.46	68.69
316.689	91.69
316.919	84.69
317.148	97.69
317.377	103.69
317.607	88.69
317.836	88.69
318.065	91.69
318.295	96.69
318.524	81.69
318.753	78.69
318.983	94.69
319.212	98.69
319.441	101.69
319.67	89.69
319.9	102.69
320.129	95.69
320.358	89.69
320.587	102.69
320.816	84.69
321.046	78.69
321.275	102.69
321.504	83.69
321.733	96.69
321.962	93.69
322.191	111.69
322.42	101.69
322.649	105.69
322.878	104.69
323.108	108.69
323.337	107.69
323.566	105.69
323.795	128.69
324.024	194.69
324.253	341.69
324.482	698.69
324.71	1388.69
324.939	1845.69
325.168	653.69
325.397	212.69
325.626	137.69
325.855	120.69
326.084	112.69
326.313	111.69
326.542	135.69
326.77	193.69
326.999	389.69
327.228	808.69
327.457	1473.69
327.686	1148.69
327.914	320.69
328.143	174.69
328.372	145.69
328.6	123.69
328.829	106.69
329.058	124.69
329.287	109.69
329.515	109.69
329.744	96.69
329.972	111.69
330.201	134.69
330.43	140.69
330.658	120.69
330.887	124.69
331.115	114.69
331.344	97.69
331.572	103.69
331.801	93.69
332.03	93.69
332.258	88.69
332.486	94.69
332.715	94.69
332.943	94.69
333.172	94.69
333.4	96.69
333.629	98.69
333.857	109.69
334.085	112.69
334.314	124.69
334.542	173.69
334.771	154.69
334.999	97.69
335.227	98.69
335.455	93.69
335.684	100.69
335.912	93.69
336.14	91.69
336.369	82.69
336.597	97.69
336.825	103.69
337.053	84.69
337.281	102.69
337.51	75.69
337.738	94.69
337.966	89.69
338.194	89.69
338.422	91.69
338.65	82.69
338.878	103.69
339.106	89.69
339.334	102.69
339.562	96.69
339.79	92.69
340.018	89.69
340.246	89.69
340.474	99.69
340.702	102.69
340.93	93.69
341.158	82.69
341.386	91.69
341.614	95.69
341.842	88.69
342.07	92.69
342.298	95.69
342.526	93.69
342.754	82.69
342.981	92.69
343.209	83.69
343.437	111.69
343.665	81.69
343.893	89.69
344.12	94.69
344.348	76.69
344.576	92.69
344.804	96.69
345.031	85.69
345.259	94.69
345.487	83.69
345.714	94.69
345.942	99.69
346.17	95.69
346.397	90.69
346.625	84.69
346.853	90.69
347.08	96.69
347.308	90.69
347.535	74.69
347.763	102.69
347.99	96.69
348.218	109.69
348.445	80.69
348.673	86.69
348.9	81.69
349.128	94.69
349.355	94.69
349.583	88.69
349.81	97.69
350.037	84.69
350.265	94.69
350.492	100.69
350.72	81.69
350.947	90.69
351.174	92.69
351.402	104.69
351.629	104.69
351.856	91.69
352.083	78.69
352.311	89.69
352.538	92.69
352.765	105.69
352.992	110.69
353.22	98.69
353.447	101.69
353.674	92.69
353.901	102.69
354.128	100.69
354.355	109.69
354.583	86.69
354.81	82.69
355.037	91.69
355.264	89.69
355.491	94.69
355.718	97.69
355.945	95.69
356.172	96.69
356.399	91.69
356.626	93.69
356.853	77.69
357.08	96.69
357.307	83.69
357.534	87.69
357.761	85.69
357.988	93.69
358.215	80.69
358.441	87.69
358.668	94.69
358.895	80.69
359.122	86.69
359.349	86.69
359.576	85.69
359.802	87.69
360.029	101.69
360.256	114.69
360.483	108.69
360.709	74.69
360.936	96.69
361.163	89.69
361.39	87.69
361.616	86.69
361.843	95.69
362.07	80.69
362.296	85.69
362.523	86.69
362.749	82.69
362.976	86.69
363.203	93.69
363.429	89.69
363.656	71.69
363.882	81.69
364.109	96.69
364.335	96.69
364.562	98.69
364.788	96.69
365.015	88.69
365.241	94.69
365.468	102.69
365.694	96.69
365.92	89.69
366.147	84.69
366.373	84.69
366.599	93.69
366.826	74.69
367.052	84.69
367.278	93.69
367.505	96.69
367.731	96.69
367.957	81.69
368.184	84.69
368.41	84.69
368.636	94.69
368.862	105.69
369.089	100.69
369.315	84.69
369.541	84.69
369.767	97.69
369.993	70.69
370.219	76.69
370.445	72.69
370.672	85.69
370.898	79.69
371.124	78.69
371.35	82.69
371.576	82.69
371.802	93.69
372.028	77.69
372.254	86.69
372.48	81.69
372.706	75.69
372.932	84.69
373.158	80.69
373.384	93.69
373.61	93.69
373.835	83.69
374.061	79.69
374.287	97.69
374.513	77.69
374.739	78.69
374.965	86.69
375.191	85.69
375.416	76.69
375.642	86.69
375.868	90.69
376.094	81.69
376.319	74.69
376.545	90.69
376.771	87.69
376.997	81.69
377.222	94.69
377.448	79.69
377.674	92.69
377.899	92.69
378.125	86.69
378.35	89.69
378.576	94.69
378.802	84.69
379.027	83.69
379.253	83.69
379.478	82.69
379.704	80.69
379.929	81.69
380.155	88.69
380.38	84.69
380.606	83.69
380.831	82.69
381.057	85.69
381.282	96.69
381.507	86.69
381.733	88.69
381.958	94.69
382.184	86.69
382.409	96.69
382.634	102.69
382.86	101.69
383.085	92.69
383.31	89.69
383.535	109.69
383.761	89.69
383.986	86.69
384.211	84.69
384.436	97.69
384.662	97.69
384.887	95.69
385.112	83.69
385.337	106.69
385.562	100.69
385.787	90.69
386.013	110.69
386.238	110.69
386.463	88.69
386.688	94.69
386.913	109.69
387.138	87.69
387.363	103.69
387.588	97.69
387.813	108.69
388.038	98.69
388.263	98.69
388.488	96.69
388.713	95.69
388.938	97.69
389.163	102.69
389.387	83.69
389.612	96.69
389.837	86.69
390.062	86.69
390.287	90.69
390.512	76.69
390.736	85.69
390.961	92.69
391.186	94.69
391.411	80.69
391.636	88.69
391.86	76.69
392.085	84.69
392.31	84.69
392.534	94.69
392.759	73.69
392.984	92.69
393.208	80.69
393.433	92.69
393.658	84.69
393.882	83.69
394.107	90.69
394.331	82.69
394.556	80.69
394.78	84.69
395.005	89.69
395.229	78.69
395.454	66.69
395.678	76.69
395.903	74.69
396.127	96.69
396.352	80.69
396.576	68.69
396.801	84.69
397.025	77.69
397.249	78.69
397.474	66.69
397.698	64.69
397.922	90.69
398.147	98.69
398.371	80.69
398.595	87.69
398.82	74.69
399.044	90.69
399.268	87.69
399.492	93.69
399.717	76.69
399.941	83.69
400.165	98.69
400.389	87.69
400.613	90.69
400.837	96.69
401.062	91.69
401.286	85.69
401.51	78.69
401.734	95.69
401.958	89.69
402.182	105.69
402.406	145.69
402.63	110.69
402.854	84.69
403.078	86.69
403.302	84.69
403.526	81.69
403.75	82.69
403.974	76.69
404.198	96.69
404.422	80.69
404.645	81.69
404.869	79.69
405.093	83.69
405.317	104.69
405.541	96.69
405.765	84.69
405.988	97.69
406.212	151.69
406.436	190.69
406.66	125.69
406.883	76.69
407.107	88.69
407.331	119.69
407.555	81.69
407.778	90.69
408.002	81.69
408.226	80.69
408.449	88.69
408.673	79.69
408.896	88.69
409.12	98.69
409.344	81.69
409.567	105.69
409.791	96.69
410.014	94.69
410.238	81.69
410.461	93.69
410.685	97.69
410.908	88.69
411.132	93.69
411.355	97.69
411.578	101.69
411.802	97.69
412.025	85.69
412.249	91.69
412.472	100.69
412.695	106.69
412.919	100.69
413.142	74.69
413.365	80.69
413.589	94.69
413.812	80.69
414.035	91.69
414.258	73.69
414.482	92.69
414.705	92.69
414.928	73.69
415.151	90.69
415.374	82.69
415.597	88.69
415.821	90.69
416.044	81.69
416.267	80.69
416.49	97.69
416.713	81.69
416.936	90.69
417.159	73.69
417.382	74.69
417.605	72.69
417.828	70.69
418.051	80.69
418.274	89.69
418.497	97.69
418.72	92.69
418.943	88.69
419.166	77.69
419.389	82.69
419.611	85.69
419.834	92.69
420.057	84.69
420.28	88.69
420.503	87.69
420.726	82.69
420.948	85.69
421.171	81.69
421.394	96.69
421.617	88.69
421.839	74.69
422.062	79.69
422.285	83.69
422.507	91.69
422.73	94.69
422.953	84.69
423.175	76.69
423.398	98.69
423.621	98.69
423.843	82.69
424.066	92.69
424.288	70.69
424.511	93.69
424.733	100.69
424.956	103.69
425.178	106.69
425.401	89.69
425.623	101.69
425.846	89.69
426.068	94.69
426.291	78.69
426.513	92.69
426.735	88.69
426.958	71.69
427.18	90.69
427.402	126.69
427.625	135.69
427.847	122.69
428.069	110.69
428.292	97.69
428.514	95.69
428.736	74.69
428.958	72.69
429.181	77.69
429.403	82.69
429.625	78.69
429.847	98.69
430.069	102.69
430.292	92.69
430.514	90.69
430.736	79.69
430.958	78.69
431.18	80.69
431.402	86.69
431.624	77.69
431.846	76.69
432.068	79.69
432.29	73.69
432.512	89.69
432.734	87.69
432.956	90.69
433.178	89.69
433.4	86.69
433.622	92.69
433.844	95.69
434.066	84.69
434.287	100.69
434.509	97.69
434.731	81.69
434.953	71.69
435.175	96.69
435.397	91.69
435.618	92.69
435.84	102.69
436.062	111.69
436.284	109.69
436.505	93.69
436.727	90.69
436.949	91.69
437.17	74.69
437.392	88.69
437.614	73.69
437.835	83.69
438.057	117.69
438.278	95.69
438.5	104.69
438.721	103.69
438.943	92.69
439.165	76.69
439.386	81.69
439.608	65.69
439.829	89.69
440.05	119.69
440.272	117.69
440.493	99.69
440.715	92.69
440.936	89.69
441.158	84.69
441.379	84.69
441.6	91.69
441.822	106.69
442.043	86.69
442.264	100.69
442.486	101.69
442.707	86.69
442.928	92.69
443.149	114.69
443.371	107.69
443.592	106.69
443.813	87.69
444.034	99.69
444.255	96.69
444.476	84.69
444.698	84.69
444.919	96.69
445.14	120.69
445.361	101.69
445.582	111.69
445.803	131.69
446.024	109.69
446.245	126.69
446.466	99.69
446.687	86.69
446.908	84.69
447.129	71.69
447.35	76.69
447.571	79.69
447.792	94.69
448.013	81.69
448.234	104.69
448.455	95.69
448.675	98.69
448.896	115.69
449.117	79.69
449.338	92.69
449.559	106.69
449.779	117.69
450	91.69
450.221	84.69
450.442	81.69
450.662	89.69
450.883	93.69
451.104	94.69
451.324	82.69
451.545	86.69
451.766	79.69
451.986	99.69
452.207	93.69
452.428	89.69
452.648	95.69
452.869	91.69
453.089	100.69
453.31	113.69
453.53	103.69
453.751	101.69
453.971	85.69
454.192	98.69
454.412	86.69
454.633	81.69
454.853	71.69
455.073	80.69
455.294	94.69
455.514	98.69
455.734	100.69
455.955	91.69
456.175	88.69
456.395	84.69
456.616	76.69
456.836	83.69
457.056	82.69
457.276	88.69
457.497	80.69
457.717	81.69
457.937	76.69
458.157	94.69
458.377	97.69
458.598	116.69
458.818	133.69
459.038	132.69
459.258	101.69
459.478	77.69
459.698	63.69
459.918	89.69
460.138	76.69
460.358	81.69
460.578	99.69
460.798	93.69
461.018	70.69
461.238	93.69
461.458	88.69
461.678	82.69
461.898	73.69
462.118	81.69
462.338	81.69
462.558	84.69
462.777	81.69
462.997	73.69
463.217	87.69
463.437	76.69
463.657	92.69
463.876	89.69
464.096	72.69
464.316	83.69
464.536	92.69
464.755	71.69
464.975	92.69
465.195	140.69
465.414	149.69
465.634	90.69
465.854	63.69
466.073	82.69
466.293	76.69
466.512	73.69
466.732	84.69
466.951	73.69
467.171	98.69
467.391	89.69
467.61	93.69
467.829	93.69
468.049	114.69
468.268	128.69
468.488	89.69
468.707	85.69
468.927	76.69
469.146	78.69
469.365	89.69
469.585	92.69
469.804	84.69
470.023	84.69
470.243	98.69
470.462	82.69
470.681	97.69
470.901	83.69
471.12	94.69
471.339	88.69
471.558	82.69
471.777	94.69
471.997	95.69
472.216	124.69
472.435	187.69
472.654	103.69
472.873	98.69
473.092	91.69
473.311	73.69
473.53	92.69
473.749	89.69
473.968	73.69
474.187	99.69
474.406	85.69
474.625	102.69
474.844	87.69
475.063	101.69
475.282	94.69
475.501	80.69
475.72	75.69
475.939	77.69
476.158	87.69
476.377	85.69
476.596	84.69
476.814	78.69
477.033	84.69
477.252	84.69
477.471	75.69
477.69	96.69
477.908	70.69
478.127	93.69
478.346	75.69
478.564	88.69
478.783	88.69
479.002	91.69
479.22	93.69
479.439	81.69
479.658	97.69
479.876	94.69
480.095	77.69
480.313	87.69
480.532	97.69
480.751	103.69
480.969	127.69
481.188	275.69
481.406	195.69
481.624	96.69
481.843	82.69
482.061	78.69
482.28	87.69
482.498	94.69
482.717	98.69
482.935	96.69
483.153	95.69
483.372	98.69
483.59	97.69
483.808	81.69
484.027	85.69
484.245	91.69
484.463	85.69
484.681	89.69
484.9	105.69
485.118	96.69
485.336	92.69
485.554	99.69
485.772	102.69
485.99	103.69
486.209	102.69
486.427	106.69
486.645	98.69
486.863	93.69
487.081	89.69
487.299	90.69
487.517	86.69
487.735	87.69
487.953	74.69
488.171	89.69
488.389	96.69
488.607	92.69
488.825	103.69
489.043	80.69
489.261	101.69
489.479	84.69
489.696	95.69
489.914	82.69
490.132	100.69
490.35	79.69
490.568	94.69
490.786	94.69
491.003	84.69
491.221	79.69
491.439	87.69
491.657	84.69
491.874	72.69
492.092	88.69
492.31	89.69
492.527	104.69
492.745	96.69
492.963	92.69
493.18	79.69
493.398	92.69
493.615	94.69
493.833	97.69
494.05	96.69
494.268	76.69
494.485	88.69
494.703	95.69
494.92	80.69
495.138	69.69
495.355	87.69
495.573	88.69
495.79	93.69
496.008	95.69
496.225	80.69
496.442	79.69
496.66	88.69
496.877	88.69
497.094	84.69
497.312	85.69
497.529	85.69
497.746	81.69
497.963	92.69
498.181	85.69
498.398	88.69
498.615	87.69
498.832	104.69
499.049	88.69
499.267	73.69
499.484	90.69
499.701	87.69
499.918	80.69
500.135	91.69
500.352	77.69
500.569	97.69
500.786	91.69
501.003	90.69
501.22	84.69
501.437	85.69
501.654	87.69
501.871	94.69
502.088	104.69
502.305	86.69
502.522	85.69
502.739	70.69
502.956	83.69
503.172	90.69
503.389	91.69
503.606	109.69
503.823	85.69
504.04	84.69
504.256	88.69
504.473	90.69
504.69	83.69
504.907	100.69
505.123	99.69
505.34	89.69
505.557	69.69
505.773	86.69
505.99	81.69
506.207	99.69
506.423	110.69
506.64	86.69
506.856	78.69
507.073	81.69
507.289	98.69
507.506	98.69
507.722	98.69
507.939	96.69
508.155	79.69
508.372	77.69
508.588	85.69
508.805	85.69
509.021	86.69
509.238	104.69
509.454	84.69
509.67	96.69
509.887	114.69
510.103	113.69
510.319	188.69
510.536	664.69
510.752	1992.69
510.968	552.69
511.184	139.69
511.401	111.69
511.617	104.69
511.833	98.69
512.049	99.69
512.265	84.69
512.481	103.69
512.698	73.69
512.914	91.69
513.13	88.69
513.346	86.69
513.562	89.69
513.778	84.69
513.994	92.69
514.21	94.69
514.426	117.69
514.642	115.69
514.858	100.69
515.074	157.69
515.29	355.69
515.506	1176.69
515.721	417.69
515.937	135.69
516.153	111.69
516.369	104.69
516.585	88.69
516.801	81.69
517.016	100.69
