Data from Uncirc_1983_H10_HRD10591_00091.txt Node
Date: Wed Jan 03 12:25:50 EST 2024
User: Yrep
Spectrometer: HR+D1059
Trigger mode: 1
Integration Time (sec): 1.000000E-1
Scans to average: 1
Electric dark correction enabled: true
Nonlinearity correction enabled: false
Boxcar width: 0
XAxis mode: Wavelengths
Number of Pixels in Spectrum: 2048
>>>>>Begin Spectral Data<<<<<
223.165	-15.38
223.4	-15.38
223.635	-15.38
223.869	-10.38
224.104	-16.38
224.338	-14.38
224.573	-19.38
224.808	-13.38
225.042	-15.38
225.277	3.62
225.511	2.62
225.746	13.62
225.98	-4.38
226.215	-8.38
226.449	10.62
226.683	29.62
226.918	24.62
227.152	32.62
227.387	32.62
227.621	41.62
227.856	47.62
228.09	57.62
228.324	44.62
228.559	64.62
228.793	149.62
229.027	415.62
229.262	488.62
229.496	547.62
229.73	739.62
229.964	738.62
230.199	519.62
230.433	465.62
230.667	464.62
230.901	437.62
231.136	432.62
231.37	440.62
231.604	446.62
231.838	456.62
232.072	467.62
232.306	449.62
232.541	467.62
232.775	475.62
233.009	460.62
233.243	479.62
233.477	466.62
233.711	469.62
233.945	496.62
234.179	504.62
234.413	477.62
234.647	510.62
234.881	501.62
235.115	534.62
235.349	546.62
235.583	539.62
235.817	604.62
236.051	599.62
236.285	590.62
236.519	617.62
236.753	686.62
236.987	847.62
237.221	1267.62
237.455	1350.62
237.689	864.62
237.922	727.62
238.156	715.62
238.39	657.62
238.624	653.62
238.858	647.62
239.091	667.62
239.325	648.62
239.559	667.62
239.793	715.62
240.027	748.62
240.26	872.62
240.494	912.62
240.728	917.62
240.961	877.62
241.195	827.62
241.429	775.62
241.662	760.62
241.896	783.62
242.13	767.62
242.363	774.62
242.597	781.62
242.83	811.62
243.064	806.62
243.298	801.62
243.531	815.62
243.765	810.62
243.998	836.62
244.232	828.62
244.465	870.62
244.699	899.62
244.932	890.62
245.166	903.62
245.399	908.62
245.633	892.62
245.866	902.62
246.099	916.62
246.333	926.62
246.566	972.62
246.8	957.62
247.033	1019.62
247.266	1031.62
247.5	1088.62
247.733	1148.62
247.966	1142.62
248.2	1128.62
248.433	1147.62
248.666	1207.62
248.899	1328.62
249.133	1408.62
249.366	1393.62
249.599	1280.62
249.832	1220.62
250.066	1261.62
250.299	1351.62
250.532	1477.62
250.765	1649.62
250.998	1767.62
251.231	1641.62
251.465	1479.62
251.698	1413.62
251.931	1428.62
252.164	1374.62
252.397	1413.62
252.63	1447.62
252.863	1500.62
253.096	1630.62
253.329	1695.62
253.562	1615.62
253.795	1569.62
254.028	1556.62
254.261	1595.62
254.494	1750.62
254.727	2027.62
254.96	2175.62
255.193	1923.62
255.426	1767.62
255.659	1760.62
255.892	1849.62
256.124	1997.62
256.357	1925.62
256.59	1810.62
256.823	1661.62
257.056	1599.62
257.289	1636.62
257.521	1579.62
257.754	1573.62
257.987	1581.62
258.22	1526.62
258.452	1541.62
258.685	1558.62
258.918	1565.62
259.151	1623.62
259.383	1659.62
259.616	1690.62
259.849	1754.62
260.081	1888.62
260.314	2008.62
260.547	2029.62
260.779	1817.62
261.012	1737.62
261.244	1689.62
261.477	1624.62
261.71	1682.62
261.942	1708.62
262.175	1721.62
262.407	1676.62
262.64	1649.62
262.872	1652.62
263.105	1635.62
263.337	1662.62
263.57	1623.62
263.802	1629.62
264.035	1658.62
264.267	1669.62
264.499	1652.62
264.732	1670.62
264.964	1717.62
265.197	1703.62
265.429	1737.62
265.661	1704.62
265.894	1745.62
266.126	1746.62
266.358	1778.62
266.591	1781.62
266.823	1856.62
267.055	1828.62
267.287	1848.62
267.52	1850.62
267.752	1836.62
267.984	1830.62
268.216	1883.62
268.448	1889.62
268.681	1946.62
268.913	2118.62
269.145	2244.62
269.377	2292.62
269.609	2276.62
269.841	2233.62
270.073	2297.62
270.306	2584.62
270.538	2683.62
270.77	2541.62
271.002	2427.62
271.234	2421.62
271.466	2534.62
271.698	2637.62
271.93	2641.62
272.162	2636.62
272.394	2573.62
272.626	2413.62
272.858	2293.62
273.09	2271.62
273.322	2236.62
273.553	2206.62
273.785	2199.62
274.017	2213.62
274.249	2213.62
274.481	2277.62
274.713	2229.62
274.945	2248.62
275.176	2271.62
275.408	2207.62
275.64	2259.62
275.872	2244.62
276.104	2265.62
276.335	2294.62
276.567	2361.62
276.799	2493.62
277.031	2726.62
277.262	2803.62
277.494	2709.62
277.726	2582.62
277.957	2444.62
278.189	2453.62
278.421	2362.62
278.652	2367.62
278.884	2325.62
279.115	2352.62
279.347	2376.62
279.579	2388.62
279.81	2427.62
280.042	2381.62
280.273	2403.62
280.505	2406.62
280.736	2382.62
280.968	2438.62
281.199	2396.62
281.431	2466.62
281.662	2500.62
281.894	2474.62
282.125	2517.62
282.356	2642.62
282.588	2730.62
282.819	2594.62
283.051	2550.62
283.282	2535.62
283.513	2534.62
283.745	2599.62
283.976	2673.62
284.207	2650.62
284.439	2620.62
284.67	2610.62
284.901	2631.62
285.132	2639.62
285.364	2588.62
285.595	2668.62
285.826	2621.62
286.057	2675.62
286.288	2620.62
286.52	2607.62
286.751	2735.62
286.982	2728.62
287.213	2723.62
287.444	2747.62
287.675	2796.62
287.906	2856.62
288.138	2870.62
288.369	2923.62
288.6	2877.62
288.831	2816.62
289.062	2817.62
289.293	2820.62
289.524	2854.62
289.755	2823.62
289.986	2812.62
290.217	2839.62
290.448	2835.62
290.679	2795.62
290.91	2799.62
291.141	2791.62
291.371	2825.62
291.602	2872.62
291.833	2793.62
292.064	2839.62
292.295	2813.62
292.526	2887.62
292.757	2832.62
292.987	2796.62
293.218	2808.62
293.449	2875.62
293.68	2879.62
293.91	2836.62
294.141	2839.62
294.372	2834.62
294.603	2816.62
294.833	2860.62
295.064	2899.62
295.295	2918.62
295.525	2873.62
295.756	2928.62
295.987	2979.62
296.217	3139.62
296.448	3081.62
296.679	2949.62
296.909	2964.62
297.14	2964.62
297.37	3059.62
297.601	3075.62
297.831	3055.62
298.062	2990.62
298.292	3059.62
298.523	3071.62
298.753	3095.62
298.984	3042.62
299.214	3109.62
299.445	3089.62
299.675	3108.62
299.905	3151.62
300.136	3107.62
300.366	3160.62
300.597	3127.62
300.827	3290.62
301.057	3317.62
301.288	3379.62
301.518	3303.62
301.748	3311.62
301.979	3395.62
302.209	3343.62
302.439	3336.62
302.669	3285.62
302.9	3335.62
303.13	3325.62
303.36	3343.62
303.59	3329.62
303.82	3398.62
304.051	3370.62
304.281	3367.62
304.511	3286.62
304.741	3257.62
304.971	3308.62
305.201	3260.62
305.431	3261.62
305.661	3289.62
305.891	3220.62
306.121	3262.62
306.352	3261.62
306.582	3311.62
306.812	3228.62
307.042	3249.62
307.272	3240.62
307.502	3227.62
307.731	3305.62
307.961	3284.62
308.191	3343.62
308.421	3261.62
308.651	3298.62
308.881	3237.62
309.111	3303.62
309.341	3323.62
309.571	3399.62
309.8	3476.62
310.03	3478.62
310.26	3554.62
310.49	3533.62
310.72	3640.62
310.949	3671.62
311.179	3689.62
311.409	3578.62
311.639	3594.62
311.868	3619.62
312.098	3648.62
312.328	3745.62
312.557	3789.62
312.787	3845.62
313.017	3798.62
313.246	3741.62
313.476	3668.62
313.706	3701.62
313.935	3793.62
314.165	3836.62
314.394	3897.62
314.624	3881.62
314.853	3758.62
315.083	3744.62
315.312	3744.62
315.542	3686.62
315.771	3678.62
316.001	3664.62
316.23	3670.62
316.46	3662.62
316.689	3664.62
316.919	3671.62
317.148	3710.62
317.377	3732.62
317.607	3696.62
317.836	3691.62
318.065	3616.62
318.295	3620.62
318.524	3663.62
318.753	3598.62
318.983	3638.62
319.212	3653.62
319.441	3689.62
319.67	3709.62
319.9	3616.62
320.129	3666.62
320.358	3695.62
320.587	3724.62
320.816	3838.62
321.046	3835.62
321.275	3799.62
321.504	3796.62
321.733	3813.62
321.962	3902.62
322.191	3895.62
322.42	3992.62
322.649	4049.62
322.878	4096.62
323.108	4189.62
323.337	4365.62
323.566	4512.62
323.795	4813.62
324.024	5304.62
324.253	6681.62
324.482	9737.62
324.71	14300.62
324.939	15625.62
325.168	10879.62
325.397	6267.62
325.626	5136.62
325.855	4807.62
326.084	4672.62
326.313	4679.62
326.542	4780.62
326.77	5321.62
326.999	6528.62
327.228	9333.62
327.457	13305.62
327.686	12487.62
327.914	6987.62
328.143	5673.62
328.372	5426.62
328.6	5214.62
328.829	5106.62
329.058	5240.62
329.287	5206.62
329.515	4983.62
329.744	4930.62
329.972	5081.62
330.201	5421.62
330.43	5632.62
330.658	5557.62
330.887	5586.62
331.115	5279.62
331.344	4997.62
331.572	4880.62
331.801	5022.62
332.03	5039.62
332.258	5014.62
332.486	5027.62
332.715	5062.62
332.943	5296.62
333.172	5478.62
333.4	5611.62
333.629	5784.62
333.857	5930.62
334.085	6088.62
334.314	6331.62
334.542	6511.62
334.771	6412.62
334.999	5677.62
335.227	5482.62
335.455	5276.62
335.684	5215.62
335.912	5080.62
336.14	5016.62
336.369	5029.62
336.597	5045.62
336.825	4941.62
337.053	4926.62
337.281	4786.62
337.51	4735.62
337.738	4743.62
337.966	4645.62
338.194	4634.62
338.422	4606.62
338.65	4548.62
338.878	4505.62
339.106	4478.62
339.334	4533.62
339.562	4398.62
339.79	4357.62
340.018	4437.62
340.246	4393.62
340.474	4404.62
340.702	4403.62
340.93	4323.62
341.158	4377.62
341.386	4410.62
341.614	4371.62
341.842	4322.62
342.07	4299.62
342.298	4276.62
342.526	4334.62
342.754	4324.62
342.981	4339.62
343.209	4416.62
343.437	4623.62
343.665	4881.62
343.893	5163.62
344.12	5208.62
344.348	4886.62
344.576	4713.62
344.804	4731.62
345.031	4596.62
345.259	4619.62
345.487	4393.62
345.714	4270.62
345.942	4214.62
346.17	4180.62
346.397	4147.62
346.625	4176.62
346.853	4168.62
347.08	4163.62
347.308	4197.62
347.535	4251.62
347.763	4301.62
347.99	4190.62
348.218	4263.62
348.445	4227.62
348.673	4233.62
348.9	4107.62
349.128	4045.62
349.355	4034.62
349.583	4062.62
349.81	4052.62
350.037	3968.62
350.265	4063.62
350.492	4063.62
350.72	4038.62
350.947	4074.62
351.174	4115.62
351.402	4096.62
351.629	4081.62
351.856	4076.62
352.083	4207.62
352.311	4212.62
352.538	4137.62
352.765	4177.62
352.992	4118.62
353.22	4045.62
353.447	3995.62
353.674	4051.62
353.901	3927.62
354.128	3944.62
354.355	3909.62
354.583	3944.62
354.81	3950.62
355.037	3995.62
355.264	3940.62
355.491	3956.62
355.718	3912.62
355.945	4016.62
356.172	3939.62
356.399	3955.62
356.626	3976.62
356.853	3989.62
357.08	3964.62
357.307	3969.62
357.534	3949.62
357.761	3964.62
357.988	3970.62
358.215	3940.62
358.441	4001.62
358.668	3937.62
358.895	3990.62
359.122	3969.62
359.349	4155.62
359.576	4228.62
359.802	4334.62
360.029	4483.62
360.256	4436.62
360.483	4344.62
360.709	4130.62
360.936	4175.62
361.163	4135.62
361.39	4151.62
361.616	4175.62
361.843	4095.62
362.07	4119.62
362.296	4136.62
362.523	4129.62
362.749	4189.62
362.976	4039.62
363.203	4041.62
363.429	4035.62
363.656	4019.62
363.882	4058.62
364.109	4030.62
364.335	4035.62
364.562	3969.62
364.788	3958.62
365.015	3999.62
365.241	4017.62
365.468	4019.62
365.694	4088.62
365.92	4078.62
366.147	4043.62
366.373	4020.62
366.599	4049.62
366.826	3964.62
367.052	3918.62
367.278	4050.62
367.505	4081.62
367.731	4096.62
367.957	3996.62
368.184	4090.62
368.41	4115.62
368.636	4170.62
368.862	4245.62
369.089	4177.62
369.315	4167.62
369.541	4179.62
369.767	4165.62
369.993	4158.62
370.219	4235.62
370.445	4166.62
370.672	4221.62
370.898	4257.62
371.124	4284.62
371.35	4351.62
371.576	4319.62
371.802	4316.62
372.028	4239.62
372.254	4299.62
372.48	4356.62
372.706	4497.62
372.932	4473.62
373.158	4464.62
373.384	4348.62
373.61	4339.62
373.835	4333.62
374.061	4341.62
374.287	4459.62
374.513	4456.62
374.739	4617.62
374.965	4697.62
375.191	4693.62
375.416	4643.62
375.642	4397.62
375.868	4510.62
376.094	4438.62
376.319	4423.62
376.545	4348.62
376.771	4321.62
376.997	4316.62
377.222	4320.62
377.448	4280.62
377.674	4331.62
377.899	4232.62
378.125	4263.62
378.35	4278.62
378.576	4236.62
378.802	4234.62
379.027	4287.62
379.253	4284.62
379.478	4214.62
379.704	4194.62
379.929	4323.62
380.155	4288.62
380.38	4288.62
380.606	4351.62
380.831	4306.62
381.057	4356.62
381.282	4309.62
381.507	4300.62
381.733	4375.62
381.958	4390.62
382.184	4379.62
382.409	4533.62
382.634	4571.62
382.86	4568.62
383.085	4562.62
383.31	4633.62
383.535	4811.62
383.761	4773.62
383.986	4848.62
384.211	4943.62
384.436	5012.62
384.662	5092.62
384.887	5189.62
385.112	5083.62
385.337	5215.62
385.562	5185.62
385.787	5196.62
386.013	5303.62
386.238	5338.62
386.463	5277.62
386.688	5228.62
386.913	5128.62
387.138	5147.62
387.363	5186.62
387.588	5121.62
387.813	5124.62
388.038	5202.62
388.263	5169.62
388.488	5195.62
388.713	5081.62
388.938	5107.62
389.163	5163.62
389.387	5124.62
389.612	5059.62
389.837	5071.62
390.062	5056.62
390.287	5141.62
390.512	5087.62
390.736	5180.62
390.961	5312.62
391.186	5333.62
391.411	5467.62
391.636	5601.62
391.86	5804.62
392.085	5855.62
392.31	5731.62
392.534	5588.62
392.759	5492.62
392.984	5439.62
393.208	5363.62
393.433	5357.62
393.658	5336.62
393.882	5299.62
394.107	5357.62
394.331	5473.62
394.556	5427.62
394.78	5470.62
395.005	5544.62
395.229	5539.62
395.454	5719.62
395.678	5842.62
395.903	5858.62
396.127	5809.62
396.352	5708.62
396.576	5571.62
396.801	5494.62
397.025	5557.62
397.249	5730.62
397.474	5831.62
397.698	5802.62
397.922	5963.62
398.147	5979.62
398.371	6068.62
398.595	6257.62
398.82	6502.62
399.044	7126.62
399.268	7933.62
399.492	9093.62
399.717	9660.62
399.941	9316.62
400.165	8783.62
400.389	8058.62
400.613	7269.62
400.837	6867.62
401.062	6673.62
401.286	6559.62
401.51	6556.62
401.734	6499.62
401.958	6608.62
402.182	6792.62
402.406	6850.62
402.63	6929.62
402.854	6971.62
403.078	7152.62
403.302	7218.62
403.526	7357.62
403.75	7468.62
403.974	7534.62
404.198	7389.62
404.422	7534.62
404.645	7457.62
404.869	7534.62
405.093	7917.62
405.317	8113.62
405.541	8025.62
405.765	7542.62
405.988	7398.62
406.212	7471.62
406.436	7601.62
406.66	7811.62
406.883	7743.62
407.107	8287.62
407.331	8759.62
407.555	9363.62
407.778	8985.62
408.002	8325.62
408.226	7956.62
408.449	7862.62
408.673	7705.62
408.896	7734.62
409.12	7955.62
409.344	7446.62
409.567	7212.62
409.791	7151.62
410.014	7063.62
410.238	6992.62
410.461	7093.62
410.685	7154.62
410.908	7194.62
411.132	7384.62
411.355	7417.62
411.578	7039.62
411.802	6861.62
412.025	6885.62
412.249	7193.62
412.472	7297.62
412.695	7548.62
412.919	7035.62
413.142	6761.62
413.365	6624.62
413.589	6708.62
413.812	6488.62
414.035	6404.62
414.258	6435.62
414.482	6487.62
414.705	6521.62
414.928	6459.62
415.151	6465.62
415.374	6375.62
415.597	6383.62
415.821	6355.62
416.044	6354.62
416.267	6344.62
416.49	6274.62
416.713	6219.62
416.936	6370.62
417.159	6352.62
417.382	6327.62
417.605	6365.62
417.828	6528.62
418.051	6735.62
418.274	6582.62
418.497	6445.62
418.72	6545.62
418.943	6511.62
419.166	7000.62
419.389	7396.62
419.611	7198.62
419.834	6983.62
420.057	6955.62
420.28	6868.62
420.503	6671.62
420.726	6637.62
420.948	6717.62
421.171	7089.62
421.394	7041.62
421.617	6606.62
421.839	6590.62
422.062	6656.62
422.285	6764.62
422.507	7373.62
422.73	7848.62
422.953	7357.62
423.175	7043.62
423.398	7076.62
423.621	6971.62
423.843	7273.62
424.066	7121.62
424.288	7066.62
424.511	7305.62
424.733	7765.62
424.956	8037.62
425.178	7629.62
425.401	7703.62
425.623	7585.62
425.846	6728.62
426.068	6581.62
426.291	6517.62
426.513	6497.62
426.735	6692.62
426.958	7136.62
427.18	7732.62
427.402	8730.62
427.625	8806.62
427.847	7680.62
428.069	7088.62
428.292	6523.62
428.514	6124.62
428.736	5973.62
428.958	6037.62
429.181	5864.62
429.403	5749.62
429.625	6031.62
429.847	6327.62
430.069	6756.62
430.292	6351.62
430.514	5903.62
430.736	5838.62
430.958	5763.62
431.18	5682.62
431.402	5700.62
431.624	5616.62
431.846	5787.62
432.068	5697.62
432.29	5895.62
432.512	5687.62
432.734	5893.62
432.956	5732.62
433.178	5860.62
433.4	5806.62
433.622	5757.62
433.844	5777.62
434.066	5722.62
434.287	5868.62
434.509	6171.62
434.731	6328.62
434.953	6550.62
435.175	6591.62
435.397	6637.62
435.618	6551.62
435.84	6902.62
436.062	7655.62
436.284	7479.62
436.505	6425.62
436.727	6187.62
436.949	5996.62
437.17	5861.62
437.392	5815.62
437.614	5932.62
437.835	6243.62
438.057	7085.62
438.278	7714.62
438.5	7668.62
438.721	8450.62
438.943	7341.62
439.165	6265.62
439.386	6162.62
439.608	6211.62
439.829	6204.62
440.05	6527.62
440.272	6876.62
440.493	6363.62
440.715	6172.62
440.936	6063.62
441.158	6195.62
441.379	6246.62
441.6	6672.62
441.822	6805.62
442.043	7188.62
442.264	7916.62
442.486	7533.62
442.707	6878.62
442.928	6658.62
443.149	6864.62
443.371	7052.62
443.592	7568.62
443.813	8457.62
444.034	8459.62
444.255	7479.62
444.476	7282.62
444.698	7471.62
444.919	7639.62
445.14	7378.62
445.361	7219.62
445.582	7284.62
445.803	7737.62
446.024	8337.62
446.245	7908.62
446.466	7153.62
446.687	6355.62
446.908	6061.62
447.129	5768.62
447.35	5663.62
447.571	5656.62
447.792	5549.62
448.013	5576.62
448.234	5796.62
448.455	6374.62
448.675	7482.62
448.896	7901.62
449.117	6569.62
449.338	6854.62
449.559	7980.62
449.779	8087.62
450	6349.62
450.221	5691.62
450.442	5527.62
450.662	5435.62
450.883	5508.62
451.104	5587.62
451.324	5415.62
451.545	5292.62
451.766	5221.62
451.986	5093.62
452.207	5050.62
452.428	5031.62
452.648	5062.62
452.869	5060.62
453.089	5137.62
453.31	5224.62
453.53	5093.62
453.751	5013.62
453.971	4988.62
454.192	5146.62
454.412	4909.62
454.633	4891.62
454.853	4851.62
455.073	4846.62
455.294	5314.62
455.514	5755.62
455.734	5267.62
455.955	4823.62
456.175	4704.62
456.395	4693.62
456.616	4630.62
456.836	4664.62
457.056	4601.62
457.276	4525.62
457.497	4783.62
457.717	4673.62
457.937	4822.62
458.157	4854.62
458.377	5004.62
458.598	5316.62
458.818	5820.62
459.038	6547.62
459.258	6472.62
459.478	5915.62
459.698	5813.62
459.918	5900.62
460.138	6093.62
460.358	6302.62
460.578	6369.62
460.798	6424.62
461.018	6368.62
461.238	6234.62
461.458	6356.62
461.678	6302.62
461.898	6452.62
462.118	6420.62
462.338	6868.62
462.558	6924.62
462.777	7188.62
462.997	7675.62
463.217	8109.62
463.437	8089.62
463.657	7426.62
463.876	7205.62
464.096	7204.62
464.316	7221.62
464.536	7247.62
464.755	6910.62
464.975	6894.62
465.195	6847.62
465.414	6820.62
465.634	6171.62
465.854	5881.62
466.073	5669.62
466.293	5459.62
466.512	5318.62
466.732	5289.62
466.951	5288.62
467.171	5254.62
467.391	5288.62
467.61	5372.62
467.829	5295.62
468.049	5219.62
468.268	5124.62
468.488	5117.62
468.707	5004.62
468.927	5037.62
469.146	4987.62
469.365	5117.62
469.585	5098.62
469.804	5253.62
470.023	5456.62
470.243	5399.62
470.462	5534.62
470.681	5627.62
470.901	5550.62
471.12	5344.62
471.339	5280.62
471.558	5287.62
471.777	5238.62
471.997	5101.62
472.216	5360.62
472.435	5714.62
472.654	5333.62
472.873	5131.62
473.092	5134.62
473.311	5091.62
473.53	5077.62
473.749	5134.62
473.968	5677.62
474.187	6495.62
474.406	6064.62
474.625	5316.62
474.844	5071.62
475.063	5067.62
475.282	5107.62
475.501	5142.62
475.72	5152.62
475.939	5172.62
476.158	5187.62
476.377	5209.62
476.596	5215.62
476.814	5361.62
477.033	5406.62
477.252	5431.62
477.471	5594.62
477.69	5670.62
477.908	5816.62
478.127	5930.62
478.346	6015.62
478.564	6094.62
478.783	6200.62
479.002	6294.62
479.22	6408.62
479.439	6367.62
479.658	6506.62
479.876	6586.62
480.095	6875.62
480.313	7199.62
480.532	7131.62
480.751	6950.62
480.969	7107.62
481.188	7792.62
481.406	7570.62
481.624	6864.62
481.843	6398.62
482.061	6270.62
482.28	6145.62
482.498	6016.62
482.717	6038.62
482.935	5915.62
483.153	5899.62
483.372	5917.62
483.59	5937.62
483.808	5943.62
484.027	5956.62
484.245	6034.62
484.463	5995.62
484.681	6093.62
484.9	6201.62
485.118	6115.62
485.336	6216.62
485.554	6274.62
485.772	6309.62
485.99	6353.62
486.209	6381.62
486.427	6343.62
486.645	6351.62
486.863	6502.62
487.081	6457.62
487.299	6404.62
487.517	6385.62
487.735	6427.62
487.953	6392.62
