Data from Uncirc_1983_H10_HRD10591_00085.txt Node
Date: Wed Jan 03 12:25:49 EST 2024
User: Yrep
Spectrometer: HR+D1059
Trigger mode: 1
Integration Time (sec): 1.000000E-1
Scans to average: 1
Electric dark correction enabled: true
Nonlinearity correction enabled: false
Boxcar width: 0
XAxis mode: Wavelengths
Number of Pixels in Spectrum: 2048
>>>>>Begin Spectral Data<<<<<
223.165	-29.81
223.4	-29.81
223.635	-29.81
223.869	-27.81
224.104	-19.81
224.338	-26.81
224.573	-10.81
224.808	-19.81
225.042	-24.81
225.277	-0.81
225.511	6.19
225.746	12.19
225.98	11.19
226.215	19.19
226.449	18.19
226.683	32.19
226.918	29.19
227.152	32.19
227.387	43.19
227.621	30.19
227.856	49.19
228.09	40.19
228.324	43.19
228.559	58.19
228.793	57.19
229.027	73.19
229.262	48.19
229.496	77.19
229.73	78.19
229.964	77.19
230.199	61.19
230.433	73.19
230.667	84.19
230.901	96.19
231.136	84.19
231.37	88.19
231.604	72.19
231.838	77.19
232.072	80.19
232.306	76.19
232.541	87.19
232.775	81.19
233.009	89.19
233.243	82.19
233.477	68.19
233.711	84.19
233.945	82.19
234.179	85.19
234.413	82.19
234.647	89.19
234.881	84.19
235.115	74.19
235.349	73.19
235.583	88.19
235.817	72.19
236.051	92.19
236.285	75.19
236.519	78.19
236.753	77.19
236.987	88.19
237.221	87.19
237.455	92.19
237.689	81.19
237.922	66.19
238.156	76.19
238.39	71.19
238.624	87.19
238.858	84.19
239.091	77.19
239.325	80.19
239.559	82.19
239.793	82.19
240.027	70.19
240.26	77.19
240.494	76.19
240.728	76.19
240.961	75.19
241.195	75.19
241.429	67.19
241.662	74.19
241.896	67.19
242.13	72.19
242.363	77.19
242.597	87.19
242.83	82.19
243.064	90.19
243.298	64.19
243.531	70.19
243.765	71.19
243.998	84.19
244.232	82.19
244.465	92.19
244.699	75.19
244.932	75.19
245.166	83.19
245.399	82.19
245.633	82.19
245.866	95.19
246.099	74.19
246.333	84.19
246.566	78.19
246.8	83.19
247.033	81.19
247.266	77.19
247.5	74.19
247.733	75.19
247.966	77.19
248.2	83.19
248.433	99.19
248.666	84.19
248.899	88.19
249.133	93.19
249.366	104.19
249.599	88.19
249.832	76.19
250.066	81.19
250.299	71.19
250.532	81.19
250.765	82.19
250.998	76.19
251.231	91.19
251.465	89.19
251.698	66.19
251.931	68.19
252.164	82.19
252.397	90.19
252.63	88.19
252.863	80.19
253.096	80.19
253.329	77.19
253.562	91.19
253.795	76.19
254.028	84.19
254.261	85.19
254.494	96.19
254.727	76.19
254.96	80.19
255.193	93.19
255.426	85.19
255.659	88.19
255.892	83.19
256.124	78.19
256.357	82.19
256.59	88.19
256.823	70.19
257.056	62.19
257.289	85.19
257.521	84.19
257.754	81.19
257.987	77.19
258.22	97.19
258.452	77.19
258.685	98.19
258.918	84.19
259.151	74.19
259.383	73.19
259.616	75.19
259.849	91.19
260.081	76.19
260.314	85.19
260.547	74.19
260.779	76.19
261.012	58.19
261.244	93.19
261.477	99.19
261.71	96.19
261.942	102.19
262.175	112.19
262.407	88.19
262.64	84.19
262.872	72.19
263.105	94.19
263.337	89.19
263.57	92.19
263.802	89.19
264.035	94.19
264.267	89.19
264.499	84.19
264.732	90.19
264.964	79.19
265.197	68.19
265.429	95.19
265.661	76.19
265.894	98.19
266.126	82.19
266.358	74.19
266.591	76.19
266.823	83.19
267.055	71.19
267.287	92.19
267.52	96.19
267.752	87.19
267.984	90.19
268.216	78.19
268.448	87.19
268.681	93.19
268.913	89.19
269.145	95.19
269.377	86.19
269.609	90.19
269.841	90.19
270.073	91.19
270.306	84.19
270.538	89.19
270.77	84.19
271.002	93.19
271.234	95.19
271.466	85.19
271.698	93.19
271.93	90.19
272.162	94.19
272.394	97.19
272.626	82.19
272.858	86.19
273.09	73.19
273.322	86.19
273.553	99.19
273.785	78.19
274.017	85.19
274.249	100.19
274.481	78.19
274.713	73.19
274.945	86.19
275.176	84.19
275.408	84.19
275.64	83.19
275.872	86.19
276.104	95.19
276.335	88.19
276.567	94.19
276.799	118.19
277.031	93.19
277.262	70.19
277.494	83.19
277.726	92.19
277.957	91.19
278.189	92.19
278.421	94.19
278.652	82.19
278.884	87.19
279.115	84.19
279.347	70.19
279.579	80.19
279.81	97.19
280.042	98.19
280.273	87.19
280.505	76.19
280.736	94.19
280.968	89.19
281.199	89.19
281.431	76.19
281.662	86.19
281.894	90.19
282.125	112.19
282.356	99.19
282.588	117.19
282.819	115.19
283.051	92.19
283.282	79.19
283.513	83.19
283.745	77.19
283.976	99.19
284.207	100.19
284.439	90.19
284.67	95.19
284.901	93.19
285.132	99.19
285.364	92.19
285.595	102.19
285.826	72.19
286.057	77.19
286.288	83.19
286.52	94.19
286.751	104.19
286.982	85.19
287.213	89.19
287.444	95.19
287.675	93.19
287.906	87.19
288.138	97.19
288.369	92.19
288.6	91.19
288.831	101.19
289.062	85.19
289.293	100.19
289.524	90.19
289.755	86.19
289.986	84.19
290.217	97.19
290.448	92.19
290.679	90.19
290.91	87.19
291.141	85.19
291.371	85.19
291.602	84.19
291.833	82.19
292.064	92.19
292.295	82.19
292.526	101.19
292.757	83.19
292.987	94.19
293.218	105.19
293.449	93.19
293.68	98.19
293.91	95.19
294.141	90.19
294.372	91.19
294.603	92.19
294.833	91.19
295.064	101.19
295.295	91.19
295.525	99.19
295.756	98.19
295.987	120.19
296.217	139.19
296.448	136.19
296.679	92.19
296.909	93.19
297.14	95.19
297.37	85.19
297.601	96.19
297.831	97.19
298.062	105.19
298.292	82.19
298.523	78.19
298.753	92.19
298.984	118.19
299.214	84.19
299.445	73.19
299.675	95.19
299.905	88.19
300.136	93.19
300.366	89.19
300.597	89.19
300.827	94.19
301.057	85.19
301.288	111.19
301.518	106.19
301.748	98.19
301.979	100.19
302.209	96.19
302.439	86.19
302.669	87.19
302.9	84.19
303.13	84.19
303.36	109.19
303.59	102.19
303.82	85.19
304.051	106.19
304.281	83.19
304.511	107.19
304.741	89.19
304.971	93.19
305.201	77.19
305.431	92.19
305.661	100.19
305.891	85.19
306.121	92.19
306.352	101.19
306.582	107.19
306.812	110.19
307.042	85.19
307.272	91.19
307.502	96.19
307.731	94.19
307.961	86.19
308.191	99.19
308.421	99.19
308.651	106.19
308.881	94.19
309.111	92.19
309.341	82.19
309.571	87.19
309.8	90.19
310.03	93.19
310.26	105.19
310.49	99.19
310.72	90.19
310.949	96.19
311.179	95.19
311.409	100.19
311.639	89.19
311.868	98.19
312.098	94.19
312.328	90.19
312.557	94.19
312.787	97.19
313.017	120.19
313.246	105.19
313.476	92.19
313.706	99.19
313.935	100.19
314.165	96.19
314.394	99.19
314.624	106.19
314.853	90.19
315.083	98.19
315.312	94.19
315.542	93.19
315.771	93.19
316.001	96.19
316.23	87.19
316.46	101.19
316.689	94.19
316.919	101.19
317.148	106.19
317.377	102.19
317.607	99.19
317.836	92.19
318.065	90.19
318.295	101.19
318.524	85.19
318.753	97.19
318.983	114.19
319.212	94.19
319.441	110.19
319.67	115.19
319.9	84.19
320.129	89.19
320.358	98.19
320.587	90.19
320.816	96.19
321.046	86.19
321.275	100.19
321.504	96.19
321.733	118.19
321.962	99.19
322.191	105.19
322.42	110.19
322.649	122.19
322.878	113.19
323.108	95.19
323.337	120.19
323.566	125.19
323.795	156.19
324.024	195.19
324.253	357.19
324.482	752.19
324.71	1504.19
324.939	2005.19
325.168	733.19
325.397	203.19
325.626	148.19
325.855	123.19
326.084	134.19
326.313	117.19
326.542	149.19
326.77	214.19
326.999	416.19
327.228	852.19
327.457	1556.19
327.686	1213.19
327.914	339.19
328.143	202.19
328.372	143.19
328.6	130.19
328.829	126.19
329.058	117.19
329.287	126.19
329.515	105.19
329.744	101.19
329.972	114.19
330.201	112.19
330.43	138.19
330.658	120.19
330.887	136.19
331.115	112.19
331.344	119.19
331.572	81.19
331.801	94.19
332.03	108.19
332.258	104.19
332.486	82.19
332.715	91.19
332.943	92.19
333.172	84.19
333.4	108.19
333.629	98.19
333.857	108.19
334.085	110.19
334.314	140.19
334.542	187.19
334.771	157.19
334.999	110.19
335.227	93.19
335.455	99.19
335.684	98.19
335.912	100.19
336.14	92.19
336.369	98.19
336.597	101.19
336.825	99.19
337.053	90.19
337.281	82.19
337.51	94.19
337.738	99.19
337.966	77.19
338.194	105.19
338.422	100.19
338.65	91.19
338.878	95.19
339.106	89.19
339.334	94.19
339.562	93.19
339.79	95.19
340.018	97.19
340.246	86.19
340.474	93.19
340.702	87.19
340.93	84.19
341.158	95.19
341.386	99.19
341.614	84.19
341.842	97.19
342.07	74.19
342.298	92.19
342.526	90.19
342.754	93.19
342.981	89.19
343.209	87.19
343.437	103.19
343.665	102.19
343.893	74.19
344.12	84.19
344.348	92.19
344.576	98.19
344.804	98.19
345.031	100.19
345.259	98.19
345.487	85.19
345.714	98.19
345.942	102.19
346.17	103.19
346.397	94.19
346.625	97.19
346.853	105.19
347.08	97.19
347.308	95.19
347.535	101.19
347.763	108.19
347.99	86.19
348.218	93.19
348.445	104.19
348.673	98.19
348.9	90.19
349.128	100.19
349.355	92.19
349.583	84.19
349.81	92.19
350.037	92.19
350.265	101.19
350.492	98.19
350.72	104.19
350.947	100.19
351.174	96.19
351.402	101.19
351.629	104.19
351.856	89.19
352.083	100.19
352.311	95.19
352.538	95.19
352.765	101.19
352.992	107.19
353.22	109.19
353.447	109.19
353.674	94.19
353.901	99.19
354.128	111.19
354.355	93.19
354.583	100.19
354.81	106.19
355.037	93.19
355.264	88.19
355.491	89.19
355.718	82.19
355.945	89.19
356.172	90.19
356.399	111.19
356.626	103.19
356.853	106.19
357.08	92.19
357.307	89.19
357.534	93.19
357.761	93.19
357.988	94.19
358.215	92.19
358.441	98.19
358.668	96.19
358.895	95.19
359.122	89.19
359.349	70.19
359.576	88.19
359.802	107.19
360.029	95.19
360.256	121.19
360.483	110.19
360.709	82.19
360.936	98.19
361.163	107.19
361.39	97.19
361.616	95.19
361.843	81.19
362.07	78.19
362.296	86.19
362.523	94.19
362.749	87.19
362.976	81.19
363.203	97.19
363.429	96.19
363.656	96.19
363.882	86.19
364.109	96.19
364.335	83.19
364.562	112.19
364.788	84.19
365.015	104.19
365.241	99.19
365.468	115.19
365.694	103.19
365.92	98.19
366.147	82.19
366.373	87.19
366.599	71.19
366.826	87.19
367.052	99.19
367.278	86.19
367.505	88.19
367.731	80.19
367.957	86.19
368.184	94.19
368.41	104.19
368.636	109.19
368.862	106.19
369.089	101.19
369.315	99.19
369.541	92.19
369.767	91.19
369.993	110.19
370.219	74.19
370.445	77.19
370.672	94.19
370.898	91.19
371.124	96.19
371.35	84.19
371.576	76.19
371.802	75.19
372.028	98.19
372.254	89.19
372.48	81.19
372.706	82.19
372.932	102.19
373.158	83.19
373.384	84.19
373.61	92.19
373.835	87.19
374.061	91.19
374.287	90.19
374.513	99.19
374.739	98.19
374.965	99.19
375.191	105.19
375.416	102.19
375.642	82.19
375.868	81.19
376.094	109.19
376.319	84.19
376.545	89.19
376.771	82.19
376.997	94.19
377.222	72.19
377.448	99.19
377.674	88.19
377.899	82.19
378.125	93.19
378.35	84.19
378.576	101.19
378.802	82.19
379.027	96.19
379.253	93.19
379.478	77.19
379.704	87.19
379.929	91.19
380.155	90.19
380.38	101.19
380.606	84.19
380.831	106.19
381.057	92.19
381.282	84.19
381.507	99.19
381.733	98.19
381.958	86.19
382.184	97.19
382.409	98.19
382.634	89.19
382.86	95.19
383.085	91.19
383.31	90.19
383.535	89.19
383.761	102.19
383.986	96.19
384.211	81.19
384.436	81.19
384.662	84.19
384.887	106.19
385.112	87.19
385.337	95.19
385.562	95.19
385.787	102.19
386.013	101.19
386.238	98.19
386.463	109.19
386.688	102.19
386.913	98.19
387.138	98.19
387.363	101.19
387.588	92.19
387.813	101.19
388.038	82.19
388.263	104.19
388.488	100.19
388.713	92.19
388.938	87.19
389.163	95.19
389.387	94.19
389.612	93.19
389.837	107.19
390.062	92.19
390.287	80.19
390.512	88.19
390.736	82.19
390.961	91.19
391.186	100.19
391.411	97.19
391.636	87.19
391.86	104.19
392.085	96.19
392.31	86.19
392.534	92.19
392.759	98.19
392.984	89.19
393.208	92.19
393.433	73.19
393.658	87.19
393.882	82.19
394.107	88.19
394.331	85.19
394.556	92.19
394.78	88.19
395.005	107.19
395.229	104.19
395.454	89.19
395.678	74.19
395.903	85.19
396.127	88.19
396.352	86.19
396.576	86.19
396.801	82.19
397.025	83.19
397.249	81.19
397.474	81.19
397.698	97.19
397.922	104.19
398.147	79.19
398.371	77.19
398.595	80.19
398.82	86.19
399.044	77.19
399.268	104.19
399.492	86.19
399.717	89.19
399.941	95.19
400.165	95.19
400.389	89.19
400.613	89.19
400.837	97.19
401.062	74.19
401.286	86.19
401.51	88.19
401.734	92.19
401.958	113.19
402.182	109.19
402.406	155.19
402.63	111.19
402.854	87.19
403.078	95.19
403.302	99.19
403.526	96.19
403.75	94.19
403.974	83.19
404.198	94.19
404.422	91.19
404.645	108.19
404.869	85.19
405.093	81.19
405.317	104.19
405.541	97.19
405.765	89.19
405.988	107.19
406.212	133.19
406.436	205.19
406.66	136.19
406.883	100.19
407.107	95.19
407.331	97.19
407.555	87.19
407.778	101.19
408.002	86.19
408.226	74.19
408.449	69.19
408.673	103.19
408.896	88.19
409.12	83.19
409.344	85.19
409.567	100.19
409.791	90.19
410.014	98.19
410.238	78.19
410.461	84.19
410.685	98.19
410.908	102.19
411.132	97.19
411.355	86.19
411.578	93.19
411.802	98.19
412.025	91.19
412.249	84.19
412.472	92.19
412.695	97.19
412.919	101.19
413.142	96.19
413.365	82.19
413.589	88.19
413.812	74.19
414.035	99.19
414.258	78.19
414.482	85.19
414.705	90.19
414.928	71.19
415.151	96.19
415.374	94.19
415.597	86.19
415.821	96.19
416.044	96.19
416.267	96.19
416.49	76.19
416.713	80.19
416.936	80.19
417.159	96.19
417.382	93.19
417.605	92.19
417.828	97.19
418.051	96.19
418.274	85.19
418.497	84.19
418.72	89.19
418.943	108.19
419.166	84.19
419.389	91.19
419.611	84.19
419.834	92.19
420.057	91.19
420.28	94.19
420.503	89.19
420.726	97.19
420.948	89.19
421.171	96.19
421.394	104.19
421.617	101.19
421.839	94.19
422.062	70.19
422.285	88.19
422.507	92.19
422.73	96.19
422.953	97.19
423.175	83.19
423.398	87.19
423.621	88.19
423.843	96.19
424.066	87.19
424.288	92.19
424.511	99.19
424.733	90.19
424.956	110.19
425.178	110.19
425.401	102.19
425.623	113.19
425.846	87.19
426.068	96.19
426.291	98.19
426.513	86.19
426.735	97.19
426.958	96.19
427.18	103.19
427.402	124.19
427.625	144.19
427.847	131.19
428.069	112.19
428.292	87.19
428.514	82.19
428.736	90.19
428.958	87.19
429.181	77.19
429.403	87.19
429.625	84.19
429.847	73.19
430.069	100.19
430.292	106.19
430.514	91.19
430.736	100.19
430.958	78.19
431.18	84.19
431.402	97.19
431.624	90.19
431.846	84.19
432.068	80.19
432.29	79.19
432.512	80.19
432.734	101.19
432.956	92.19
433.178	93.19
433.4	90.19
433.622	96.19
433.844	77.19
434.066	90.19
434.287	107.19
434.509	92.19
434.731	88.19
434.953	86.19
435.175	87.19
435.397	82.19
435.618	93.19
435.84	104.19
436.062	117.19
436.284	116.19
436.505	103.19
436.727	112.19
436.949	98.19
437.17	86.19
437.392	66.19
437.614	78.19
437.835	107.19
438.057	116.19
438.278	109.19
438.5	102.19
438.721	108.19
438.943	95.19
439.165	93.19
439.386	94.19
439.608	81.19
439.829	106.19
440.05	120.19
440.272	126.19
440.493	106.19
440.715	85.19
440.936	81.19
441.158	91.19
441.379	89.19
441.6	96.19
441.822	96.19
442.043	99.19
442.264	99.19
442.486	88.19
442.707	92.19
442.928	107.19
443.149	125.19
443.371	119.19
443.592	109.19
443.813	114.19
444.034	95.19
444.255	90.19
444.476	87.19
444.698	82.19
444.919	90.19
445.14	131.19
445.361	129.19
445.582	113.19
445.803	146.19
446.024	133.19
446.245	125.19
446.466	110.19
446.687	111.19
446.908	88.19
447.129	96.19
447.35	86.19
447.571	96.19
447.792	102.19
448.013	94.19
448.234	105.19
448.455	86.19
448.675	120.19
448.896	116.19
449.117	103.19
449.338	100.19
449.559	123.19
449.779	123.19
450	94.19
450.221	80.19
450.442	93.19
450.662	85.19
450.883	97.19
451.104	109.19
451.324	97.19
451.545	80.19
451.766	94.19
451.986	93.19
452.207	92.19
452.428	99.19
452.648	84.19
452.869	96.19
453.089	101.19
453.31	106.19
453.53	92.19
453.751	84.19
453.971	93.19
454.192	93.19
454.412	74.19
454.633	89.19
454.853	85.19
455.073	80.19
455.294	93.19
455.514	89.19
455.734	78.19
455.955	88.19
456.175	86.19
456.395	82.19
456.616	86.19
456.836	84.19
457.056	91.19
457.276	70.19
457.497	92.19
457.717	68.19
457.937	92.19
458.157	107.19
458.377	100.19
458.598	98.19
458.818	124.19
459.038	141.19
459.258	104.19
459.478	83.19
459.698	84.19
459.918	97.19
460.138	82.19
460.358	87.19
460.578	82.19
460.798	89.19
461.018	92.19
461.238	84.19
461.458	85.19
461.678	94.19
461.898	92.19
462.118	77.19
462.338	93.19
462.558	89.19
462.777	81.19
462.997	84.19
463.217	88.19
463.437	85.19
463.657	68.19
463.876	101.19
464.096	97.19
464.316	85.19
464.536	100.19
464.755	105.19
464.975	90.19
465.195	140.19
465.414	145.19
465.634	87.19
465.854	81.19
466.073	86.19
466.293	89.19
466.512	86.19
466.732	96.19
466.951	82.19
467.171	86.19
467.391	97.19
467.61	102.19
467.829	106.19
468.049	108.19
468.268	101.19
468.488	101.19
468.707	82.19
468.927	75.19
469.146	90.19
469.365	92.19
469.585	96.19
469.804	89.19
470.023	108.19
470.243	83.19
470.462	93.19
470.681	114.19
470.901	93.19
471.12	85.19
471.339	96.19
471.558	86.19
471.777	106.19
471.997	109.19
472.216	128.19
472.435	166.19
472.654	92.19
472.873	105.19
473.092	90.19
473.311	94.19
473.53	92.19
473.749	89.19
473.968	94.19
474.187	97.19
474.406	91.19
474.625	88.19
474.844	90.19
475.063	84.19
475.282	94.19
475.501	95.19
475.72	83.19
475.939	84.19
476.158	78.19
476.377	87.19
476.596	86.19
476.814	84.19
477.033	103.19
477.252	99.19
477.471	86.19
477.69	93.19
477.908	90.19
478.127	73.19
478.346	91.19
478.564	83.19
478.783	98.19
479.002	90.19
479.22	82.19
479.439	105.19
479.658	116.19
479.876	106.19
480.095	92.19
480.313	83.19
480.532	98.19
480.751	93.19
480.969	110.19
481.188	258.19
481.406	180.19
481.624	106.19
481.843	85.19
482.061	73.19
482.28	95.19
482.498	82.19
482.717	81.19
482.935	93.19
483.153	107.19
483.372	96.19
483.59	101.19
483.808	88.19
484.027	104.19
484.245	88.19
484.463	93.19
484.681	96.19
484.9	85.19
485.118	95.19
485.336	93.19
485.554	102.19
485.772	105.19
485.99	106.19
486.209	102.19
486.427	108.19
486.645	117.19
486.863	119.19
487.081	91.19
487.299	94.19
487.517	96.19
487.735	80.19
487.953	91.19
488.171	101.19
488.389	99.19
488.607	106.19
488.825	89.19
489.043	70.19
489.261	101.19
489.479	86.19
489.696	93.19
489.914	84.19
490.132	76.19
490.35	94.19
490.568	105.19
490.786	80.19
491.003	84.19
491.221	91.19
491.439	85.19
491.657	88.19
491.874	86.19
492.092	101.19
492.31	74.19
492.527	72.19
492.745	82.19
492.963	89.19
493.18	102.19
493.398	103.19
493.615	88.19
493.833	89.19
494.05	93.19
494.268	100.19
494.485	98.19
494.703	91.19
494.92	97.19
495.138	87.19
495.355	90.19
495.573	96.19
495.79	91.19
496.008	101.19
496.225	82.19
496.442	100.19
496.66	89.19
496.877	90.19
497.094	90.19
497.312	82.19
497.529	101.19
497.746	86.19
497.963	101.19
498.181	81.19
498.398	93.19
498.615	114.19
498.832	106.19
499.049	103.19
499.267	101.19
499.484	101.19
499.701	103.19
499.918	85.19
500.135	100.19
500.352	105.19
500.569	104.19
500.786	84.19
501.003	96.19
501.22	97.19
501.437	93.19
501.654	105.19
501.871	94.19
502.088	97.19
502.305	89.19
502.522	86.19
502.739	92.19
502.956	101.19
503.172	100.19
503.389	99.19
503.606	110.19
503.823	91.19
504.04	98.19
504.256	97.19
504.473	89.19
504.69	82.19
504.907	90.19
505.123	85.19
505.34	87.19
505.557	89.19
505.773	87.19
505.99	96.19
506.207	88.19
506.423	89.19
506.64	93.19
506.856	89.19
507.073	91.19
507.289	99.19
507.506	106.19
507.722	107.19
507.939	103.19
508.155	102.19
508.372	95.19
508.588	112.19
508.805	101.19
509.021	107.19
509.238	104.19
509.454	103.19
509.67	112.19
509.887	104.19
510.103	136.19
510.319	214.19
510.536	710.19
510.752	2246.19
510.968	626.19
511.184	159.19
511.401	108.19
511.617	92.19
511.833	98.19
512.049	94.19
512.265	97.19
512.481	104.19
512.698	88.19
512.914	90.19
513.13	102.19
513.346	90.19
513.562	99.19
513.778	89.19
513.994	94.19
514.21	99.19
514.426	111.19
514.642	126.19
514.858	120.19
515.074	155.19
515.29	428.19
