Data from Uncirc_1983_H10_HRD10591_00021.txt Node
Date: Wed Jan 03 12:25:36 EST 2024
User: Yrep
Spectrometer: HR+D1059
Trigger mode: 1
Integration Time (sec): 1.000000E-1
Scans to average: 1
Electric dark correction enabled: true
Nonlinearity correction enabled: false
Boxcar width: 0
XAxis mode: Wavelengths
Number of Pixels in Spectrum: 2048
>>>>>Begin Spectral Data<<<<<
223.165	-15.38
223.4	-15.38
223.635	-15.38
223.869	-22.38
224.104	-20.38
224.338	-17.38
224.573	-20.38
224.808	-15.38
225.042	-13.38
225.277	-12.38
225.511	2.62
225.746	-1.38
225.98	7.62
226.215	18.62
226.449	12.62
226.683	26.62
226.918	36.62
227.152	33.62
227.387	24.62
227.621	40.62
227.856	32.62
228.09	57.62
228.324	51.62
228.559	36.62
228.793	66.62
229.027	77.62
229.262	65.62
229.496	72.62
229.73	78.62
229.964	68.62
230.199	68.62
230.433	76.62
230.667	71.62
230.901	72.62
231.136	74.62
231.37	85.62
231.604	91.62
231.838	73.62
232.072	70.62
232.306	82.62
232.541	73.62
232.775	90.62
233.009	82.62
233.243	70.62
233.477	88.62
233.711	75.62
233.945	91.62
234.179	86.62
234.413	80.62
234.647	72.62
234.881	87.62
235.115	80.62
235.349	76.62
235.583	88.62
235.817	72.62
236.051	66.62
236.285	68.62
236.519	68.62
236.753	78.62
236.987	76.62
237.221	78.62
237.455	84.62
237.689	77.62
237.922	74.62
238.156	73.62
238.39	70.62
238.624	86.62
238.858	64.62
239.091	72.62
239.325	75.62
239.559	82.62
239.793	78.62
240.027	76.62
240.26	86.62
240.494	73.62
240.728	65.62
240.961	76.62
241.195	85.62
241.429	76.62
241.662	79.62
241.896	70.62
242.13	71.62
242.363	74.62
242.597	72.62
242.83	76.62
243.064	85.62
243.298	85.62
243.531	74.62
243.765	68.62
243.998	59.62
244.232	74.62
244.465	78.62
244.699	69.62
244.932	94.62
245.166	80.62
245.399	52.62
245.633	88.62
245.866	86.62
246.099	73.62
246.333	86.62
246.566	82.62
246.8	88.62
247.033	69.62
247.266	80.62
247.5	70.62
247.733	76.62
247.966	77.62
248.2	86.62
248.433	96.62
248.666	88.62
248.899	97.62
249.133	90.62
249.366	94.62
249.599	85.62
249.832	66.62
250.066	79.62
250.299	76.62
250.532	96.62
250.765	83.62
250.998	80.62
251.231	78.62
251.465	91.62
251.698	92.62
251.931	69.62
252.164	71.62
252.397	82.62
252.63	71.62
252.863	77.62
253.096	86.62
253.329	89.62
253.562	92.62
253.795	70.62
254.028	83.62
254.261	81.62
254.494	81.62
254.727	74.62
254.96	72.62
255.193	77.62
255.426	78.62
255.659	86.62
255.892	94.62
256.124	96.62
256.357	86.62
256.59	83.62
256.823	84.62
257.056	84.62
257.289	91.62
257.521	68.62
257.754	72.62
257.987	76.62
258.22	85.62
258.452	88.62
258.685	86.62
258.918	72.62
259.151	83.62
259.383	87.62
259.616	86.62
259.849	85.62
260.081	84.62
260.314	92.62
260.547	72.62
260.779	83.62
261.012	97.62
261.244	83.62
261.477	84.62
261.71	84.62
261.942	109.62
262.175	121.62
262.407	92.62
262.64	87.62
262.872	70.62
263.105	74.62
263.337	82.62
263.57	85.62
263.802	91.62
264.035	74.62
264.267	87.62
264.499	88.62
264.732	79.62
264.964	70.62
265.197	74.62
265.429	78.62
265.661	87.62
265.894	99.62
266.126	85.62
266.358	85.62
266.591	70.62
266.823	82.62
267.055	88.62
267.287	86.62
267.52	82.62
267.752	85.62
267.984	84.62
268.216	82.62
268.448	85.62
268.681	71.62
268.913	84.62
269.145	76.62
269.377	80.62
269.609	72.62
269.841	65.62
270.073	63.62
270.306	84.62
270.538	85.62
270.77	94.62
271.002	86.62
271.234	81.62
271.466	73.62
271.698	87.62
271.93	77.62
272.162	92.62
272.394	83.62
272.626	97.62
272.858	83.62
273.09	82.62
273.322	82.62
273.553	76.62
273.785	76.62
274.017	90.62
274.249	67.62
274.481	88.62
274.713	81.62
274.945	86.62
275.176	85.62
275.408	96.62
275.64	62.62
275.872	72.62
276.104	80.62
276.335	93.62
276.567	97.62
276.799	98.62
277.031	100.62
277.262	72.62
277.494	92.62
277.726	90.62
277.957	92.62
278.189	89.62
278.421	74.62
278.652	87.62
278.884	85.62
279.115	89.62
279.347	92.62
279.579	72.62
279.81	82.62
280.042	90.62
280.273	86.62
280.505	96.62
280.736	88.62
280.968	87.62
281.199	90.62
281.431	86.62
281.662	81.62
281.894	89.62
282.125	96.62
282.356	112.62
282.588	133.62
282.819	115.62
283.051	92.62
283.282	89.62
283.513	86.62
283.745	101.62
283.976	89.62
284.207	87.62
284.439	90.62
284.67	87.62
284.901	87.62
285.132	89.62
285.364	71.62
285.595	80.62
285.826	105.62
286.057	85.62
286.288	81.62
286.52	86.62
286.751	94.62
286.982	95.62
287.213	96.62
287.444	87.62
287.675	99.62
287.906	77.62
288.138	86.62
288.369	81.62
288.6	92.62
288.831	86.62
289.062	100.62
289.293	87.62
289.524	80.62
289.755	94.62
289.986	76.62
290.217	85.62
290.448	93.62
290.679	84.62
290.91	100.62
291.141	97.62
291.371	84.62
291.602	101.62
291.833	86.62
292.064	90.62
292.295	96.62
292.526	80.62
292.757	97.62
292.987	92.62
293.218	92.62
293.449	76.62
293.68	90.62
293.91	82.62
294.141	87.62
294.372	85.62
294.603	85.62
294.833	91.62
295.064	90.62
295.295	85.62
295.525	81.62
295.756	94.62
295.987	114.62
296.217	136.62
296.448	113.62
296.679	93.62
296.909	93.62
297.14	81.62
297.37	90.62
297.601	89.62
297.831	77.62
298.062	79.62
298.292	95.62
298.523	95.62
298.753	76.62
298.984	96.62
299.214	86.62
299.445	85.62
299.675	82.62
299.905	83.62
300.136	82.62
300.366	100.62
300.597	92.62
300.827	102.62
301.057	104.62
301.288	110.62
301.518	106.62
301.748	99.62
301.979	89.62
302.209	93.62
302.439	86.62
302.669	90.62
302.9	87.62
303.13	100.62
303.36	88.62
303.59	84.62
303.82	99.62
304.051	103.62
304.281	89.62
304.511	94.62
304.741	85.62
304.971	75.62
305.201	87.62
305.431	100.62
305.661	95.62
305.891	83.62
306.121	92.62
306.352	94.62
306.582	65.62
306.812	87.62
307.042	95.62
307.272	106.62
307.502	80.62
307.731	91.62
307.961	93.62
308.191	75.62
308.421	94.62
308.651	88.62
308.881	92.62
309.111	92.62
309.341	99.62
309.571	112.62
309.8	84.62
310.03	96.62
310.26	90.62
310.49	91.62
310.72	98.62
310.949	102.62
311.179	106.62
311.409	89.62
311.639	90.62
311.868	93.62
312.098	87.62
312.328	89.62
312.557	107.62
312.787	104.62
313.017	102.62
313.246	92.62
313.476	97.62
313.706	90.62
313.935	85.62
314.165	98.62
314.394	105.62
314.624	99.62
314.853	112.62
315.083	92.62
315.312	97.62
315.542	100.62
315.771	89.62
316.001	100.62
316.23	89.62
316.46	98.62
316.689	104.62
316.919	89.62
317.148	87.62
317.377	90.62
317.607	89.62
317.836	86.62
318.065	91.62
318.295	96.62
318.524	92.62
318.753	89.62
318.983	101.62
319.212	108.62
319.441	104.62
319.67	98.62
319.9	93.62
320.129	85.62
320.358	93.62
320.587	91.62
320.816	96.62
321.046	104.62
321.275	94.62
321.504	88.62
321.733	109.62
321.962	94.62
322.191	104.62
322.42	118.62
322.649	92.62
322.878	97.62
323.108	105.62
323.337	110.62
323.566	124.62
323.795	141.62
324.024	184.62
324.253	339.62
324.482	748.62
324.71	1510.62
324.939	1985.62
325.168	732.62
325.397	225.62
325.626	141.62
325.855	125.62
326.084	119.62
326.313	136.62
326.542	148.62
326.77	218.62
326.999	420.62
327.228	836.62
327.457	1527.62
327.686	1232.62
327.914	341.62
328.143	183.62
328.372	140.62
328.6	131.62
328.829	98.62
329.058	111.62
329.287	104.62
329.515	104.62
329.744	109.62
329.972	91.62
330.201	91.62
330.43	102.62
330.658	112.62
330.887	130.62
331.115	104.62
331.344	84.62
331.572	92.62
331.801	108.62
332.03	81.62
332.258	103.62
332.486	109.62
332.715	97.62
332.943	88.62
333.172	93.62
333.4	92.62
333.629	100.62
333.857	104.62
334.085	101.62
334.314	97.62
334.542	107.62
334.771	111.62
334.999	90.62
335.227	94.62
335.455	102.62
335.684	93.62
335.912	92.62
336.14	88.62
336.369	80.62
336.597	102.62
336.825	108.62
337.053	87.62
337.281	80.62
337.51	89.62
337.738	89.62
337.966	109.62
338.194	101.62
338.422	93.62
338.65	92.62
338.878	89.62
339.106	99.62
339.334	85.62
339.562	86.62
339.79	104.62
340.018	86.62
340.246	93.62
340.474	84.62
340.702	98.62
340.93	84.62
341.158	82.62
341.386	96.62
341.614	94.62
341.842	99.62
342.07	90.62
342.298	98.62
342.526	89.62
342.754	85.62
342.981	86.62
343.209	86.62
343.437	104.62
343.665	96.62
343.893	74.62
344.12	96.62
344.348	87.62
344.576	84.62
344.804	106.62
345.031	91.62
345.259	90.62
345.487	89.62
345.714	93.62
345.942	90.62
346.17	93.62
346.397	100.62
346.625	92.62
346.853	83.62
347.08	96.62
347.308	107.62
347.535	94.62
347.763	94.62
347.99	96.62
348.218	105.62
348.445	91.62
348.673	103.62
348.9	96.62
349.128	96.62
349.355	102.62
349.583	95.62
349.81	90.62
350.037	107.62
350.265	102.62
350.492	88.62
350.72	96.62
350.947	90.62
351.174	100.62
351.402	118.62
351.629	101.62
351.856	98.62
352.083	89.62
352.311	104.62
352.538	103.62
352.765	104.62
352.992	112.62
353.22	107.62
353.447	94.62
353.674	98.62
353.901	94.62
354.128	105.62
354.355	101.62
354.583	114.62
354.81	97.62
355.037	85.62
355.264	78.62
355.491	83.62
355.718	92.62
355.945	98.62
356.172	101.62
356.399	96.62
356.626	88.62
356.853	89.62
357.08	93.62
357.307	83.62
357.534	97.62
357.761	98.62
357.988	104.62
358.215	112.62
358.441	97.62
358.668	89.62
358.895	83.62
359.122	79.62
359.349	81.62
359.576	93.62
359.802	80.62
360.029	116.62
360.256	105.62
360.483	100.62
360.709	97.62
360.936	84.62
361.163	75.62
361.39	102.62
361.616	109.62
361.843	100.62
362.07	104.62
362.296	98.62
362.523	85.62
362.749	99.62
362.976	94.62
363.203	96.62
363.429	84.62
363.656	96.62
363.882	85.62
364.109	88.62
364.335	95.62
364.562	97.62
364.788	80.62
365.015	91.62
365.241	108.62
365.468	108.62
365.694	98.62
365.92	106.62
366.147	88.62
366.373	90.62
366.599	87.62
366.826	92.62
367.052	80.62
367.278	88.62
367.505	91.62
367.731	88.62
367.957	100.62
368.184	96.62
368.41	99.62
368.636	96.62
368.862	106.62
369.089	100.62
369.315	101.62
369.541	93.62
369.767	80.62
369.993	88.62
370.219	93.62
370.445	98.62
370.672	87.62
370.898	80.62
371.124	65.62
371.35	85.62
371.576	103.62
371.802	73.62
372.028	99.62
372.254	90.62
372.48	89.62
372.706	87.62
372.932	66.62
373.158	82.62
373.384	97.62
373.61	99.62
373.835	86.62
374.061	96.62
374.287	92.62
374.513	94.62
374.739	94.62
374.965	85.62
375.191	81.62
375.416	88.62
375.642	92.62
375.868	99.62
376.094	100.62
376.319	89.62
376.545	94.62
376.771	85.62
376.997	84.62
377.222	103.62
377.448	85.62
377.674	90.62
377.899	102.62
378.125	96.62
378.35	99.62
378.576	94.62
378.802	104.62
379.027	83.62
379.253	92.62
379.478	73.62
379.704	98.62
379.929	98.62
380.155	94.62
380.38	106.62
380.606	92.62
380.831	110.62
381.057	101.62
381.282	100.62
381.507	97.62
381.733	87.62
381.958	87.62
382.184	114.62
382.409	94.62
382.634	97.62
382.86	102.62
383.085	92.62
383.31	92.62
383.535	96.62
383.761	98.62
383.986	94.62
384.211	99.62
384.436	86.62
384.662	110.62
384.887	118.62
385.112	109.62
385.337	121.62
385.562	109.62
385.787	112.62
386.013	113.62
386.238	116.62
386.463	117.62
386.688	113.62
386.913	112.62
387.138	113.62
387.363	115.62
387.588	105.62
387.813	115.62
388.038	108.62
388.263	111.62
388.488	114.62
388.713	102.62
388.938	85.62
389.163	105.62
389.387	108.62
389.612	95.62
389.837	85.62
390.062	85.62
390.287	84.62
390.512	87.62
390.736	82.62
390.961	87.62
391.186	85.62
391.411	100.62
391.636	82.62
391.86	91.62
392.085	83.62
392.31	85.62
392.534	86.62
392.759	89.62
392.984	84.62
393.208	96.62
393.433	110.62
393.658	111.62
393.882	98.62
394.107	88.62
394.331	90.62
394.556	79.62
394.78	86.62
395.005	88.62
395.229	91.62
395.454	91.62
395.678	84.62
395.903	94.62
396.127	83.62
396.352	90.62
396.576	97.62
396.801	96.62
397.025	103.62
397.249	96.62
397.474	93.62
397.698	86.62
397.922	92.62
398.147	98.62
398.371	84.62
398.595	75.62
398.82	86.62
399.044	92.62
399.268	82.62
399.492	91.62
399.717	92.62
399.941	95.62
400.165	85.62
400.389	88.62
400.613	81.62
400.837	88.62
401.062	97.62
401.286	97.62
401.51	89.62
401.734	96.62
401.958	88.62
402.182	118.62
402.406	138.62
402.63	126.62
402.854	99.62
403.078	79.62
403.302	96.62
403.526	81.62
403.75	91.62
403.974	98.62
404.198	77.62
404.422	105.62
404.645	103.62
404.869	91.62
405.093	111.62
405.317	99.62
405.541	96.62
405.765	106.62
405.988	129.62
406.212	174.62
406.436	196.62
406.66	140.62
406.883	93.62
407.107	87.62
407.331	89.62
407.555	96.62
407.778	98.62
408.002	91.62
408.226	83.62
408.449	92.62
408.673	85.62
408.896	92.62
409.12	104.62
409.344	97.62
409.567	91.62
409.791	89.62
410.014	100.62
410.238	87.62
410.461	114.62
410.685	101.62
410.908	97.62
411.132	118.62
411.355	106.62
411.578	97.62
411.802	89.62
412.025	101.62
412.249	99.62
412.472	97.62
412.695	110.62
412.919	77.62
413.142	70.62
413.365	92.62
413.589	86.62
413.812	97.62
414.035	86.62
414.258	97.62
414.482	92.62
414.705	96.62
414.928	91.62
415.151	82.62
415.374	93.62
415.597	104.62
415.821	83.62
416.044	86.62
416.267	82.62
416.49	65.62
416.713	90.62
416.936	99.62
417.159	89.62
417.382	100.62
417.605	105.62
417.828	90.62
418.051	86.62
418.274	87.62
418.497	88.62
418.72	87.62
418.943	103.62
419.166	80.62
419.389	95.62
419.611	102.62
419.834	96.62
420.057	88.62
420.28	92.62
420.503	67.62
420.726	90.62
420.948	86.62
421.171	87.62
421.394	88.62
421.617	91.62
421.839	85.62
422.062	90.62
422.285	101.62
422.507	109.62
422.73	121.62
422.953	107.62
423.175	85.62
423.398	77.62
423.621	99.62
423.843	97.62
424.066	88.62
424.288	96.62
424.511	77.62
424.733	94.62
424.956	104.62
425.178	99.62
425.401	97.62
425.623	98.62
425.846	97.62
426.068	91.62
426.291	113.62
426.513	96.62
426.735	92.62
426.958	99.62
427.18	99.62
427.402	128.62
427.625	139.62
427.847	125.62
428.069	116.62
428.292	85.62
428.514	88.62
428.736	91.62
428.958	102.62
429.181	95.62
429.403	105.62
429.625	88.62
429.847	90.62
430.069	97.62
430.292	87.62
430.514	81.62
430.736	81.62
430.958	84.62
431.18	81.62
431.402	82.62
431.624	91.62
431.846	88.62
432.068	91.62
432.29	79.62
432.512	87.62
432.734	77.62
432.956	89.62
433.178	98.62
433.4	101.62
433.622	89.62
433.844	97.62
434.066	81.62
434.287	98.62
434.509	93.62
434.731	101.62
434.953	101.62
435.175	90.62
435.397	96.62
435.618	94.62
435.84	97.62
436.062	118.62
436.284	106.62
436.505	104.62
436.727	98.62
436.949	95.62
437.17	84.62
437.392	89.62
437.614	75.62
437.835	100.62
438.057	94.62
438.278	103.62
438.5	99.62
438.721	107.62
438.943	113.62
439.165	90.62
439.386	97.62
439.608	89.62
439.829	104.62
440.05	105.62
440.272	125.62
440.493	103.62
440.715	98.62
440.936	60.62
441.158	80.62
441.379	101.62
441.6	91.62
441.822	84.62
442.043	85.62
442.264	96.62
442.486	96.62
442.707	98.62
442.928	99.62
443.149	122.62
443.371	113.62
443.592	98.62
443.813	106.62
444.034	110.62
444.255	80.62
444.476	97.62
444.698	93.62
444.919	95.62
445.14	149.62
445.361	105.62
445.582	111.62
445.803	133.62
446.024	127.62
446.245	128.62
446.466	110.62
446.687	75.62
446.908	93.62
447.129	86.62
447.35	88.62
447.571	97.62
447.792	94.62
448.013	95.62
448.234	104.62
448.455	106.62
448.675	119.62
448.896	107.62
449.117	90.62
449.338	99.62
449.559	118.62
449.779	129.62
450	100.62
450.221	85.62
450.442	76.62
450.662	101.62
450.883	87.62
451.104	114.62
451.324	89.62
451.545	80.62
451.766	89.62
451.986	75.62
452.207	91.62
452.428	90.62
452.648	104.62
452.869	114.62
453.089	98.62
453.31	104.62
453.53	93.62
453.751	94.62
453.971	105.62
454.192	109.62
454.412	93.62
454.633	89.62
454.853	102.62
455.073	84.62
455.294	92.62
455.514	101.62
455.734	98.62
455.955	84.62
456.175	75.62
456.395	97.62
456.616	82.62
456.836	92.62
457.056	90.62
457.276	87.62
457.497	67.62
457.717	101.62
457.937	85.62
458.157	78.62
458.377	85.62
458.598	105.62
458.818	144.62
459.038	139.62
459.258	114.62
459.478	89.62
459.698	93.62
459.918	84.62
460.138	85.62
460.358	81.62
460.578	91.62
460.798	72.62
461.018	90.62
461.238	84.62
461.458	88.62
461.678	80.62
461.898	82.62
462.118	84.62
462.338	85.62
462.558	77.62
462.777	86.62
462.997	84.62
463.217	82.62
463.437	88.62
463.657	95.62
463.876	96.62
464.096	107.62
464.316	94.62
464.536	95.62
464.755	80.62
464.975	98.62
465.195	146.62
465.414	131.62
465.634	98.62
465.854	84.62
466.073	90.62
466.293	85.62
466.512	91.62
466.732	84.62
466.951	85.62
467.171	92.62
467.391	89.62
467.61	95.62
467.829	94.62
468.049	95.62
468.268	93.62
468.488	90.62
468.707	101.62
468.927	84.62
469.146	90.62
469.365	82.62
469.585	100.62
469.804	93.62
470.023	100.62
470.243	88.62
470.462	101.62
470.681	102.62
470.901	92.62
471.12	99.62
471.339	90.62
471.558	96.62
471.777	89.62
471.997	89.62
472.216	81.62
472.435	94.62
472.654	72.62
472.873	74.62
473.092	91.62
473.311	82.62
473.53	87.62
473.749	93.62
473.968	94.62
474.187	95.62
474.406	86.62
474.625	90.62
474.844	90.62
475.063	88.62
475.282	85.62
475.501	75.62
475.72	96.62
475.939	70.62
476.158	84.62
476.377	83.62
476.596	83.62
476.814	86.62
477.033	93.62
477.252	94.62
477.471	90.62
477.69	92.62
477.908	88.62
478.127	77.62
478.346	84.62
478.564	90.62
478.783	89.62
479.002	88.62
479.22	86.62
479.439	87.62
479.658	117.62
479.876	100.62
480.095	89.62
480.313	76.62
480.532	65.62
480.751	75.62
480.969	80.62
481.188	105.62
481.406	100.62
481.624	93.62
481.843	97.62
482.061	88.62
482.28	91.62
482.498	76.62
482.717	75.62
482.935	85.62
483.153	96.62
483.372	93.62
483.59	96.62
483.808	99.62
484.027	87.62
484.245	87.62
484.463	75.62
484.681	87.62
484.9	88.62
485.118	89.62
485.336	93.62
485.554	85.62
485.772	90.62
485.99	109.62
486.209	103.62
486.427	100.62
486.645	104.62
486.863	105.62
487.081	102.62
487.299	96.62
487.517	86.62
487.735	92.62
487.953	88.62
488.171	98.62
488.389	92.62
488.607	102.62
488.825	95.62
489.043	101.62
489.261	93.62
489.479	111.62
489.696	102.62
489.914	84.62
490.132	86.62
490.35	76.62
490.568	79.62
490.786	93.62
491.003	102.62
491.221	84.62
491.439	77.62
491.657	95.62
491.874	91.62
492.092	91.62
492.31	87.62
492.527	87.62
492.745	91.62
492.963	86.62
493.18	88.62
493.398	86.62
493.615	94.62
493.833	91.62
494.05	92.62
494.268	84.62
494.485	86.62
494.703	89.62
494.92	104.62
495.138	94.62
495.355	92.62
495.573	102.62
495.79	85.62
496.008	89.62
496.225	92.62
496.442	88.62
496.66	83.62
496.877	82.62
497.094	80.62
497.312	87.62
497.529	89.62
497.746	89.62
497.963	91.62
498.181	82.62
498.398	94.62
498.615	92.62
498.832	107.62
499.049	104.62
499.267	93.62
499.484	73.62
499.701	93.62
499.918	75.62
500.135	95.62
500.352	82.62
500.569	94.62
500.786	89.62
501.003	86.62
501.22	84.62
501.437	95.62
501.654	91.62
501.871	113.62
502.088	81.62
502.305	80.62
502.522	87.62
502.739	88.62
502.956	88.62
503.172	101.62
503.389	96.62
503.606	92.62
503.823	84.62
504.04	89.62
504.256	91.62
504.473	92.62
504.69	98.62
504.907	93.62
505.123	96.62
505.34	97.62
505.557	98.62
505.773	95.62
505.99	84.62
506.207	85.62
506.423	91.62
506.64	107.62
506.856	91.62
507.073	85.62
507.289	85.62
507.506	101.62
507.722	92.62
507.939	86.62
508.155	86.62
508.372	100.62
508.588	101.62
508.805	104.62
509.021	96.62
509.238	96.62
509.454	101.62
509.67	105.62
509.887	108.62
510.103	128.62
510.319	207.62
510.536	683.62
510.752	2117.62
510.968	598.62
511.184	139.62
511.401	104.62
511.617	91.62
511.833	82.62
512.049	73.62
512.265	96.62
512.481	80.62
512.698	87.62
512.914	105.62
513.13	85.62
513.346	99.62
513.562	116.62
513.778	104.62
513.994	96.62
514.21	101.62
514.426	99.62
514.642	123.62
514.858	116.62
515.074	138.62
515.29	378.62
515.506	1248.62
515.721	447.62
