Data from Uncirc_1983_H10_HRD10591_00024.txt Node
Date: Wed Jan 03 12:25:36 EST 2024
User: Yrep
Spectrometer: HR+D1059
Trigger mode: 1
Integration Time (sec): 1.000000E-1
Scans to average: 1
Electric dark correction enabled: true
Nonlinearity correction enabled: false
Boxcar width: 0
XAxis mode: Wavelengths
Number of Pixels in Spectrum: 2048
>>>>>Begin Spectral Data<<<<<
223.165	0.38
223.4	0.38
223.635	0.38
223.869	-19.62
224.104	-33.62
224.338	-17.62
224.573	-13.62
224.808	-3.62
225.042	0.38
225.277	-13.62
225.511	-9.62
225.746	2.38
225.98	1.38
226.215	21.38
226.449	14.38
226.683	12.38
226.918	35.38
227.152	23.38
227.387	33.38
227.621	51.38
227.856	53.38
228.09	45.38
228.324	57.38
228.559	42.38
228.793	63.38
229.027	57.38
229.262	61.38
229.496	70.38
229.73	78.38
229.964	76.38
230.199	90.38
230.433	70.38
230.667	71.38
230.901	76.38
231.136	71.38
231.37	73.38
231.604	67.38
231.838	70.38
232.072	81.38
232.306	88.38
232.541	75.38
232.775	89.38
233.009	70.38
233.243	76.38
233.477	83.38
233.711	80.38
233.945	85.38
234.179	82.38
234.413	81.38
234.647	81.38
234.881	84.38
235.115	73.38
235.349	86.38
235.583	77.38
235.817	78.38
236.051	75.38
236.285	55.38
236.519	78.38
236.753	80.38
236.987	80.38
237.221	73.38
237.455	91.38
237.689	66.38
237.922	70.38
238.156	86.38
238.39	74.38
238.624	64.38
238.858	73.38
239.091	84.38
239.325	86.38
239.559	83.38
239.793	85.38
240.027	86.38
240.26	78.38
240.494	54.38
240.728	72.38
240.961	70.38
241.195	84.38
241.429	73.38
241.662	73.38
241.896	81.38
242.13	83.38
242.363	78.38
242.597	82.38
242.83	90.38
243.064	75.38
243.298	86.38
243.531	80.38
243.765	77.38
243.998	80.38
244.232	84.38
244.465	85.38
244.699	74.38
244.932	72.38
245.166	85.38
245.399	74.38
245.633	83.38
245.866	74.38
246.099	74.38
246.333	88.38
246.566	80.38
246.8	75.38
247.033	80.38
247.266	86.38
247.5	83.38
247.733	78.38
247.966	78.38
248.2	88.38
248.433	92.38
248.666	82.38
248.899	87.38
249.133	87.38
249.366	91.38
249.599	97.38
249.832	77.38
250.066	75.38
250.299	70.38
250.532	83.38
250.765	80.38
250.998	80.38
251.231	83.38
251.465	91.38
251.698	88.38
251.931	79.38
252.164	77.38
252.397	74.38
252.63	85.38
252.863	83.38
253.096	93.38
253.329	80.38
253.562	88.38
253.795	78.38
254.028	86.38
254.261	96.38
254.494	72.38
254.727	87.38
254.96	76.38
255.193	89.38
255.426	79.38
255.659	76.38
255.892	74.38
256.124	66.38
256.357	91.38
256.59	90.38
256.823	73.38
257.056	72.38
257.289	80.38
257.521	75.38
257.754	84.38
257.987	90.38
258.22	80.38
258.452	84.38
258.685	82.38
258.918	77.38
259.151	70.38
259.383	72.38
259.616	85.38
259.849	75.38
260.081	71.38
260.314	87.38
260.547	93.38
260.779	87.38
261.012	67.38
261.244	84.38
261.477	80.38
261.71	90.38
261.942	101.38
262.175	98.38
262.407	90.38
262.64	76.38
262.872	80.38
263.105	63.38
263.337	77.38
263.57	85.38
263.802	75.38
264.035	73.38
264.267	72.38
264.499	75.38
264.732	81.38
264.964	84.38
265.197	81.38
265.429	85.38
265.661	96.38
265.894	77.38
266.126	77.38
266.358	98.38
266.591	77.38
266.823	79.38
267.055	81.38
267.287	79.38
267.52	82.38
267.752	92.38
267.984	91.38
268.216	97.38
268.448	94.38
268.681	86.38
268.913	91.38
269.145	80.38
269.377	89.38
269.609	76.38
269.841	86.38
270.073	88.38
270.306	82.38
270.538	83.38
270.77	74.38
271.002	96.38
271.234	71.38
271.466	78.38
271.698	69.38
271.93	85.38
272.162	85.38
272.394	83.38
272.626	88.38
272.858	80.38
273.09	88.38
273.322	80.38
273.553	88.38
273.785	73.38
274.017	83.38
274.249	89.38
274.481	92.38
274.713	77.38
274.945	80.38
275.176	76.38
275.408	72.38
275.64	82.38
275.872	79.38
276.104	88.38
276.335	96.38
276.567	105.38
276.799	106.38
277.031	105.38
277.262	74.38
277.494	92.38
277.726	91.38
277.957	86.38
278.189	83.38
278.421	86.38
278.652	85.38
278.884	89.38
279.115	93.38
279.347	87.38
279.579	97.38
279.81	90.38
280.042	77.38
280.273	86.38
280.505	89.38
280.736	83.38
280.968	89.38
281.199	83.38
281.431	81.38
281.662	86.38
281.894	102.38
282.125	94.38
282.356	108.38
282.588	115.38
282.819	102.38
283.051	82.38
283.282	76.38
283.513	94.38
283.745	87.38
283.976	84.38
284.207	76.38
284.439	79.38
284.67	102.38
284.901	90.38
285.132	86.38
285.364	89.38
285.595	82.38
285.826	92.38
286.057	89.38
286.288	85.38
286.52	82.38
286.751	90.38
286.982	84.38
287.213	82.38
287.444	94.38
287.675	91.38
287.906	89.38
288.138	78.38
288.369	96.38
288.6	94.38
288.831	92.38
289.062	84.38
289.293	82.38
289.524	97.38
289.755	84.38
289.986	92.38
290.217	72.38
290.448	88.38
290.679	80.38
290.91	81.38
291.141	71.38
291.371	91.38
291.602	100.38
291.833	88.38
292.064	93.38
292.295	84.38
292.526	69.38
292.757	88.38
292.987	88.38
293.218	98.38
293.449	90.38
293.68	93.38
293.91	84.38
294.141	92.38
294.372	79.38
294.603	97.38
294.833	80.38
295.064	85.38
295.295	93.38
295.525	88.38
295.756	108.38
295.987	89.38
296.217	127.38
296.448	117.38
296.679	100.38
296.909	105.38
297.14	86.38
297.37	84.38
297.601	83.38
297.831	89.38
298.062	88.38
298.292	92.38
298.523	83.38
298.753	91.38
298.984	91.38
299.214	84.38
299.445	91.38
299.675	76.38
299.905	111.38
300.136	96.38
300.366	77.38
300.597	87.38
300.827	81.38
301.057	85.38
301.288	105.38
301.518	87.38
301.748	91.38
301.979	105.38
302.209	84.38
302.439	93.38
302.669	98.38
302.9	90.38
303.13	87.38
303.36	87.38
303.59	90.38
303.82	104.38
304.051	88.38
304.281	84.38
304.511	85.38
304.741	96.38
304.971	91.38
305.201	88.38
305.431	101.38
305.661	107.38
305.891	87.38
306.121	99.38
306.352	100.38
306.582	92.38
306.812	89.38
307.042	93.38
307.272	90.38
307.502	98.38
307.731	96.38
307.961	72.38
308.191	96.38
308.421	110.38
308.651	93.38
308.881	99.38
309.111	92.38
309.341	92.38
309.571	99.38
309.8	93.38
310.03	99.38
310.26	107.38
310.49	93.38
310.72	88.38
310.949	91.38
311.179	88.38
311.409	103.38
311.639	92.38
311.868	108.38
312.098	96.38
312.328	93.38
312.557	97.38
312.787	102.38
313.017	102.38
313.246	89.38
313.476	83.38
313.706	89.38
313.935	81.38
314.165	100.38
314.394	92.38
314.624	91.38
314.853	90.38
315.083	83.38
315.312	93.38
315.542	98.38
315.771	97.38
316.001	78.38
316.23	92.38
316.46	83.38
316.689	86.38
316.919	92.38
317.148	103.38
317.377	90.38
317.607	93.38
317.836	87.38
318.065	86.38
318.295	93.38
318.524	87.38
318.753	94.38
318.983	91.38
319.212	98.38
319.441	102.38
319.67	110.38
319.9	98.38
320.129	100.38
320.358	92.38
320.587	88.38
320.816	101.38
321.046	103.38
321.275	89.38
321.504	76.38
321.733	87.38
321.962	99.38
322.191	105.38
322.42	85.38
322.649	103.38
322.878	117.38
323.108	110.38
323.337	110.38
323.566	123.38
323.795	146.38
324.024	187.38
324.253	326.38
324.482	672.38
324.71	1394.38
324.939	1856.38
325.168	692.38
325.397	226.38
325.626	140.38
325.855	130.38
326.084	120.38
326.313	122.38
326.542	141.38
326.77	205.38
326.999	405.38
327.228	789.38
327.457	1429.38
327.686	1114.38
327.914	314.38
328.143	160.38
328.372	133.38
328.6	116.38
328.829	111.38
329.058	114.38
329.287	112.38
329.515	112.38
329.744	84.38
329.972	102.38
330.201	94.38
330.43	100.38
330.658	104.38
330.887	128.38
331.115	93.38
331.344	90.38
331.572	89.38
331.801	99.38
332.03	83.38
332.258	96.38
332.486	82.38
332.715	88.38
332.943	96.38
333.172	90.38
333.4	104.38
333.629	96.38
333.857	95.38
334.085	85.38
334.314	104.38
334.542	90.38
334.771	92.38
334.999	98.38
335.227	93.38
335.455	97.38
335.684	104.38
335.912	105.38
336.14	85.38
336.369	116.38
336.597	103.38
336.825	90.38
337.053	92.38
337.281	85.38
337.51	100.38
337.738	92.38
337.966	105.38
338.194	96.38
338.422	95.38
338.65	103.38
338.878	89.38
339.106	90.38
339.334	95.38
339.562	88.38
339.79	91.38
340.018	94.38
340.246	91.38
340.474	74.38
340.702	83.38
340.93	108.38
341.158	82.38
341.386	98.38
341.614	97.38
341.842	109.38
342.07	85.38
342.298	80.38
342.526	93.38
342.754	84.38
342.981	84.38
343.209	85.38
343.437	93.38
343.665	85.38
343.893	107.38
344.12	100.38
344.348	85.38
344.576	85.38
344.804	93.38
345.031	85.38
345.259	97.38
345.487	102.38
345.714	97.38
345.942	86.38
346.17	84.38
346.397	99.38
346.625	85.38
346.853	98.38
347.08	88.38
347.308	99.38
347.535	100.38
347.763	101.38
347.99	94.38
348.218	91.38
348.445	101.38
348.673	96.38
348.9	94.38
349.128	107.38
349.355	92.38
349.583	75.38
349.81	106.38
350.037	103.38
350.265	98.38
350.492	90.38
350.72	96.38
350.947	104.38
351.174	103.38
351.402	109.38
351.629	97.38
351.856	100.38
352.083	109.38
352.311	98.38
352.538	92.38
352.765	100.38
352.992	117.38
353.22	117.38
353.447	107.38
353.674	108.38
353.901	100.38
354.128	96.38
354.355	96.38
354.583	95.38
354.81	99.38
355.037	96.38
355.264	92.38
355.491	100.38
355.718	94.38
355.945	91.38
356.172	85.38
356.399	96.38
356.626	92.38
356.853	88.38
357.08	92.38
357.307	89.38
357.534	90.38
357.761	82.38
357.988	87.38
358.215	92.38
358.441	92.38
358.668	97.38
358.895	89.38
359.122	90.38
359.349	99.38
359.576	103.38
359.802	100.38
360.029	94.38
360.256	108.38
360.483	105.38
360.709	93.38
360.936	83.38
361.163	96.38
361.39	104.38
361.616	94.38
361.843	86.38
362.07	90.38
362.296	96.38
362.523	96.38
362.749	99.38
362.976	92.38
363.203	97.38
363.429	82.38
363.656	93.38
363.882	86.38
364.109	86.38
364.335	87.38
364.562	92.38
364.788	82.38
365.015	100.38
365.241	98.38
365.468	117.38
365.694	91.38
365.92	98.38
366.147	82.38
366.373	88.38
366.599	75.38
366.826	88.38
367.052	95.38
367.278	90.38
367.505	80.38
367.731	92.38
367.957	84.38
368.184	93.38
368.41	92.38
368.636	109.38
368.862	113.38
369.089	106.38
369.315	80.38
369.541	107.38
369.767	96.38
369.993	92.38
370.219	75.38
370.445	100.38
370.672	99.38
370.898	97.38
371.124	84.38
371.35	78.38
371.576	71.38
371.802	93.38
372.028	80.38
372.254	97.38
372.48	87.38
372.706	90.38
372.932	104.38
373.158	85.38
373.384	80.38
373.61	82.38
373.835	88.38
374.061	80.38
374.287	81.38
374.513	82.38
374.739	83.38
374.965	95.38
375.191	76.38
375.416	90.38
375.642	75.38
375.868	91.38
376.094	90.38
376.319	85.38
376.545	75.38
376.771	100.38
376.997	90.38
377.222	86.38
377.448	88.38
377.674	78.38
377.899	87.38
378.125	88.38
378.35	87.38
378.576	105.38
378.802	82.38
379.027	90.38
379.253	100.38
379.478	89.38
379.704	107.38
379.929	90.38
380.155	92.38
380.38	94.38
380.606	86.38
380.831	96.38
381.057	98.38
381.282	76.38
381.507	100.38
381.733	91.38
381.958	89.38
382.184	106.38
382.409	96.38
382.634	106.38
382.86	88.38
383.085	96.38
383.31	92.38
383.535	100.38
383.761	107.38
383.986	112.38
384.211	94.38
384.436	96.38
384.662	99.38
384.887	101.38
385.112	95.38
385.337	100.38
385.562	98.38
385.787	98.38
386.013	111.38
386.238	92.38
386.463	108.38
386.688	102.38
386.913	98.38
387.138	92.38
387.363	110.38
387.588	111.38
387.813	106.38
388.038	92.38
388.263	102.38
388.488	95.38
388.713	95.38
388.938	103.38
389.163	101.38
389.387	112.38
389.612	93.38
389.837	91.38
390.062	84.38
390.287	100.38
390.512	110.38
390.736	81.38
390.961	94.38
391.186	93.38
391.411	93.38
391.636	87.38
391.86	96.38
392.085	76.38
392.31	91.38
392.534	84.38
392.759	89.38
392.984	96.38
393.208	98.38
393.433	107.38
393.658	106.38
393.882	85.38
394.107	86.38
394.331	87.38
394.556	84.38
394.78	77.38
395.005	87.38
395.229	73.38
395.454	70.38
395.678	83.38
395.903	76.38
396.127	79.38
396.352	87.38
396.576	72.38
396.801	95.38
397.025	97.38
397.249	97.38
397.474	92.38
397.698	87.38
397.922	97.38
398.147	83.38
398.371	80.38
398.595	92.38
398.82	86.38
399.044	80.38
399.268	93.38
399.492	91.38
399.717	75.38
399.941	92.38
400.165	93.38
400.389	82.38
400.613	69.38
400.837	86.38
401.062	87.38
401.286	82.38
401.51	67.38
401.734	86.38
401.958	107.38
402.182	122.38
402.406	143.38
402.63	123.38
402.854	84.38
403.078	92.38
403.302	83.38
403.526	86.38
403.75	89.38
403.974	96.38
404.198	67.38
404.422	94.38
404.645	83.38
404.869	83.38
405.093	97.38
405.317	89.38
405.541	85.38
405.765	89.38
405.988	109.38
406.212	150.38
406.436	199.38
406.66	132.38
406.883	94.38
407.107	88.38
407.331	97.38
407.555	103.38
407.778	94.38
408.002	75.38
408.226	76.38
408.449	97.38
408.673	83.38
408.896	83.38
409.12	88.38
409.344	84.38
409.567	80.38
409.791	87.38
410.014	99.38
410.238	87.38
410.461	100.38
410.685	96.38
410.908	89.38
411.132	97.38
411.355	94.38
411.578	81.38
411.802	84.38
412.025	91.38
412.249	87.38
412.472	92.38
412.695	97.38
412.919	96.38
413.142	94.38
413.365	86.38
413.589	99.38
413.812	76.38
414.035	80.38
414.258	87.38
414.482	96.38
414.705	84.38
414.928	91.38
415.151	96.38
415.374	92.38
415.597	96.38
415.821	88.38
416.044	85.38
416.267	90.38
416.49	91.38
416.713	100.38
416.936	90.38
417.159	85.38
417.382	73.38
417.605	95.38
417.828	105.38
418.051	93.38
418.274	77.38
418.497	96.38
418.72	71.38
418.943	85.38
419.166	81.38
419.389	88.38
419.611	84.38
419.834	94.38
420.057	85.38
420.28	92.38
420.503	91.38
420.726	94.38
420.948	89.38
421.171	86.38
421.394	92.38
421.617	90.38
421.839	92.38
422.062	78.38
422.285	92.38
422.507	98.38
422.73	111.38
422.953	111.38
423.175	89.38
423.398	76.38
423.621	86.38
423.843	84.38
424.066	82.38
424.288	96.38
424.511	86.38
424.733	106.38
424.956	101.38
425.178	95.38
425.401	99.38
425.623	107.38
425.846	81.38
426.068	81.38
426.291	85.38
426.513	91.38
426.735	74.38
426.958	88.38
427.18	100.38
427.402	129.38
427.625	148.38
427.847	123.38
428.069	94.38
428.292	99.38
428.514	85.38
428.736	72.38
428.958	83.38
429.181	88.38
429.403	91.38
429.625	92.38
429.847	100.38
430.069	91.38
430.292	95.38
430.514	84.38
430.736	91.38
430.958	97.38
431.18	92.38
431.402	89.38
431.624	89.38
431.846	84.38
432.068	83.38
432.29	99.38
432.512	104.38
432.734	90.38
432.956	91.38
433.178	77.38
433.4	90.38
433.622	86.38
433.844	103.38
434.066	88.38
434.287	77.38
434.509	93.38
434.731	94.38
434.953	97.38
435.175	81.38
435.397	75.38
435.618	75.38
435.84	80.38
436.062	122.38
436.284	104.38
436.505	89.38
436.727	97.38
436.949	92.38
437.17	75.38
437.392	102.38
437.614	99.38
437.835	107.38
438.057	109.38
438.278	102.38
438.5	101.38
438.721	108.38
438.943	94.38
439.165	88.38
439.386	72.38
439.608	76.38
439.829	93.38
440.05	98.38
440.272	121.38
440.493	91.38
440.715	84.38
440.936	85.38
441.158	92.38
441.379	76.38
441.6	95.38
441.822	89.38
442.043	68.38
442.264	93.38
442.486	100.38
442.707	105.38
442.928	105.38
443.149	123.38
443.371	118.38
443.592	116.38
443.813	104.38
444.034	109.38
444.255	100.38
444.476	84.38
444.698	84.38
444.919	89.38
445.14	116.38
445.361	102.38
445.582	111.38
445.803	124.38
446.024	117.38
446.245	113.38
446.466	110.38
446.687	96.38
446.908	92.38
447.129	99.38
447.35	83.38
447.571	96.38
447.792	85.38
448.013	96.38
448.234	92.38
448.455	91.38
448.675	103.38
448.896	98.38
449.117	94.38
449.338	102.38
449.559	118.38
449.779	120.38
450	88.38
450.221	88.38
450.442	96.38
450.662	99.38
450.883	98.38
451.104	107.38
451.324	98.38
451.545	80.38
451.766	91.38
451.986	87.38
452.207	77.38
452.428	96.38
452.648	89.38
452.869	104.38
453.089	105.38
453.31	108.38
453.53	77.38
453.751	77.38
453.971	89.38
454.192	113.38
454.412	91.38
454.633	78.38
454.853	92.38
455.073	86.38
455.294	82.38
455.514	97.38
455.734	97.38
455.955	95.38
456.175	84.38
456.395	90.38
456.616	91.38
456.836	90.38
457.056	91.38
457.276	100.38
457.497	89.38
457.717	78.38
457.937	95.38
458.157	65.38
458.377	97.38
458.598	114.38
458.818	141.38
459.038	142.38
459.258	100.38
459.478	80.38
459.698	81.38
459.918	84.38
460.138	92.38
460.358	91.38
460.578	87.38
460.798	91.38
461.018	97.38
461.238	97.38
461.458	75.38
461.678	94.38
461.898	74.38
462.118	92.38
462.338	96.38
462.558	100.38
462.777	81.38
462.997	79.38
463.217	90.38
463.437	80.38
463.657	99.38
463.876	94.38
464.096	94.38
464.316	92.38
464.536	93.38
464.755	91.38
464.975	96.38
465.195	158.38
465.414	134.38
465.634	108.38
465.854	89.38
466.073	91.38
466.293	85.38
466.512	84.38
466.732	68.38
466.951	88.38
467.171	86.38
467.391	85.38
467.61	99.38
467.829	90.38
468.049	84.38
468.268	86.38
468.488	89.38
468.707	96.38
468.927	88.38
469.146	92.38
469.365	77.38
469.585	100.38
469.804	103.38
470.023	94.38
470.243	99.38
470.462	94.38
470.681	98.38
470.901	91.38
471.12	84.38
471.339	87.38
471.558	75.38
471.777	78.38
471.997	93.38
472.216	98.38
472.435	93.38
472.654	86.38
472.873	103.38
473.092	91.38
473.311	90.38
473.53	75.38
473.749	80.38
473.968	90.38
474.187	81.38
474.406	102.38
474.625	93.38
474.844	94.38
475.063	85.38
475.282	81.38
475.501	85.38
475.72	86.38
475.939	93.38
476.158	85.38
476.377	73.38
476.596	90.38
476.814	82.38
477.033	94.38
477.252	82.38
477.471	88.38
477.69	93.38
477.908	89.38
478.127	73.38
478.346	91.38
478.564	78.38
478.783	106.38
479.002	93.38
479.22	88.38
479.439	100.38
479.658	99.38
479.876	96.38
480.095	88.38
480.313	87.38
480.532	85.38
480.751	80.38
480.969	89.38
481.188	110.38
481.406	102.38
481.624	97.38
481.843	94.38
482.061	66.38
482.28	80.38
482.498	90.38
482.717	95.38
482.935	85.38
483.153	84.38
483.372	79.38
483.59	91.38
483.808	100.38
484.027	86.38
484.245	98.38
484.463	93.38
484.681	114.38
484.9	105.38
485.118	96.38
485.336	84.38
485.554	89.38
485.772	89.38
485.99	93.38
486.209	97.38
486.427	96.38
486.645	114.38
486.863	91.38
487.081	96.38
487.299	85.38
487.517	97.38
487.735	94.38
487.953	90.38
488.171	83.38
488.389	105.38
488.607	114.38
488.825	86.38
489.043	97.38
489.261	80.38
489.479	91.38
489.696	102.38
489.914	90.38
490.132	93.38
490.35	64.38
490.568	101.38
490.786	100.38
491.003	85.38
491.221	101.38
491.439	96.38
491.657	109.38
491.874	94.38
492.092	101.38
492.31	91.38
492.527	78.38
492.745	86.38
492.963	107.38
493.18	88.38
493.398	77.38
493.615	95.38
493.833	106.38
494.05	83.38
494.268	76.38
494.485	84.38
494.703	74.38
494.92	88.38
495.138	96.38
495.355	92.38
495.573	94.38
495.79	102.38
496.008	84.38
496.225	99.38
496.442	97.38
496.66	99.38
496.877	97.38
497.094	95.38
497.312	90.38
497.529	92.38
497.746	97.38
497.963	78.38
498.181	94.38
498.398	101.38
498.615	103.38
498.832	109.38
499.049	92.38
499.267	94.38
499.484	106.38
499.701	89.38
499.918	91.38
500.135	101.38
500.352	93.38
500.569	97.38
500.786	84.38
501.003	93.38
501.22	80.38
501.437	106.38
501.654	90.38
501.871	103.38
502.088	87.38
502.305	87.38
502.522	85.38
502.739	99.38
502.956	85.38
503.172	84.38
503.389	99.38
503.606	108.38
503.823	93.38
504.04	92.38
504.256	83.38
504.473	88.38
504.69	93.38
504.907	98.38
505.123	101.38
505.34	81.38
505.557	89.38
505.773	88.38
505.99	94.38
506.207	86.38
506.423	88.38
506.64	82.38
506.856	75.38
507.073	75.38
507.289	96.38
507.506	90.38
507.722	109.38
507.939	113.38
508.155	92.38
508.372	80.38
508.588	94.38
508.805	103.38
509.021	86.38
509.238	88.38
509.454	97.38
509.67	88.38
509.887	109.38
510.103	126.38
510.319	219.38
510.536	694.38
510.752	2182.38
510.968	581.38
511.184	141.38
511.401	106.38
511.617	106.38
511.833	90.38
512.049	87.38
512.265	89.38
512.481	91.38
512.698	90.38
512.914	83.38
513.13	98.38
513.346	97.38
513.562	84.38
513.778	107.38
513.994	86.38
514.21	103.38
514.426	116.38
514.642	130.38
514.858	110.38
515.074	145.38
515.29	408.38
515.506	1278.38
515.721	470.38
515.937	145.38
516.153	108.38
516.369	90.38
