Data from Uncirc_1983_H10_HRD10591_00023.txt Node
Date: Wed Jan 03 12:25:36 EST 2024
User: Yrep
Spectrometer: HR+D1059
Trigger mode: 1
Integration Time (sec): 1.000000E-1
Scans to average: 1
Electric dark correction enabled: true
Nonlinearity correction enabled: false
Boxcar width: 0
XAxis mode: Wavelengths
Number of Pixels in Spectrum: 2048
>>>>>Begin Spectral Data<<<<<
223.165	-17.06
223.4	-17.06
223.635	-17.06
223.869	-24.06
224.104	-18.06
224.338	-18.06
224.573	-20.06
224.808	-9.06
225.042	-6.06
225.277	-5.06
225.511	-2.06
225.746	5.94
225.98	7.94
226.215	14.94
226.449	12.94
226.683	12.94
226.918	20.94
227.152	43.94
227.387	45.94
227.621	41.94
227.856	54.94
228.09	49.94
228.324	51.94
228.559	57.94
228.793	65.94
229.027	71.94
229.262	71.94
229.496	72.94
229.73	72.94
229.964	92.94
230.199	76.94
230.433	73.94
230.667	73.94
230.901	77.94
231.136	91.94
231.37	77.94
231.604	97.94
231.838	91.94
232.072	79.94
232.306	86.94
232.541	87.94
232.775	90.94
233.009	79.94
233.243	95.94
233.477	92.94
233.711	85.94
233.945	88.94
234.179	85.94
234.413	88.94
234.647	83.94
234.881	78.94
235.115	75.94
235.349	71.94
235.583	79.94
235.817	67.94
236.051	65.94
236.285	92.94
236.519	80.94
236.753	79.94
236.987	71.94
237.221	80.94
237.455	87.94
237.689	71.94
237.922	79.94
238.156	83.94
238.39	90.94
238.624	77.94
238.858	93.94
239.091	93.94
239.325	92.94
239.559	73.94
239.793	78.94
240.027	77.94
240.26	78.94
240.494	91.94
240.728	87.94
240.961	72.94
241.195	78.94
241.429	74.94
241.662	83.94
241.896	92.94
242.13	67.94
242.363	83.94
242.597	83.94
242.83	93.94
243.064	92.94
243.298	71.94
243.531	74.94
243.765	88.94
243.998	91.94
244.232	74.94
244.465	83.94
244.699	100.94
244.932	98.94
245.166	87.94
245.399	87.94
245.633	90.94
245.866	78.94
246.099	85.94
246.333	75.94
246.566	80.94
246.8	93.94
247.033	81.94
247.266	86.94
247.5	78.94
247.733	85.94
247.966	71.94
248.2	89.94
248.433	77.94
248.666	92.94
248.899	88.94
249.133	89.94
249.366	102.94
249.599	97.94
249.832	91.94
250.066	82.94
250.299	86.94
250.532	81.94
250.765	86.94
250.998	83.94
251.231	91.94
251.465	77.94
251.698	81.94
251.931	85.94
252.164	78.94
252.397	100.94
252.63	96.94
252.863	89.94
253.096	85.94
253.329	78.94
253.562	80.94
253.795	76.94
254.028	81.94
254.261	85.94
254.494	92.94
254.727	91.94
254.96	72.94
255.193	89.94
255.426	74.94
255.659	75.94
255.892	97.94
256.124	79.94
256.357	95.94
256.59	84.94
256.823	90.94
257.056	95.94
257.289	87.94
257.521	87.94
257.754	65.94
257.987	77.94
258.22	81.94
258.452	90.94
258.685	79.94
258.918	94.94
259.151	86.94
259.383	95.94
259.616	99.94
259.849	82.94
260.081	85.94
260.314	78.94
260.547	85.94
260.779	76.94
261.012	85.94
261.244	81.94
261.477	99.94
261.71	93.94
261.942	102.94
262.175	106.94
262.407	90.94
262.64	82.94
262.872	90.94
263.105	87.94
263.337	88.94
263.57	94.94
263.802	94.94
264.035	101.94
264.267	81.94
264.499	91.94
264.732	88.94
264.964	92.94
265.197	85.94
265.429	83.94
265.661	94.94
265.894	93.94
266.126	108.94
266.358	80.94
266.591	96.94
266.823	83.94
267.055	93.94
267.287	89.94
267.52	91.94
267.752	86.94
267.984	85.94
268.216	87.94
268.448	97.94
268.681	91.94
268.913	94.94
269.145	99.94
269.377	98.94
269.609	85.94
269.841	71.94
270.073	85.94
270.306	88.94
270.538	97.94
270.77	84.94
271.002	92.94
271.234	94.94
271.466	99.94
271.698	102.94
271.93	81.94
272.162	78.94
272.394	81.94
272.626	81.94
272.858	100.94
273.09	86.94
273.322	83.94
273.553	94.94
273.785	102.94
274.017	87.94
274.249	86.94
274.481	85.94
274.713	80.94
274.945	103.94
275.176	85.94
275.408	98.94
275.64	89.94
275.872	85.94
276.104	96.94
276.335	81.94
276.567	99.94
276.799	102.94
277.031	104.94
277.262	101.94
277.494	81.94
277.726	83.94
277.957	92.94
278.189	84.94
278.421	92.94
278.652	92.94
278.884	87.94
279.115	89.94
279.347	98.94
279.579	103.94
279.81	83.94
280.042	92.94
280.273	86.94
280.505	82.94
280.736	95.94
280.968	87.94
281.199	90.94
281.431	96.94
281.662	101.94
281.894	95.94
282.125	95.94
282.356	104.94
282.588	149.94
282.819	120.94
283.051	105.94
283.282	90.94
283.513	93.94
283.745	105.94
283.976	81.94
284.207	100.94
284.439	80.94
284.67	96.94
284.901	100.94
285.132	97.94
285.364	95.94
285.595	95.94
285.826	84.94
286.057	95.94
286.288	83.94
286.52	87.94
286.751	91.94
286.982	86.94
287.213	86.94
287.444	88.94
287.675	92.94
287.906	90.94
288.138	95.94
288.369	108.94
288.6	90.94
288.831	87.94
289.062	103.94
289.293	95.94
289.524	96.94
289.755	93.94
289.986	92.94
290.217	96.94
290.448	97.94
290.679	78.94
290.91	89.94
291.141	101.94
291.371	88.94
291.602	81.94
291.833	99.94
292.064	83.94
292.295	87.94
292.526	95.94
292.757	90.94
292.987	88.94
293.218	87.94
293.449	94.94
293.68	107.94
293.91	76.94
294.141	96.94
294.372	83.94
294.603	93.94
294.833	83.94
295.064	98.94
295.295	96.94
295.525	87.94
295.756	92.94
295.987	113.94
296.217	120.94
296.448	111.94
296.679	93.94
296.909	87.94
297.14	93.94
297.37	101.94
297.601	89.94
297.831	92.94
298.062	101.94
298.292	81.94
298.523	87.94
298.753	84.94
298.984	95.94
299.214	94.94
299.445	93.94
299.675	100.94
299.905	90.94
300.136	102.94
300.366	101.94
300.597	92.94
300.827	101.94
301.057	102.94
301.288	90.94
301.518	109.94
301.748	83.94
301.979	105.94
302.209	85.94
302.439	96.94
302.669	97.94
302.9	87.94
303.13	97.94
303.36	104.94
303.59	102.94
303.82	100.94
304.051	84.94
304.281	90.94
304.511	93.94
304.741	87.94
304.971	87.94
305.201	90.94
305.431	95.94
305.661	101.94
305.891	95.94
306.121	84.94
306.352	103.94
306.582	102.94
306.812	83.94
307.042	98.94
307.272	98.94
307.502	100.94
307.731	102.94
307.961	93.94
308.191	90.94
308.421	91.94
308.651	96.94
308.881	101.94
309.111	77.94
309.341	88.94
309.571	106.94
309.8	108.94
310.03	95.94
310.26	82.94
310.49	83.94
310.72	92.94
310.949	99.94
311.179	108.94
311.409	102.94
311.639	84.94
311.868	96.94
312.098	93.94
312.328	91.94
312.557	107.94
312.787	102.94
313.017	82.94
313.246	86.94
313.476	96.94
313.706	88.94
313.935	79.94
314.165	95.94
314.394	102.94
314.624	79.94
314.853	80.94
315.083	92.94
315.312	85.94
315.542	101.94
315.771	100.94
316.001	106.94
316.23	84.94
316.46	93.94
316.689	104.94
316.919	85.94
317.148	84.94
317.377	89.94
317.607	97.94
317.836	94.94
318.065	91.94
318.295	95.94
318.524	91.94
318.753	93.94
318.983	90.94
319.212	95.94
319.441	93.94
319.67	119.94
319.9	96.94
320.129	107.94
320.358	103.94
320.587	91.94
320.816	84.94
321.046	93.94
321.275	92.94
321.504	83.94
321.733	93.94
321.962	89.94
322.191	98.94
322.42	115.94
322.649	105.94
322.878	118.94
323.108	123.94
323.337	119.94
323.566	129.94
323.795	143.94
324.024	190.94
324.253	357.94
324.482	736.94
324.71	1507.94
324.939	1963.94
325.168	714.94
325.397	221.94
325.626	148.94
325.855	124.94
326.084	133.94
326.313	136.94
326.542	164.94
326.77	207.94
326.999	404.94
327.228	856.94
327.457	1527.94
327.686	1223.94
327.914	348.94
328.143	203.94
328.372	163.94
328.6	132.94
328.829	126.94
329.058	99.94
329.287	137.94
329.515	104.94
329.744	108.94
329.972	102.94
330.201	107.94
330.43	110.94
330.658	125.94
330.887	114.94
331.115	113.94
331.344	111.94
331.572	87.94
331.801	99.94
332.03	99.94
332.258	90.94
332.486	99.94
332.715	107.94
332.943	107.94
333.172	92.94
333.4	100.94
333.629	99.94
333.857	96.94
334.085	92.94
334.314	102.94
334.542	105.94
334.771	85.94
334.999	108.94
335.227	101.94
335.455	95.94
335.684	97.94
335.912	96.94
336.14	100.94
336.369	93.94
336.597	99.94
336.825	95.94
337.053	101.94
337.281	102.94
337.51	93.94
337.738	104.94
337.966	99.94
338.194	107.94
338.422	98.94
338.65	91.94
338.878	97.94
339.106	97.94
339.334	97.94
339.562	92.94
339.79	89.94
340.018	88.94
340.246	100.94
340.474	87.94
340.702	102.94
340.93	107.94
341.158	86.94
341.386	87.94
341.614	87.94
341.842	94.94
342.07	103.94
342.298	94.94
342.526	94.94
342.754	101.94
342.981	85.94
343.209	99.94
343.437	107.94
343.665	97.94
343.893	102.94
344.12	104.94
344.348	98.94
344.576	89.94
344.804	88.94
345.031	113.94
345.259	94.94
345.487	91.94
345.714	94.94
345.942	100.94
346.17	107.94
346.397	95.94
346.625	87.94
346.853	99.94
347.08	97.94
347.308	95.94
347.535	89.94
347.763	100.94
347.99	100.94
348.218	94.94
348.445	108.94
348.673	103.94
348.9	105.94
349.128	97.94
349.355	96.94
349.583	101.94
349.81	92.94
350.037	109.94
350.265	94.94
350.492	107.94
350.72	108.94
350.947	116.94
351.174	101.94
351.402	99.94
351.629	97.94
351.856	112.94
352.083	102.94
352.311	112.94
352.538	105.94
352.765	121.94
352.992	113.94
353.22	108.94
353.447	113.94
353.674	105.94
353.901	101.94
354.128	98.94
354.355	99.94
354.583	103.94
354.81	103.94
355.037	103.94
355.264	110.94
355.491	99.94
355.718	102.94
355.945	96.94
356.172	112.94
356.399	85.94
356.626	98.94
356.853	92.94
357.08	90.94
357.307	90.94
357.534	88.94
357.761	101.94
357.988	99.94
358.215	100.94
358.441	91.94
358.668	90.94
358.895	91.94
359.122	101.94
359.349	94.94
359.576	96.94
359.802	97.94
360.029	103.94
360.256	98.94
360.483	97.94
360.709	85.94
360.936	99.94
361.163	93.94
361.39	103.94
361.616	92.94
361.843	86.94
362.07	90.94
362.296	90.94
362.523	95.94
362.749	93.94
362.976	85.94
363.203	101.94
363.429	93.94
363.656	94.94
363.882	102.94
364.109	100.94
364.335	99.94
364.562	99.94
364.788	96.94
365.015	95.94
365.241	107.94
365.468	102.94
365.694	99.94
365.92	102.94
366.147	92.94
366.373	78.94
366.599	107.94
366.826	87.94
367.052	92.94
367.278	111.94
367.505	99.94
367.731	84.94
367.957	87.94
368.184	100.94
368.41	95.94
368.636	101.94
368.862	119.94
369.089	99.94
369.315	87.94
369.541	96.94
369.767	103.94
369.993	90.94
370.219	67.94
370.445	92.94
370.672	91.94
370.898	92.94
371.124	87.94
371.35	88.94
371.576	90.94
371.802	99.94
372.028	90.94
372.254	97.94
372.48	105.94
372.706	88.94
372.932	84.94
373.158	91.94
373.384	95.94
373.61	87.94
373.835	93.94
374.061	107.94
374.287	91.94
374.513	92.94
374.739	88.94
374.965	89.94
375.191	107.94
375.416	104.94
375.642	97.94
375.868	87.94
376.094	92.94
376.319	100.94
376.545	104.94
376.771	92.94
376.997	96.94
377.222	104.94
377.448	98.94
377.674	94.94
377.899	104.94
378.125	96.94
378.35	103.94
378.576	87.94
378.802	104.94
379.027	94.94
379.253	93.94
379.478	87.94
379.704	104.94
379.929	88.94
380.155	96.94
380.38	109.94
380.606	108.94
380.831	88.94
381.057	111.94
381.282	97.94
381.507	89.94
381.733	100.94
381.958	105.94
382.184	106.94
382.409	107.94
382.634	95.94
382.86	101.94
383.085	108.94
383.31	111.94
383.535	125.94
383.761	99.94
383.986	86.94
384.211	95.94
384.436	109.94
384.662	107.94
384.887	115.94
385.112	105.94
385.337	117.94
385.562	119.94
385.787	113.94
386.013	110.94
386.238	112.94
386.463	104.94
386.688	110.94
386.913	121.94
387.138	125.94
387.363	111.94
387.588	121.94
387.813	109.94
388.038	116.94
388.263	130.94
388.488	112.94
388.713	99.94
388.938	84.94
389.163	100.94
389.387	103.94
389.612	105.94
389.837	92.94
390.062	97.94
390.287	87.94
390.512	94.94
390.736	92.94
390.961	79.94
391.186	104.94
391.411	107.94
391.636	110.94
391.86	96.94
392.085	87.94
392.31	76.94
392.534	91.94
392.759	87.94
392.984	87.94
393.208	105.94
393.433	101.94
393.658	100.94
393.882	93.94
394.107	104.94
394.331	92.94
394.556	102.94
394.78	102.94
395.005	104.94
395.229	99.94
395.454	75.94
395.678	85.94
395.903	99.94
396.127	96.94
396.352	97.94
396.576	104.94
396.801	94.94
397.025	89.94
397.249	96.94
397.474	100.94
397.698	87.94
397.922	95.94
398.147	89.94
398.371	89.94
398.595	79.94
398.82	97.94
399.044	92.94
399.268	88.94
399.492	87.94
399.717	91.94
399.941	102.94
400.165	102.94
400.389	83.94
400.613	100.94
400.837	86.94
401.062	85.94
401.286	98.94
401.51	101.94
401.734	86.94
401.958	97.94
402.182	116.94
402.406	144.94
402.63	113.94
402.854	97.94
403.078	98.94
403.302	103.94
403.526	100.94
403.75	91.94
403.974	94.94
404.198	76.94
404.422	80.94
404.645	101.94
404.869	95.94
405.093	94.94
405.317	99.94
405.541	104.94
405.765	97.94
405.988	110.94
406.212	161.94
406.436	201.94
406.66	131.94
406.883	111.94
407.107	96.94
407.331	85.94
407.555	104.94
407.778	99.94
408.002	91.94
408.226	104.94
408.449	95.94
408.673	84.94
408.896	103.94
409.12	101.94
409.344	96.94
409.567	101.94
409.791	95.94
410.014	97.94
410.238	94.94
410.461	96.94
410.685	100.94
410.908	96.94
411.132	115.94
411.355	97.94
411.578	90.94
411.802	96.94
412.025	85.94
412.249	98.94
412.472	90.94
412.695	81.94
412.919	95.94
413.142	93.94
413.365	96.94
413.589	112.94
413.812	97.94
414.035	92.94
414.258	87.94
414.482	107.94
414.705	106.94
414.928	105.94
415.151	106.94
415.374	96.94
415.597	92.94
415.821	90.94
416.044	94.94
416.267	94.94
416.49	101.94
416.713	89.94
416.936	91.94
417.159	95.94
417.382	92.94
417.605	102.94
417.828	110.94
418.051	83.94
418.274	96.94
418.497	97.94
418.72	92.94
418.943	87.94
419.166	98.94
419.389	88.94
419.611	101.94
419.834	110.94
420.057	88.94
420.28	101.94
420.503	86.94
420.726	105.94
420.948	98.94
421.171	87.94
421.394	97.94
421.617	97.94
421.839	93.94
422.062	90.94
422.285	99.94
422.507	107.94
422.73	107.94
422.953	110.94
423.175	104.94
423.398	95.94
423.621	99.94
423.843	69.94
424.066	103.94
424.288	88.94
424.511	104.94
424.733	97.94
424.956	111.94
425.178	88.94
425.401	96.94
425.623	95.94
425.846	99.94
426.068	102.94
426.291	104.94
426.513	95.94
426.735	92.94
426.958	103.94
427.18	109.94
427.402	136.94
427.625	139.94
427.847	118.94
428.069	101.94
428.292	97.94
428.514	85.94
428.736	93.94
428.958	83.94
429.181	93.94
429.403	76.94
429.625	87.94
429.847	83.94
430.069	89.94
430.292	84.94
430.514	94.94
430.736	80.94
430.958	95.94
431.18	97.94
431.402	86.94
431.624	78.94
431.846	73.94
432.068	91.94
432.29	93.94
432.512	89.94
432.734	85.94
432.956	98.94
433.178	97.94
433.4	108.94
433.622	85.94
433.844	96.94
434.066	105.94
434.287	98.94
434.509	100.94
434.731	83.94
434.953	91.94
435.175	87.94
435.397	97.94
435.618	94.94
435.84	100.94
436.062	112.94
436.284	116.94
436.505	100.94
436.727	115.94
436.949	110.94
437.17	80.94
437.392	100.94
437.614	105.94
437.835	113.94
438.057	110.94
438.278	102.94
438.5	108.94
438.721	127.94
438.943	99.94
439.165	93.94
439.386	87.94
439.608	101.94
439.829	98.94
440.05	116.94
440.272	162.94
440.493	90.94
440.715	98.94
440.936	94.94
441.158	95.94
441.379	94.94
441.6	99.94
441.822	68.94
442.043	88.94
442.264	112.94
442.486	92.94
442.707	98.94
442.928	105.94
443.149	129.94
443.371	122.94
443.592	106.94
443.813	108.94
444.034	101.94
444.255	99.94
444.476	99.94
444.698	89.94
444.919	87.94
445.14	125.94
445.361	124.94
445.582	108.94
445.803	121.94
446.024	109.94
446.245	126.94
446.466	109.94
446.687	97.94
446.908	91.94
447.129	98.94
447.35	99.94
447.571	90.94
447.792	85.94
448.013	111.94
448.234	110.94
448.455	104.94
448.675	119.94
448.896	123.94
449.117	111.94
449.338	122.94
449.559	123.94
449.779	121.94
450	110.94
450.221	90.94
450.442	106.94
450.662	87.94
450.883	98.94
451.104	111.94
451.324	104.94
451.545	96.94
451.766	93.94
451.986	81.94
452.207	93.94
452.428	93.94
452.648	94.94
452.869	113.94
453.089	111.94
453.31	104.94
453.53	99.94
453.751	100.94
453.971	104.94
454.192	105.94
454.412	77.94
454.633	97.94
454.853	88.94
455.073	77.94
455.294	99.94
455.514	101.94
455.734	86.94
455.955	83.94
456.175	91.94
456.395	95.94
456.616	92.94
456.836	102.94
457.056	87.94
457.276	99.94
457.497	106.94
457.717	90.94
457.937	99.94
458.157	93.94
458.377	98.94
458.598	96.94
458.818	148.94
459.038	143.94
459.258	111.94
459.478	103.94
459.698	103.94
459.918	77.94
460.138	94.94
460.358	87.94
460.578	78.94
460.798	100.94
461.018	85.94
461.238	99.94
461.458	92.94
461.678	74.94
461.898	92.94
462.118	66.94
462.338	99.94
462.558	92.94
462.777	92.94
462.997	87.94
463.217	93.94
463.437	93.94
463.657	92.94
463.876	93.94
464.096	105.94
464.316	80.94
464.536	106.94
464.755	100.94
464.975	99.94
465.195	130.94
465.414	137.94
465.634	105.94
465.854	96.94
466.073	103.94
466.293	83.94
466.512	93.94
466.732	94.94
466.951	96.94
467.171	96.94
467.391	101.94
467.61	98.94
467.829	93.94
468.049	115.94
468.268	87.94
468.488	93.94
468.707	87.94
468.927	94.94
469.146	93.94
469.365	84.94
469.585	77.94
469.804	96.94
470.023	99.94
470.243	104.94
470.462	88.94
470.681	107.94
470.901	91.94
471.12	77.94
471.339	79.94
471.558	79.94
471.777	93.94
471.997	93.94
472.216	100.94
472.435	79.94
472.654	87.94
472.873	75.94
473.092	91.94
473.311	92.94
473.53	95.94
473.749	90.94
473.968	81.94
474.187	83.94
474.406	95.94
474.625	98.94
474.844	95.94
475.063	80.94
475.282	110.94
475.501	81.94
475.72	90.94
475.939	79.94
476.158	88.94
476.377	89.94
476.596	102.94
476.814	93.94
477.033	89.94
477.252	77.94
477.471	89.94
477.69	102.94
477.908	87.94
478.127	100.94
478.346	101.94
478.564	87.94
478.783	95.94
479.002	95.94
479.22	101.94
479.439	115.94
479.658	117.94
479.876	111.94
480.095	97.94
480.313	95.94
480.532	95.94
480.751	101.94
480.969	100.94
481.188	99.94
481.406	95.94
481.624	101.94
481.843	98.94
482.061	96.94
482.28	82.94
482.498	84.94
482.717	81.94
482.935	65.94
483.153	90.94
483.372	107.94
483.59	99.94
483.808	89.94
484.027	94.94
484.245	95.94
484.463	91.94
484.681	99.94
484.9	94.94
485.118	94.94
485.336	99.94
485.554	104.94
485.772	107.94
485.99	108.94
486.209	108.94
486.427	106.94
486.645	111.94
486.863	111.94
487.081	103.94
487.299	97.94
487.517	107.94
487.735	107.94
487.953	98.94
488.171	96.94
488.389	93.94
488.607	91.94
488.825	78.94
489.043	83.94
489.261	104.94
489.479	96.94
489.696	86.94
489.914	86.94
490.132	87.94
490.35	88.94
490.568	99.94
490.786	91.94
491.003	96.94
491.221	94.94
491.439	100.94
491.657	87.94
491.874	116.94
492.092	104.94
492.31	91.94
492.527	96.94
492.745	87.94
492.963	100.94
493.18	85.94
493.398	89.94
493.615	98.94
493.833	108.94
494.05	94.94
494.268	92.94
494.485	103.94
494.703	83.94
494.92	81.94
495.138	99.94
495.355	85.94
495.573	109.94
495.79	95.94
496.008	100.94
496.225	105.94
496.442	93.94
496.66	99.94
496.877	104.94
497.094	93.94
497.312	91.94
497.529	94.94
497.746	73.94
497.963	99.94
498.181	88.94
498.398	105.94
498.615	106.94
498.832	96.94
499.049	99.94
499.267	107.94
499.484	92.94
499.701	99.94
499.918	93.94
500.135	96.94
500.352	77.94
500.569	97.94
500.786	89.94
501.003	100.94
501.22	95.94
501.437	101.94
501.654	83.94
501.871	103.94
502.088	97.94
502.305	99.94
502.522	97.94
502.739	92.94
502.956	108.94
503.172	101.94
503.389	80.94
503.606	116.94
503.823	99.94
504.04	105.94
504.256	92.94
504.473	88.94
504.69	96.94
504.907	100.94
505.123	110.94
505.34	100.94
505.557	90.94
505.773	78.94
505.99	83.94
506.207	97.94
506.423	99.94
506.64	83.94
506.856	96.94
507.073	96.94
507.289	96.94
507.506	97.94
507.722	117.94
507.939	103.94
508.155	91.94
508.372	89.94
508.588	117.94
508.805	98.94
509.021	102.94
509.238	107.94
509.454	97.94
509.67	112.94
509.887	109.94
510.103	135.94
510.319	196.94
510.536	683.94
510.752	2018.94
510.968	545.94
511.184	147.94
511.401	101.94
511.617	99.94
511.833	100.94
512.049	110.94
512.265	100.94
512.481	90.94
512.698	99.94
512.914	108.94
513.13	107.94
513.346	94.94
513.562	93.94
513.778	97.94
513.994	101.94
514.21	113.94
