Data from Uncirc_1983_H10_HRD10591_00068.txt Node
Date: Wed Jan 03 12:25:45 EST 2024
User: Yrep
Spectrometer: HR+D1059
Trigger mode: 1
Integration Time (sec): 1.000000E-1
Scans to average: 1
Electric dark correction enabled: true
Nonlinearity correction enabled: false
Boxcar width: 0
XAxis mode: Wavelengths
Number of Pixels in Spectrum: 2048
>>>>>Begin Spectral Data<<<<<
223.165	-20.88
223.4	-20.88
223.635	-20.88
223.869	-39.88
224.104	-22.88
224.338	-17.88
224.573	-12.88
224.808	-17.88
225.042	-6.88
225.277	-0.88
225.511	-4.88
225.746	12.12
225.98	10.12
226.215	15.12
226.449	16.12
226.683	22.12
226.918	32.12
227.152	37.12
227.387	49.12
227.621	54.12
227.856	58.12
228.09	38.12
228.324	55.12
228.559	61.12
228.793	68.12
229.027	75.12
229.262	78.12
229.496	94.12
229.73	88.12
229.964	88.12
230.199	75.12
230.433	78.12
230.667	77.12
230.901	84.12
231.136	75.12
231.37	78.12
231.604	81.12
231.838	80.12
232.072	82.12
232.306	91.12
232.541	91.12
232.775	73.12
233.009	77.12
233.243	84.12
233.477	85.12
233.711	75.12
233.945	99.12
234.179	90.12
234.413	77.12
234.647	81.12
234.881	73.12
235.115	86.12
235.349	79.12
235.583	70.12
235.817	82.12
236.051	81.12
236.285	75.12
236.519	70.12
236.753	75.12
236.987	82.12
237.221	78.12
237.455	84.12
237.689	90.12
237.922	79.12
238.156	93.12
238.39	77.12
238.624	81.12
238.858	83.12
239.091	78.12
239.325	73.12
239.559	93.12
239.793	78.12
240.027	69.12
240.26	81.12
240.494	66.12
240.728	83.12
240.961	76.12
241.195	83.12
241.429	85.12
241.662	69.12
241.896	74.12
242.13	84.12
242.363	80.12
242.597	86.12
242.83	75.12
243.064	87.12
243.298	91.12
243.531	82.12
243.765	72.12
243.998	71.12
244.232	86.12
244.465	66.12
244.699	85.12
244.932	70.12
245.166	76.12
245.399	90.12
245.633	84.12
245.866	88.12
246.099	78.12
246.333	72.12
246.566	78.12
246.8	91.12
247.033	77.12
247.266	94.12
247.5	84.12
247.733	74.12
247.966	85.12
248.2	97.12
248.433	86.12
248.666	85.12
248.899	70.12
249.133	87.12
249.366	91.12
249.599	87.12
249.832	82.12
250.066	82.12
250.299	65.12
250.532	85.12
250.765	92.12
250.998	89.12
251.231	82.12
251.465	85.12
251.698	77.12
251.931	91.12
252.164	85.12
252.397	81.12
252.63	86.12
252.863	75.12
253.096	79.12
253.329	71.12
253.562	85.12
253.795	97.12
254.028	100.12
254.261	81.12
254.494	76.12
254.727	89.12
254.96	88.12
255.193	66.12
255.426	69.12
255.659	73.12
255.892	89.12
256.124	87.12
256.357	86.12
256.59	89.12
256.823	90.12
257.056	93.12
257.289	94.12
257.521	84.12
257.754	81.12
257.987	90.12
258.22	102.12
258.452	87.12
258.685	77.12
258.918	81.12
259.151	83.12
259.383	94.12
259.616	78.12
259.849	87.12
260.081	65.12
260.314	79.12
260.547	82.12
260.779	78.12
261.012	92.12
261.244	87.12
261.477	75.12
261.71	91.12
261.942	110.12
262.175	107.12
262.407	92.12
262.64	77.12
262.872	79.12
263.105	89.12
263.337	81.12
263.57	90.12
263.802	96.12
264.035	90.12
264.267	76.12
264.499	91.12
264.732	74.12
264.964	92.12
265.197	83.12
265.429	85.12
265.661	85.12
265.894	75.12
266.126	92.12
266.358	81.12
266.591	91.12
266.823	83.12
267.055	90.12
267.287	91.12
267.52	81.12
267.752	92.12
267.984	72.12
268.216	76.12
268.448	82.12
268.681	99.12
268.913	77.12
269.145	81.12
269.377	99.12
269.609	85.12
269.841	96.12
270.073	95.12
270.306	85.12
270.538	104.12
270.77	84.12
271.002	89.12
271.234	91.12
271.466	83.12
271.698	79.12
271.93	105.12
272.162	95.12
272.394	88.12
272.626	87.12
272.858	73.12
273.09	75.12
273.322	66.12
273.553	93.12
273.785	81.12
274.017	94.12
274.249	84.12
274.481	92.12
274.713	74.12
274.945	78.12
275.176	86.12
275.408	69.12
275.64	83.12
275.872	85.12
276.104	78.12
276.335	93.12
276.567	110.12
276.799	105.12
277.031	119.12
277.262	99.12
277.494	82.12
277.726	93.12
277.957	87.12
278.189	105.12
278.421	85.12
278.652	75.12
278.884	93.12
279.115	89.12
279.347	91.12
279.579	94.12
279.81	86.12
280.042	85.12
280.273	83.12
280.505	85.12
280.736	86.12
280.968	75.12
281.199	92.12
281.431	86.12
281.662	86.12
281.894	86.12
282.125	82.12
282.356	115.12
282.588	134.12
282.819	117.12
283.051	92.12
283.282	79.12
283.513	89.12
283.745	89.12
283.976	75.12
284.207	97.12
284.439	89.12
284.67	87.12
284.901	103.12
285.132	81.12
285.364	93.12
285.595	104.12
285.826	84.12
286.057	86.12
286.288	79.12
286.52	86.12
286.751	89.12
286.982	86.12
287.213	83.12
287.444	97.12
287.675	91.12
287.906	91.12
288.138	89.12
288.369	115.12
288.6	90.12
288.831	84.12
289.062	89.12
289.293	98.12
289.524	74.12
289.755	79.12
289.986	83.12
290.217	99.12
290.448	86.12
290.679	86.12
290.91	95.12
291.141	81.12
291.371	93.12
291.602	98.12
291.833	94.12
292.064	96.12
292.295	97.12
292.526	90.12
292.757	94.12
292.987	103.12
293.218	101.12
293.449	88.12
293.68	75.12
293.91	83.12
294.141	77.12
294.372	108.12
294.603	86.12
294.833	81.12
295.064	81.12
295.295	92.12
295.525	84.12
295.756	98.12
295.987	106.12
296.217	131.12
296.448	107.12
296.679	88.12
296.909	95.12
297.14	88.12
297.37	91.12
297.601	97.12
297.831	81.12
298.062	91.12
298.292	86.12
298.523	102.12
298.753	86.12
298.984	94.12
299.214	97.12
299.445	106.12
299.675	95.12
299.905	104.12
300.136	90.12
300.366	94.12
300.597	96.12
300.827	84.12
301.057	116.12
301.288	105.12
301.518	92.12
301.748	82.12
301.979	108.12
302.209	90.12
302.439	97.12
302.669	87.12
302.9	102.12
303.13	94.12
303.36	98.12
303.59	102.12
303.82	102.12
304.051	89.12
304.281	106.12
304.511	101.12
304.741	99.12
304.971	81.12
305.201	89.12
305.431	109.12
305.661	86.12
305.891	73.12
306.121	94.12
306.352	91.12
306.582	91.12
306.812	87.12
307.042	90.12
307.272	99.12
307.502	87.12
307.731	79.12
307.961	87.12
308.191	97.12
308.421	89.12
308.651	100.12
308.881	87.12
309.111	99.12
309.341	85.12
309.571	96.12
309.8	106.12
310.03	103.12
310.26	90.12
310.49	107.12
310.72	85.12
310.949	91.12
311.179	103.12
311.409	94.12
311.639	93.12
311.868	95.12
312.098	99.12
312.328	109.12
312.557	105.12
312.787	102.12
313.017	92.12
313.246	76.12
313.476	76.12
313.706	85.12
313.935	86.12
314.165	101.12
314.394	100.12
314.624	87.12
314.853	93.12
315.083	92.12
315.312	93.12
315.542	81.12
315.771	78.12
316.001	100.12
316.23	83.12
316.46	92.12
316.689	93.12
316.919	91.12
317.148	99.12
317.377	99.12
317.607	102.12
317.836	99.12
318.065	84.12
318.295	91.12
318.524	86.12
318.753	91.12
318.983	94.12
319.212	103.12
319.441	107.12
319.67	93.12
319.9	93.12
320.129	72.12
320.358	95.12
320.587	92.12
320.816	105.12
321.046	100.12
321.275	105.12
321.504	101.12
321.733	100.12
321.962	115.12
322.191	96.12
322.42	94.12
322.649	103.12
322.878	105.12
323.108	106.12
323.337	131.12
323.566	131.12
323.795	153.12
324.024	174.12
324.253	324.12
324.482	681.12
324.71	1420.12
324.939	1822.12
325.168	699.12
325.397	221.12
325.626	130.12
325.855	121.12
326.084	117.12
326.313	116.12
326.542	134.12
326.77	205.12
326.999	394.12
327.228	805.12
327.457	1423.12
327.686	1146.12
327.914	313.12
328.143	183.12
328.372	136.12
328.6	126.12
328.829	110.12
329.058	123.12
329.287	123.12
329.515	114.12
329.744	98.12
329.972	101.12
330.201	112.12
330.43	110.12
330.658	127.12
330.887	122.12
331.115	119.12
331.344	92.12
331.572	90.12
331.801	98.12
332.03	97.12
332.258	94.12
332.486	101.12
332.715	84.12
332.943	77.12
333.172	89.12
333.4	97.12
333.629	111.12
333.857	115.12
334.085	113.12
334.314	124.12
334.542	124.12
334.771	114.12
334.999	104.12
335.227	86.12
335.455	90.12
335.684	93.12
335.912	101.12
336.14	98.12
336.369	107.12
336.597	106.12
336.825	94.12
337.053	100.12
337.281	98.12
337.51	80.12
337.738	115.12
337.966	103.12
338.194	87.12
338.422	104.12
338.65	91.12
338.878	87.12
339.106	95.12
339.334	98.12
339.562	102.12
339.79	104.12
340.018	96.12
340.246	99.12
340.474	85.12
340.702	110.12
340.93	102.12
341.158	88.12
341.386	95.12
341.614	95.12
341.842	100.12
342.07	91.12
342.298	78.12
342.526	95.12
342.754	93.12
342.981	91.12
343.209	87.12
343.437	100.12
343.665	92.12
343.893	93.12
344.12	92.12
344.348	97.12
344.576	97.12
344.804	105.12
345.031	99.12
345.259	94.12
345.487	115.12
345.714	95.12
345.942	101.12
346.17	86.12
346.397	84.12
346.625	96.12
346.853	94.12
347.08	98.12
347.308	93.12
347.535	106.12
347.763	107.12
347.99	101.12
348.218	106.12
348.445	93.12
348.673	87.12
348.9	103.12
349.128	93.12
349.355	87.12
349.583	107.12
349.81	91.12
350.037	99.12
350.265	97.12
350.492	88.12
350.72	82.12
350.947	107.12
351.174	98.12
351.402	105.12
351.629	101.12
351.856	103.12
352.083	101.12
352.311	107.12
352.538	106.12
352.765	96.12
352.992	122.12
353.22	113.12
353.447	119.12
353.674	106.12
353.901	106.12
354.128	90.12
354.355	93.12
354.583	92.12
354.81	96.12
355.037	89.12
355.264	98.12
355.491	100.12
355.718	92.12
355.945	90.12
356.172	88.12
356.399	102.12
356.626	100.12
356.853	92.12
357.08	106.12
357.307	104.12
357.534	91.12
357.761	87.12
357.988	96.12
358.215	109.12
358.441	101.12
358.668	99.12
358.895	91.12
359.122	79.12
359.349	85.12
359.576	91.12
359.802	97.12
360.029	101.12
360.256	116.12
360.483	87.12
360.709	86.12
360.936	100.12
361.163	102.12
361.39	99.12
361.616	96.12
361.843	96.12
362.07	109.12
362.296	106.12
362.523	99.12
362.749	94.12
362.976	87.12
363.203	89.12
363.429	86.12
363.656	108.12
363.882	92.12
364.109	102.12
364.335	99.12
364.562	99.12
364.788	90.12
365.015	77.12
365.241	86.12
365.468	97.12
365.694	100.12
365.92	94.12
366.147	86.12
366.373	91.12
366.599	101.12
366.826	96.12
367.052	85.12
367.278	100.12
367.505	104.12
367.731	87.12
367.957	101.12
368.184	86.12
368.41	82.12
368.636	105.12
368.862	117.12
369.089	106.12
369.315	101.12
369.541	98.12
369.767	95.12
369.993	95.12
370.219	99.12
370.445	99.12
370.672	86.12
370.898	91.12
371.124	84.12
371.35	106.12
371.576	99.12
371.802	86.12
372.028	107.12
372.254	83.12
372.48	88.12
372.706	81.12
372.932	102.12
373.158	88.12
373.384	100.12
373.61	89.12
373.835	90.12
374.061	88.12
374.287	86.12
374.513	106.12
374.739	87.12
374.965	85.12
375.191	94.12
375.416	86.12
375.642	86.12
375.868	88.12
376.094	95.12
376.319	95.12
376.545	102.12
376.771	84.12
376.997	107.12
377.222	91.12
377.448	88.12
377.674	100.12
377.899	89.12
378.125	87.12
378.35	94.12
378.576	83.12
378.802	94.12
379.027	91.12
379.253	94.12
379.478	93.12
379.704	103.12
379.929	102.12
380.155	96.12
380.38	99.12
380.606	101.12
380.831	88.12
381.057	101.12
381.282	98.12
381.507	78.12
381.733	98.12
381.958	97.12
382.184	90.12
382.409	103.12
382.634	98.12
382.86	100.12
383.085	94.12
383.31	96.12
383.535	105.12
383.761	95.12
383.986	95.12
384.211	112.12
384.436	107.12
384.662	100.12
384.887	89.12
385.112	84.12
385.337	94.12
385.562	100.12
385.787	86.12
386.013	100.12
386.238	115.12
386.463	109.12
386.688	107.12
386.913	103.12
387.138	112.12
387.363	89.12
387.588	108.12
387.813	107.12
388.038	117.12
388.263	97.12
388.488	91.12
388.713	100.12
388.938	98.12
389.163	110.12
389.387	98.12
389.612	91.12
389.837	97.12
390.062	97.12
390.287	86.12
390.512	90.12
390.736	79.12
390.961	98.12
391.186	114.12
391.411	98.12
391.636	97.12
391.86	86.12
392.085	96.12
392.31	84.12
392.534	78.12
392.759	88.12
392.984	93.12
393.208	81.12
393.433	89.12
393.658	90.12
393.882	91.12
394.107	76.12
394.331	76.12
394.556	77.12
394.78	86.12
395.005	88.12
395.229	85.12
395.454	82.12
395.678	94.12
395.903	81.12
396.127	87.12
396.352	73.12
396.576	86.12
396.801	89.12
397.025	95.12
397.249	87.12
397.474	105.12
397.698	76.12
397.922	91.12
398.147	93.12
398.371	98.12
398.595	92.12
398.82	90.12
399.044	98.12
399.268	91.12
399.492	101.12
399.717	93.12
399.941	90.12
400.165	109.12
400.389	91.12
400.613	88.12
400.837	94.12
401.062	91.12
401.286	85.12
401.51	98.12
401.734	101.12
401.958	108.12
402.182	108.12
402.406	148.12
402.63	110.12
402.854	96.12
403.078	78.12
403.302	88.12
403.526	88.12
403.75	87.12
403.974	97.12
404.198	89.12
404.422	90.12
404.645	90.12
404.869	100.12
405.093	100.12
405.317	105.12
405.541	111.12
405.765	109.12
405.988	103.12
406.212	166.12
406.436	226.12
406.66	131.12
406.883	108.12
407.107	107.12
407.331	104.12
407.555	86.12
407.778	93.12
408.002	83.12
408.226	97.12
408.449	91.12
408.673	88.12
408.896	97.12
409.12	104.12
409.344	77.12
409.567	83.12
409.791	103.12
410.014	104.12
410.238	93.12
410.461	92.12
410.685	103.12
410.908	97.12
411.132	117.12
411.355	105.12
411.578	106.12
411.802	98.12
412.025	91.12
412.249	90.12
412.472	91.12
412.695	82.12
412.919	87.12
413.142	97.12
413.365	89.12
413.589	93.12
413.812	94.12
414.035	90.12
414.258	100.12
414.482	94.12
414.705	87.12
414.928	94.12
415.151	82.12
415.374	86.12
415.597	98.12
415.821	106.12
416.044	87.12
416.267	77.12
416.49	98.12
416.713	116.12
416.936	82.12
417.159	75.12
417.382	83.12
417.605	96.12
417.828	94.12
418.051	91.12
418.274	95.12
418.497	84.12
418.72	101.12
418.943	91.12
419.166	84.12
419.389	93.12
419.611	86.12
419.834	108.12
420.057	88.12
420.28	78.12
420.503	84.12
420.726	83.12
420.948	85.12
421.171	102.12
421.394	94.12
421.617	88.12
421.839	89.12
422.062	100.12
422.285	95.12
422.507	97.12
422.73	107.12
422.953	102.12
423.175	87.12
423.398	91.12
423.621	87.12
423.843	89.12
424.066	83.12
424.288	88.12
424.511	106.12
424.733	90.12
424.956	108.12
425.178	108.12
425.401	99.12
425.623	98.12
425.846	90.12
426.068	98.12
426.291	93.12
426.513	81.12
426.735	97.12
426.958	92.12
427.18	103.12
427.402	117.12
427.625	136.12
427.847	115.12
428.069	99.12
428.292	85.12
428.514	102.12
428.736	86.12
428.958	87.12
429.181	90.12
429.403	81.12
429.625	76.12
429.847	89.12
430.069	85.12
430.292	88.12
430.514	72.12
430.736	87.12
430.958	85.12
431.18	90.12
431.402	81.12
431.624	82.12
431.846	97.12
432.068	90.12
432.29	86.12
432.512	88.12
432.734	100.12
432.956	85.12
433.178	104.12
433.4	83.12
433.622	82.12
433.844	92.12
434.066	83.12
434.287	92.12
434.509	102.12
434.731	99.12
434.953	94.12
435.175	83.12
435.397	86.12
435.618	92.12
435.84	98.12
436.062	121.12
436.284	101.12
436.505	106.12
436.727	106.12
436.949	92.12
437.17	83.12
437.392	90.12
437.614	91.12
437.835	101.12
438.057	119.12
438.278	93.12
438.5	102.12
438.721	112.12
438.943	108.12
439.165	85.12
439.386	83.12
439.608	94.12
439.829	96.12
440.05	107.12
440.272	137.12
440.493	103.12
440.715	79.12
440.936	75.12
441.158	94.12
441.379	75.12
441.6	91.12
441.822	107.12
442.043	90.12
442.264	116.12
442.486	94.12
442.707	85.12
442.928	93.12
443.149	124.12
443.371	128.12
443.592	110.12
443.813	91.12
444.034	105.12
444.255	98.12
444.476	105.12
444.698	101.12
444.919	103.12
445.14	126.12
445.361	130.12
445.582	119.12
445.803	123.12
446.024	118.12
446.245	119.12
446.466	100.12
446.687	92.12
446.908	91.12
447.129	89.12
447.35	105.12
447.571	101.12
447.792	92.12
448.013	92.12
448.234	97.12
448.455	105.12
448.675	119.12
448.896	111.12
449.117	106.12
449.338	97.12
449.559	127.12
449.779	121.12
450	96.12
450.221	93.12
450.442	99.12
450.662	102.12
450.883	92.12
451.104	98.12
451.324	91.12
451.545	87.12
451.766	85.12
451.986	87.12
452.207	94.12
452.428	102.12
452.648	95.12
452.869	101.12
453.089	102.12
453.31	107.12
453.53	87.12
453.751	100.12
453.971	86.12
454.192	98.12
454.412	79.12
454.633	103.12
454.853	86.12
455.073	74.12
455.294	83.12
455.514	101.12
455.734	83.12
455.955	97.12
456.175	90.12
456.395	86.12
456.616	99.12
456.836	81.12
457.056	89.12
457.276	80.12
457.497	95.12
457.717	87.12
457.937	88.12
458.157	90.12
458.377	88.12
458.598	104.12
458.818	127.12
459.038	145.12
459.258	94.12
459.478	89.12
459.698	89.12
459.918	89.12
460.138	85.12
460.358	82.12
460.578	85.12
460.798	95.12
461.018	87.12
461.238	102.12
461.458	81.12
461.678	82.12
461.898	83.12
462.118	93.12
462.338	89.12
462.558	96.12
462.777	85.12
462.997	79.12
463.217	83.12
463.437	84.12
463.657	97.12
463.876	87.12
464.096	91.12
464.316	90.12
464.536	85.12
464.755	92.12
464.975	114.12
465.195	160.12
465.414	150.12
465.634	83.12
465.854	91.12
466.073	77.12
466.293	90.12
466.512	91.12
466.732	90.12
466.951	93.12
467.171	90.12
467.391	94.12
467.61	103.12
467.829	104.12
468.049	114.12
468.268	85.12
468.488	102.12
468.707	88.12
468.927	89.12
469.146	76.12
469.365	91.12
469.585	89.12
469.804	99.12
470.023	105.12
470.243	91.12
470.462	101.12
470.681	99.12
470.901	95.12
471.12	89.12
471.339	91.12
471.558	86.12
471.777	97.12
471.997	83.12
472.216	116.12
472.435	120.12
472.654	106.12
472.873	87.12
473.092	85.12
473.311	104.12
473.53	102.12
473.749	94.12
473.968	93.12
474.187	113.12
474.406	101.12
474.625	72.12
474.844	87.12
475.063	97.12
475.282	96.12
475.501	82.12
475.72	93.12
475.939	96.12
476.158	83.12
476.377	85.12
476.596	86.12
476.814	91.12
477.033	96.12
477.252	100.12
477.471	97.12
477.69	90.12
477.908	89.12
478.127	83.12
478.346	98.12
478.564	97.12
478.783	99.12
479.002	103.12
479.22	93.12
479.439	97.12
479.658	96.12
479.876	101.12
480.095	102.12
480.313	85.12
480.532	81.12
480.751	96.12
480.969	118.12
481.188	209.12
481.406	160.12
481.624	102.12
481.843	85.12
482.061	105.12
482.28	78.12
482.498	90.12
482.717	87.12
482.935	91.12
483.153	88.12
483.372	75.12
483.59	87.12
483.808	94.12
484.027	94.12
484.245	102.12
484.463	106.12
484.681	99.12
484.9	96.12
485.118	116.12
485.336	97.12
485.554	93.12
485.772	109.12
485.99	111.12
486.209	97.12
486.427	104.12
486.645	108.12
486.863	99.12
487.081	98.12
487.299	94.12
487.517	98.12
487.735	86.12
487.953	99.12
488.171	73.12
488.389	98.12
488.607	92.12
488.825	88.12
489.043	89.12
489.261	87.12
489.479	109.12
489.696	95.12
489.914	98.12
490.132	99.12
490.35	85.12
490.568	114.12
490.786	83.12
491.003	86.12
491.221	100.12
491.439	97.12
491.657	97.12
491.874	97.12
492.092	97.12
492.31	91.12
492.527	103.12
492.745	92.12
492.963	102.12
493.18	98.12
493.398	94.12
493.615	91.12
493.833	90.12
494.05	77.12
494.268	98.12
494.485	94.12
494.703	108.12
494.92	104.12
495.138	105.12
495.355	105.12
495.573	85.12
495.79	89.12
496.008	92.12
496.225	93.12
496.442	86.12
496.66	94.12
496.877	82.12
497.094	97.12
497.312	94.12
497.529	103.12
497.746	79.12
497.963	91.12
498.181	84.12
498.398	87.12
498.615	118.12
498.832	110.12
499.049	93.12
499.267	115.12
499.484	89.12
499.701	103.12
499.918	105.12
500.135	100.12
500.352	95.12
500.569	85.12
500.786	87.12
501.003	101.12
501.22	97.12
501.437	81.12
501.654	89.12
501.871	99.12
502.088	105.12
502.305	89.12
502.522	102.12
502.739	82.12
502.956	106.12
503.172	103.12
503.389	97.12
503.606	111.12
503.823	106.12
504.04	119.12
504.256	95.12
504.473	81.12
504.69	98.12
504.907	94.12
505.123	102.12
505.34	78.12
505.557	88.12
505.773	95.12
505.99	88.12
506.207	101.12
506.423	97.12
506.64	96.12
506.856	81.12
507.073	87.12
507.289	97.12
507.506	99.12
507.722	111.12
507.939	98.12
508.155	103.12
508.372	92.12
508.588	100.12
508.805	90.12
509.021	86.12
509.238	81.12
509.454	108.12
509.67	106.12
509.887	101.12
510.103	122.12
510.319	210.12
510.536	733.12
510.752	2197.12
510.968	616.12
511.184	141.12
511.401	107.12
511.617	88.12
511.833	92.12
512.049	75.12
512.265	91.12
512.481	100.12
512.698	99.12
512.914	94.12
513.13	84.12
513.346	96.12
513.562	101.12
513.778	97.12
513.994	81.12
514.21	106.12
514.426	111.12
514.642	116.12
514.858	124.12
