Data from Uncirc_1983_H10_HRD10591_00086.txt Node
Date: Wed Jan 03 12:25:49 EST 2024
User: Yrep
Spectrometer: HR+D1059
Trigger mode: 1
Integration Time (sec): 1.000000E-1
Scans to average: 1
Electric dark correction enabled: true
Nonlinearity correction enabled: false
Boxcar width: 0
XAxis mode: Wavelengths
Number of Pixels in Spectrum: 2048
>>>>>Begin Spectral Data<<<<<
223.165	-10.06
223.4	-10.06
223.635	-10.06
223.869	-15.06
224.104	-16.06
224.338	-20.06
224.573	-27.06
224.808	-20.06
225.042	-2.06
225.277	1.94
225.511	-4.06
225.746	-4.06
225.98	22.94
226.215	4.94
226.449	11.94
226.683	23.94
226.918	23.94
227.152	28.94
227.387	46.94
227.621	34.94
227.856	43.94
228.09	56.94
228.324	49.94
228.559	46.94
228.793	167.94
229.027	425.94
229.262	501.94
229.496	569.94
229.73	746.94
229.964	772.94
230.199	545.94
230.433	471.94
230.667	458.94
230.901	449.94
231.136	463.94
231.37	447.94
231.604	457.94
231.838	468.94
232.072	449.94
232.306	465.94
232.541	470.94
232.775	460.94
233.009	485.94
233.243	482.94
233.477	479.94
233.711	487.94
233.945	504.94
234.179	501.94
234.413	521.94
234.647	500.94
234.881	512.94
235.115	533.94
235.349	551.94
235.583	557.94
235.817	588.94
236.051	614.94
236.285	611.94
236.519	612.94
236.753	705.94
236.987	847.94
237.221	1295.94
237.455	1452.94
237.689	870.94
237.922	744.94
238.156	721.94
238.39	687.94
238.624	651.94
238.858	663.94
239.091	660.94
239.325	667.94
239.559	688.94
239.793	706.94
240.027	751.94
240.26	892.94
240.494	929.94
240.728	904.94
240.961	884.94
241.195	835.94
241.429	796.94
241.662	765.94
241.896	756.94
242.13	801.94
242.363	767.94
242.597	803.94
242.83	847.94
243.064	825.94
243.298	832.94
243.531	844.94
243.765	825.94
243.998	831.94
244.232	848.94
244.465	864.94
244.699	925.94
244.932	923.94
245.166	906.94
245.399	914.94
245.633	902.94
245.866	939.94
246.099	909.94
246.333	960.94
246.566	998.94
246.8	983.94
247.033	1031.94
247.266	1019.94
247.5	1082.94
247.733	1177.94
247.966	1156.94
248.2	1198.94
248.433	1156.94
248.666	1211.94
248.899	1327.94
249.133	1427.94
249.366	1434.94
249.599	1311.94
249.832	1235.94
250.066	1274.94
250.299	1360.94
250.532	1483.94
250.765	1660.94
250.998	1755.94
251.231	1647.94
251.465	1489.94
251.698	1467.94
251.931	1443.94
252.164	1392.94
252.397	1434.94
252.63	1492.94
252.863	1534.94
253.096	1654.94
253.329	1699.94
253.562	1611.94
253.795	1573.94
254.028	1579.94
254.261	1631.94
254.494	1771.94
254.727	2075.94
254.96	2253.94
255.193	1964.94
255.426	1775.94
255.659	1728.94
255.892	1819.94
256.124	1999.94
256.357	1917.94
256.59	1760.94
256.823	1662.94
257.056	1611.94
257.289	1594.94
257.521	1612.94
257.754	1580.94
257.987	1576.94
258.22	1547.94
258.452	1509.94
258.685	1569.94
258.918	1631.94
259.151	1632.94
259.383	1690.94
259.616	1750.94
259.849	1756.94
260.081	1875.94
260.314	2052.94
260.547	2027.94
260.779	1860.94
261.012	1754.94
261.244	1740.94
261.477	1676.94
261.71	1734.94
261.942	1764.94
262.175	1749.94
262.407	1695.94
262.64	1648.94
262.872	1666.94
263.105	1684.94
263.337	1645.94
263.57	1685.94
263.802	1667.94
264.035	1712.94
264.267	1674.94
264.499	1692.94
264.732	1709.94
264.964	1720.94
265.197	1743.94
265.429	1750.94
265.661	1717.94
265.894	1764.94
266.126	1786.94
266.358	1800.94
266.591	1802.94
266.823	1875.94
267.055	1881.94
267.287	1900.94
267.52	1836.94
267.752	1820.94
267.984	1891.94
268.216	1871.94
268.448	1953.94
268.681	2028.94
268.913	2098.94
269.145	2293.94
269.377	2348.94
269.609	2271.94
269.841	2274.94
270.073	2293.94
270.306	2589.94
270.538	2721.94
270.77	2578.94
271.002	2488.94
271.234	2408.94
271.466	2565.94
271.698	2654.94
271.93	2671.94
272.162	2623.94
272.394	2576.94
272.626	2492.94
272.858	2329.94
273.09	2269.94
273.322	2248.94
273.553	2194.94
273.785	2212.94
274.017	2242.94
274.249	2246.94
274.481	2307.94
274.713	2283.94
274.945	2294.94
275.176	2303.94
275.408	2291.94
275.64	2283.94
275.872	2268.94
276.104	2325.94
276.335	2317.94
276.567	2407.94
276.799	2533.94
277.031	2772.94
277.262	2869.94
277.494	2752.94
277.726	2583.94
277.957	2532.94
278.189	2491.94
278.421	2358.94
278.652	2422.94
278.884	2414.94
279.115	2389.94
279.347	2423.94
279.579	2393.94
279.81	2396.94
280.042	2399.94
280.273	2408.94
280.505	2413.94
280.736	2476.94
280.968	2425.94
281.199	2439.94
281.431	2473.94
281.662	2465.94
281.894	2496.94
282.125	2511.94
282.356	2737.94
282.588	2798.94
282.819	2629.94
283.051	2601.94
283.282	2563.94
283.513	2619.94
283.745	2615.94
283.976	2631.94
284.207	2654.94
284.439	2617.94
284.67	2626.94
284.901	2675.94
285.132	2614.94
285.364	2611.94
285.595	2659.94
285.826	2610.94
286.057	2711.94
286.288	2666.94
286.52	2719.94
286.751	2725.94
286.982	2722.94
287.213	2762.94
287.444	2818.94
287.675	2809.94
287.906	2886.94
288.138	2915.94
288.369	2897.94
288.6	2951.94
288.831	2919.94
289.062	2845.94
289.293	2865.94
289.524	2877.94
289.755	2839.94
289.986	2752.94
290.217	2805.94
290.448	2796.94
290.679	2825.94
290.91	2825.94
291.141	2805.94
291.371	2827.94
291.602	2870.94
291.833	2783.94
292.064	2819.94
292.295	2849.94
292.526	2875.94
292.757	2854.94
292.987	2840.94
293.218	2831.94
293.449	2913.94
293.68	2862.94
293.91	2884.94
294.141	2840.94
294.372	2897.94
294.603	2870.94
294.833	2929.94
295.064	2921.94
295.295	2916.94
295.525	2945.94
295.756	2949.94
295.987	3045.94
296.217	3202.94
296.448	3165.94
296.679	3017.94
296.909	2992.94
297.14	3010.94
297.37	3058.94
297.601	3085.94
297.831	3080.94
298.062	3076.94
298.292	3083.94
298.523	3141.94
298.753	3136.94
298.984	3062.94
299.214	3124.94
299.445	3137.94
299.675	3158.94
299.905	3173.94
300.136	3202.94
300.366	3180.94
300.597	3213.94
300.827	3312.94
301.057	3371.94
301.288	3381.94
301.518	3320.94
301.748	3325.94
301.979	3413.94
302.209	3424.94
302.439	3409.94
302.669	3378.94
302.9	3333.94
303.13	3324.94
303.36	3374.94
303.59	3383.94
303.82	3435.94
304.051	3418.94
304.281	3352.94
304.511	3325.94
304.741	3292.94
304.971	3260.94
305.201	3265.94
305.431	3327.94
305.661	3352.94
305.891	3299.94
306.121	3349.94
306.352	3386.94
306.582	3329.94
306.812	3287.94
307.042	3332.94
307.272	3334.94
307.502	3291.94
307.731	3284.94
307.961	3331.94
308.191	3291.94
308.421	3273.94
308.651	3365.94
308.881	3311.94
309.111	3382.94
309.341	3354.94
309.571	3416.94
309.8	3479.94
310.03	3552.94
310.26	3537.94
310.49	3529.94
310.72	3667.94
310.949	3718.94
311.179	3669.94
311.409	3609.94
311.639	3651.94
311.868	3623.94
312.098	3622.94
312.328	3766.94
312.557	3843.94
312.787	3913.94
313.017	3843.94
313.246	3785.94
313.476	3716.94
313.706	3759.94
313.935	3854.94
314.165	3924.94
314.394	3954.94
314.624	3873.94
314.853	3767.94
315.083	3763.94
315.312	3767.94
315.542	3701.94
315.771	3714.94
316.001	3696.94
316.23	3706.94
316.46	3784.94
316.689	3715.94
316.919	3716.94
317.148	3735.94
317.377	3779.94
317.607	3741.94
317.836	3693.94
318.065	3687.94
318.295	3712.94
318.524	3687.94
318.753	3667.94
318.983	3677.94
319.212	3683.94
319.441	3721.94
319.67	3774.94
319.9	3745.94
320.129	3750.94
320.358	3716.94
320.587	3778.94
320.816	3875.94
321.046	3900.94
321.275	3798.94
321.504	3842.94
321.733	3888.94
321.962	3940.94
322.191	3997.94
322.42	4058.94
322.649	4157.94
322.878	4167.94
323.108	4288.94
323.337	4540.94
323.566	4570.94
323.795	4886.94
324.024	5276.94
324.253	6789.94
324.482	10042.94
324.71	14563.94
324.939	15629.94
325.168	11448.94
325.397	6357.94
325.626	5210.94
325.855	4800.94
326.084	4707.94
326.313	4733.94
326.542	4832.94
326.77	5428.94
326.999	6706.94
327.228	9540.94
327.457	13663.94
327.686	12774.94
327.914	7091.94
328.143	5819.94
328.372	5531.94
328.6	5250.94
328.829	5176.94
329.058	5279.94
329.287	5306.94
329.515	5010.94
329.744	4955.94
329.972	5113.94
330.201	5391.94
330.43	5623.94
330.658	5689.94
330.887	5612.94
331.115	5286.94
331.344	5009.94
331.572	4891.94
331.801	5037.94
332.03	5085.94
332.258	4973.94
332.486	5071.94
332.715	5149.94
332.943	5411.94
333.172	5445.94
333.4	5668.94
333.629	5724.94
333.857	5942.94
334.085	5982.94
334.314	6273.94
334.542	6509.94
334.771	6273.94
334.999	5687.94
335.227	5401.94
335.455	5296.94
335.684	5237.94
335.912	5099.94
336.14	5101.94
336.369	5009.94
336.597	5050.94
336.825	4977.94
337.053	4865.94
337.281	4860.94
337.51	4787.94
337.738	4836.94
337.966	4680.94
338.194	4740.94
338.422	4672.94
338.65	4582.94
338.878	4613.94
339.106	4552.94
339.334	4607.94
339.562	4456.94
339.79	4444.94
340.018	4495.94
340.246	4396.94
340.474	4442.94
340.702	4426.94
340.93	4415.94
341.158	4444.94
341.386	4389.94
341.614	4433.94
341.842	4331.94
342.07	4353.94
342.298	4273.94
342.526	4289.94
342.754	4373.94
342.981	4337.94
343.209	4481.94
343.437	4664.94
343.665	5002.94
343.893	5172.94
344.12	5235.94
344.348	4968.94
344.576	4821.94
344.804	4717.94
345.031	4631.94
345.259	4594.94
345.487	4471.94
345.714	4340.94
345.942	4307.94
346.17	4237.94
346.397	4196.94
346.625	4170.94
346.853	4159.94
347.08	4129.94
347.308	4257.94
347.535	4303.94
347.763	4258.94
347.99	4203.94
348.218	4344.94
348.445	4349.94
348.673	4268.94
348.9	4193.94
349.128	4110.94
349.355	4070.94
349.583	4067.94
349.81	4065.94
350.037	4099.94
350.265	4072.94
350.492	4089.94
350.72	4067.94
350.947	4106.94
351.174	4177.94
351.402	4211.94
351.629	4154.94
351.856	4170.94
352.083	4182.94
352.311	4195.94
352.538	4207.94
352.765	4151.94
352.992	4122.94
353.22	4135.94
353.447	4072.94
353.674	4023.94
353.901	4029.94
354.128	4063.94
354.355	3983.94
354.583	4003.94
354.81	3964.94
355.037	4003.94
355.264	4030.94
355.491	4037.94
355.718	3991.94
355.945	3972.94
356.172	4024.94
356.399	3968.94
356.626	3992.94
356.853	3957.94
357.08	4004.94
357.307	3990.94
357.534	3924.94
357.761	4006.94
357.988	3979.94
358.215	4002.94
358.441	4038.94
358.668	4029.94
358.895	4036.94
359.122	4056.94
359.349	4121.94
359.576	4253.94
359.802	4488.94
360.029	4495.94
360.256	4521.94
360.483	4355.94
360.709	4199.94
360.936	4177.94
361.163	4198.94
361.39	4177.94
361.616	4231.94
361.843	4162.94
362.07	4171.94
362.296	4236.94
362.523	4185.94
362.749	4234.94
362.976	4083.94
363.203	4052.94
363.429	4073.94
363.656	4117.94
363.882	4082.94
364.109	4049.94
364.335	4002.94
364.562	4051.94
364.788	4051.94
365.015	4069.94
365.241	4049.94
365.468	4152.94
365.694	4090.94
365.92	4150.94
366.147	4077.94
366.373	4055.94
366.599	4042.94
366.826	4017.94
367.052	4056.94
367.278	4068.94
367.505	4084.94
367.731	4073.94
367.957	4066.94
368.184	4092.94
368.41	4222.94
368.636	4267.94
368.862	4255.94
369.089	4150.94
369.315	4100.94
369.541	4117.94
369.767	4165.94
369.993	4167.94
370.219	4161.94
370.445	4220.94
370.672	4246.94
370.898	4269.94
371.124	4352.94
371.35	4333.94
371.576	4344.94
371.802	4307.94
372.028	4278.94
372.254	4327.94
372.48	4406.94
372.706	4431.94
372.932	4507.94
373.158	4503.94
373.384	4349.94
373.61	4372.94
373.835	4373.94
374.061	4406.94
374.287	4466.94
374.513	4518.94
374.739	4743.94
374.965	4741.94
375.191	4717.94
375.416	4747.94
375.642	4576.94
375.868	4537.94
376.094	4463.94
376.319	4417.94
376.545	4392.94
376.771	4393.94
376.997	4332.94
377.222	4343.94
377.448	4317.94
377.674	4362.94
377.899	4294.94
378.125	4331.94
378.35	4313.94
378.576	4281.94
378.802	4303.94
379.027	4312.94
379.253	4304.94
379.478	4261.94
379.704	4278.94
379.929	4375.94
380.155	4357.94
380.38	4376.94
380.606	4357.94
380.831	4294.94
381.057	4371.94
381.282	4327.94
381.507	4388.94
381.733	4470.94
381.958	4387.94
382.184	4492.94
382.409	4544.94
382.634	4530.94
382.86	4567.94
383.085	4656.94
383.31	4767.94
383.535	4801.94
383.761	4797.94
383.986	4925.94
384.211	4992.94
384.436	5044.94
384.662	5173.94
384.887	5219.94
385.112	5170.94
385.337	5204.94
385.562	5253.94
385.787	5312.94
386.013	5322.94
386.238	5352.94
386.463	5341.94
386.688	5259.94
386.913	5196.94
387.138	5129.94
387.363	5204.94
387.588	5184.94
387.813	5222.94
388.038	5177.94
388.263	5227.94
388.488	5221.94
388.713	5204.94
388.938	5205.94
389.163	5148.94
389.387	5161.94
389.612	5038.94
389.837	5129.94
390.062	5123.94
390.287	5112.94
390.512	5157.94
390.736	5255.94
390.961	5292.94
391.186	5365.94
391.411	5569.94
391.636	5722.94
391.86	5886.94
392.085	5886.94
392.31	5675.94
392.534	5709.94
392.759	5524.94
392.984	5515.94
393.208	5467.94
393.433	5414.94
393.658	5403.94
393.882	5436.94
394.107	5530.94
394.331	5451.94
394.556	5526.94
394.78	5487.94
395.005	5579.94
395.229	5609.94
395.454	5740.94
395.678	5935.94
395.903	5866.94
396.127	5946.94
396.352	5748.94
396.576	5579.94
396.801	5511.94
397.025	5623.94
397.249	5732.94
397.474	5917.94
397.698	5816.94
397.922	6033.94
398.147	6122.94
398.371	6218.94
398.595	6336.94
398.82	6706.94
399.044	7236.94
399.268	8010.94
399.492	9085.94
399.717	9694.94
399.941	9484.94
400.165	8859.94
400.389	8161.94
400.613	7384.94
400.837	6878.94
401.062	6729.94
401.286	6634.94
401.51	6637.94
401.734	6637.94
401.958	6696.94
402.182	6741.94
402.406	6881.94
402.63	6996.94
402.854	7077.94
403.078	7102.94
403.302	7288.94
403.526	7430.94
403.75	7463.94
403.974	7512.94
404.198	7444.94
404.422	7641.94
404.645	7556.94
404.869	7628.94
405.093	7868.94
405.317	8191.94
405.541	8197.94
405.765	7620.94
405.988	7461.94
406.212	7620.94
406.436	7651.94
406.66	7847.94
406.883	7846.94
407.107	8400.94
407.331	8931.94
407.555	9417.94
407.778	9148.94
408.002	8437.94
408.226	7964.94
408.449	7875.94
408.673	7761.94
408.896	7963.94
409.12	8075.94
409.344	7641.94
409.567	7225.94
409.791	7281.94
410.014	7111.94
410.238	7056.94
410.461	7135.94
410.685	7169.94
410.908	7196.94
411.132	7494.94
411.355	7426.94
411.578	7046.94
411.802	6948.94
412.025	6917.94
412.249	7149.94
412.472	7375.94
412.695	7533.94
412.919	7073.94
413.142	6802.94
413.365	6717.94
413.589	6639.94
413.812	6499.94
414.035	6424.94
414.258	6550.94
414.482	6586.94
414.705	6563.94
414.928	6560.94
415.151	6535.94
415.374	6426.94
415.597	6406.94
415.821	6322.94
416.044	6369.94
416.267	6286.94
416.49	6272.94
416.713	6241.94
416.936	6375.94
417.159	6464.94
417.382	6378.94
417.605	6475.94
417.828	6600.94
418.051	6672.94
418.274	6526.94
418.497	6498.94
418.72	6598.94
418.943	6652.94
419.166	7004.94
419.389	7447.94
419.611	7350.94
419.834	7084.94
420.057	6995.94
420.28	6908.94
420.503	6759.94
420.726	6711.94
420.948	6773.94
421.171	7108.94
421.394	7109.94
421.617	6697.94
421.839	6597.94
422.062	6693.94
422.285	6907.94
422.507	7479.94
422.73	8002.94
422.953	7420.94
423.175	7095.94
423.398	7065.94
423.621	7035.94
423.843	7387.94
424.066	7285.94
424.288	7154.94
424.511	7369.94
424.733	7737.94
424.956	8298.94
425.178	7763.94
425.401	7882.94
425.623	7798.94
425.846	6833.94
426.068	6623.94
426.291	6548.94
426.513	6651.94
426.735	6685.94
426.958	7138.94
427.18	7896.94
427.402	8981.94
427.625	8950.94
427.847	7748.94
428.069	7164.94
428.292	6559.94
428.514	6225.94
428.736	6016.94
428.958	6116.94
429.181	5822.94
429.403	5780.94
429.625	5999.94
429.847	6347.94
430.069	6894.94
430.292	6440.94
430.514	5813.94
430.736	5919.94
430.958	5820.94
431.18	5733.94
431.402	5734.94
431.624	5688.94
431.846	5799.94
432.068	5867.94
432.29	5880.94
432.512	5779.94
432.734	5951.94
432.956	5813.94
433.178	5857.94
433.4	5861.94
433.622	5871.94
433.844	5780.94
434.066	5847.94
434.287	5942.94
434.509	6181.94
434.731	6451.94
434.953	6560.94
435.175	6693.94
435.397	6686.94
435.618	6668.94
435.84	7002.94
436.062	7807.94
436.284	7654.94
436.505	6655.94
436.727	6223.94
436.949	6033.94
437.17	5951.94
437.392	5786.94
437.614	6038.94
437.835	6347.94
438.057	7250.94
438.278	7859.94
438.5	7767.94
438.721	8591.94
438.943	7576.94
439.165	6345.94
439.386	6291.94
439.608	6265.94
439.829	6428.94
440.05	6714.94
440.272	6989.94
440.493	6479.94
440.715	6168.94
440.936	6118.94
441.158	6244.94
441.379	6353.94
441.6	6600.94
441.822	6817.94
442.043	7240.94
442.264	8062.94
442.486	7767.94
442.707	6952.94
442.928	6701.94
443.149	6874.94
443.371	7145.94
443.592	7689.94
443.813	8676.94
444.034	8545.94
444.255	7535.94
444.476	7447.94
444.698	7520.94
444.919	7711.94
445.14	7564.94
445.361	7291.94
445.582	7377.94
445.803	7924.94
446.024	8583.94
446.245	8098.94
446.466	7372.94
446.687	6456.94
446.908	6190.94
447.129	5809.94
447.35	5717.94
447.571	5677.94
447.792	5614.94
448.013	5706.94
448.234	5834.94
448.455	6548.94
448.675	7676.94
448.896	7991.94
449.117	6775.94
449.338	6965.94
449.559	8180.94
449.779	8300.94
450	6374.94
450.221	5783.94
450.442	5469.94
450.662	5402.94
450.883	5555.94
451.104	5614.94
451.324	5450.94
451.545	5328.94
451.766	5352.94
451.986	5136.94
452.207	5100.94
452.428	5075.94
452.648	5144.94
452.869	5162.94
453.089	5212.94
453.31	5279.94
453.53	5112.94
453.751	5015.94
453.971	5061.94
454.192	5099.94
454.412	4976.94
454.633	4959.94
454.853	4892.94
455.073	4979.94
455.294	5377.94
455.514	5887.94
455.734	5357.94
455.955	4803.94
456.175	4767.94
456.395	4696.94
456.616	4659.94
456.836	4705.94
457.056	4711.94
457.276	4625.94
457.497	4780.94
457.717	4754.94
457.937	4823.94
458.157	4930.94
458.377	4998.94
458.598	5290.94
458.818	6014.94
459.038	6637.94
459.258	6589.94
459.478	5988.94
459.698	5876.94
459.918	6001.94
460.138	6122.94
460.358	6368.94
460.578	6328.94
460.798	6432.94
461.018	6514.94
461.238	6362.94
461.458	6381.94
461.678	6320.94
461.898	6406.94
462.118	6466.94
462.338	6837.94
462.558	7027.94
462.777	7286.94
462.997	7802.94
463.217	8272.94
463.437	8025.94
463.657	7415.94
463.876	7212.94
464.096	7339.94
464.316	7301.94
464.536	7301.94
464.755	7030.94
464.975	6944.94
465.195	6959.94
465.414	6955.94
465.634	6156.94
465.854	5833.94
466.073	5675.94
466.293	5525.94
466.512	5419.94
466.732	5198.94
466.951	5254.94
467.171	5245.94
467.391	5291.94
467.61	5401.94
467.829	5324.94
468.049	5317.94
468.268	5261.94
468.488	5107.94
468.707	5049.94
468.927	5050.94
469.146	5067.94
469.365	5151.94
469.585	5115.94
469.804	5275.94
470.023	5459.94
470.243	5463.94
470.462	5576.94
470.681	5752.94
470.901	5570.94
471.12	5413.94
471.339	5391.94
471.558	5329.94
471.777	5167.94
471.997	5236.94
472.216	5333.94
472.435	5706.94
472.654	5397.94
472.873	5121.94
473.092	5138.94
473.311	5074.94
473.53	5113.94
473.749	5207.94
473.968	5745.94
474.187	6656.94
474.406	6197.94
474.625	5353.94
474.844	5131.94
475.063	5143.94
475.282	5051.94
475.501	5112.94
475.72	5210.94
475.939	5158.94
476.158	5256.94
476.377	5249.94
476.596	5215.94
476.814	5355.94
477.033	5472.94
477.252	5522.94
477.471	5599.94
477.69	5748.94
477.908	5869.94
478.127	5960.94
478.346	6070.94
478.564	6153.94
478.783	6251.94
479.002	6445.94
479.22	6485.94
479.439	6479.94
479.658	6646.94
479.876	6671.94
480.095	6824.94
480.313	7270.94
480.532	7230.94
480.751	7028.94
480.969	7165.94
481.188	7802.94
481.406	7595.94
481.624	6715.94
481.843	6529.94
482.061	6311.94
482.28	6084.94
482.498	6145.94
482.717	6048.94
482.935	6017.94
483.153	5967.94
483.372	6019.94
483.59	5916.94
483.808	5956.94
484.027	5959.94
484.245	6034.94
484.463	6095.94
484.681	6134.94
484.9	6184.94
485.118	6267.94
485.336	6188.94
485.554	6354.94
485.772	6439.94
485.99	6325.94
486.209	6417.94
486.427	6362.94
486.645	6434.94
486.863	6541.94
487.081	6463.94
487.299	6524.94
487.517	6426.94
487.735	6415.94
487.953	6406.94
