Data from Uncirc_1983_H10_HRD10591_00029.txt Node
Date: Wed Jan 03 12:25:37 EST 2024
User: Yrep
Spectrometer: HR+D1059
Trigger mode: 1
Integration Time (sec): 1.000000E-1
Scans to average: 1
Electric dark correction enabled: true
Nonlinearity correction enabled: false
Boxcar width: 0
XAxis mode: Wavelengths
Number of Pixels in Spectrum: 2048
>>>>>Begin Spectral Data<<<<<
223.165	-7.94
223.4	-7.94
223.635	-7.94
223.869	-21.94
224.104	-31.94
224.338	-14.94
224.573	-17.94
224.808	-9.94
225.042	14.06
225.277	-15.94
225.511	2.06
225.746	-0.94
225.98	4.06
226.215	12.06
226.449	13.06
226.683	15.06
226.918	31.06
227.152	30.06
227.387	45.06
227.621	56.06
227.856	38.06
228.09	45.06
228.324	58.06
228.559	65.06
228.793	46.06
229.027	70.06
229.262	67.06
229.496	92.06
229.73	78.06
229.964	86.06
230.199	88.06
230.433	64.06
230.667	84.06
230.901	79.06
231.136	79.06
231.37	79.06
231.604	83.06
231.838	76.06
232.072	90.06
232.306	92.06
232.541	84.06
232.775	82.06
233.009	88.06
233.243	86.06
233.477	92.06
233.711	88.06
233.945	86.06
234.179	67.06
234.413	78.06
234.647	76.06
234.881	91.06
235.115	86.06
235.349	83.06
235.583	78.06
235.817	78.06
236.051	73.06
236.285	82.06
236.519	77.06
236.753	88.06
236.987	82.06
237.221	91.06
237.455	93.06
237.689	88.06
237.922	78.06
238.156	77.06
238.39	86.06
238.624	73.06
238.858	82.06
239.091	78.06
239.325	86.06
239.559	89.06
239.793	89.06
240.027	84.06
240.26	78.06
240.494	96.06
240.728	86.06
240.961	77.06
241.195	93.06
241.429	67.06
241.662	88.06
241.896	79.06
242.13	91.06
242.363	77.06
242.597	84.06
242.83	78.06
243.064	82.06
243.298	95.06
243.531	82.06
243.765	90.06
243.998	95.06
244.232	88.06
244.465	80.06
244.699	77.06
244.932	83.06
245.166	96.06
245.399	77.06
245.633	78.06
245.866	85.06
246.099	80.06
246.333	72.06
246.566	70.06
246.8	72.06
247.033	71.06
247.266	84.06
247.5	68.06
247.733	85.06
247.966	87.06
248.2	72.06
248.433	96.06
248.666	64.06
248.899	83.06
249.133	78.06
249.366	92.06
249.599	114.06
249.832	73.06
250.066	69.06
250.299	79.06
250.532	91.06
250.765	70.06
250.998	80.06
251.231	90.06
251.465	75.06
251.698	72.06
251.931	74.06
252.164	81.06
252.397	87.06
252.63	75.06
252.863	91.06
253.096	80.06
253.329	79.06
253.562	68.06
253.795	92.06
254.028	76.06
254.261	78.06
254.494	69.06
254.727	76.06
254.96	75.06
255.193	78.06
255.426	82.06
255.659	70.06
255.892	83.06
256.124	78.06
256.357	85.06
256.59	93.06
256.823	88.06
257.056	86.06
257.289	90.06
257.521	87.06
257.754	75.06
257.987	78.06
258.22	98.06
258.452	83.06
258.685	73.06
258.918	88.06
259.151	65.06
259.383	80.06
259.616	83.06
259.849	96.06
260.081	70.06
260.314	78.06
260.547	79.06
260.779	88.06
261.012	102.06
261.244	76.06
261.477	87.06
261.71	85.06
261.942	108.06
262.175	125.06
262.407	87.06
262.64	91.06
262.872	75.06
263.105	80.06
263.337	73.06
263.57	88.06
263.802	82.06
264.035	76.06
264.267	83.06
264.499	103.06
264.732	82.06
264.964	77.06
265.197	90.06
265.429	86.06
265.661	94.06
265.894	82.06
266.126	83.06
266.358	88.06
266.591	106.06
266.823	88.06
267.055	68.06
267.287	81.06
267.52	88.06
267.752	90.06
267.984	92.06
268.216	86.06
268.448	82.06
268.681	80.06
268.913	91.06
269.145	83.06
269.377	101.06
269.609	94.06
269.841	90.06
270.073	90.06
270.306	100.06
270.538	91.06
270.77	84.06
271.002	91.06
271.234	70.06
271.466	80.06
271.698	80.06
271.93	76.06
272.162	85.06
272.394	82.06
272.626	91.06
272.858	90.06
273.09	83.06
273.322	79.06
273.553	90.06
273.785	86.06
274.017	70.06
274.249	78.06
274.481	90.06
274.713	97.06
274.945	86.06
275.176	80.06
275.408	92.06
275.64	82.06
275.872	91.06
276.104	95.06
276.335	94.06
276.567	104.06
276.799	107.06
277.031	95.06
277.262	96.06
277.494	85.06
277.726	96.06
277.957	81.06
278.189	89.06
278.421	92.06
278.652	95.06
278.884	88.06
279.115	87.06
279.347	88.06
279.579	83.06
279.81	85.06
280.042	92.06
280.273	78.06
280.505	84.06
280.736	77.06
280.968	94.06
281.199	91.06
281.431	99.06
281.662	91.06
281.894	85.06
282.125	87.06
282.356	97.06
282.588	119.06
282.819	103.06
283.051	100.06
283.282	92.06
283.513	96.06
283.745	87.06
283.976	88.06
284.207	90.06
284.439	89.06
284.67	79.06
284.901	91.06
285.132	84.06
285.364	95.06
285.595	90.06
285.826	104.06
286.057	103.06
286.288	100.06
286.52	97.06
286.751	100.06
286.982	94.06
287.213	89.06
287.444	87.06
287.675	82.06
287.906	92.06
288.138	103.06
288.369	97.06
288.6	108.06
288.831	90.06
289.062	95.06
289.293	83.06
289.524	97.06
289.755	93.06
289.986	79.06
290.217	108.06
290.448	77.06
290.679	105.06
290.91	91.06
291.141	103.06
291.371	97.06
291.602	86.06
291.833	91.06
292.064	88.06
292.295	76.06
292.526	89.06
292.757	92.06
292.987	89.06
293.218	99.06
293.449	90.06
293.68	86.06
293.91	88.06
294.141	94.06
294.372	92.06
294.603	90.06
294.833	85.06
295.064	88.06
295.295	91.06
295.525	98.06
295.756	95.06
295.987	96.06
296.217	116.06
296.448	111.06
296.679	94.06
296.909	89.06
297.14	90.06
297.37	92.06
297.601	96.06
297.831	91.06
298.062	86.06
298.292	99.06
298.523	86.06
298.753	83.06
298.984	88.06
299.214	72.06
299.445	90.06
299.675	93.06
299.905	100.06
300.136	96.06
300.366	85.06
300.597	90.06
300.827	91.06
301.057	93.06
301.288	96.06
301.518	92.06
301.748	103.06
301.979	107.06
302.209	90.06
302.439	87.06
302.669	97.06
302.9	108.06
303.13	101.06
303.36	94.06
303.59	96.06
303.82	106.06
304.051	94.06
304.281	93.06
304.511	104.06
304.741	95.06
304.971	89.06
305.201	104.06
305.431	101.06
305.661	89.06
305.891	78.06
306.121	94.06
306.352	104.06
306.582	108.06
306.812	96.06
307.042	89.06
307.272	92.06
307.502	95.06
307.731	84.06
307.961	90.06
308.191	104.06
308.421	95.06
308.651	99.06
308.881	95.06
309.111	98.06
309.341	88.06
309.571	91.06
309.8	96.06
310.03	113.06
310.26	93.06
310.49	96.06
310.72	102.06
310.949	104.06
311.179	98.06
311.409	98.06
311.639	97.06
311.868	96.06
312.098	97.06
312.328	79.06
312.557	98.06
312.787	98.06
313.017	100.06
313.246	95.06
313.476	93.06
313.706	88.06
313.935	88.06
314.165	109.06
314.394	93.06
314.624	102.06
314.853	92.06
315.083	93.06
315.312	89.06
315.542	85.06
315.771	81.06
316.001	91.06
316.23	103.06
316.46	88.06
316.689	91.06
316.919	91.06
317.148	93.06
317.377	84.06
317.607	74.06
317.836	99.06
318.065	93.06
318.295	102.06
318.524	88.06
318.753	99.06
318.983	92.06
319.212	104.06
319.441	99.06
319.67	94.06
319.9	93.06
320.129	88.06
320.358	96.06
320.587	92.06
320.816	99.06
321.046	117.06
321.275	106.06
321.504	90.06
321.733	92.06
321.962	86.06
322.191	109.06
322.42	86.06
322.649	105.06
322.878	113.06
323.108	107.06
323.337	124.06
323.566	132.06
323.795	147.06
324.024	174.06
324.253	347.06
324.482	694.06
324.71	1423.06
324.939	1905.06
325.168	705.06
325.397	220.06
325.626	131.06
325.855	126.06
326.084	115.06
326.313	137.06
326.542	151.06
326.77	205.06
326.999	414.06
327.228	812.06
327.457	1485.06
327.686	1169.06
327.914	316.06
328.143	174.06
328.372	137.06
328.6	118.06
328.829	111.06
329.058	116.06
329.287	119.06
329.515	95.06
329.744	107.06
329.972	83.06
330.201	103.06
330.43	98.06
330.658	126.06
330.887	123.06
331.115	122.06
331.344	109.06
331.572	111.06
331.801	101.06
332.03	106.06
332.258	97.06
332.486	95.06
332.715	98.06
332.943	105.06
333.172	104.06
333.4	99.06
333.629	98.06
333.857	107.06
334.085	103.06
334.314	105.06
334.542	103.06
334.771	120.06
334.999	103.06
335.227	93.06
335.455	96.06
335.684	103.06
335.912	110.06
336.14	98.06
336.369	97.06
336.597	94.06
336.825	86.06
337.053	98.06
337.281	106.06
337.51	102.06
337.738	105.06
337.966	102.06
338.194	107.06
338.422	92.06
338.65	82.06
338.878	93.06
339.106	92.06
339.334	101.06
339.562	94.06
339.79	109.06
340.018	101.06
340.246	99.06
340.474	98.06
340.702	86.06
340.93	94.06
341.158	100.06
341.386	112.06
341.614	94.06
341.842	106.06
342.07	92.06
342.298	84.06
342.526	103.06
342.754	96.06
342.981	96.06
343.209	98.06
343.437	110.06
343.665	99.06
343.893	85.06
344.12	87.06
344.348	91.06
344.576	93.06
344.804	102.06
345.031	93.06
345.259	102.06
345.487	107.06
345.714	95.06
345.942	84.06
346.17	87.06
346.397	90.06
346.625	96.06
346.853	97.06
347.08	101.06
347.308	90.06
347.535	96.06
347.763	95.06
347.99	89.06
348.218	108.06
348.445	114.06
348.673	95.06
348.9	101.06
349.128	100.06
349.355	101.06
349.583	102.06
349.81	106.06
350.037	100.06
350.265	96.06
350.492	98.06
350.72	107.06
350.947	110.06
351.174	98.06
351.402	113.06
351.629	84.06
351.856	103.06
352.083	104.06
352.311	100.06
352.538	101.06
352.765	98.06
352.992	103.06
353.22	113.06
353.447	103.06
353.674	120.06
353.901	103.06
354.128	101.06
354.355	105.06
354.583	104.06
354.81	86.06
355.037	93.06
355.264	116.06
355.491	105.06
355.718	106.06
355.945	98.06
356.172	103.06
356.399	98.06
356.626	86.06
356.853	100.06
357.08	111.06
357.307	96.06
357.534	89.06
357.761	99.06
357.988	105.06
358.215	108.06
358.441	101.06
358.668	96.06
358.895	95.06
359.122	86.06
359.349	88.06
359.576	101.06
359.802	91.06
360.029	103.06
360.256	116.06
360.483	87.06
360.709	94.06
360.936	99.06
361.163	99.06
361.39	111.06
361.616	95.06
361.843	87.06
362.07	92.06
362.296	101.06
362.523	102.06
362.749	112.06
362.976	88.06
363.203	106.06
363.429	100.06
363.656	101.06
363.882	92.06
364.109	92.06
364.335	87.06
364.562	82.06
364.788	98.06
365.015	106.06
365.241	94.06
365.468	112.06
365.694	101.06
365.92	101.06
366.147	98.06
366.373	79.06
366.599	98.06
366.826	95.06
367.052	95.06
367.278	91.06
367.505	106.06
367.731	95.06
367.957	94.06
368.184	99.06
368.41	96.06
368.636	99.06
368.862	104.06
369.089	111.06
369.315	98.06
369.541	96.06
369.767	101.06
369.993	93.06
370.219	92.06
370.445	78.06
370.672	99.06
370.898	94.06
371.124	90.06
371.35	95.06
371.576	89.06
371.802	94.06
372.028	92.06
372.254	93.06
372.48	92.06
372.706	90.06
372.932	99.06
373.158	98.06
373.384	95.06
373.61	102.06
373.835	103.06
374.061	85.06
374.287	95.06
374.513	93.06
374.739	103.06
374.965	109.06
375.191	88.06
375.416	90.06
375.642	86.06
375.868	94.06
376.094	93.06
376.319	89.06
376.545	91.06
376.771	85.06
376.997	92.06
377.222	98.06
377.448	75.06
377.674	89.06
377.899	100.06
378.125	77.06
378.35	95.06
378.576	91.06
378.802	87.06
379.027	99.06
379.253	95.06
379.478	91.06
379.704	92.06
379.929	89.06
380.155	98.06
380.38	86.06
380.606	93.06
380.831	90.06
381.057	106.06
381.282	105.06
381.507	78.06
381.733	87.06
381.958	96.06
382.184	90.06
382.409	100.06
382.634	107.06
382.86	98.06
383.085	100.06
383.31	107.06
383.535	94.06
383.761	103.06
383.986	106.06
384.211	96.06
384.436	107.06
384.662	102.06
384.887	109.06
385.112	106.06
385.337	107.06
385.562	88.06
385.787	110.06
386.013	118.06
386.238	116.06
386.463	98.06
386.688	111.06
386.913	118.06
387.138	104.06
387.363	107.06
387.588	108.06
387.813	104.06
388.038	89.06
388.263	95.06
388.488	118.06
388.713	106.06
388.938	93.06
389.163	94.06
389.387	102.06
389.612	104.06
389.837	89.06
390.062	94.06
390.287	92.06
390.512	101.06
390.736	93.06
390.961	106.06
391.186	98.06
391.411	89.06
391.636	97.06
391.86	90.06
392.085	77.06
392.31	80.06
392.534	88.06
392.759	95.06
392.984	90.06
393.208	96.06
393.433	107.06
393.658	93.06
393.882	94.06
394.107	103.06
394.331	88.06
394.556	85.06
394.78	100.06
395.005	101.06
395.229	102.06
395.454	99.06
395.678	77.06
395.903	89.06
396.127	99.06
396.352	87.06
396.576	87.06
396.801	90.06
397.025	95.06
397.249	90.06
397.474	94.06
397.698	86.06
397.922	93.06
398.147	95.06
398.371	86.06
398.595	106.06
398.82	95.06
399.044	83.06
399.268	86.06
399.492	100.06
399.717	93.06
399.941	90.06
400.165	86.06
400.389	94.06
400.613	96.06
400.837	91.06
401.062	93.06
401.286	86.06
401.51	90.06
401.734	85.06
401.958	104.06
402.182	125.06
402.406	155.06
402.63	118.06
402.854	105.06
403.078	96.06
403.302	86.06
403.526	94.06
403.75	96.06
403.974	84.06
404.198	86.06
404.422	100.06
404.645	95.06
404.869	83.06
405.093	87.06
405.317	97.06
405.541	102.06
405.765	95.06
405.988	108.06
406.212	153.06
406.436	198.06
406.66	133.06
406.883	101.06
407.107	103.06
407.331	84.06
407.555	92.06
407.778	102.06
408.002	96.06
408.226	73.06
408.449	93.06
408.673	82.06
408.896	119.06
409.12	117.06
409.344	102.06
409.567	80.06
409.791	88.06
410.014	107.06
410.238	102.06
410.461	94.06
410.685	108.06
410.908	96.06
411.132	102.06
411.355	99.06
411.578	106.06
411.802	93.06
412.025	91.06
412.249	89.06
412.472	85.06
412.695	94.06
412.919	95.06
413.142	95.06
413.365	92.06
413.589	75.06
413.812	92.06
414.035	88.06
414.258	90.06
414.482	86.06
414.705	82.06
414.928	93.06
415.151	91.06
415.374	92.06
415.597	84.06
415.821	86.06
416.044	98.06
416.267	79.06
416.49	96.06
416.713	83.06
416.936	102.06
417.159	100.06
417.382	78.06
417.605	93.06
417.828	96.06
418.051	99.06
418.274	90.06
418.497	102.06
418.72	96.06
418.943	99.06
419.166	95.06
419.389	104.06
419.611	98.06
419.834	86.06
420.057	92.06
420.28	83.06
420.503	87.06
420.726	92.06
420.948	79.06
421.171	95.06
421.394	89.06
421.617	90.06
421.839	88.06
422.062	102.06
422.285	93.06
422.507	111.06
422.73	107.06
422.953	101.06
423.175	98.06
423.398	78.06
423.621	100.06
423.843	104.06
424.066	94.06
424.288	101.06
424.511	95.06
424.733	102.06
424.956	93.06
425.178	105.06
425.401	111.06
425.623	86.06
425.846	106.06
426.068	103.06
426.291	93.06
426.513	101.06
426.735	84.06
426.958	87.06
427.18	98.06
427.402	122.06
427.625	139.06
427.847	118.06
428.069	101.06
428.292	89.06
428.514	90.06
428.736	96.06
428.958	88.06
429.181	89.06
429.403	91.06
429.625	79.06
429.847	91.06
430.069	90.06
430.292	90.06
430.514	90.06
430.736	90.06
430.958	85.06
431.18	79.06
431.402	79.06
431.624	83.06
431.846	90.06
432.068	90.06
432.29	92.06
432.512	97.06
432.734	94.06
432.956	88.06
433.178	106.06
433.4	100.06
433.622	101.06
433.844	87.06
434.066	100.06
434.287	104.06
434.509	91.06
434.731	86.06
434.953	85.06
435.175	99.06
435.397	94.06
435.618	101.06
435.84	100.06
436.062	113.06
436.284	100.06
436.505	95.06
436.727	91.06
436.949	100.06
437.17	88.06
437.392	86.06
437.614	92.06
437.835	104.06
438.057	112.06
438.278	104.06
438.5	120.06
438.721	128.06
438.943	100.06
439.165	101.06
439.386	84.06
439.608	95.06
439.829	96.06
440.05	125.06
440.272	129.06
440.493	83.06
440.715	90.06
440.936	106.06
441.158	80.06
441.379	94.06
441.6	102.06
441.822	96.06
442.043	95.06
442.264	99.06
442.486	105.06
442.707	102.06
442.928	102.06
443.149	117.06
443.371	125.06
443.592	107.06
443.813	112.06
444.034	106.06
444.255	95.06
444.476	88.06
444.698	91.06
444.919	72.06
445.14	131.06
445.361	110.06
445.582	98.06
445.803	125.06
446.024	131.06
446.245	135.06
446.466	104.06
446.687	89.06
446.908	90.06
447.129	86.06
447.35	94.06
447.571	89.06
447.792	86.06
448.013	99.06
448.234	95.06
448.455	102.06
448.675	116.06
448.896	103.06
449.117	102.06
449.338	83.06
449.559	138.06
449.779	132.06
450	72.06
450.221	93.06
450.442	80.06
450.662	103.06
450.883	102.06
451.104	104.06
451.324	87.06
451.545	79.06
451.766	96.06
451.986	99.06
452.207	91.06
452.428	103.06
452.648	102.06
452.869	92.06
453.089	102.06
453.31	109.06
453.53	88.06
453.751	94.06
453.971	91.06
454.192	120.06
454.412	102.06
454.633	94.06
454.853	90.06
455.073	94.06
455.294	89.06
455.514	94.06
455.734	94.06
455.955	95.06
456.175	101.06
456.395	97.06
456.616	85.06
456.836	95.06
457.056	83.06
457.276	88.06
457.497	70.06
457.717	74.06
457.937	74.06
458.157	97.06
458.377	99.06
458.598	103.06
458.818	130.06
459.038	149.06
459.258	102.06
459.478	98.06
459.698	95.06
459.918	75.06
460.138	83.06
460.358	88.06
460.578	94.06
460.798	95.06
461.018	99.06
461.238	82.06
461.458	100.06
461.678	74.06
461.898	84.06
462.118	90.06
462.338	88.06
462.558	84.06
462.777	88.06
462.997	88.06
463.217	87.06
463.437	84.06
463.657	98.06
463.876	85.06
464.096	95.06
464.316	104.06
464.536	86.06
464.755	100.06
464.975	107.06
465.195	141.06
465.414	152.06
465.634	93.06
465.854	73.06
466.073	77.06
466.293	98.06
466.512	87.06
466.732	87.06
466.951	91.06
467.171	108.06
467.391	98.06
467.61	106.06
467.829	92.06
468.049	96.06
468.268	107.06
468.488	85.06
468.707	84.06
468.927	96.06
469.146	82.06
469.365	86.06
469.585	89.06
469.804	86.06
470.023	98.06
470.243	100.06
470.462	100.06
470.681	120.06
470.901	104.06
471.12	88.06
471.339	90.06
471.558	92.06
471.777	91.06
471.997	106.06
472.216	96.06
472.435	110.06
472.654	92.06
472.873	95.06
473.092	86.06
473.311	80.06
473.53	98.06
473.749	91.06
473.968	102.06
474.187	108.06
474.406	92.06
474.625	92.06
474.844	73.06
475.063	89.06
475.282	79.06
475.501	87.06
475.72	107.06
475.939	90.06
476.158	85.06
476.377	86.06
476.596	94.06
476.814	74.06
477.033	85.06
477.252	85.06
477.471	95.06
477.69	109.06
477.908	86.06
478.127	78.06
478.346	92.06
478.564	86.06
478.783	104.06
479.002	93.06
479.22	77.06
479.439	117.06
479.658	102.06
479.876	95.06
480.095	102.06
480.313	90.06
480.532	89.06
480.751	92.06
480.969	94.06
481.188	126.06
481.406	104.06
481.624	94.06
481.843	92.06
482.061	82.06
482.28	94.06
482.498	100.06
482.717	93.06
482.935	89.06
483.153	106.06
483.372	104.06
483.59	93.06
483.808	91.06
484.027	99.06
484.245	93.06
484.463	86.06
484.681	95.06
484.9	98.06
485.118	90.06
485.336	103.06
485.554	98.06
485.772	99.06
485.99	96.06
486.209	116.06
486.427	113.06
486.645	105.06
486.863	116.06
487.081	109.06
487.299	91.06
487.517	99.06
487.735	107.06
487.953	89.06
488.171	97.06
488.389	100.06
488.607	107.06
488.825	107.06
489.043	94.06
489.261	82.06
489.479	91.06
489.696	91.06
489.914	82.06
490.132	98.06
490.35	100.06
490.568	106.06
490.786	77.06
491.003	84.06
491.221	100.06
491.439	92.06
491.657	101.06
491.874	104.06
492.092	101.06
492.31	91.06
492.527	92.06
492.745	83.06
492.963	93.06
493.18	96.06
493.398	97.06
493.615	106.06
493.833	82.06
494.05	87.06
494.268	86.06
494.485	77.06
494.703	81.06
494.92	87.06
495.138	91.06
495.355	108.06
495.573	79.06
495.79	100.06
496.008	102.06
496.225	94.06
496.442	99.06
496.66	101.06
496.877	98.06
497.094	95.06
497.312	94.06
497.529	107.06
497.746	100.06
497.963	85.06
498.181	95.06
498.398	83.06
498.615	124.06
498.832	96.06
499.049	98.06
499.267	101.06
499.484	83.06
499.701	92.06
499.918	80.06
500.135	91.06
500.352	82.06
500.569	99.06
500.786	98.06
501.003	96.06
501.22	86.06
501.437	87.06
501.654	107.06
501.871	101.06
502.088	99.06
502.305	94.06
502.522	95.06
502.739	96.06
502.956	86.06
503.172	84.06
503.389	91.06
503.606	99.06
503.823	107.06
504.04	99.06
504.256	109.06
504.473	90.06
504.69	76.06
504.907	86.06
505.123	93.06
505.34	83.06
505.557	83.06
505.773	105.06
505.99	87.06
506.207	93.06
506.423	104.06
506.64	90.06
506.856	77.06
507.073	88.06
507.289	104.06
507.506	100.06
507.722	97.06
507.939	102.06
508.155	95.06
508.372	98.06
508.588	91.06
508.805	99.06
509.021	102.06
509.238	90.06
509.454	99.06
509.67	105.06
509.887	126.06
510.103	137.06
510.319	207.06
510.536	684.06
510.752	2034.06
510.968	570.06
511.184	141.06
511.401	108.06
511.617	92.06
511.833	90.06
512.049	93.06
512.265	94.06
512.481	99.06
512.698	100.06
512.914	92.06
513.13	92.06
513.346	88.06
513.562	88.06
513.778	90.06
513.994	99.06
514.21	104.06
514.426	113.06
514.642	115.06
