Data from Uncirc_1983_H10_HRD10591_00006.txt Node
Date: Wed Jan 03 12:25:33 EST 2024
User: Yrep
Spectrometer: HR+D1059
Trigger mode: 1
Integration Time (sec): 1.000000E-1
Scans to average: 1
Electric dark correction enabled: true
Nonlinearity correction enabled: false
Boxcar width: 0
XAxis mode: Wavelengths
Number of Pixels in Spectrum: 2048
>>>>>Begin Spectral Data<<<<<
223.165	-15.12
223.4	-15.12
223.635	-15.12
223.869	-27.12
224.104	-24.12
224.338	-20.12
224.573	-18.12
224.808	3.88
225.042	-10.12
225.277	-8.12
225.511	1.88
225.746	15.88
225.98	10.88
226.215	-1.12
226.449	16.88
226.683	24.88
226.918	22.88
227.152	26.88
227.387	15.88
227.621	54.88
227.856	59.88
228.09	50.88
228.324	57.88
228.559	57.88
228.793	57.88
229.027	63.88
229.262	58.88
229.496	57.88
229.73	73.88
229.964	87.88
230.199	65.88
230.433	64.88
230.667	88.88
230.901	66.88
231.136	72.88
231.37	73.88
231.604	84.88
231.838	86.88
232.072	73.88
232.306	80.88
232.541	77.88
232.775	79.88
233.009	76.88
233.243	76.88
233.477	96.88
233.711	76.88
233.945	79.88
234.179	71.88
234.413	76.88
234.647	76.88
234.881	76.88
235.115	81.88
235.349	76.88
235.583	77.88
235.817	80.88
236.051	61.88
236.285	69.88
236.519	82.88
236.753	62.88
236.987	73.88
237.221	81.88
237.455	78.88
237.689	89.88
237.922	77.88
238.156	80.88
238.39	69.88
238.624	76.88
238.858	72.88
239.091	76.88
239.325	78.88
239.559	66.88
239.793	70.88
240.027	84.88
240.26	91.88
240.494	96.88
240.728	81.88
240.961	65.88
241.195	84.88
241.429	77.88
241.662	74.88
241.896	67.88
242.13	76.88
242.363	71.88
242.597	66.88
242.83	73.88
243.064	54.88
243.298	87.88
243.531	71.88
243.765	65.88
243.998	87.88
244.232	71.88
244.465	65.88
244.699	85.88
244.932	91.88
245.166	67.88
245.399	88.88
245.633	81.88
245.866	64.88
246.099	68.88
246.333	79.88
246.566	92.88
246.8	74.88
247.033	76.88
247.266	63.88
247.5	69.88
247.733	71.88
247.966	87.88
248.2	63.88
248.433	85.88
248.666	74.88
248.899	84.88
249.133	84.88
249.366	101.88
249.599	89.88
249.832	88.88
250.066	80.88
250.299	71.88
250.532	64.88
250.765	82.88
250.998	73.88
251.231	85.88
251.465	82.88
251.698	77.88
251.931	78.88
252.164	78.88
252.397	81.88
252.63	80.88
252.863	78.88
253.096	80.88
253.329	100.88
253.562	78.88
253.795	79.88
254.028	69.88
254.261	69.88
254.494	78.88
254.727	79.88
254.96	64.88
255.193	87.88
255.426	87.88
255.659	64.88
255.892	79.88
256.124	81.88
256.357	78.88
256.59	77.88
256.823	66.88
257.056	81.88
257.289	94.88
257.521	72.88
257.754	81.88
257.987	80.88
258.22	82.88
258.452	86.88
258.685	69.88
258.918	80.88
259.151	86.88
259.383	96.88
259.616	80.88
259.849	78.88
260.081	67.88
260.314	82.88
260.547	82.88
260.779	88.88
261.012	69.88
261.244	77.88
261.477	85.88
261.71	89.88
261.942	103.88
262.175	102.88
262.407	86.88
262.64	69.88
262.872	86.88
263.105	87.88
263.337	94.88
263.57	74.88
263.802	85.88
264.035	78.88
264.267	88.88
264.499	80.88
264.732	96.88
264.964	83.88
265.197	82.88
265.429	83.88
265.661	88.88
265.894	80.88
266.126	73.88
266.358	73.88
266.591	81.88
266.823	83.88
267.055	85.88
267.287	95.88
267.52	72.88
267.752	90.88
267.984	65.88
268.216	86.88
268.448	67.88
268.681	81.88
268.913	78.88
269.145	83.88
269.377	84.88
269.609	90.88
269.841	65.88
270.073	78.88
270.306	87.88
270.538	57.88
270.77	76.88
271.002	77.88
271.234	72.88
271.466	80.88
271.698	87.88
271.93	81.88
272.162	77.88
272.394	80.88
272.626	64.88
272.858	74.88
273.09	72.88
273.322	81.88
273.553	84.88
273.785	78.88
274.017	68.88
274.249	77.88
274.481	88.88
274.713	82.88
274.945	78.88
275.176	76.88
275.408	77.88
275.64	81.88
275.872	82.88
276.104	84.88
276.335	84.88
276.567	90.88
276.799	101.88
277.031	89.88
277.262	85.88
277.494	71.88
277.726	86.88
277.957	80.88
278.189	64.88
278.421	92.88
278.652	89.88
278.884	81.88
279.115	77.88
279.347	77.88
279.579	59.88
279.81	80.88
280.042	85.88
280.273	81.88
280.505	89.88
280.736	98.88
280.968	93.88
281.199	88.88
281.431	69.88
281.662	87.88
281.894	78.88
282.125	90.88
282.356	100.88
282.588	112.88
282.819	98.88
283.051	80.88
283.282	80.88
283.513	75.88
283.745	93.88
283.976	95.88
284.207	77.88
284.439	71.88
284.67	87.88
284.901	89.88
285.132	83.88
285.364	86.88
285.595	109.88
285.826	90.88
286.057	76.88
286.288	81.88
286.52	68.88
286.751	84.88
286.982	82.88
287.213	90.88
287.444	83.88
287.675	77.88
287.906	84.88
288.138	80.88
288.369	92.88
288.6	89.88
288.831	68.88
289.062	84.88
289.293	86.88
289.524	86.88
289.755	86.88
289.986	93.88
290.217	100.88
290.448	92.88
290.679	89.88
290.91	85.88
291.141	81.88
291.371	85.88
291.602	88.88
291.833	92.88
292.064	83.88
292.295	88.88
292.526	89.88
292.757	97.88
292.987	77.88
293.218	85.88
293.449	71.88
293.68	80.88
293.91	86.88
294.141	101.88
294.372	83.88
294.603	82.88
294.833	97.88
295.064	80.88
295.295	86.88
295.525	92.88
295.756	87.88
295.987	94.88
296.217	100.88
296.448	90.88
296.679	86.88
296.909	85.88
297.14	79.88
297.37	74.88
297.601	79.88
297.831	82.88
298.062	88.88
298.292	88.88
298.523	84.88
298.753	89.88
298.984	101.88
299.214	78.88
299.445	84.88
299.675	93.88
299.905	80.88
300.136	88.88
300.366	84.88
300.597	86.88
300.827	98.88
301.057	81.88
301.288	92.88
301.518	72.88
301.748	82.88
301.979	85.88
302.209	94.88
302.439	84.88
302.669	82.88
302.9	96.88
303.13	90.88
303.36	88.88
303.59	80.88
303.82	102.88
304.051	87.88
304.281	79.88
304.511	91.88
304.741	77.88
304.971	81.88
305.201	87.88
305.431	85.88
305.661	80.88
305.891	67.88
306.121	90.88
306.352	92.88
306.582	88.88
306.812	96.88
307.042	94.88
307.272	81.88
307.502	80.88
307.731	77.88
307.961	82.88
308.191	95.88
308.421	77.88
308.651	90.88
308.881	91.88
309.111	80.88
309.341	96.88
309.571	81.88
309.8	84.88
310.03	74.88
310.26	85.88
310.49	78.88
310.72	96.88
310.949	82.88
311.179	97.88
311.409	100.88
311.639	83.88
311.868	87.88
312.098	87.88
312.328	85.88
312.557	90.88
312.787	76.88
313.017	93.88
313.246	91.88
313.476	92.88
313.706	95.88
313.935	73.88
314.165	93.88
314.394	89.88
314.624	90.88
314.853	94.88
315.083	98.88
315.312	81.88
315.542	88.88
315.771	88.88
316.001	67.88
316.23	72.88
316.46	92.88
316.689	89.88
316.919	73.88
317.148	80.88
317.377	86.88
317.607	79.88
317.836	88.88
318.065	84.88
318.295	97.88
318.524	95.88
318.753	76.88
318.983	88.88
319.212	86.88
319.441	92.88
319.67	87.88
319.9	97.88
320.129	82.88
320.358	93.88
320.587	90.88
320.816	83.88
321.046	107.88
321.275	86.88
321.504	98.88
321.733	87.88
321.962	89.88
322.191	100.88
322.42	105.88
322.649	108.88
322.878	110.88
323.108	112.88
323.337	111.88
323.566	115.88
323.795	131.88
324.024	169.88
324.253	322.88
324.482	659.88
324.71	1352.88
324.939	1726.88
325.168	653.88
325.397	193.88
325.626	146.88
325.855	125.88
326.084	98.88
326.313	127.88
326.542	136.88
326.77	182.88
326.999	390.88
327.228	800.88
327.457	1395.88
327.686	1091.88
327.914	312.88
328.143	165.88
328.372	129.88
328.6	105.88
328.829	102.88
329.058	128.88
329.287	96.88
329.515	109.88
329.744	109.88
329.972	103.88
330.201	102.88
330.43	99.88
330.658	102.88
330.887	110.88
331.115	115.88
331.344	86.88
331.572	88.88
331.801	86.88
332.03	97.88
332.258	81.88
332.486	85.88
332.715	99.88
332.943	85.88
333.172	100.88
333.4	93.88
333.629	84.88
333.857	101.88
334.085	104.88
334.314	88.88
334.542	87.88
334.771	87.88
334.999	96.88
335.227	86.88
335.455	82.88
335.684	92.88
335.912	97.88
336.14	101.88
336.369	94.88
336.597	80.88
336.825	92.88
337.053	96.88
337.281	85.88
337.51	87.88
337.738	93.88
337.966	74.88
338.194	94.88
338.422	86.88
338.65	92.88
338.878	80.88
339.106	86.88
339.334	98.88
339.562	81.88
339.79	83.88
340.018	92.88
340.246	76.88
340.474	90.88
340.702	92.88
340.93	76.88
341.158	93.88
341.386	95.88
341.614	87.88
341.842	94.88
342.07	82.88
342.298	88.88
342.526	86.88
342.754	89.88
342.981	87.88
343.209	81.88
343.437	92.88
343.665	102.88
343.893	88.88
344.12	88.88
344.348	102.88
344.576	92.88
344.804	91.88
345.031	69.88
345.259	91.88
345.487	87.88
345.714	86.88
345.942	91.88
346.17	83.88
346.397	87.88
346.625	88.88
346.853	99.88
347.08	88.88
347.308	98.88
347.535	78.88
347.763	95.88
347.99	77.88
348.218	86.88
348.445	87.88
348.673	91.88
348.9	93.88
349.128	77.88
349.355	80.88
349.583	86.88
349.81	90.88
350.037	86.88
350.265	99.88
350.492	85.88
350.72	95.88
350.947	96.88
351.174	106.88
351.402	98.88
351.629	97.88
351.856	102.88
352.083	85.88
352.311	103.88
352.538	103.88
352.765	97.88
352.992	107.88
353.22	100.88
353.447	100.88
353.674	112.88
353.901	87.88
354.128	100.88
354.355	100.88
354.583	95.88
354.81	91.88
355.037	101.88
355.264	87.88
355.491	82.88
355.718	97.88
355.945	102.88
356.172	85.88
356.399	100.88
356.626	91.88
356.853	103.88
357.08	83.88
357.307	88.88
357.534	80.88
357.761	85.88
357.988	94.88
358.215	106.88
358.441	96.88
358.668	88.88
358.895	92.88
359.122	88.88
359.349	79.88
359.576	106.88
359.802	89.88
360.029	100.88
360.256	103.88
360.483	86.88
360.709	92.88
360.936	94.88
361.163	87.88
361.39	92.88
361.616	86.88
361.843	76.88
362.07	86.88
362.296	92.88
362.523	89.88
362.749	86.88
362.976	78.88
363.203	96.88
363.429	86.88
363.656	88.88
363.882	73.88
364.109	85.88
364.335	84.88
364.562	81.88
364.788	84.88
365.015	105.88
365.241	102.88
365.468	99.88
365.694	98.88
365.92	80.88
366.147	87.88
366.373	76.88
366.599	86.88
366.826	96.88
367.052	89.88
367.278	86.88
367.505	94.88
367.731	81.88
367.957	87.88
368.184	87.88
368.41	95.88
368.636	84.88
368.862	102.88
369.089	105.88
369.315	109.88
369.541	85.88
369.767	88.88
369.993	96.88
370.219	86.88
370.445	67.88
370.672	84.88
370.898	93.88
371.124	106.88
371.35	93.88
371.576	96.88
371.802	97.88
372.028	80.88
372.254	99.88
372.48	96.88
372.706	87.88
372.932	80.88
373.158	87.88
373.384	91.88
373.61	88.88
373.835	97.88
374.061	88.88
374.287	93.88
374.513	94.88
374.739	94.88
374.965	83.88
375.191	91.88
375.416	80.88
375.642	88.88
375.868	84.88
376.094	93.88
376.319	79.88
376.545	89.88
376.771	81.88
376.997	77.88
377.222	92.88
377.448	78.88
377.674	92.88
377.899	89.88
378.125	82.88
378.35	98.88
378.576	88.88
378.802	91.88
379.027	73.88
379.253	92.88
379.478	73.88
379.704	98.88
379.929	100.88
380.155	86.88
380.38	77.88
380.606	95.88
380.831	92.88
381.057	89.88
381.282	102.88
381.507	85.88
381.733	94.88
381.958	100.88
382.184	103.88
382.409	106.88
382.634	110.88
382.86	96.88
383.085	103.88
383.31	91.88
383.535	95.88
383.761	104.88
383.986	103.88
384.211	96.88
384.436	110.88
384.662	111.88
384.887	114.88
385.112	117.88
385.337	107.88
385.562	105.88
385.787	120.88
386.013	116.88
386.238	94.88
386.463	103.88
386.688	118.88
386.913	103.88
387.138	110.88
387.363	112.88
387.588	118.88
387.813	112.88
388.038	112.88
388.263	115.88
388.488	120.88
388.713	93.88
388.938	99.88
389.163	91.88
389.387	92.88
389.612	102.88
389.837	89.88
390.062	97.88
390.287	88.88
390.512	81.88
390.736	85.88
390.961	79.88
391.186	84.88
391.411	92.88
391.636	90.88
391.86	81.88
392.085	97.88
392.31	88.88
392.534	93.88
392.759	102.88
392.984	95.88
393.208	90.88
393.433	99.88
393.658	107.88
393.882	76.88
394.107	84.88
394.331	77.88
394.556	78.88
394.78	94.88
395.005	78.88
395.229	82.88
395.454	81.88
395.678	79.88
395.903	84.88
396.127	87.88
396.352	93.88
396.576	104.88
396.801	88.88
397.025	96.88
397.249	82.88
397.474	90.88
397.698	89.88
397.922	85.88
398.147	85.88
398.371	81.88
398.595	88.88
398.82	92.88
399.044	81.88
399.268	76.88
399.492	101.88
399.717	100.88
399.941	86.88
400.165	77.88
400.389	83.88
400.613	85.88
400.837	72.88
401.062	74.88
401.286	85.88
401.51	84.88
401.734	84.88
401.958	81.88
402.182	102.88
402.406	114.88
402.63	92.88
402.854	85.88
403.078	93.88
403.302	94.88
403.526	84.88
403.75	85.88
403.974	81.88
404.198	79.88
404.422	92.88
404.645	59.88
404.869	82.88
405.093	80.88
405.317	92.88
405.541	90.88
405.765	91.88
405.988	86.88
406.212	126.88
406.436	178.88
406.66	89.88
406.883	78.88
407.107	73.88
407.331	78.88
407.555	89.88
407.778	93.88
408.002	91.88
408.226	85.88
408.449	80.88
408.673	90.88
408.896	81.88
409.12	81.88
409.344	85.88
409.567	87.88
409.791	84.88
410.014	100.88
410.238	79.88
410.461	77.88
410.685	108.88
410.908	97.88
411.132	113.88
411.355	94.88
411.578	91.88
411.802	62.88
412.025	86.88
412.249	74.88
412.472	90.88
412.695	80.88
412.919	93.88
413.142	92.88
413.365	82.88
413.589	80.88
413.812	84.88
414.035	88.88
414.258	97.88
414.482	86.88
414.705	89.88
414.928	103.88
415.151	81.88
415.374	78.88
415.597	81.88
415.821	88.88
416.044	80.88
416.267	92.88
416.49	77.88
416.713	71.88
416.936	83.88
417.159	77.88
417.382	108.88
417.605	84.88
417.828	91.88
418.051	88.88
418.274	81.88
418.497	84.88
418.72	94.88
418.943	77.88
419.166	97.88
419.389	98.88
419.611	82.88
419.834	80.88
420.057	86.88
420.28	77.88
420.503	86.88
420.726	78.88
420.948	70.88
421.171	63.88
421.394	97.88
421.617	78.88
421.839	85.88
422.062	90.88
422.285	95.88
422.507	86.88
422.73	102.88
422.953	81.88
423.175	98.88
423.398	82.88
423.621	101.88
423.843	101.88
424.066	87.88
424.288	84.88
424.511	91.88
424.733	89.88
424.956	97.88
425.178	95.88
425.401	92.88
425.623	97.88
425.846	92.88
426.068	79.88
426.291	92.88
426.513	82.88
426.735	95.88
426.958	96.88
427.18	98.88
427.402	113.88
427.625	131.88
427.847	113.88
428.069	102.88
428.292	74.88
428.514	80.88
428.736	71.88
428.958	84.88
429.181	93.88
429.403	87.88
429.625	82.88
429.847	81.88
430.069	89.88
430.292	78.88
430.514	80.88
430.736	98.88
430.958	82.88
431.18	90.88
431.402	83.88
431.624	82.88
431.846	85.88
432.068	89.88
432.29	97.88
432.512	101.88
432.734	78.88
432.956	86.88
433.178	91.88
433.4	81.88
433.622	100.88
433.844	82.88
434.066	101.88
434.287	77.88
434.509	79.88
434.731	79.88
434.953	86.88
435.175	84.88
435.397	91.88
435.618	94.88
435.84	91.88
436.062	119.88
436.284	99.88
436.505	68.88
436.727	97.88
436.949	85.88
437.17	86.88
437.392	67.88
437.614	86.88
437.835	94.88
438.057	94.88
438.278	90.88
438.5	105.88
438.721	117.88
438.943	94.88
439.165	76.88
439.386	90.88
439.608	83.88
439.829	89.88
440.05	109.88
440.272	128.88
440.493	84.88
440.715	89.88
440.936	72.88
441.158	74.88
441.379	84.88
441.6	84.88
441.822	74.88
442.043	93.88
442.264	86.88
442.486	87.88
442.707	87.88
442.928	98.88
443.149	106.88
443.371	105.88
443.592	92.88
443.813	111.88
444.034	89.88
444.255	82.88
444.476	72.88
444.698	86.88
444.919	92.88
445.14	141.88
445.361	105.88
445.582	115.88
445.803	103.88
446.024	104.88
446.245	103.88
446.466	101.88
446.687	76.88
446.908	78.88
447.129	80.88
447.35	74.88
447.571	94.88
447.792	93.88
448.013	78.88
448.234	95.88
448.455	89.88
448.675	86.88
448.896	102.88
449.117	97.88
449.338	107.88
449.559	126.88
449.779	112.88
450	76.88
450.221	83.88
450.442	85.88
450.662	67.88
450.883	99.88
451.104	104.88
451.324	85.88
451.545	85.88
451.766	75.88
451.986	77.88
452.207	77.88
452.428	77.88
452.648	100.88
452.869	98.88
453.089	99.88
453.31	103.88
453.53	96.88
453.751	89.88
453.971	98.88
454.192	86.88
454.412	93.88
454.633	92.88
454.853	82.88
455.073	87.88
455.294	95.88
455.514	89.88
455.734	89.88
455.955	78.88
456.175	68.88
456.395	82.88
456.616	99.88
456.836	86.88
457.056	69.88
457.276	101.88
457.497	90.88
457.717	82.88
457.937	97.88
458.157	67.88
458.377	66.88
458.598	90.88
458.818	107.88
459.038	114.88
459.258	99.88
459.478	78.88
459.698	80.88
459.918	87.88
460.138	81.88
460.358	73.88
460.578	70.88
460.798	93.88
461.018	90.88
461.238	84.88
461.458	78.88
461.678	86.88
461.898	92.88
462.118	87.88
462.338	80.88
462.558	79.88
462.777	76.88
462.997	69.88
463.217	63.88
463.437	86.88
463.657	94.88
463.876	78.88
464.096	84.88
464.316	103.88
464.536	88.88
464.755	91.88
464.975	100.88
465.195	147.88
465.414	126.88
465.634	86.88
465.854	72.88
466.073	80.88
466.293	76.88
466.512	76.88
466.732	87.88
466.951	73.88
467.171	80.88
467.391	84.88
467.61	100.88
467.829	100.88
468.049	84.88
468.268	77.88
468.488	71.88
468.707	85.88
468.927	85.88
469.146	85.88
469.365	75.88
469.585	94.88
469.804	87.88
470.023	92.88
470.243	77.88
470.462	81.88
470.681	79.88
470.901	91.88
471.12	74.88
471.339	99.88
471.558	97.88
471.777	84.88
471.997	78.88
472.216	90.88
472.435	85.88
472.654	76.88
472.873	88.88
473.092	80.88
473.311	82.88
473.53	87.88
473.749	80.88
473.968	84.88
474.187	94.88
474.406	99.88
474.625	94.88
474.844	85.88
475.063	91.88
475.282	84.88
475.501	90.88
475.72	90.88
475.939	77.88
476.158	86.88
476.377	83.88
476.596	83.88
476.814	86.88
477.033	88.88
477.252	69.88
477.471	86.88
477.69	85.88
477.908	76.88
478.127	81.88
478.346	82.88
478.564	79.88
478.783	82.88
479.002	94.88
479.22	84.88
479.439	89.88
479.658	89.88
479.876	94.88
480.095	92.88
480.313	92.88
480.532	74.88
480.751	80.88
480.969	88.88
481.188	103.88
481.406	96.88
481.624	79.88
481.843	88.88
482.061	107.88
482.28	87.88
482.498	82.88
482.717	84.88
482.935	66.88
483.153	72.88
483.372	88.88
483.59	89.88
483.808	89.88
484.027	89.88
484.245	103.88
484.463	91.88
484.681	95.88
484.9	73.88
485.118	74.88
485.336	81.88
485.554	94.88
485.772	98.88
485.99	101.88
486.209	100.88
486.427	89.88
486.645	108.88
486.863	99.88
487.081	98.88
487.299	99.88
487.517	82.88
487.735	91.88
487.953	93.88
488.171	95.88
488.389	88.88
488.607	96.88
488.825	85.88
489.043	85.88
489.261	87.88
489.479	80.88
489.696	89.88
489.914	83.88
490.132	90.88
490.35	95.88
490.568	94.88
490.786	88.88
491.003	80.88
491.221	76.88
491.439	101.88
491.657	103.88
491.874	86.88
492.092	77.88
492.31	92.88
492.527	86.88
492.745	67.88
492.963	87.88
493.18	92.88
493.398	85.88
493.615	80.88
493.833	96.88
494.05	82.88
494.268	62.88
494.485	84.88
494.703	83.88
494.92	101.88
495.138	71.88
495.355	89.88
495.573	88.88
495.79	97.88
496.008	80.88
496.225	104.88
496.442	81.88
496.66	80.88
496.877	84.88
497.094	78.88
497.312	80.88
497.529	94.88
497.746	105.88
497.963	90.88
498.181	86.88
498.398	79.88
498.615	101.88
498.832	82.88
499.049	86.88
499.267	88.88
499.484	101.88
499.701	89.88
499.918	88.88
500.135	101.88
500.352	85.88
500.569	81.88
500.786	87.88
501.003	86.88
501.22	99.88
501.437	97.88
501.654	85.88
501.871	93.88
502.088	87.88
502.305	103.88
502.522	103.88
502.739	93.88
502.956	73.88
503.172	86.88
503.389	95.88
503.606	102.88
503.823	97.88
504.04	97.88
504.256	101.88
504.473	96.88
504.69	84.88
504.907	82.88
505.123	81.88
505.34	100.88
505.557	92.88
505.773	82.88
505.99	81.88
506.207	93.88
506.423	88.88
506.64	88.88
506.856	95.88
507.073	89.88
507.289	96.88
507.506	87.88
507.722	89.88
507.939	79.88
508.155	88.88
508.372	90.88
508.588	75.88
508.805	88.88
509.021	89.88
509.238	100.88
509.454	77.88
509.67	101.88
509.887	95.88
510.103	121.88
510.319	174.88
510.536	518.88
510.752	1593.88
510.968	444.88
511.184	134.88
511.401	105.88
511.617	77.88
511.833	77.88
512.049	91.88
512.265	90.88
512.481	94.88
512.698	80.88
512.914	84.88
513.13	95.88
513.346	91.88
513.562	92.88
513.778	77.88
513.994	83.88
514.21	94.88
514.426	106.88
514.642	121.88
514.858	114.88
515.074	127.88
515.29	312.88
515.506	900.88
515.721	341.88
515.937	127.88
516.153	92.88
516.369	93.88
516.585	95.88
516.801	84.88
517.016	95.88
517.232	84.88
