Data from Uncirc_1983_H10_HRD10591_00027.txt Node
Date: Wed Jan 03 12:25:37 EST 2024
User: Yrep
Spectrometer: HR+D1059
Trigger mode: 1
Integration Time (sec): 1.000000E-1
Scans to average: 1
Electric dark correction enabled: true
Nonlinearity correction enabled: false
Boxcar width: 0
XAxis mode: Wavelengths
Number of Pixels in Spectrum: 2048
>>>>>Begin Spectral Data<<<<<
223.165	-6.94
223.4	-6.94
223.635	-6.94
223.869	-20.94
224.104	-19.94
224.338	-6.94
224.573	-18.94
224.808	-5.94
225.042	-3.94
225.277	-12.94
225.511	-8.94
225.746	8.06
225.98	6.06
226.215	8.06
226.449	23.06
226.683	9.06
226.918	19.06
227.152	32.06
227.387	41.06
227.621	40.06
227.856	50.06
228.09	43.06
228.324	54.06
228.559	55.06
228.793	51.06
229.027	74.06
229.262	73.06
229.496	72.06
229.73	84.06
229.964	81.06
230.199	86.06
230.433	86.06
230.667	79.06
230.901	81.06
231.136	71.06
231.37	71.06
231.604	81.06
231.838	80.06
232.072	66.06
232.306	82.06
232.541	84.06
232.775	75.06
233.009	90.06
233.243	90.06
233.477	86.06
233.711	76.06
233.945	93.06
234.179	76.06
234.413	73.06
234.647	92.06
234.881	77.06
235.115	73.06
235.349	85.06
235.583	83.06
235.817	70.06
236.051	73.06
236.285	73.06
236.519	73.06
236.753	74.06
236.987	88.06
237.221	93.06
237.455	91.06
237.689	75.06
237.922	79.06
238.156	76.06
238.39	83.06
238.624	69.06
238.858	73.06
239.091	78.06
239.325	74.06
239.559	77.06
239.793	89.06
240.027	77.06
240.26	76.06
240.494	75.06
240.728	78.06
240.961	73.06
241.195	78.06
241.429	98.06
241.662	86.06
241.896	85.06
242.13	79.06
242.363	57.06
242.597	75.06
242.83	88.06
243.064	77.06
243.298	85.06
243.531	90.06
243.765	79.06
243.998	77.06
244.232	66.06
244.465	84.06
244.699	83.06
244.932	82.06
245.166	94.06
245.399	76.06
245.633	83.06
245.866	79.06
246.099	93.06
246.333	89.06
246.566	75.06
246.8	78.06
247.033	85.06
247.266	67.06
247.5	83.06
247.733	71.06
247.966	83.06
248.2	77.06
248.433	89.06
248.666	84.06
248.899	97.06
249.133	88.06
249.366	93.06
249.599	93.06
249.832	86.06
250.066	69.06
250.299	79.06
250.532	76.06
250.765	77.06
250.998	84.06
251.231	67.06
251.465	83.06
251.698	76.06
251.931	88.06
252.164	77.06
252.397	87.06
252.63	85.06
252.863	95.06
253.096	85.06
253.329	89.06
253.562	89.06
253.795	87.06
254.028	83.06
254.261	83.06
254.494	95.06
254.727	87.06
254.96	58.06
255.193	85.06
255.426	95.06
255.659	88.06
255.892	75.06
256.124	90.06
256.357	78.06
256.59	78.06
256.823	87.06
257.056	65.06
257.289	63.06
257.521	85.06
257.754	81.06
257.987	93.06
258.22	79.06
258.452	83.06
258.685	81.06
258.918	83.06
259.151	75.06
259.383	84.06
259.616	76.06
259.849	70.06
260.081	90.06
260.314	102.06
260.547	79.06
260.779	81.06
261.012	73.06
261.244	74.06
261.477	97.06
261.71	88.06
261.942	103.06
262.175	109.06
262.407	106.06
262.64	83.06
262.872	86.06
263.105	98.06
263.337	84.06
263.57	100.06
263.802	78.06
264.035	91.06
264.267	91.06
264.499	87.06
264.732	76.06
264.964	87.06
265.197	85.06
265.429	84.06
265.661	103.06
265.894	77.06
266.126	85.06
266.358	82.06
266.591	103.06
266.823	81.06
267.055	75.06
267.287	77.06
267.52	82.06
267.752	65.06
267.984	85.06
268.216	83.06
268.448	80.06
268.681	93.06
268.913	91.06
269.145	80.06
269.377	74.06
269.609	78.06
269.841	89.06
270.073	78.06
270.306	88.06
270.538	67.06
270.77	85.06
271.002	86.06
271.234	91.06
271.466	85.06
271.698	92.06
271.93	95.06
272.162	87.06
272.394	77.06
272.626	70.06
272.858	100.06
273.09	71.06
273.322	99.06
273.553	87.06
273.785	86.06
274.017	86.06
274.249	86.06
274.481	70.06
274.713	67.06
274.945	81.06
275.176	91.06
275.408	87.06
275.64	87.06
275.872	93.06
276.104	97.06
276.335	97.06
276.567	91.06
276.799	111.06
277.031	90.06
277.262	83.06
277.494	77.06
277.726	95.06
277.957	85.06
278.189	90.06
278.421	91.06
278.652	67.06
278.884	76.06
279.115	76.06
279.347	84.06
279.579	89.06
279.81	90.06
280.042	90.06
280.273	90.06
280.505	95.06
280.736	87.06
280.968	87.06
281.199	97.06
281.431	89.06
281.662	84.06
281.894	96.06
282.125	90.06
282.356	109.06
282.588	118.06
282.819	89.06
283.051	95.06
283.282	97.06
283.513	72.06
283.745	73.06
283.976	84.06
284.207	97.06
284.439	105.06
284.67	92.06
284.901	97.06
285.132	92.06
285.364	89.06
285.595	97.06
285.826	82.06
286.057	92.06
286.288	100.06
286.52	89.06
286.751	76.06
286.982	85.06
287.213	82.06
287.444	93.06
287.675	81.06
287.906	79.06
288.138	96.06
288.369	94.06
288.6	91.06
288.831	87.06
289.062	97.06
289.293	81.06
289.524	89.06
289.755	94.06
289.986	88.06
290.217	85.06
290.448	83.06
290.679	97.06
290.91	91.06
291.141	87.06
291.371	98.06
291.602	90.06
291.833	92.06
292.064	91.06
292.295	77.06
292.526	87.06
292.757	92.06
292.987	88.06
293.218	88.06
293.449	84.06
293.68	91.06
293.91	85.06
294.141	104.06
294.372	97.06
294.603	91.06
294.833	98.06
295.064	92.06
295.295	94.06
295.525	88.06
295.756	104.06
295.987	121.06
296.217	135.06
296.448	104.06
296.679	104.06
296.909	101.06
297.14	83.06
297.37	94.06
297.601	91.06
297.831	90.06
298.062	93.06
298.292	99.06
298.523	85.06
298.753	96.06
298.984	86.06
299.214	95.06
299.445	82.06
299.675	82.06
299.905	85.06
300.136	95.06
300.366	95.06
300.597	92.06
300.827	99.06
301.057	92.06
301.288	97.06
301.518	96.06
301.748	104.06
301.979	106.06
302.209	94.06
302.439	78.06
302.669	85.06
302.9	89.06
303.13	85.06
303.36	97.06
303.59	103.06
303.82	115.06
304.051	86.06
304.281	96.06
304.511	93.06
304.741	72.06
304.971	93.06
305.201	81.06
305.431	86.06
305.661	87.06
305.891	101.06
306.121	99.06
306.352	106.06
306.582	94.06
306.812	81.06
307.042	87.06
307.272	82.06
307.502	92.06
307.731	100.06
307.961	94.06
308.191	88.06
308.421	106.06
308.651	85.06
308.881	87.06
309.111	85.06
309.341	84.06
309.571	102.06
309.8	88.06
310.03	94.06
310.26	106.06
310.49	89.06
310.72	87.06
310.949	109.06
311.179	97.06
311.409	87.06
311.639	93.06
311.868	97.06
312.098	95.06
312.328	108.06
312.557	97.06
312.787	126.06
313.017	99.06
313.246	93.06
313.476	89.06
313.706	103.06
313.935	84.06
314.165	86.06
314.394	91.06
314.624	101.06
314.853	89.06
315.083	96.06
315.312	91.06
315.542	93.06
315.771	99.06
316.001	88.06
316.23	83.06
316.46	101.06
316.689	89.06
316.919	103.06
317.148	99.06
317.377	91.06
317.607	101.06
317.836	90.06
318.065	89.06
318.295	88.06
318.524	109.06
318.753	96.06
318.983	93.06
319.212	101.06
319.441	113.06
319.67	105.06
319.9	100.06
320.129	99.06
320.358	88.06
320.587	87.06
320.816	89.06
321.046	106.06
321.275	105.06
321.504	106.06
321.733	106.06
321.962	95.06
322.191	78.06
322.42	83.06
322.649	103.06
322.878	103.06
323.108	109.06
323.337	118.06
323.566	123.06
323.795	147.06
324.024	180.06
324.253	347.06
324.482	717.06
324.71	1459.06
324.939	1875.06
325.168	691.06
325.397	229.06
325.626	155.06
325.855	111.06
326.084	103.06
326.313	126.06
326.542	142.06
326.77	199.06
326.999	402.06
327.228	793.06
327.457	1489.06
327.686	1175.06
327.914	317.06
328.143	172.06
328.372	130.06
328.6	119.06
328.829	100.06
329.058	111.06
329.287	132.06
329.515	107.06
329.744	111.06
329.972	100.06
330.201	113.06
330.43	115.06
330.658	127.06
330.887	124.06
331.115	119.06
331.344	102.06
331.572	93.06
331.801	111.06
332.03	101.06
332.258	108.06
332.486	85.06
332.715	106.06
332.943	97.06
333.172	93.06
333.4	91.06
333.629	92.06
333.857	112.06
334.085	102.06
334.314	101.06
334.542	92.06
334.771	99.06
334.999	96.06
335.227	92.06
335.455	87.06
335.684	102.06
335.912	110.06
336.14	83.06
336.369	85.06
336.597	99.06
336.825	101.06
337.053	73.06
337.281	85.06
337.51	99.06
337.738	87.06
337.966	100.06
338.194	85.06
338.422	102.06
338.65	85.06
338.878	87.06
339.106	98.06
339.334	95.06
339.562	94.06
339.79	99.06
340.018	83.06
340.246	96.06
340.474	92.06
340.702	85.06
340.93	100.06
341.158	106.06
341.386	82.06
341.614	83.06
341.842	98.06
342.07	71.06
342.298	84.06
342.526	91.06
342.754	92.06
342.981	86.06
343.209	71.06
343.437	90.06
343.665	99.06
343.893	87.06
344.12	99.06
344.348	82.06
344.576	94.06
344.804	91.06
345.031	104.06
345.259	88.06
345.487	86.06
345.714	97.06
345.942	104.06
346.17	105.06
346.397	93.06
346.625	91.06
346.853	93.06
347.08	97.06
347.308	98.06
347.535	95.06
347.763	96.06
347.99	99.06
348.218	99.06
348.445	102.06
348.673	99.06
348.9	105.06
349.128	94.06
349.355	89.06
349.583	94.06
349.81	93.06
350.037	90.06
350.265	97.06
350.492	81.06
350.72	85.06
350.947	94.06
351.174	88.06
351.402	110.06
351.629	105.06
351.856	105.06
352.083	103.06
352.311	107.06
352.538	106.06
352.765	107.06
352.992	113.06
353.22	128.06
353.447	112.06
353.674	103.06
353.901	112.06
354.128	100.06
354.355	108.06
354.583	70.06
354.81	87.06
355.037	101.06
355.264	83.06
355.491	83.06
355.718	93.06
355.945	90.06
356.172	98.06
356.399	101.06
356.626	93.06
356.853	95.06
357.08	81.06
357.307	97.06
357.534	96.06
357.761	94.06
357.988	97.06
358.215	106.06
358.441	101.06
358.668	89.06
358.895	86.06
359.122	69.06
359.349	94.06
359.576	113.06
359.802	99.06
360.029	112.06
360.256	107.06
360.483	89.06
360.709	85.06
360.936	94.06
361.163	101.06
361.39	106.06
361.616	99.06
361.843	97.06
362.07	101.06
362.296	94.06
362.523	90.06
362.749	90.06
362.976	94.06
363.203	99.06
363.429	101.06
363.656	82.06
363.882	95.06
364.109	78.06
364.335	99.06
364.562	94.06
364.788	97.06
365.015	87.06
365.241	99.06
365.468	109.06
365.694	101.06
365.92	92.06
366.147	104.06
366.373	89.06
366.599	86.06
366.826	92.06
367.052	80.06
367.278	99.06
367.505	101.06
367.731	89.06
367.957	101.06
368.184	90.06
368.41	104.06
368.636	90.06
368.862	120.06
369.089	115.06
369.315	93.06
369.541	83.06
369.767	97.06
369.993	89.06
370.219	84.06
370.445	89.06
370.672	91.06
370.898	97.06
371.124	93.06
371.35	95.06
371.576	81.06
371.802	85.06
372.028	98.06
372.254	94.06
372.48	95.06
372.706	94.06
372.932	98.06
373.158	99.06
373.384	94.06
373.61	95.06
373.835	93.06
374.061	79.06
374.287	97.06
374.513	93.06
374.739	91.06
374.965	90.06
375.191	96.06
375.416	87.06
375.642	91.06
375.868	90.06
376.094	100.06
376.319	91.06
376.545	90.06
376.771	97.06
376.997	101.06
377.222	86.06
377.448	93.06
377.674	97.06
377.899	91.06
378.125	96.06
378.35	88.06
378.576	104.06
378.802	86.06
379.027	99.06
379.253	97.06
379.478	97.06
379.704	87.06
379.929	85.06
380.155	86.06
380.38	90.06
380.606	86.06
380.831	92.06
381.057	98.06
381.282	93.06
381.507	77.06
381.733	111.06
381.958	100.06
382.184	81.06
382.409	99.06
382.634	107.06
382.86	99.06
383.085	107.06
383.31	93.06
383.535	107.06
383.761	115.06
383.986	109.06
384.211	95.06
384.436	91.06
384.662	89.06
384.887	112.06
385.112	102.06
385.337	105.06
385.562	101.06
385.787	115.06
386.013	117.06
386.238	106.06
386.463	110.06
386.688	99.06
386.913	107.06
387.138	107.06
387.363	106.06
387.588	100.06
387.813	103.06
388.038	117.06
388.263	105.06
388.488	117.06
388.713	102.06
388.938	100.06
389.163	110.06
389.387	96.06
389.612	104.06
389.837	86.06
390.062	87.06
390.287	102.06
390.512	109.06
390.736	104.06
390.961	99.06
391.186	114.06
391.411	102.06
391.636	100.06
391.86	93.06
392.085	91.06
392.31	89.06
392.534	82.06
392.759	66.06
392.984	83.06
393.208	106.06
393.433	103.06
393.658	103.06
393.882	98.06
394.107	89.06
394.331	107.06
394.556	99.06
394.78	85.06
395.005	94.06
395.229	89.06
395.454	81.06
395.678	92.06
395.903	101.06
396.127	85.06
396.352	93.06
396.576	91.06
396.801	89.06
397.025	91.06
397.249	89.06
397.474	105.06
397.698	69.06
397.922	98.06
398.147	100.06
398.371	91.06
398.595	93.06
398.82	86.06
399.044	86.06
399.268	93.06
399.492	101.06
399.717	98.06
399.941	94.06
400.165	101.06
400.389	91.06
400.613	89.06
400.837	94.06
401.062	87.06
401.286	99.06
401.51	94.06
401.734	89.06
401.958	90.06
402.182	136.06
402.406	151.06
402.63	98.06
402.854	95.06
403.078	78.06
403.302	92.06
403.526	96.06
403.75	85.06
403.974	89.06
404.198	86.06
404.422	89.06
404.645	95.06
404.869	100.06
405.093	86.06
405.317	99.06
405.541	108.06
405.765	91.06
405.988	119.06
406.212	155.06
406.436	189.06
406.66	129.06
406.883	104.06
407.107	87.06
407.331	92.06
407.555	99.06
407.778	106.06
408.002	92.06
408.226	86.06
408.449	94.06
408.673	94.06
408.896	110.06
409.12	87.06
409.344	92.06
409.567	92.06
409.791	103.06
410.014	88.06
410.238	87.06
410.461	85.06
410.685	95.06
410.908	97.06
411.132	124.06
411.355	101.06
411.578	92.06
411.802	86.06
412.025	99.06
412.249	91.06
412.472	111.06
412.695	85.06
412.919	101.06
413.142	84.06
413.365	88.06
413.589	85.06
413.812	79.06
414.035	82.06
414.258	103.06
414.482	83.06
414.705	101.06
414.928	83.06
415.151	90.06
415.374	89.06
415.597	93.06
415.821	83.06
416.044	99.06
416.267	99.06
416.49	89.06
416.713	91.06
416.936	84.06
417.159	89.06
417.382	90.06
417.605	88.06
417.828	99.06
418.051	94.06
418.274	92.06
418.497	92.06
418.72	94.06
418.943	101.06
419.166	89.06
419.389	93.06
419.611	86.06
419.834	99.06
420.057	81.06
420.28	98.06
420.503	91.06
420.726	84.06
420.948	94.06
421.171	99.06
421.394	92.06
421.617	90.06
421.839	85.06
422.062	100.06
422.285	103.06
422.507	102.06
422.73	122.06
422.953	98.06
423.175	92.06
423.398	89.06
423.621	86.06
423.843	95.06
424.066	83.06
424.288	91.06
424.511	85.06
424.733	98.06
424.956	87.06
425.178	107.06
425.401	111.06
425.623	88.06
425.846	81.06
426.068	92.06
426.291	99.06
426.513	87.06
426.735	97.06
426.958	97.06
427.18	115.06
427.402	111.06
427.625	140.06
427.847	121.06
428.069	103.06
428.292	87.06
428.514	90.06
428.736	83.06
428.958	81.06
429.181	88.06
429.403	87.06
429.625	85.06
429.847	75.06
430.069	102.06
430.292	101.06
430.514	89.06
430.736	81.06
430.958	85.06
431.18	96.06
431.402	82.06
431.624	85.06
431.846	86.06
432.068	78.06
432.29	76.06
432.512	92.06
432.734	91.06
432.956	92.06
433.178	93.06
433.4	102.06
433.622	84.06
433.844	100.06
434.066	86.06
434.287	74.06
434.509	99.06
434.731	77.06
434.953	82.06
435.175	86.06
435.397	95.06
435.618	98.06
435.84	94.06
436.062	120.06
436.284	99.06
436.505	109.06
436.727	110.06
436.949	81.06
437.17	105.06
437.392	77.06
437.614	88.06
437.835	110.06
438.057	103.06
438.278	94.06
438.5	109.06
438.721	112.06
438.943	91.06
439.165	91.06
439.386	93.06
439.608	83.06
439.829	91.06
440.05	96.06
440.272	124.06
440.493	94.06
440.715	85.06
440.936	84.06
441.158	101.06
441.379	97.06
441.6	91.06
441.822	90.06
442.043	76.06
442.264	97.06
442.486	97.06
442.707	89.06
442.928	100.06
443.149	126.06
443.371	116.06
443.592	94.06
443.813	114.06
444.034	116.06
444.255	79.06
444.476	98.06
444.698	101.06
444.919	86.06
445.14	115.06
445.361	102.06
445.582	108.06
445.803	128.06
446.024	136.06
446.245	123.06
446.466	107.06
446.687	96.06
446.908	81.06
447.129	84.06
447.35	95.06
447.571	84.06
447.792	95.06
448.013	99.06
448.234	96.06
448.455	109.06
448.675	107.06
448.896	107.06
449.117	91.06
449.338	91.06
449.559	106.06
449.779	121.06
450	77.06
450.221	106.06
450.442	100.06
450.662	94.06
450.883	95.06
451.104	99.06
451.324	108.06
451.545	86.06
451.766	86.06
451.986	89.06
452.207	91.06
452.428	84.06
452.648	92.06
452.869	97.06
453.089	98.06
453.31	98.06
453.53	82.06
453.751	89.06
453.971	97.06
454.192	108.06
454.412	89.06
454.633	87.06
454.853	81.06
455.073	99.06
455.294	85.06
455.514	98.06
455.734	98.06
455.955	91.06
456.175	86.06
456.395	82.06
456.616	91.06
456.836	92.06
457.056	78.06
457.276	78.06
457.497	87.06
457.717	101.06
457.937	94.06
458.157	90.06
458.377	82.06
458.598	103.06
458.818	123.06
459.038	138.06
459.258	100.06
459.478	93.06
459.698	90.06
459.918	97.06
460.138	82.06
460.358	97.06
460.578	93.06
460.798	92.06
461.018	92.06
461.238	86.06
461.458	95.06
461.678	90.06
461.898	93.06
462.118	93.06
462.338	103.06
462.558	89.06
462.777	110.06
462.997	93.06
463.217	83.06
463.437	92.06
463.657	79.06
463.876	82.06
464.096	91.06
464.316	86.06
464.536	91.06
464.755	94.06
464.975	93.06
465.195	146.06
465.414	138.06
465.634	113.06
465.854	83.06
466.073	101.06
466.293	95.06
466.512	92.06
466.732	90.06
466.951	93.06
467.171	86.06
467.391	89.06
467.61	103.06
467.829	89.06
468.049	92.06
468.268	101.06
468.488	84.06
468.707	93.06
468.927	98.06
469.146	80.06
469.365	108.06
469.585	92.06
469.804	90.06
470.023	106.06
470.243	95.06
470.462	87.06
470.681	91.06
470.901	83.06
471.12	85.06
471.339	87.06
471.558	86.06
471.777	91.06
471.997	88.06
472.216	90.06
472.435	88.06
472.654	91.06
472.873	99.06
473.092	84.06
473.311	97.06
473.53	87.06
473.749	97.06
473.968	89.06
474.187	92.06
474.406	85.06
474.625	82.06
474.844	91.06
475.063	94.06
475.282	95.06
475.501	74.06
475.72	77.06
475.939	79.06
476.158	87.06
476.377	80.06
476.596	81.06
476.814	82.06
477.033	89.06
477.252	91.06
477.471	86.06
477.69	85.06
477.908	96.06
478.127	101.06
478.346	83.06
478.564	98.06
478.783	97.06
479.002	93.06
479.22	98.06
479.439	91.06
479.658	100.06
479.876	94.06
480.095	91.06
480.313	103.06
480.532	104.06
480.751	101.06
480.969	95.06
481.188	116.06
481.406	109.06
481.624	90.06
481.843	77.06
482.061	73.06
482.28	88.06
482.498	93.06
482.717	83.06
482.935	93.06
483.153	93.06
483.372	82.06
483.59	97.06
483.808	87.06
484.027	96.06
484.245	90.06
484.463	99.06
484.681	98.06
484.9	89.06
485.118	100.06
485.336	97.06
485.554	105.06
485.772	91.06
485.99	101.06
486.209	93.06
486.427	101.06
486.645	99.06
486.863	125.06
487.081	95.06
487.299	108.06
487.517	96.06
487.735	91.06
487.953	93.06
488.171	99.06
488.389	103.06
488.607	102.06
488.825	81.06
489.043	78.06
489.261	102.06
489.479	104.06
489.696	94.06
489.914	95.06
490.132	88.06
490.35	103.06
490.568	83.06
490.786	99.06
491.003	102.06
491.221	89.06
491.439	97.06
491.657	91.06
491.874	85.06
492.092	90.06
492.31	86.06
492.527	82.06
492.745	69.06
492.963	101.06
493.18	85.06
493.398	99.06
493.615	110.06
493.833	102.06
494.05	92.06
494.268	96.06
494.485	106.06
494.703	95.06
494.92	94.06
495.138	95.06
495.355	84.06
495.573	90.06
495.79	98.06
496.008	86.06
496.225	102.06
496.442	99.06
496.66	91.06
496.877	92.06
497.094	96.06
497.312	91.06
497.529	101.06
497.746	83.06
497.963	100.06
498.181	81.06
498.398	89.06
498.615	100.06
498.832	105.06
499.049	108.06
499.267	97.06
499.484	95.06
499.701	90.06
499.918	89.06
500.135	82.06
500.352	93.06
500.569	84.06
500.786	101.06
501.003	95.06
501.22	95.06
501.437	87.06
501.654	102.06
501.871	125.06
502.088	102.06
502.305	96.06
502.522	85.06
502.739	89.06
502.956	79.06
503.172	89.06
503.389	97.06
503.606	93.06
503.823	89.06
504.04	91.06
504.256	79.06
504.473	97.06
504.69	95.06
504.907	97.06
505.123	76.06
505.34	95.06
505.557	90.06
505.773	92.06
505.99	97.06
506.207	96.06
506.423	93.06
506.64	99.06
506.856	88.06
507.073	92.06
507.289	84.06
507.506	103.06
507.722	90.06
507.939	101.06
508.155	96.06
508.372	101.06
508.588	87.06
508.805	93.06
509.021	109.06
509.238	87.06
509.454	93.06
509.67	109.06
509.887	111.06
510.103	122.06
510.319	189.06
510.536	642.06
510.752	1887.06
510.968	517.06
511.184	149.06
511.401	123.06
511.617	97.06
511.833	100.06
512.049	92.06
512.265	88.06
512.481	98.06
512.698	98.06
512.914	97.06
513.13	95.06
513.346	101.06
513.562	96.06
513.778	99.06
513.994	106.06
514.21	101.06
514.426	111.06
514.642	122.06
514.858	112.06
515.074	149.06
515.29	372.06
515.506	1123.06
