Data from Uncirc_1983_H10_HRD10591_00012.txt Node
Date: Wed Jan 03 12:25:34 EST 2024
User: Yrep
Spectrometer: HR+D1059
Trigger mode: 1
Integration Time (sec): 1.000000E-1
Scans to average: 1
Electric dark correction enabled: true
Nonlinearity correction enabled: false
Boxcar width: 0
XAxis mode: Wavelengths
Number of Pixels in Spectrum: 2048
>>>>>Begin Spectral Data<<<<<
223.165	-19.88
223.4	-19.88
223.635	-19.88
223.869	-25.88
224.104	-14.88
224.338	-12.88
224.573	-11.88
224.808	-6.88
225.042	2.12
225.277	-5.88
225.511	-2.88
225.746	-5.88
225.98	-5.88
226.215	9.12
226.449	25.12
226.683	21.12
226.918	23.12
227.152	32.12
227.387	37.12
227.621	50.12
227.856	44.12
228.09	56.12
228.324	59.12
228.559	51.12
228.793	50.12
229.027	60.12
229.262	56.12
229.496	57.12
229.73	84.12
229.964	85.12
230.199	87.12
230.433	73.12
230.667	86.12
230.901	81.12
231.136	90.12
231.37	83.12
231.604	76.12
231.838	86.12
232.072	91.12
232.306	76.12
232.541	77.12
232.775	78.12
233.009	98.12
233.243	98.12
233.477	75.12
233.711	97.12
233.945	75.12
234.179	85.12
234.413	91.12
234.647	76.12
234.881	97.12
235.115	92.12
235.349	75.12
235.583	85.12
235.817	87.12
236.051	76.12
236.285	84.12
236.519	78.12
236.753	69.12
236.987	68.12
237.221	94.12
237.455	68.12
237.689	88.12
237.922	78.12
238.156	71.12
238.39	73.12
238.624	61.12
238.858	85.12
239.091	75.12
239.325	81.12
239.559	85.12
239.793	54.12
240.027	78.12
240.26	70.12
240.494	99.12
240.728	73.12
240.961	73.12
241.195	75.12
241.429	75.12
241.662	75.12
241.896	76.12
242.13	60.12
242.363	81.12
242.597	71.12
242.83	84.12
243.064	82.12
243.298	80.12
243.531	73.12
243.765	80.12
243.998	69.12
244.232	77.12
244.465	94.12
244.699	72.12
244.932	83.12
245.166	83.12
245.399	85.12
245.633	72.12
245.866	71.12
246.099	77.12
246.333	74.12
246.566	72.12
246.8	77.12
247.033	94.12
247.266	81.12
247.5	75.12
247.733	95.12
247.966	88.12
248.2	71.12
248.433	77.12
248.666	77.12
248.899	85.12
249.133	83.12
249.366	100.12
249.599	83.12
249.832	98.12
250.066	61.12
250.299	97.12
250.532	99.12
250.765	94.12
250.998	85.12
251.231	97.12
251.465	98.12
251.698	78.12
251.931	75.12
252.164	78.12
252.397	70.12
252.63	74.12
252.863	88.12
253.096	83.12
253.329	94.12
253.562	88.12
253.795	98.12
254.028	89.12
254.261	91.12
254.494	68.12
254.727	87.12
254.96	82.12
255.193	87.12
255.426	83.12
255.659	83.12
255.892	86.12
256.124	85.12
256.357	89.12
256.59	74.12
256.823	87.12
257.056	85.12
257.289	79.12
257.521	85.12
257.754	84.12
257.987	86.12
258.22	87.12
258.452	86.12
258.685	81.12
258.918	97.12
259.151	84.12
259.383	93.12
259.616	93.12
259.849	78.12
260.081	92.12
260.314	85.12
260.547	94.12
260.779	87.12
261.012	86.12
261.244	94.12
261.477	95.12
261.71	108.12
261.942	105.12
262.175	103.12
262.407	84.12
262.64	85.12
262.872	102.12
263.105	86.12
263.337	97.12
263.57	83.12
263.802	73.12
264.035	85.12
264.267	78.12
264.499	91.12
264.732	91.12
264.964	78.12
265.197	83.12
265.429	73.12
265.661	94.12
265.894	85.12
266.126	83.12
266.358	85.12
266.591	70.12
266.823	74.12
267.055	84.12
267.287	76.12
267.52	89.12
267.752	82.12
267.984	81.12
268.216	76.12
268.448	87.12
268.681	83.12
268.913	86.12
269.145	86.12
269.377	93.12
269.609	104.12
269.841	99.12
270.073	81.12
270.306	97.12
270.538	88.12
270.77	73.12
271.002	89.12
271.234	65.12
271.466	85.12
271.698	93.12
271.93	87.12
272.162	79.12
272.394	77.12
272.626	80.12
272.858	81.12
273.09	82.12
273.322	85.12
273.553	91.12
273.785	73.12
274.017	79.12
274.249	94.12
274.481	89.12
274.713	90.12
274.945	79.12
275.176	88.12
275.408	98.12
275.64	84.12
275.872	83.12
276.104	90.12
276.335	94.12
276.567	86.12
276.799	86.12
277.031	94.12
277.262	85.12
277.494	71.12
277.726	104.12
277.957	72.12
278.189	102.12
278.421	91.12
278.652	89.12
278.884	92.12
279.115	83.12
279.347	75.12
279.579	81.12
279.81	69.12
280.042	81.12
280.273	83.12
280.505	68.12
280.736	98.12
280.968	81.12
281.199	91.12
281.431	85.12
281.662	87.12
281.894	90.12
282.125	101.12
282.356	104.12
282.588	126.12
282.819	105.12
283.051	102.12
283.282	97.12
283.513	86.12
283.745	78.12
283.976	85.12
284.207	93.12
284.439	97.12
284.67	82.12
284.901	93.12
285.132	82.12
285.364	76.12
285.595	85.12
285.826	79.12
286.057	86.12
286.288	93.12
286.52	87.12
286.751	98.12
286.982	79.12
287.213	85.12
287.444	75.12
287.675	88.12
287.906	84.12
288.138	91.12
288.369	91.12
288.6	94.12
288.831	89.12
289.062	85.12
289.293	81.12
289.524	82.12
289.755	96.12
289.986	88.12
290.217	88.12
290.448	83.12
290.679	79.12
290.91	91.12
291.141	90.12
291.371	86.12
291.602	101.12
291.833	97.12
292.064	91.12
292.295	83.12
292.526	81.12
292.757	90.12
292.987	105.12
293.218	95.12
293.449	71.12
293.68	96.12
293.91	89.12
294.141	86.12
294.372	99.12
294.603	100.12
294.833	95.12
295.064	85.12
295.295	82.12
295.525	75.12
295.756	93.12
295.987	104.12
296.217	108.12
296.448	116.12
296.679	94.12
296.909	86.12
297.14	86.12
297.37	85.12
297.601	96.12
297.831	92.12
298.062	89.12
298.292	71.12
298.523	83.12
298.753	81.12
298.984	88.12
299.214	99.12
299.445	101.12
299.675	83.12
299.905	97.12
300.136	88.12
300.366	96.12
300.597	100.12
300.827	106.12
301.057	102.12
301.288	98.12
301.518	88.12
301.748	85.12
301.979	83.12
302.209	97.12
302.439	83.12
302.669	93.12
302.9	85.12
303.13	91.12
303.36	86.12
303.59	97.12
303.82	91.12
304.051	105.12
304.281	86.12
304.511	99.12
304.741	93.12
304.971	95.12
305.201	91.12
305.431	97.12
305.661	92.12
305.891	89.12
306.121	90.12
306.352	93.12
306.582	103.12
306.812	112.12
307.042	88.12
307.272	90.12
307.502	102.12
307.731	98.12
307.961	104.12
308.191	98.12
308.421	93.12
308.651	103.12
308.881	85.12
309.111	100.12
309.341	79.12
309.571	107.12
309.8	104.12
310.03	95.12
310.26	85.12
310.49	97.12
310.72	93.12
310.949	98.12
311.179	95.12
311.409	96.12
311.639	88.12
311.868	97.12
312.098	98.12
312.328	98.12
312.557	97.12
312.787	103.12
313.017	102.12
313.246	100.12
313.476	79.12
313.706	103.12
313.935	85.12
314.165	94.12
314.394	92.12
314.624	92.12
314.853	90.12
315.083	99.12
315.312	92.12
315.542	93.12
315.771	102.12
316.001	89.12
316.23	100.12
316.46	98.12
316.689	76.12
316.919	87.12
317.148	90.12
317.377	98.12
317.607	95.12
317.836	93.12
318.065	95.12
318.295	108.12
318.524	97.12
318.753	99.12
318.983	94.12
319.212	93.12
319.441	105.12
319.67	102.12
319.9	100.12
320.129	93.12
320.358	91.12
320.587	89.12
320.816	93.12
321.046	107.12
321.275	97.12
321.504	95.12
321.733	100.12
321.962	95.12
322.191	110.12
322.42	103.12
322.649	98.12
322.878	111.12
323.108	101.12
323.337	107.12
323.566	119.12
323.795	124.12
324.024	174.12
324.253	330.12
324.482	678.12
324.71	1353.12
324.939	1774.12
325.168	664.12
325.397	213.12
325.626	134.12
325.855	127.12
326.084	109.12
326.313	112.12
326.542	142.12
326.77	191.12
326.999	390.12
327.228	769.12
327.457	1401.12
327.686	1143.12
327.914	305.12
328.143	165.12
328.372	145.12
328.6	113.12
328.829	113.12
329.058	120.12
329.287	93.12
329.515	100.12
329.744	101.12
329.972	105.12
330.201	93.12
330.43	98.12
330.658	100.12
330.887	110.12
331.115	105.12
331.344	95.12
331.572	98.12
331.801	90.12
332.03	98.12
332.258	77.12
332.486	89.12
332.715	101.12
332.943	89.12
333.172	95.12
333.4	93.12
333.629	103.12
333.857	97.12
334.085	108.12
334.314	96.12
334.542	89.12
334.771	114.12
334.999	89.12
335.227	101.12
335.455	91.12
335.684	106.12
335.912	113.12
336.14	95.12
336.369	94.12
336.597	109.12
336.825	106.12
337.053	101.12
337.281	99.12
337.51	101.12
337.738	96.12
337.966	90.12
338.194	87.12
338.422	114.12
338.65	98.12
338.878	95.12
339.106	86.12
339.334	100.12
339.562	99.12
339.79	90.12
340.018	78.12
340.246	99.12
340.474	93.12
340.702	95.12
340.93	87.12
341.158	85.12
341.386	107.12
341.614	97.12
341.842	92.12
342.07	101.12
342.298	93.12
342.526	101.12
342.754	98.12
342.981	95.12
343.209	83.12
343.437	94.12
343.665	108.12
343.893	94.12
344.12	93.12
344.348	81.12
344.576	94.12
344.804	102.12
345.031	105.12
345.259	102.12
345.487	97.12
345.714	85.12
345.942	89.12
346.17	93.12
346.397	89.12
346.625	89.12
346.853	94.12
347.08	91.12
347.308	92.12
347.535	93.12
347.763	100.12
347.99	88.12
348.218	82.12
348.445	93.12
348.673	91.12
348.9	95.12
349.128	89.12
349.355	105.12
349.583	105.12
349.81	102.12
350.037	94.12
350.265	92.12
350.492	104.12
350.72	100.12
350.947	108.12
351.174	119.12
351.402	98.12
351.629	103.12
351.856	95.12
352.083	97.12
352.311	104.12
352.538	102.12
352.765	110.12
352.992	111.12
353.22	114.12
353.447	99.12
353.674	90.12
353.901	109.12
354.128	99.12
354.355	109.12
354.583	111.12
354.81	96.12
355.037	101.12
355.264	98.12
355.491	99.12
355.718	90.12
355.945	99.12
356.172	85.12
356.399	97.12
356.626	106.12
356.853	86.12
357.08	81.12
357.307	103.12
357.534	97.12
357.761	83.12
357.988	97.12
358.215	96.12
358.441	102.12
358.668	111.12
358.895	94.12
359.122	91.12
359.349	95.12
359.576	89.12
359.802	93.12
360.029	93.12
360.256	93.12
360.483	88.12
360.709	86.12
360.936	107.12
361.163	93.12
361.39	100.12
361.616	89.12
361.843	86.12
362.07	90.12
362.296	102.12
362.523	87.12
362.749	84.12
362.976	87.12
363.203	90.12
363.429	109.12
363.656	91.12
363.882	84.12
364.109	79.12
364.335	106.12
364.562	89.12
364.788	88.12
365.015	101.12
365.241	90.12
365.468	84.12
365.694	106.12
365.92	93.12
366.147	106.12
366.373	93.12
366.599	83.12
366.826	90.12
367.052	93.12
367.278	85.12
367.505	89.12
367.731	89.12
367.957	89.12
368.184	88.12
368.41	106.12
368.636	99.12
368.862	109.12
369.089	109.12
369.315	88.12
369.541	88.12
369.767	81.12
369.993	86.12
370.219	101.12
370.445	89.12
370.672	85.12
370.898	89.12
371.124	94.12
371.35	99.12
371.576	84.12
371.802	85.12
372.028	81.12
372.254	72.12
372.48	87.12
372.706	67.12
372.932	99.12
373.158	85.12
373.384	83.12
373.61	78.12
373.835	106.12
374.061	89.12
374.287	86.12
374.513	81.12
374.739	92.12
374.965	83.12
375.191	94.12
375.416	83.12
375.642	90.12
375.868	93.12
376.094	93.12
376.319	91.12
376.545	94.12
376.771	97.12
376.997	87.12
377.222	98.12
377.448	113.12
377.674	90.12
377.899	97.12
378.125	87.12
378.35	105.12
378.576	91.12
378.802	84.12
379.027	93.12
379.253	92.12
379.478	102.12
379.704	94.12
379.929	100.12
380.155	100.12
380.38	91.12
380.606	105.12
380.831	101.12
381.057	104.12
381.282	99.12
381.507	109.12
381.733	84.12
381.958	109.12
382.184	99.12
382.409	93.12
382.634	108.12
382.86	107.12
383.085	97.12
383.31	95.12
383.535	110.12
383.761	95.12
383.986	108.12
384.211	107.12
384.436	100.12
384.662	107.12
384.887	117.12
385.112	111.12
385.337	116.12
385.562	115.12
385.787	88.12
386.013	114.12
386.238	115.12
386.463	119.12
386.688	108.12
386.913	102.12
387.138	106.12
387.363	99.12
387.588	93.12
387.813	99.12
388.038	110.12
388.263	111.12
388.488	118.12
388.713	110.12
388.938	99.12
389.163	97.12
389.387	103.12
389.612	94.12
389.837	85.12
390.062	95.12
390.287	95.12
390.512	104.12
390.736	96.12
390.961	88.12
391.186	93.12
391.411	99.12
391.636	91.12
391.86	97.12
392.085	91.12
392.31	96.12
392.534	83.12
392.759	93.12
392.984	79.12
393.208	108.12
393.433	116.12
393.658	98.12
393.882	78.12
394.107	86.12
394.331	98.12
394.556	90.12
394.78	94.12
395.005	68.12
395.229	75.12
395.454	93.12
395.678	98.12
395.903	68.12
396.127	90.12
396.352	91.12
396.576	95.12
396.801	92.12
397.025	95.12
397.249	91.12
397.474	89.12
397.698	91.12
397.922	98.12
398.147	73.12
398.371	83.12
398.595	87.12
398.82	95.12
399.044	87.12
399.268	88.12
399.492	86.12
399.717	88.12
399.941	87.12
400.165	97.12
400.389	88.12
400.613	84.12
400.837	89.12
401.062	85.12
401.286	93.12
401.51	82.12
401.734	85.12
401.958	90.12
402.182	110.12
402.406	133.12
402.63	103.12
402.854	109.12
403.078	77.12
403.302	93.12
403.526	86.12
403.75	97.12
403.974	81.12
404.198	83.12
404.422	93.12
404.645	87.12
404.869	111.12
405.093	90.12
405.317	92.12
405.541	90.12
405.765	86.12
405.988	97.12
406.212	150.12
406.436	172.12
406.66	138.12
406.883	106.12
407.107	90.12
407.331	91.12
407.555	83.12
407.778	86.12
408.002	92.12
408.226	85.12
408.449	87.12
408.673	91.12
408.896	90.12
409.12	94.12
409.344	90.12
409.567	87.12
409.791	113.12
410.014	110.12
410.238	103.12
410.461	89.12
410.685	84.12
410.908	83.12
411.132	91.12
411.355	108.12
411.578	106.12
411.802	90.12
412.025	90.12
412.249	99.12
412.472	83.12
412.695	94.12
412.919	70.12
413.142	82.12
413.365	91.12
413.589	102.12
413.812	76.12
414.035	85.12
414.258	99.12
414.482	97.12
414.705	94.12
414.928	84.12
415.151	91.12
415.374	96.12
415.597	91.12
415.821	87.12
416.044	100.12
416.267	97.12
416.49	106.12
416.713	75.12
416.936	78.12
417.159	91.12
417.382	83.12
417.605	91.12
417.828	88.12
418.051	94.12
418.274	95.12
418.497	93.12
418.72	74.12
418.943	103.12
419.166	90.12
419.389	85.12
419.611	74.12
419.834	91.12
420.057	85.12
420.28	84.12
420.503	100.12
420.726	92.12
420.948	79.12
421.171	81.12
421.394	103.12
421.617	84.12
421.839	77.12
422.062	89.12
422.285	95.12
422.507	102.12
422.73	110.12
422.953	114.12
423.175	81.12
423.398	87.12
423.621	85.12
423.843	99.12
424.066	98.12
424.288	102.12
424.511	83.12
424.733	92.12
424.956	100.12
425.178	82.12
425.401	111.12
425.623	92.12
425.846	87.12
426.068	96.12
426.291	96.12
426.513	83.12
426.735	85.12
426.958	85.12
427.18	88.12
427.402	116.12
427.625	141.12
427.847	115.12
428.069	101.12
428.292	82.12
428.514	83.12
428.736	79.12
428.958	100.12
429.181	81.12
429.403	79.12
429.625	93.12
429.847	103.12
430.069	87.12
430.292	98.12
430.514	83.12
430.736	68.12
430.958	99.12
431.18	85.12
431.402	88.12
431.624	99.12
431.846	104.12
432.068	88.12
432.29	90.12
432.512	80.12
432.734	92.12
432.956	92.12
433.178	93.12
433.4	93.12
433.622	96.12
433.844	88.12
434.066	104.12
434.287	103.12
434.509	87.12
434.731	76.12
434.953	95.12
435.175	82.12
435.397	100.12
435.618	100.12
435.84	98.12
436.062	111.12
436.284	111.12
436.505	97.12
436.727	94.12
436.949	92.12
437.17	89.12
437.392	93.12
437.614	86.12
437.835	109.12
438.057	110.12
438.278	97.12
438.5	104.12
438.721	100.12
438.943	90.12
439.165	86.12
439.386	91.12
439.608	93.12
439.829	86.12
440.05	104.12
440.272	104.12
440.493	102.12
440.715	86.12
440.936	91.12
441.158	84.12
441.379	71.12
441.6	104.12
441.822	93.12
442.043	82.12
442.264	115.12
442.486	101.12
442.707	100.12
442.928	100.12
443.149	102.12
443.371	120.12
443.592	104.12
443.813	114.12
444.034	112.12
444.255	86.12
444.476	93.12
444.698	73.12
444.919	87.12
445.14	131.12
445.361	129.12
445.582	100.12
445.803	120.12
446.024	128.12
446.245	118.12
446.466	104.12
446.687	80.12
446.908	77.12
447.129	87.12
447.35	85.12
447.571	92.12
447.792	101.12
448.013	91.12
448.234	102.12
448.455	92.12
448.675	106.12
448.896	105.12
449.117	96.12
449.338	101.12
449.559	124.12
449.779	124.12
450	86.12
450.221	85.12
450.442	90.12
450.662	88.12
450.883	87.12
451.104	96.12
451.324	90.12
451.545	86.12
451.766	84.12
451.986	88.12
452.207	78.12
452.428	91.12
452.648	96.12
452.869	102.12
453.089	108.12
453.31	107.12
453.53	95.12
453.751	89.12
453.971	100.12
454.192	103.12
454.412	77.12
454.633	90.12
454.853	99.12
455.073	81.12
455.294	101.12
455.514	97.12
455.734	92.12
455.955	87.12
456.175	87.12
456.395	94.12
456.616	84.12
456.836	88.12
457.056	98.12
457.276	85.12
457.497	83.12
457.717	92.12
457.937	90.12
458.157	81.12
458.377	89.12
458.598	79.12
458.818	132.12
459.038	122.12
459.258	95.12
459.478	95.12
459.698	98.12
459.918	94.12
460.138	92.12
460.358	87.12
460.578	86.12
460.798	95.12
461.018	88.12
461.238	88.12
461.458	84.12
461.678	84.12
461.898	94.12
462.118	79.12
462.338	94.12
462.558	89.12
462.777	98.12
462.997	78.12
463.217	81.12
463.437	102.12
463.657	87.12
463.876	79.12
464.096	79.12
464.316	83.12
464.536	105.12
464.755	97.12
464.975	93.12
465.195	138.12
465.414	117.12
465.634	94.12
465.854	89.12
466.073	78.12
466.293	92.12
466.512	92.12
466.732	73.12
466.951	100.12
467.171	92.12
467.391	77.12
467.61	84.12
467.829	85.12
468.049	92.12
468.268	78.12
468.488	81.12
468.707	92.12
468.927	82.12
469.146	92.12
469.365	73.12
469.585	83.12
469.804	90.12
470.023	97.12
470.243	77.12
470.462	96.12
470.681	109.12
470.901	88.12
471.12	101.12
471.339	86.12
471.558	86.12
471.777	100.12
471.997	82.12
472.216	91.12
472.435	94.12
472.654	94.12
472.873	86.12
473.092	98.12
473.311	88.12
473.53	88.12
473.749	94.12
473.968	99.12
474.187	102.12
474.406	105.12
474.625	97.12
474.844	80.12
475.063	94.12
475.282	95.12
475.501	78.12
475.72	93.12
475.939	73.12
476.158	81.12
476.377	83.12
476.596	105.12
476.814	85.12
477.033	97.12
477.252	92.12
477.471	77.12
477.69	94.12
477.908	89.12
478.127	84.12
478.346	93.12
478.564	91.12
478.783	106.12
479.002	94.12
479.22	106.12
479.439	97.12
479.658	107.12
479.876	82.12
480.095	90.12
480.313	85.12
480.532	88.12
480.751	91.12
480.969	88.12
481.188	87.12
481.406	91.12
481.624	86.12
481.843	94.12
482.061	105.12
482.28	95.12
482.498	85.12
482.717	79.12
482.935	91.12
483.153	107.12
483.372	89.12
483.59	94.12
483.808	86.12
484.027	98.12
484.245	94.12
484.463	101.12
484.681	97.12
484.9	86.12
485.118	89.12
485.336	92.12
485.554	98.12
485.772	100.12
485.99	103.12
486.209	103.12
486.427	107.12
486.645	125.12
486.863	97.12
487.081	104.12
487.299	101.12
487.517	92.12
487.735	104.12
487.953	102.12
488.171	93.12
488.389	101.12
488.607	97.12
488.825	90.12
489.043	83.12
489.261	89.12
489.479	85.12
489.696	92.12
489.914	87.12
490.132	89.12
490.35	97.12
490.568	90.12
490.786	71.12
491.003	93.12
491.221	90.12
491.439	99.12
491.657	90.12
491.874	82.12
492.092	76.12
492.31	89.12
492.527	104.12
492.745	98.12
492.963	81.12
493.18	69.12
493.398	87.12
493.615	106.12
493.833	103.12
494.05	82.12
494.268	86.12
494.485	81.12
494.703	103.12
494.92	92.12
495.138	92.12
495.355	108.12
495.573	99.12
495.79	85.12
496.008	101.12
496.225	103.12
496.442	99.12
496.66	95.12
496.877	91.12
497.094	93.12
497.312	94.12
497.529	103.12
497.746	105.12
497.963	91.12
498.181	101.12
498.398	103.12
498.615	98.12
498.832	102.12
499.049	86.12
499.267	103.12
499.484	86.12
499.701	92.12
499.918	95.12
500.135	109.12
500.352	99.12
500.569	84.12
500.786	98.12
501.003	93.12
501.22	93.12
501.437	91.12
501.654	94.12
501.871	110.12
502.088	89.12
502.305	91.12
502.522	100.12
502.739	115.12
502.956	87.12
503.172	82.12
503.389	102.12
503.606	98.12
503.823	100.12
504.04	100.12
504.256	98.12
504.473	75.12
504.69	103.12
504.907	85.12
505.123	94.12
505.34	105.12
505.557	91.12
505.773	114.12
505.99	94.12
506.207	92.12
506.423	91.12
506.64	88.12
506.856	86.12
507.073	95.12
507.289	91.12
507.506	106.12
507.722	105.12
507.939	93.12
508.155	107.12
508.372	78.12
508.588	103.12
508.805	102.12
509.021	105.12
509.238	97.12
509.454	97.12
509.67	98.12
509.887	108.12
510.103	118.12
510.319	190.12
510.536	618.12
510.752	1741.12
510.968	477.12
511.184	131.12
511.401	103.12
511.617	95.12
511.833	95.12
512.049	89.12
512.265	92.12
512.481	97.12
512.698	90.12
512.914	85.12
513.13	88.12
513.346	99.12
513.562	91.12
513.778	100.12
513.994	97.12
514.21	91.12
514.426	114.12
514.642	122.12
514.858	113.12
515.074	136.12
515.29	334.12
515.506	1051.12
