Data from Uncirc_1983_H10_HRD10591_00045.txt Node
Date: Wed Jan 03 12:25:41 EST 2024
User: Yrep
Spectrometer: HR+D1059
Trigger mode: 1
Integration Time (sec): 1.000000E-1
Scans to average: 1
Electric dark correction enabled: true
Nonlinearity correction enabled: false
Boxcar width: 0
XAxis mode: Wavelengths
Number of Pixels in Spectrum: 2048
>>>>>Begin Spectral Data<<<<<
223.165	-13.12
223.4	-13.12
223.635	-13.12
223.869	-15.12
224.104	-35.12
224.338	-22.12
224.573	-20.12
224.808	-12.12
225.042	6.88
225.277	-0.12
225.511	12.88
225.746	1.88
225.98	0.88
226.215	17.88
226.449	8.88
226.683	25.88
226.918	17.88
227.152	24.88
227.387	35.88
227.621	43.88
227.856	42.88
228.09	46.88
228.324	36.88
228.559	57.88
228.793	50.88
229.027	67.88
229.262	70.88
229.496	68.88
229.73	74.88
229.964	75.88
230.199	81.88
230.433	72.88
230.667	70.88
230.901	72.88
231.136	75.88
231.37	76.88
231.604	76.88
231.838	87.88
232.072	76.88
232.306	85.88
232.541	88.88
232.775	84.88
233.009	79.88
233.243	68.88
233.477	72.88
233.711	82.88
233.945	72.88
234.179	66.88
234.413	76.88
234.647	81.88
234.881	84.88
235.115	75.88
235.349	73.88
235.583	81.88
235.817	79.88
236.051	70.88
236.285	90.88
236.519	64.88
236.753	78.88
236.987	78.88
237.221	78.88
237.455	86.88
237.689	78.88
237.922	73.88
238.156	50.88
238.39	86.88
238.624	75.88
238.858	82.88
239.091	78.88
239.325	81.88
239.559	73.88
239.793	72.88
240.027	82.88
240.26	71.88
240.494	64.88
240.728	83.88
240.961	78.88
241.195	82.88
241.429	68.88
241.662	71.88
241.896	76.88
242.13	63.88
242.363	61.88
242.597	77.88
242.83	86.88
243.064	70.88
243.298	71.88
243.531	81.88
243.765	84.88
243.998	62.88
244.232	88.88
244.465	91.88
244.699	65.88
244.932	84.88
245.166	69.88
245.399	72.88
245.633	74.88
245.866	71.88
246.099	77.88
246.333	75.88
246.566	71.88
246.8	76.88
247.033	95.88
247.266	66.88
247.5	70.88
247.733	79.88
247.966	88.88
248.2	76.88
248.433	74.88
248.666	69.88
248.899	86.88
249.133	91.88
249.366	89.88
249.599	97.88
249.832	74.88
250.066	86.88
250.299	78.88
250.532	83.88
250.765	72.88
250.998	80.88
251.231	79.88
251.465	85.88
251.698	89.88
251.931	74.88
252.164	70.88
252.397	69.88
252.63	70.88
252.863	85.88
253.096	85.88
253.329	79.88
253.562	86.88
253.795	67.88
254.028	86.88
254.261	76.88
254.494	64.88
254.727	68.88
254.96	74.88
255.193	73.88
255.426	69.88
255.659	73.88
255.892	73.88
256.124	78.88
256.357	77.88
256.59	99.88
256.823	68.88
257.056	79.88
257.289	78.88
257.521	80.88
257.754	74.88
257.987	62.88
258.22	79.88
258.452	90.88
258.685	90.88
258.918	79.88
259.151	82.88
259.383	86.88
259.616	67.88
259.849	71.88
260.081	78.88
260.314	72.88
260.547	79.88
260.779	73.88
261.012	72.88
261.244	86.88
261.477	98.88
261.71	80.88
261.942	104.88
262.175	93.88
262.407	91.88
262.64	75.88
262.872	76.88
263.105	69.88
263.337	80.88
263.57	77.88
263.802	86.88
264.035	80.88
264.267	99.88
264.499	84.88
264.732	72.88
264.964	81.88
265.197	81.88
265.429	80.88
265.661	83.88
265.894	91.88
266.126	81.88
266.358	68.88
266.591	80.88
266.823	82.88
267.055	89.88
267.287	82.88
267.52	82.88
267.752	87.88
267.984	86.88
268.216	76.88
268.448	87.88
268.681	88.88
268.913	86.88
269.145	88.88
269.377	101.88
269.609	80.88
269.841	82.88
270.073	71.88
270.306	90.88
270.538	70.88
270.77	87.88
271.002	86.88
271.234	80.88
271.466	87.88
271.698	74.88
271.93	78.88
272.162	83.88
272.394	74.88
272.626	82.88
272.858	82.88
273.09	83.88
273.322	70.88
273.553	91.88
273.785	73.88
274.017	86.88
274.249	74.88
274.481	75.88
274.713	94.88
274.945	76.88
275.176	83.88
275.408	98.88
275.64	90.88
275.872	84.88
276.104	85.88
276.335	83.88
276.567	89.88
276.799	91.88
277.031	90.88
277.262	90.88
277.494	83.88
277.726	87.88
277.957	87.88
278.189	95.88
278.421	69.88
278.652	79.88
278.884	80.88
279.115	92.88
279.347	87.88
279.579	85.88
279.81	89.88
280.042	79.88
280.273	82.88
280.505	78.88
280.736	86.88
280.968	93.88
281.199	94.88
281.431	91.88
281.662	85.88
281.894	88.88
282.125	94.88
282.356	94.88
282.588	121.88
282.819	93.88
283.051	84.88
283.282	94.88
283.513	91.88
283.745	83.88
283.976	89.88
284.207	89.88
284.439	81.88
284.67	79.88
284.901	91.88
285.132	79.88
285.364	85.88
285.595	81.88
285.826	95.88
286.057	83.88
286.288	91.88
286.52	76.88
286.751	71.88
286.982	87.88
287.213	94.88
287.444	73.88
287.675	87.88
287.906	89.88
288.138	71.88
288.369	91.88
288.6	97.88
288.831	65.88
289.062	88.88
289.293	91.88
289.524	83.88
289.755	89.88
289.986	84.88
290.217	77.88
290.448	79.88
290.679	69.88
290.91	88.88
291.141	86.88
291.371	91.88
291.602	83.88
291.833	93.88
292.064	94.88
292.295	91.88
292.526	84.88
292.757	83.88
292.987	85.88
293.218	89.88
293.449	81.88
293.68	94.88
293.91	93.88
294.141	87.88
294.372	79.88
294.603	86.88
294.833	85.88
295.064	86.88
295.295	88.88
295.525	90.88
295.756	98.88
295.987	124.88
296.217	123.88
296.448	97.88
296.679	90.88
296.909	82.88
297.14	75.88
297.37	91.88
297.601	80.88
297.831	77.88
298.062	88.88
298.292	95.88
298.523	73.88
298.753	79.88
298.984	81.88
299.214	94.88
299.445	107.88
299.675	90.88
299.905	90.88
300.136	99.88
300.366	72.88
300.597	74.88
300.827	93.88
301.057	101.88
301.288	96.88
301.518	100.88
301.748	86.88
301.979	112.88
302.209	96.88
302.439	83.88
302.669	78.88
302.9	89.88
303.13	105.88
303.36	93.88
303.59	100.88
303.82	89.88
304.051	87.88
304.281	103.88
304.511	93.88
304.741	74.88
304.971	104.88
305.201	93.88
305.431	83.88
305.661	90.88
305.891	115.88
306.121	90.88
306.352	98.88
306.582	101.88
306.812	87.88
307.042	80.88
307.272	78.88
307.502	89.88
307.731	80.88
307.961	93.88
308.191	78.88
308.421	98.88
308.651	87.88
308.881	113.88
309.111	90.88
309.341	95.88
309.571	102.88
309.8	98.88
310.03	91.88
310.26	102.88
310.49	89.88
310.72	91.88
310.949	91.88
311.179	86.88
311.409	112.88
311.639	87.88
311.868	98.88
312.098	103.88
312.328	83.88
312.557	87.88
312.787	101.88
313.017	87.88
313.246	92.88
313.476	90.88
313.706	95.88
313.935	102.88
314.165	96.88
314.394	97.88
314.624	87.88
314.853	104.88
315.083	91.88
315.312	96.88
315.542	101.88
315.771	95.88
316.001	92.88
316.23	91.88
316.46	89.88
316.689	85.88
316.919	88.88
317.148	87.88
317.377	88.88
317.607	91.88
317.836	94.88
318.065	77.88
318.295	85.88
318.524	89.88
318.753	95.88
318.983	87.88
319.212	88.88
319.441	98.88
319.67	92.88
319.9	101.88
320.129	79.88
320.358	89.88
320.587	100.88
320.816	84.88
321.046	93.88
321.275	95.88
321.504	103.88
321.733	89.88
321.962	86.88
322.191	100.88
322.42	89.88
322.649	90.88
322.878	99.88
323.108	112.88
323.337	106.88
323.566	132.88
323.795	139.88
324.024	183.88
324.253	356.88
324.482	761.88
324.71	1569.88
324.939	2073.88
325.168	755.88
325.397	224.88
325.626	149.88
325.855	136.88
326.084	121.88
326.313	126.88
326.542	122.88
326.77	210.88
326.999	419.88
327.228	881.88
327.457	1643.88
327.686	1278.88
327.914	328.88
328.143	186.88
328.372	142.88
328.6	121.88
328.829	105.88
329.058	116.88
329.287	105.88
329.515	90.88
329.744	100.88
329.972	102.88
330.201	83.88
330.43	102.88
330.658	106.88
330.887	122.88
331.115	105.88
331.344	91.88
331.572	105.88
331.801	97.88
332.03	77.88
332.258	80.88
332.486	94.88
332.715	88.88
332.943	98.88
333.172	90.88
333.4	93.88
333.629	102.88
333.857	118.88
334.085	107.88
334.314	109.88
334.542	88.88
334.771	97.88
334.999	98.88
335.227	87.88
335.455	94.88
335.684	94.88
335.912	94.88
336.14	97.88
336.369	92.88
336.597	100.88
336.825	90.88
337.053	99.88
337.281	84.88
337.51	79.88
337.738	96.88
337.966	79.88
338.194	95.88
338.422	88.88
338.65	93.88
338.878	80.88
339.106	99.88
339.334	93.88
339.562	101.88
339.79	84.88
340.018	91.88
340.246	91.88
340.474	103.88
340.702	104.88
340.93	83.88
341.158	87.88
341.386	85.88
341.614	92.88
341.842	102.88
342.07	97.88
342.298	95.88
342.526	93.88
342.754	95.88
342.981	67.88
343.209	94.88
343.437	110.88
343.665	75.88
343.893	98.88
344.12	101.88
344.348	89.88
344.576	96.88
344.804	85.88
345.031	78.88
345.259	106.88
345.487	105.88
345.714	88.88
345.942	95.88
346.17	97.88
346.397	95.88
346.625	87.88
346.853	97.88
347.08	90.88
347.308	100.88
347.535	87.88
347.763	97.88
347.99	105.88
348.218	101.88
348.445	103.88
348.673	79.88
348.9	83.88
349.128	87.88
349.355	94.88
349.583	89.88
349.81	83.88
350.037	97.88
350.265	94.88
350.492	79.88
350.72	83.88
350.947	100.88
351.174	97.88
351.402	116.88
351.629	94.88
351.856	94.88
352.083	97.88
352.311	103.88
352.538	110.88
352.765	107.88
352.992	117.88
353.22	90.88
353.447	99.88
353.674	90.88
353.901	78.88
354.128	87.88
354.355	83.88
354.583	96.88
354.81	98.88
355.037	108.88
355.264	94.88
355.491	74.88
355.718	84.88
355.945	97.88
356.172	91.88
356.399	90.88
356.626	103.88
356.853	105.88
357.08	101.88
357.307	87.88
357.534	92.88
357.761	83.88
357.988	86.88
358.215	82.88
358.441	81.88
358.668	83.88
358.895	87.88
359.122	82.88
359.349	95.88
359.576	96.88
359.802	108.88
360.029	95.88
360.256	98.88
360.483	96.88
360.709	82.88
360.936	88.88
361.163	104.88
361.39	81.88
361.616	86.88
361.843	80.88
362.07	91.88
362.296	92.88
362.523	95.88
362.749	97.88
362.976	94.88
363.203	96.88
363.429	92.88
363.656	94.88
363.882	73.88
364.109	92.88
364.335	93.88
364.562	80.88
364.788	92.88
365.015	87.88
365.241	90.88
365.468	90.88
365.694	108.88
365.92	95.88
366.147	100.88
366.373	85.88
366.599	80.88
366.826	98.88
367.052	89.88
367.278	95.88
367.505	108.88
367.731	103.88
367.957	76.88
368.184	95.88
368.41	105.88
368.636	98.88
368.862	118.88
369.089	108.88
369.315	99.88
369.541	73.88
369.767	100.88
369.993	84.88
370.219	85.88
370.445	90.88
370.672	86.88
370.898	92.88
371.124	97.88
371.35	84.88
371.576	86.88
371.802	93.88
372.028	79.88
372.254	92.88
372.48	98.88
372.706	89.88
372.932	86.88
373.158	86.88
373.384	87.88
373.61	100.88
373.835	89.88
374.061	101.88
374.287	97.88
374.513	87.88
374.739	75.88
374.965	96.88
375.191	86.88
375.416	94.88
375.642	87.88
375.868	89.88
376.094	91.88
376.319	92.88
376.545	103.88
376.771	88.88
376.997	99.88
377.222	87.88
377.448	94.88
377.674	82.88
377.899	87.88
378.125	85.88
378.35	79.88
378.576	81.88
378.802	67.88
379.027	95.88
379.253	90.88
379.478	91.88
379.704	80.88
379.929	75.88
380.155	102.88
380.38	93.88
380.606	92.88
380.831	89.88
381.057	86.88
381.282	90.88
381.507	88.88
381.733	98.88
381.958	98.88
382.184	97.88
382.409	97.88
382.634	96.88
382.86	106.88
383.085	94.88
383.31	90.88
383.535	71.88
383.761	110.88
383.986	92.88
384.211	86.88
384.436	94.88
384.662	113.88
384.887	96.88
385.112	104.88
385.337	101.88
385.562	100.88
385.787	98.88
386.013	103.88
386.238	119.88
386.463	98.88
386.688	104.88
386.913	95.88
387.138	97.88
387.363	107.88
387.588	101.88
387.813	102.88
388.038	109.88
388.263	103.88
388.488	115.88
388.713	94.88
388.938	90.88
389.163	112.88
389.387	95.88
389.612	92.88
389.837	85.88
390.062	90.88
390.287	84.88
390.512	89.88
390.736	103.88
390.961	105.88
391.186	101.88
391.411	99.88
391.636	73.88
391.86	84.88
392.085	82.88
392.31	73.88
392.534	94.88
392.759	79.88
392.984	78.88
393.208	88.88
393.433	98.88
393.658	90.88
393.882	92.88
394.107	92.88
394.331	80.88
394.556	91.88
394.78	75.88
395.005	86.88
395.229	98.88
395.454	90.88
395.678	97.88
395.903	98.88
396.127	91.88
396.352	82.88
396.576	91.88
396.801	95.88
397.025	98.88
397.249	91.88
397.474	94.88
397.698	97.88
397.922	76.88
398.147	88.88
398.371	83.88
398.595	85.88
398.82	80.88
399.044	70.88
399.268	81.88
399.492	102.88
399.717	104.88
399.941	81.88
400.165	88.88
400.389	92.88
400.613	79.88
400.837	94.88
401.062	79.88
401.286	76.88
401.51	104.88
401.734	95.88
401.958	87.88
402.182	121.88
402.406	142.88
402.63	108.88
402.854	105.88
403.078	90.88
403.302	73.88
403.526	100.88
403.75	96.88
403.974	90.88
404.198	96.88
404.422	73.88
404.645	78.88
404.869	64.88
405.093	90.88
405.317	80.88
405.541	87.88
405.765	84.88
405.988	108.88
406.212	145.88
406.436	189.88
406.66	119.88
406.883	99.88
407.107	80.88
407.331	86.88
407.555	82.88
407.778	94.88
408.002	86.88
408.226	83.88
408.449	80.88
408.673	89.88
408.896	90.88
409.12	97.88
409.344	101.88
409.567	89.88
409.791	101.88
410.014	86.88
410.238	97.88
410.461	91.88
410.685	94.88
410.908	98.88
411.132	101.88
411.355	98.88
411.578	94.88
411.802	91.88
412.025	86.88
412.249	88.88
412.472	86.88
412.695	86.88
412.919	99.88
413.142	88.88
413.365	93.88
413.589	80.88
413.812	87.88
414.035	87.88
414.258	73.88
414.482	86.88
414.705	85.88
414.928	102.88
415.151	88.88
415.374	103.88
415.597	98.88
415.821	88.88
416.044	87.88
416.267	87.88
416.49	83.88
416.713	81.88
416.936	90.88
417.159	94.88
417.382	86.88
417.605	92.88
417.828	103.88
418.051	73.88
418.274	84.88
418.497	83.88
418.72	78.88
418.943	84.88
419.166	86.88
419.389	82.88
419.611	97.88
419.834	83.88
420.057	75.88
420.28	81.88
420.503	78.88
420.726	93.88
420.948	88.88
421.171	86.88
421.394	98.88
421.617	81.88
421.839	75.88
422.062	82.88
422.285	101.88
422.507	108.88
422.73	109.88
422.953	94.88
423.175	92.88
423.398	95.88
423.621	81.88
423.843	81.88
424.066	86.88
424.288	81.88
424.511	89.88
424.733	99.88
424.956	104.88
425.178	103.88
425.401	90.88
425.623	89.88
425.846	83.88
426.068	113.88
426.291	90.88
426.513	90.88
426.735	101.88
426.958	85.88
427.18	89.88
427.402	133.88
427.625	154.88
427.847	119.88
428.069	106.88
428.292	92.88
428.514	102.88
428.736	78.88
428.958	90.88
429.181	88.88
429.403	74.88
429.625	89.88
429.847	83.88
430.069	92.88
430.292	76.88
430.514	72.88
430.736	94.88
430.958	87.88
431.18	78.88
431.402	91.88
431.624	92.88
431.846	81.88
432.068	95.88
432.29	87.88
432.512	100.88
432.734	84.88
432.956	90.88
433.178	96.88
433.4	91.88
433.622	91.88
433.844	104.88
434.066	115.88
434.287	80.88
434.509	103.88
434.731	101.88
434.953	89.88
435.175	91.88
435.397	80.88
435.618	81.88
435.84	89.88
436.062	119.88
436.284	111.88
436.505	108.88
436.727	96.88
436.949	90.88
437.17	94.88
437.392	83.88
437.614	104.88
437.835	97.88
438.057	125.88
438.278	110.88
438.5	88.88
438.721	105.88
438.943	107.88
439.165	89.88
439.386	89.88
439.608	97.88
439.829	96.88
440.05	130.88
440.272	119.88
440.493	85.88
440.715	72.88
440.936	88.88
441.158	77.88
441.379	93.88
441.6	96.88
441.822	83.88
442.043	92.88
442.264	93.88
442.486	88.88
442.707	91.88
442.928	121.88
443.149	122.88
443.371	108.88
443.592	100.88
443.813	123.88
444.034	98.88
444.255	91.88
444.476	82.88
444.698	84.88
444.919	89.88
445.14	130.88
445.361	128.88
445.582	102.88
445.803	111.88
446.024	116.88
446.245	111.88
446.466	99.88
446.687	79.88
446.908	101.88
447.129	93.88
447.35	91.88
447.571	84.88
447.792	92.88
448.013	95.88
448.234	106.88
448.455	92.88
448.675	106.88
448.896	114.88
449.117	82.88
449.338	94.88
449.559	120.88
449.779	128.88
450	106.88
450.221	86.88
450.442	79.88
450.662	90.88
450.883	95.88
451.104	106.88
451.324	82.88
451.545	82.88
451.766	82.88
451.986	85.88
452.207	82.88
452.428	91.88
452.648	86.88
452.869	105.88
453.089	118.88
453.31	118.88
453.53	95.88
453.751	89.88
453.971	107.88
454.192	98.88
454.412	86.88
454.633	87.88
454.853	82.88
455.073	94.88
455.294	92.88
455.514	95.88
455.734	89.88
455.955	87.88
456.175	95.88
456.395	94.88
456.616	83.88
456.836	80.88
457.056	89.88
457.276	70.88
457.497	71.88
457.717	76.88
457.937	98.88
458.157	82.88
458.377	90.88
458.598	105.88
458.818	144.88
459.038	140.88
459.258	103.88
459.478	102.88
459.698	71.88
459.918	77.88
460.138	72.88
460.358	89.88
460.578	88.88
460.798	82.88
461.018	102.88
461.238	87.88
461.458	86.88
461.678	89.88
461.898	89.88
462.118	104.88
462.338	83.88
462.558	75.88
462.777	78.88
462.997	74.88
463.217	74.88
463.437	102.88
463.657	81.88
463.876	76.88
464.096	92.88
464.316	84.88
464.536	82.88
464.755	81.88
464.975	95.88
465.195	146.88
465.414	130.88
465.634	95.88
465.854	89.88
466.073	84.88
466.293	95.88
466.512	96.88
466.732	83.88
466.951	103.88
467.171	91.88
467.391	94.88
467.61	86.88
467.829	107.88
468.049	84.88
468.268	91.88
468.488	93.88
468.707	94.88
468.927	85.88
469.146	80.88
469.365	88.88
469.585	98.88
469.804	82.88
470.023	89.88
470.243	89.88
470.462	82.88
470.681	103.88
470.901	83.88
471.12	86.88
471.339	98.88
471.558	99.88
471.777	74.88
471.997	88.88
472.216	111.88
472.435	108.88
472.654	73.88
472.873	86.88
473.092	82.88
473.311	79.88
473.53	84.88
473.749	85.88
473.968	93.88
474.187	99.88
474.406	85.88
474.625	102.88
474.844	72.88
475.063	87.88
475.282	94.88
475.501	82.88
475.72	84.88
475.939	98.88
476.158	88.88
476.377	98.88
476.596	87.88
476.814	91.88
477.033	91.88
477.252	88.88
477.471	92.88
477.69	85.88
477.908	90.88
478.127	100.88
478.346	81.88
478.564	97.88
478.783	92.88
479.002	90.88
479.22	87.88
479.439	84.88
479.658	91.88
479.876	94.88
480.095	80.88
480.313	90.88
480.532	85.88
480.751	78.88
480.969	97.88
481.188	139.88
481.406	107.88
481.624	74.88
481.843	88.88
482.061	96.88
482.28	95.88
482.498	98.88
482.717	96.88
482.935	91.88
483.153	89.88
483.372	99.88
483.59	91.88
483.808	86.88
484.027	94.88
484.245	85.88
484.463	82.88
484.681	89.88
484.9	104.88
485.118	98.88
485.336	95.88
485.554	95.88
485.772	101.88
485.99	103.88
486.209	101.88
486.427	98.88
486.645	106.88
486.863	100.88
487.081	122.88
487.299	99.88
487.517	88.88
487.735	98.88
487.953	81.88
488.171	97.88
488.389	95.88
488.607	101.88
488.825	86.88
489.043	85.88
489.261	94.88
489.479	87.88
489.696	83.88
489.914	83.88
490.132	75.88
490.35	81.88
490.568	90.88
490.786	96.88
491.003	96.88
491.221	84.88
491.439	97.88
491.657	89.88
491.874	75.88
492.092	76.88
492.31	78.88
492.527	98.88
492.745	85.88
492.963	113.88
493.18	89.88
493.398	95.88
493.615	87.88
493.833	83.88
494.05	89.88
494.268	86.88
494.485	94.88
494.703	75.88
494.92	96.88
495.138	89.88
495.355	89.88
495.573	97.88
495.79	88.88
496.008	88.88
496.225	102.88
496.442	105.88
496.66	84.88
496.877	88.88
497.094	100.88
497.312	103.88
497.529	86.88
497.746	91.88
497.963	90.88
498.181	76.88
498.398	91.88
498.615	94.88
498.832	100.88
499.049	99.88
499.267	93.88
499.484	84.88
499.701	100.88
499.918	90.88
500.135	88.88
500.352	98.88
500.569	97.88
500.786	93.88
501.003	92.88
501.22	85.88
501.437	97.88
501.654	89.88
501.871	86.88
502.088	84.88
502.305	96.88
502.522	90.88
502.739	78.88
502.956	81.88
503.172	97.88
503.389	100.88
503.606	100.88
503.823	99.88
504.04	104.88
504.256	85.88
504.473	92.88
504.69	81.88
504.907	99.88
505.123	84.88
505.34	99.88
505.557	88.88
505.773	96.88
505.99	90.88
506.207	97.88
506.423	105.88
506.64	86.88
506.856	88.88
507.073	88.88
507.289	93.88
507.506	100.88
507.722	107.88
507.939	97.88
508.155	89.88
508.372	102.88
508.588	95.88
508.805	102.88
509.021	94.88
509.238	103.88
509.454	112.88
509.67	99.88
509.887	115.88
510.103	121.88
510.319	206.88
510.536	682.88
510.752	2110.88
510.968	583.88
511.184	150.88
511.401	98.88
511.617	91.88
511.833	84.88
512.049	92.88
512.265	95.88
512.481	75.88
512.698	91.88
512.914	88.88
513.13	91.88
513.346	90.88
513.562	90.88
513.778	90.88
513.994	88.88
514.21	105.88
514.426	121.88
514.642	113.88
514.858	122.88
515.074	162.88
515.29	400.88
515.506	1278.88
515.721	470.88
515.937	139.88
516.153	106.88
516.369	99.88
516.585	88.88
