Data from Uncirc_1983_H10_HRD10591_00079.txt Node
Date: Wed Jan 03 12:25:47 EST 2024
User: Yrep
Spectrometer: HR+D1059
Trigger mode: 1
Integration Time (sec): 1.000000E-1
Scans to average: 1
Electric dark correction enabled: true
Nonlinearity correction enabled: false
Boxcar width: 0
XAxis mode: Wavelengths
Number of Pixels in Spectrum: 2048
>>>>>Begin Spectral Data<<<<<
223.165	-14.69
223.4	-14.69
223.635	-14.69
223.869	-8.69
224.104	-25.69
224.338	-10.69
224.573	-26.69
224.808	-2.69
225.042	-2.69
225.277	-0.69
225.511	-12.69
225.746	4.31
225.98	-1.69
226.215	7.31
226.449	17.31
226.683	26.31
226.918	19.31
227.152	32.31
227.387	34.31
227.621	30.31
227.856	34.31
228.09	50.31
228.324	44.31
228.559	58.31
228.793	56.31
229.027	72.31
229.262	76.31
229.496	83.31
229.73	66.31
229.964	73.31
230.199	73.31
230.433	70.31
230.667	73.31
230.901	67.31
231.136	94.31
231.37	88.31
231.604	86.31
231.838	88.31
232.072	90.31
232.306	76.31
232.541	82.31
232.775	82.31
233.009	96.31
233.243	93.31
233.477	90.31
233.711	78.31
233.945	83.31
234.179	75.31
234.413	70.31
234.647	85.31
234.881	82.31
235.115	73.31
235.349	91.31
235.583	82.31
235.817	68.31
236.051	77.31
236.285	77.31
236.519	74.31
236.753	89.31
236.987	81.31
237.221	91.31
237.455	84.31
237.689	62.31
237.922	66.31
238.156	77.31
238.39	80.31
238.624	83.31
238.858	82.31
239.091	73.31
239.325	67.31
239.559	76.31
239.793	67.31
240.027	71.31
240.26	75.31
240.494	99.31
240.728	87.31
240.961	73.31
241.195	84.31
241.429	82.31
241.662	70.31
241.896	74.31
242.13	82.31
242.363	85.31
242.597	85.31
242.83	80.31
243.064	86.31
243.298	85.31
243.531	70.31
243.765	67.31
243.998	86.31
244.232	82.31
244.465	83.31
244.699	93.31
244.932	71.31
245.166	90.31
245.399	88.31
245.633	93.31
245.866	78.31
246.099	78.31
246.333	78.31
246.566	82.31
246.8	79.31
247.033	84.31
247.266	86.31
247.5	76.31
247.733	73.31
247.966	77.31
248.2	91.31
248.433	95.31
248.666	72.31
248.899	83.31
249.133	97.31
249.366	91.31
249.599	91.31
249.832	74.31
250.066	81.31
250.299	72.31
250.532	80.31
250.765	82.31
250.998	70.31
251.231	69.31
251.465	74.31
251.698	70.31
251.931	87.31
252.164	87.31
252.397	67.31
252.63	74.31
252.863	88.31
253.096	86.31
253.329	91.31
253.562	88.31
253.795	77.31
254.028	88.31
254.261	84.31
254.494	88.31
254.727	94.31
254.96	77.31
255.193	83.31
255.426	83.31
255.659	98.31
255.892	76.31
256.124	86.31
256.357	83.31
256.59	75.31
256.823	84.31
257.056	80.31
257.289	83.31
257.521	81.31
257.754	65.31
257.987	68.31
258.22	72.31
258.452	87.31
258.685	84.31
258.918	86.31
259.151	82.31
259.383	89.31
259.616	88.31
259.849	80.31
260.081	97.31
260.314	82.31
260.547	66.31
260.779	76.31
261.012	84.31
261.244	80.31
261.477	96.31
261.71	95.31
261.942	99.31
262.175	101.31
262.407	91.31
262.64	85.31
262.872	88.31
263.105	86.31
263.337	80.31
263.57	81.31
263.802	77.31
264.035	84.31
264.267	78.31
264.499	82.31
264.732	81.31
264.964	87.31
265.197	92.31
265.429	97.31
265.661	79.31
265.894	87.31
266.126	97.31
266.358	91.31
266.591	88.31
266.823	81.31
267.055	99.31
267.287	71.31
267.52	80.31
267.752	82.31
267.984	88.31
268.216	90.31
268.448	95.31
268.681	81.31
268.913	68.31
269.145	88.31
269.377	80.31
269.609	95.31
269.841	88.31
270.073	86.31
270.306	81.31
270.538	89.31
270.77	74.31
271.002	75.31
271.234	74.31
271.466	94.31
271.698	90.31
271.93	86.31
272.162	90.31
272.394	81.31
272.626	96.31
272.858	100.31
273.09	84.31
273.322	81.31
273.553	80.31
273.785	98.31
274.017	83.31
274.249	85.31
274.481	80.31
274.713	78.31
274.945	73.31
275.176	83.31
275.408	73.31
275.64	94.31
275.872	90.31
276.104	98.31
276.335	100.31
276.567	98.31
276.799	108.31
277.031	95.31
277.262	95.31
277.494	83.31
277.726	107.31
277.957	91.31
278.189	78.31
278.421	82.31
278.652	89.31
278.884	84.31
279.115	85.31
279.347	91.31
279.579	78.31
279.81	98.31
280.042	97.31
280.273	82.31
280.505	88.31
280.736	86.31
280.968	96.31
281.199	89.31
281.431	88.31
281.662	77.31
281.894	80.31
282.125	97.31
282.356	102.31
282.588	136.31
282.819	97.31
283.051	92.31
283.282	85.31
283.513	79.31
283.745	85.31
283.976	83.31
284.207	86.31
284.439	74.31
284.67	93.31
284.901	99.31
285.132	90.31
285.364	92.31
285.595	77.31
285.826	84.31
286.057	92.31
286.288	104.31
286.52	91.31
286.751	84.31
286.982	84.31
287.213	86.31
287.444	82.31
287.675	81.31
287.906	76.31
288.138	92.31
288.369	86.31
288.6	86.31
288.831	86.31
289.062	94.31
289.293	91.31
289.524	93.31
289.755	88.31
289.986	86.31
290.217	86.31
290.448	95.31
290.679	90.31
290.91	94.31
291.141	86.31
291.371	97.31
291.602	98.31
291.833	89.31
292.064	91.31
292.295	87.31
292.526	98.31
292.757	86.31
292.987	82.31
293.218	91.31
293.449	82.31
293.68	77.31
293.91	82.31
294.141	100.31
294.372	93.31
294.603	86.31
294.833	96.31
295.064	90.31
295.295	88.31
295.525	83.31
295.756	101.31
295.987	114.31
296.217	124.31
296.448	118.31
296.679	90.31
296.909	91.31
297.14	100.31
297.37	97.31
297.601	85.31
297.831	85.31
298.062	84.31
298.292	101.31
298.523	85.31
298.753	88.31
298.984	86.31
299.214	98.31
299.445	102.31
299.675	81.31
299.905	91.31
300.136	92.31
300.366	91.31
300.597	92.31
300.827	94.31
301.057	93.31
301.288	87.31
301.518	86.31
301.748	85.31
301.979	83.31
302.209	95.31
302.439	88.31
302.669	96.31
302.9	86.31
303.13	92.31
303.36	92.31
303.59	93.31
303.82	94.31
304.051	93.31
304.281	91.31
304.511	91.31
304.741	100.31
304.971	91.31
305.201	81.31
305.431	83.31
305.661	92.31
305.891	90.31
306.121	97.31
306.352	110.31
306.582	93.31
306.812	92.31
307.042	104.31
307.272	95.31
307.502	98.31
307.731	99.31
307.961	93.31
308.191	81.31
308.421	83.31
308.651	81.31
308.881	97.31
309.111	114.31
309.341	96.31
309.571	84.31
309.8	86.31
310.03	104.31
310.26	92.31
310.49	98.31
310.72	100.31
310.949	92.31
311.179	90.31
311.409	89.31
311.639	89.31
311.868	74.31
312.098	83.31
312.328	93.31
312.557	101.31
312.787	84.31
313.017	92.31
313.246	89.31
313.476	105.31
313.706	82.31
313.935	88.31
314.165	108.31
314.394	113.31
314.624	90.31
314.853	101.31
315.083	106.31
315.312	86.31
315.542	91.31
315.771	90.31
316.001	85.31
316.23	90.31
316.46	85.31
316.689	87.31
316.919	98.31
317.148	96.31
317.377	92.31
317.607	92.31
317.836	89.31
318.065	84.31
318.295	94.31
318.524	94.31
318.753	106.31
318.983	94.31
319.212	92.31
319.441	102.31
319.67	100.31
319.9	94.31
320.129	94.31
320.358	98.31
320.587	83.31
320.816	96.31
321.046	126.31
321.275	105.31
321.504	90.31
321.733	85.31
321.962	104.31
322.191	98.31
322.42	109.31
322.649	100.31
322.878	108.31
323.108	105.31
323.337	118.31
323.566	113.31
323.795	134.31
324.024	180.31
324.253	337.31
324.482	722.31
324.71	1449.31
324.939	1896.31
325.168	730.31
325.397	227.31
325.626	140.31
325.855	138.31
326.084	135.31
326.313	124.31
326.542	151.31
326.77	214.31
326.999	396.31
327.228	818.31
327.457	1477.31
327.686	1190.31
327.914	333.31
328.143	176.31
328.372	151.31
328.6	112.31
328.829	128.31
329.058	115.31
329.287	131.31
329.515	109.31
329.744	105.31
329.972	105.31
330.201	133.31
330.43	139.31
330.658	125.31
330.887	132.31
331.115	125.31
331.344	97.31
331.572	107.31
331.801	96.31
332.03	104.31
332.258	98.31
332.486	101.31
332.715	100.31
332.943	98.31
333.172	90.31
333.4	87.31
333.629	120.31
333.857	110.31
334.085	113.31
334.314	119.31
334.542	156.31
334.771	127.31
334.999	105.31
335.227	84.31
335.455	91.31
335.684	96.31
335.912	98.31
336.14	112.31
336.369	85.31
336.597	101.31
336.825	108.31
337.053	89.31
337.281	96.31
337.51	75.31
337.738	84.31
337.966	74.31
338.194	99.31
338.422	97.31
338.65	90.31
338.878	88.31
339.106	86.31
339.334	100.31
339.562	107.31
339.79	96.31
340.018	84.31
340.246	94.31
340.474	92.31
340.702	92.31
340.93	85.31
341.158	85.31
341.386	92.31
341.614	97.31
341.842	86.31
342.07	97.31
342.298	77.31
342.526	89.31
342.754	89.31
342.981	90.31
343.209	76.31
343.437	101.31
343.665	72.31
343.893	93.31
344.12	91.31
344.348	80.31
344.576	96.31
344.804	86.31
345.031	75.31
345.259	98.31
345.487	87.31
345.714	102.31
345.942	99.31
346.17	75.31
346.397	86.31
346.625	91.31
346.853	82.31
347.08	92.31
347.308	97.31
347.535	94.31
347.763	91.31
347.99	100.31
348.218	113.31
348.445	103.31
348.673	91.31
348.9	102.31
349.128	84.31
349.355	96.31
349.583	100.31
349.81	89.31
350.037	84.31
350.265	77.31
350.492	87.31
350.72	86.31
350.947	98.31
351.174	110.31
351.402	108.31
351.629	108.31
351.856	104.31
352.083	98.31
352.311	90.31
352.538	105.31
352.765	98.31
352.992	108.31
353.22	101.31
353.447	100.31
353.674	104.31
353.901	90.31
354.128	93.31
354.355	92.31
354.583	90.31
354.81	96.31
355.037	101.31
355.264	94.31
355.491	94.31
355.718	74.31
355.945	98.31
356.172	83.31
356.399	103.31
356.626	97.31
356.853	92.31
357.08	101.31
357.307	88.31
357.534	96.31
357.761	92.31
357.988	102.31
358.215	96.31
358.441	103.31
358.668	96.31
358.895	100.31
359.122	87.31
359.349	84.31
359.576	88.31
359.802	102.31
360.029	112.31
360.256	108.31
360.483	88.31
360.709	92.31
360.936	105.31
361.163	86.31
361.39	87.31
361.616	97.31
361.843	89.31
362.07	99.31
362.296	90.31
362.523	80.31
362.749	95.31
362.976	105.31
363.203	106.31
363.429	88.31
363.656	92.31
363.882	89.31
364.109	89.31
364.335	105.31
364.562	88.31
364.788	92.31
365.015	84.31
365.241	102.31
365.468	103.31
365.694	108.31
365.92	93.31
366.147	93.31
366.373	83.31
366.599	90.31
366.826	105.31
367.052	97.31
367.278	85.31
367.505	90.31
367.731	91.31
367.957	84.31
368.184	83.31
368.41	100.31
368.636	97.31
368.862	107.31
369.089	110.31
369.315	99.31
369.541	93.31
369.767	95.31
369.993	89.31
370.219	89.31
370.445	83.31
370.672	93.31
370.898	84.31
371.124	78.31
371.35	93.31
371.576	92.31
371.802	78.31
372.028	76.31
372.254	92.31
372.48	88.31
372.706	80.31
372.932	96.31
373.158	83.31
373.384	106.31
373.61	100.31
373.835	85.31
374.061	80.31
374.287	86.31
374.513	82.31
374.739	89.31
374.965	93.31
375.191	97.31
375.416	85.31
375.642	96.31
375.868	92.31
376.094	93.31
376.319	84.31
376.545	70.31
376.771	90.31
376.997	90.31
377.222	83.31
377.448	75.31
377.674	101.31
377.899	77.31
378.125	92.31
378.35	88.31
378.576	87.31
378.802	89.31
379.027	96.31
379.253	107.31
379.478	88.31
379.704	91.31
379.929	97.31
380.155	91.31
380.38	96.31
380.606	83.31
380.831	86.31
381.057	110.31
381.282	90.31
381.507	91.31
381.733	88.31
381.958	100.31
382.184	91.31
382.409	92.31
382.634	109.31
382.86	76.31
383.085	102.31
383.31	100.31
383.535	101.31
383.761	99.31
383.986	100.31
384.211	90.31
384.436	104.31
384.662	104.31
384.887	104.31
385.112	104.31
385.337	108.31
385.562	106.31
385.787	86.31
386.013	91.31
386.238	101.31
386.463	91.31
386.688	113.31
386.913	83.31
387.138	97.31
387.363	105.31
387.588	88.31
387.813	100.31
388.038	102.31
388.263	108.31
388.488	103.31
388.713	90.31
388.938	92.31
389.163	109.31
389.387	97.31
389.612	86.31
389.837	98.31
390.062	96.31
390.287	88.31
390.512	99.31
390.736	89.31
390.961	92.31
391.186	96.31
391.411	100.31
391.636	83.31
391.86	94.31
392.085	75.31
392.31	91.31
392.534	81.31
392.759	80.31
392.984	98.31
393.208	90.31
393.433	97.31
393.658	81.31
393.882	96.31
394.107	76.31
394.331	92.31
394.556	100.31
394.78	91.31
395.005	91.31
395.229	68.31
395.454	85.31
395.678	98.31
395.903	97.31
396.127	88.31
396.352	91.31
396.576	83.31
396.801	86.31
397.025	87.31
397.249	85.31
397.474	86.31
397.698	74.31
397.922	73.31
398.147	90.31
398.371	94.31
398.595	90.31
398.82	88.31
399.044	85.31
399.268	91.31
399.492	77.31
399.717	90.31
399.941	93.31
400.165	84.31
400.389	81.31
400.613	75.31
400.837	87.31
401.062	84.31
401.286	69.31
401.51	85.31
401.734	88.31
401.958	115.31
402.182	120.31
402.406	151.31
402.63	115.31
402.854	85.31
403.078	73.31
403.302	75.31
403.526	89.31
403.75	81.31
403.974	84.31
404.198	94.31
404.422	93.31
404.645	81.31
404.869	102.31
405.093	98.31
405.317	107.31
405.541	95.31
405.765	100.31
405.988	106.31
406.212	161.31
406.436	210.31
406.66	141.31
406.883	84.31
407.107	80.31
407.331	95.31
407.555	84.31
407.778	98.31
408.002	82.31
408.226	99.31
408.449	73.31
408.673	88.31
408.896	97.31
409.12	102.31
409.344	91.31
409.567	99.31
409.791	99.31
410.014	83.31
410.238	97.31
410.461	82.31
410.685	92.31
410.908	93.31
411.132	118.31
411.355	82.31
411.578	72.31
411.802	88.31
412.025	101.31
412.249	82.31
412.472	82.31
412.695	85.31
412.919	102.31
413.142	89.31
413.365	82.31
413.589	91.31
413.812	94.31
414.035	101.31
414.258	89.31
414.482	72.31
414.705	99.31
414.928	93.31
415.151	84.31
415.374	90.31
415.597	93.31
415.821	96.31
416.044	98.31
416.267	89.31
416.49	90.31
416.713	96.31
416.936	95.31
417.159	75.31
417.382	83.31
417.605	90.31
417.828	102.31
418.051	99.31
418.274	86.31
418.497	96.31
418.72	80.31
418.943	73.31
419.166	85.31
419.389	82.31
419.611	101.31
419.834	88.31
420.057	81.31
420.28	92.31
420.503	90.31
420.726	80.31
420.948	78.31
421.171	93.31
421.394	75.31
421.617	88.31
421.839	92.31
422.062	94.31
422.285	93.31
422.507	97.31
422.73	109.31
422.953	83.31
423.175	87.31
423.398	88.31
423.621	90.31
423.843	86.31
424.066	97.31
424.288	86.31
424.511	90.31
424.733	90.31
424.956	116.31
425.178	93.31
425.401	99.31
425.623	83.31
425.846	99.31
426.068	101.31
426.291	81.31
426.513	96.31
426.735	101.31
426.958	95.31
427.18	108.31
427.402	123.31
427.625	157.31
427.847	123.31
428.069	104.31
428.292	91.31
428.514	93.31
428.736	73.31
428.958	87.31
429.181	91.31
429.403	85.31
429.625	91.31
429.847	89.31
430.069	97.31
430.292	95.31
430.514	101.31
430.736	89.31
430.958	84.31
431.18	65.31
431.402	63.31
431.624	90.31
431.846	102.31
432.068	85.31
432.29	97.31
432.512	85.31
432.734	86.31
432.956	94.31
433.178	90.31
433.4	92.31
433.622	92.31
433.844	101.31
434.066	83.31
434.287	94.31
434.509	76.31
434.731	89.31
434.953	77.31
435.175	84.31
435.397	96.31
435.618	88.31
435.84	100.31
436.062	119.31
436.284	105.31
436.505	98.31
436.727	94.31
436.949	77.31
437.17	77.31
437.392	109.31
437.614	109.31
437.835	106.31
438.057	118.31
438.278	89.31
438.5	101.31
438.721	120.31
438.943	107.31
439.165	91.31
439.386	84.31
439.608	108.31
439.829	93.31
440.05	107.31
440.272	122.31
440.493	98.31
440.715	84.31
440.936	84.31
441.158	76.31
441.379	94.31
441.6	91.31
441.822	104.31
442.043	94.31
442.264	95.31
442.486	94.31
442.707	80.31
442.928	108.31
443.149	118.31
443.371	125.31
443.592	93.31
443.813	125.31
444.034	105.31
444.255	93.31
444.476	90.31
444.698	92.31
444.919	85.31
445.14	116.31
445.361	121.31
445.582	111.31
445.803	142.31
446.024	128.31
446.245	113.31
446.466	115.31
446.687	97.31
446.908	88.31
447.129	88.31
447.35	112.31
447.571	112.31
447.792	86.31
448.013	102.31
448.234	110.31
448.455	102.31
448.675	97.31
448.896	109.31
449.117	95.31
449.338	113.31
449.559	133.31
449.779	128.31
450	106.31
450.221	93.31
450.442	83.31
450.662	85.31
450.883	94.31
451.104	113.31
451.324	94.31
451.545	77.31
451.766	94.31
451.986	75.31
452.207	100.31
452.428	91.31
452.648	109.31
452.869	109.31
453.089	106.31
453.31	113.31
453.53	96.31
453.751	88.31
453.971	83.31
454.192	102.31
454.412	106.31
454.633	84.31
454.853	81.31
455.073	103.31
455.294	87.31
455.514	94.31
455.734	80.31
455.955	85.31
456.175	82.31
456.395	88.31
456.616	80.31
456.836	91.31
457.056	94.31
457.276	90.31
457.497	80.31
457.717	94.31
457.937	91.31
458.157	89.31
458.377	80.31
458.598	107.31
458.818	138.31
459.038	137.31
459.258	104.31
459.478	89.31
459.698	92.31
459.918	92.31
460.138	98.31
460.358	69.31
460.578	98.31
460.798	90.31
461.018	96.31
461.238	88.31
461.458	83.31
461.678	85.31
461.898	77.31
462.118	86.31
462.338	97.31
462.558	84.31
462.777	95.31
462.997	84.31
463.217	82.31
463.437	84.31
463.657	91.31
463.876	88.31
464.096	87.31
464.316	86.31
464.536	98.31
464.755	100.31
464.975	112.31
465.195	149.31
465.414	151.31
465.634	104.31
465.854	96.31
466.073	99.31
466.293	87.31
466.512	80.31
466.732	101.31
466.951	90.31
467.171	99.31
467.391	89.31
467.61	102.31
467.829	98.31
468.049	107.31
468.268	101.31
468.488	91.31
468.707	87.31
468.927	75.31
469.146	92.31
469.365	83.31
469.585	80.31
469.804	99.31
470.023	100.31
470.243	95.31
470.462	91.31
470.681	113.31
470.901	88.31
471.12	99.31
471.339	94.31
471.558	83.31
471.777	86.31
471.997	88.31
472.216	138.31
472.435	156.31
472.654	100.31
472.873	87.31
473.092	74.31
473.311	78.31
473.53	91.31
473.749	91.31
473.968	105.31
474.187	109.31
474.406	80.31
474.625	85.31
474.844	88.31
475.063	97.31
475.282	96.31
475.501	84.31
475.72	84.31
475.939	90.31
476.158	70.31
476.377	98.31
476.596	91.31
476.814	108.31
477.033	105.31
477.252	92.31
477.471	92.31
477.69	87.31
477.908	84.31
478.127	85.31
478.346	101.31
478.564	90.31
478.783	102.31
479.002	105.31
479.22	86.31
479.439	96.31
479.658	99.31
479.876	101.31
480.095	96.31
480.313	98.31
480.532	84.31
480.751	96.31
480.969	109.31
481.188	230.31
481.406	167.31
481.624	106.31
481.843	93.31
482.061	87.31
482.28	98.31
482.498	97.31
482.717	90.31
482.935	105.31
483.153	104.31
483.372	95.31
483.59	88.31
483.808	94.31
484.027	103.31
484.245	85.31
484.463	88.31
484.681	96.31
484.9	91.31
485.118	90.31
485.336	106.31
485.554	108.31
485.772	102.31
485.99	104.31
486.209	101.31
486.427	93.31
486.645	114.31
486.863	115.31
487.081	113.31
487.299	97.31
487.517	100.31
487.735	89.31
487.953	97.31
488.171	93.31
488.389	102.31
488.607	108.31
488.825	101.31
489.043	90.31
489.261	94.31
489.479	101.31
489.696	82.31
489.914	85.31
490.132	85.31
490.35	98.31
490.568	98.31
490.786	84.31
491.003	94.31
491.221	90.31
491.439	92.31
491.657	100.31
491.874	96.31
492.092	90.31
492.31	80.31
492.527	86.31
492.745	89.31
492.963	85.31
493.18	83.31
493.398	97.31
493.615	96.31
493.833	108.31
494.05	91.31
494.268	83.31
494.485	83.31
494.703	84.31
494.92	93.31
495.138	89.31
495.355	93.31
495.573	93.31
495.79	91.31
496.008	88.31
496.225	93.31
496.442	82.31
496.66	105.31
496.877	86.31
497.094	102.31
497.312	90.31
497.529	91.31
497.746	99.31
497.963	105.31
498.181	93.31
498.398	89.31
498.615	108.31
498.832	106.31
499.049	97.31
499.267	87.31
499.484	83.31
499.701	88.31
499.918	93.31
500.135	98.31
500.352	86.31
500.569	86.31
500.786	88.31
501.003	94.31
501.22	103.31
501.437	85.31
501.654	106.31
501.871	117.31
502.088	95.31
502.305	89.31
502.522	110.31
502.739	100.31
502.956	91.31
503.172	81.31
503.389	99.31
503.606	114.31
503.823	117.31
504.04	93.31
504.256	93.31
504.473	105.31
504.69	92.31
504.907	100.31
505.123	97.31
505.34	102.31
505.557	88.31
505.773	88.31
505.99	90.31
506.207	93.31
506.423	90.31
506.64	98.31
506.856	91.31
507.073	90.31
507.289	93.31
507.506	93.31
507.722	108.31
507.939	110.31
508.155	96.31
508.372	91.31
508.588	96.31
508.805	98.31
509.021	102.31
509.238	100.31
509.454	101.31
509.67	89.31
509.887	117.31
510.103	118.31
510.319	197.31
510.536	717.31
510.752	2221.31
510.968	604.31
511.184	158.31
511.401	102.31
511.617	109.31
511.833	93.31
512.049	96.31
512.265	83.31
512.481	102.31
512.698	100.31
512.914	105.31
513.13	99.31
513.346	94.31
513.562	101.31
513.778	86.31
513.994	90.31
514.21	108.31
514.426	109.31
514.642	123.31
514.858	119.31
515.074	164.31
515.29	411.31
515.506	1327.31
