Data from Uncirc_1983_H10_HRD10591_00067.txt Node
Date: Wed Jan 03 12:25:45 EST 2024
User: Yrep
Spectrometer: HR+D1059
Trigger mode: 1
Integration Time (sec): 1.000000E-1
Scans to average: 1
Electric dark correction enabled: true
Nonlinearity correction enabled: false
Boxcar width: 0
XAxis mode: Wavelengths
Number of Pixels in Spectrum: 2048
>>>>>Begin Spectral Data<<<<<
223.165	-15.56
223.4	-15.56
223.635	-15.56
223.869	-16.56
224.104	-26.56
224.338	-18.56
224.573	-8.56
224.808	-7.56
225.042	-2.56
225.277	-18.56
225.511	-5.56
225.746	-0.56
225.98	6.44
226.215	10.44
226.449	20.44
226.683	16.44
226.918	28.44
227.152	38.44
227.387	40.44
227.621	36.44
227.856	40.44
228.09	45.44
228.324	48.44
228.559	46.44
228.793	61.44
229.027	57.44
229.262	58.44
229.496	64.44
229.73	68.44
229.964	65.44
230.199	77.44
230.433	70.44
230.667	81.44
230.901	69.44
231.136	87.44
231.37	77.44
231.604	73.44
231.838	61.44
232.072	82.44
232.306	73.44
232.541	67.44
232.775	83.44
233.009	89.44
233.243	74.44
233.477	74.44
233.711	62.44
233.945	85.44
234.179	76.44
234.413	76.44
234.647	73.44
234.881	78.44
235.115	73.44
235.349	70.44
235.583	81.44
235.817	70.44
236.051	78.44
236.285	81.44
236.519	66.44
236.753	80.44
236.987	80.44
237.221	78.44
237.455	80.44
237.689	73.44
237.922	62.44
238.156	63.44
238.39	84.44
238.624	70.44
238.858	68.44
239.091	81.44
239.325	89.44
239.559	73.44
239.793	80.44
240.027	64.44
240.26	69.44
240.494	80.44
240.728	62.44
240.961	72.44
241.195	67.44
241.429	65.44
241.662	72.44
241.896	71.44
242.13	74.44
242.363	74.44
242.597	85.44
242.83	62.44
243.064	59.44
243.298	75.44
243.531	66.44
243.765	82.44
243.998	78.44
244.232	85.44
244.465	88.44
244.699	68.44
244.932	67.44
245.166	86.44
245.399	82.44
245.633	85.44
245.866	73.44
246.099	80.44
246.333	62.44
246.566	80.44
246.8	65.44
247.033	84.44
247.266	89.44
247.5	89.44
247.733	82.44
247.966	72.44
248.2	84.44
248.433	76.44
248.666	73.44
248.899	71.44
249.133	66.44
249.366	80.44
249.599	89.44
249.832	78.44
250.066	79.44
250.299	70.44
250.532	86.44
250.765	77.44
250.998	69.44
251.231	60.44
251.465	76.44
251.698	69.44
251.931	84.44
252.164	84.44
252.397	75.44
252.63	80.44
252.863	99.44
253.096	71.44
253.329	73.44
253.562	68.44
253.795	97.44
254.028	67.44
254.261	89.44
254.494	82.44
254.727	88.44
254.96	56.44
255.193	82.44
255.426	72.44
255.659	73.44
255.892	83.44
256.124	84.44
256.357	61.44
256.59	77.44
256.823	69.44
257.056	79.44
257.289	68.44
257.521	79.44
257.754	80.44
257.987	79.44
258.22	90.44
258.452	87.44
258.685	69.44
258.918	73.44
259.151	96.44
259.383	87.44
259.616	89.44
259.849	75.44
260.081	73.44
260.314	66.44
260.547	67.44
260.779	66.44
261.012	94.44
261.244	76.44
261.477	94.44
261.71	83.44
261.942	98.44
262.175	98.44
262.407	78.44
262.64	74.44
262.872	75.44
263.105	76.44
263.337	92.44
263.57	68.44
263.802	85.44
264.035	74.44
264.267	82.44
264.499	76.44
264.732	71.44
264.964	84.44
265.197	86.44
265.429	76.44
265.661	68.44
265.894	76.44
266.126	77.44
266.358	81.44
266.591	85.44
266.823	85.44
267.055	79.44
267.287	87.44
267.52	87.44
267.752	66.44
267.984	88.44
268.216	84.44
268.448	86.44
268.681	72.44
268.913	80.44
269.145	84.44
269.377	81.44
269.609	90.44
269.841	73.44
270.073	99.44
270.306	80.44
270.538	83.44
270.77	85.44
271.002	82.44
271.234	87.44
271.466	84.44
271.698	68.44
271.93	85.44
272.162	84.44
272.394	91.44
272.626	89.44
272.858	93.44
273.09	76.44
273.322	89.44
273.553	96.44
273.785	89.44
274.017	82.44
274.249	72.44
274.481	82.44
274.713	88.44
274.945	91.44
275.176	82.44
275.408	92.44
275.64	65.44
275.872	84.44
276.104	84.44
276.335	74.44
276.567	89.44
276.799	99.44
277.031	96.44
277.262	85.44
277.494	74.44
277.726	71.44
277.957	89.44
278.189	89.44
278.421	77.44
278.652	84.44
278.884	84.44
279.115	80.44
279.347	78.44
279.579	79.44
279.81	77.44
280.042	82.44
280.273	77.44
280.505	88.44
280.736	94.44
280.968	74.44
281.199	88.44
281.431	86.44
281.662	73.44
281.894	86.44
282.125	80.44
282.356	105.44
282.588	131.44
282.819	114.44
283.051	86.44
283.282	83.44
283.513	94.44
283.745	76.44
283.976	80.44
284.207	81.44
284.439	86.44
284.67	94.44
284.901	98.44
285.132	96.44
285.364	77.44
285.595	78.44
285.826	84.44
286.057	71.44
286.288	70.44
286.52	80.44
286.751	68.44
286.982	80.44
287.213	69.44
287.444	79.44
287.675	83.44
287.906	71.44
288.138	96.44
288.369	87.44
288.6	80.44
288.831	79.44
289.062	86.44
289.293	84.44
289.524	83.44
289.755	76.44
289.986	85.44
290.217	81.44
290.448	83.44
290.679	74.44
290.91	86.44
291.141	86.44
291.371	81.44
291.602	78.44
291.833	89.44
292.064	68.44
292.295	84.44
292.526	79.44
292.757	78.44
292.987	84.44
293.218	77.44
293.449	80.44
293.68	87.44
293.91	92.44
294.141	88.44
294.372	92.44
294.603	88.44
294.833	94.44
295.064	78.44
295.295	87.44
295.525	88.44
295.756	80.44
295.987	113.44
296.217	126.44
296.448	115.44
296.679	87.44
296.909	87.44
297.14	80.44
297.37	74.44
297.601	92.44
297.831	91.44
298.062	80.44
298.292	80.44
298.523	94.44
298.753	82.44
298.984	85.44
299.214	94.44
299.445	90.44
299.675	84.44
299.905	80.44
300.136	104.44
300.366	90.44
300.597	87.44
300.827	83.44
301.057	91.44
301.288	101.44
301.518	92.44
301.748	89.44
301.979	100.44
302.209	93.44
302.439	97.44
302.669	87.44
302.9	83.44
303.13	100.44
303.36	92.44
303.59	97.44
303.82	84.44
304.051	68.44
304.281	86.44
304.511	93.44
304.741	81.44
304.971	93.44
305.201	97.44
305.431	93.44
305.661	94.44
305.891	85.44
306.121	86.44
306.352	79.44
306.582	85.44
306.812	89.44
307.042	93.44
307.272	87.44
307.502	90.44
307.731	77.44
307.961	85.44
308.191	91.44
308.421	90.44
308.651	78.44
308.881	86.44
309.111	87.44
309.341	96.44
309.571	86.44
309.8	93.44
310.03	93.44
310.26	89.44
310.49	92.44
310.72	83.44
310.949	98.44
311.179	102.44
311.409	97.44
311.639	101.44
311.868	88.44
312.098	88.44
312.328	94.44
312.557	101.44
312.787	100.44
313.017	83.44
313.246	80.44
313.476	97.44
313.706	81.44
313.935	94.44
314.165	98.44
314.394	105.44
314.624	91.44
314.853	99.44
315.083	80.44
315.312	82.44
315.542	89.44
315.771	85.44
316.001	99.44
316.23	73.44
316.46	76.44
316.689	82.44
316.919	101.44
317.148	91.44
317.377	100.44
317.607	109.44
317.836	84.44
318.065	90.44
318.295	96.44
318.524	83.44
318.753	86.44
318.983	97.44
319.212	109.44
319.441	109.44
319.67	105.44
319.9	95.44
320.129	95.44
320.358	95.44
320.587	96.44
320.816	97.44
321.046	101.44
321.275	108.44
321.504	85.44
321.733	95.44
321.962	97.44
322.191	93.44
322.42	110.44
322.649	94.44
322.878	87.44
323.108	116.44
323.337	119.44
323.566	134.44
323.795	133.44
324.024	186.44
324.253	338.44
324.482	735.44
324.71	1456.44
324.939	1899.44
325.168	709.44
325.397	216.44
325.626	135.44
325.855	128.44
326.084	123.44
326.313	114.44
326.542	142.44
326.77	203.44
326.999	411.44
327.228	831.44
327.457	1536.44
327.686	1185.44
327.914	338.44
328.143	171.44
328.372	127.44
328.6	127.44
328.829	114.44
329.058	115.44
329.287	114.44
329.515	118.44
329.744	95.44
329.972	106.44
330.201	117.44
330.43	120.44
330.658	111.44
330.887	124.44
331.115	120.44
331.344	92.44
331.572	86.44
331.801	93.44
332.03	96.44
332.258	92.44
332.486	80.44
332.715	87.44
332.943	95.44
333.172	86.44
333.4	94.44
333.629	99.44
333.857	106.44
334.085	111.44
334.314	121.44
334.542	117.44
334.771	125.44
334.999	89.44
335.227	101.44
335.455	101.44
335.684	96.44
335.912	82.44
336.14	85.44
336.369	94.44
336.597	89.44
336.825	74.44
337.053	86.44
337.281	80.44
337.51	79.44
337.738	100.44
337.966	98.44
338.194	96.44
338.422	96.44
338.65	97.44
338.878	93.44
339.106	84.44
339.334	92.44
339.562	97.44
339.79	88.44
340.018	86.44
340.246	94.44
340.474	78.44
340.702	84.44
340.93	91.44
341.158	101.44
341.386	90.44
341.614	88.44
341.842	88.44
342.07	92.44
342.298	92.44
342.526	107.44
342.754	77.44
342.981	91.44
343.209	97.44
343.437	102.44
343.665	67.44
343.893	79.44
344.12	95.44
344.348	79.44
344.576	90.44
344.804	97.44
345.031	98.44
345.259	96.44
345.487	93.44
345.714	90.44
345.942	78.44
346.17	82.44
346.397	85.44
346.625	81.44
346.853	104.44
347.08	94.44
347.308	86.44
347.535	96.44
347.763	96.44
347.99	84.44
348.218	91.44
348.445	84.44
348.673	100.44
348.9	94.44
349.128	95.44
349.355	78.44
349.583	83.44
349.81	95.44
350.037	92.44
350.265	90.44
350.492	90.44
350.72	84.44
350.947	93.44
351.174	102.44
351.402	96.44
351.629	111.44
351.856	87.44
352.083	97.44
352.311	106.44
352.538	90.44
352.765	114.44
352.992	91.44
353.22	115.44
353.447	103.44
353.674	85.44
353.901	89.44
354.128	96.44
354.355	85.44
354.583	99.44
354.81	101.44
355.037	99.44
355.264	84.44
355.491	100.44
355.718	77.44
355.945	90.44
356.172	81.44
356.399	83.44
356.626	92.44
356.853	87.44
357.08	93.44
357.307	92.44
357.534	84.44
357.761	85.44
357.988	95.44
358.215	90.44
358.441	82.44
358.668	88.44
358.895	85.44
359.122	82.44
359.349	89.44
359.576	82.44
359.802	94.44
360.029	107.44
360.256	92.44
360.483	101.44
360.709	86.44
360.936	81.44
361.163	101.44
361.39	105.44
361.616	69.44
361.843	88.44
362.07	94.44
362.296	86.44
362.523	91.44
362.749	86.44
362.976	93.44
363.203	84.44
363.429	82.44
363.656	90.44
363.882	98.44
364.109	95.44
364.335	101.44
364.562	83.44
364.788	88.44
365.015	93.44
365.241	83.44
365.468	106.44
365.694	106.44
365.92	89.44
366.147	88.44
366.373	104.44
366.599	85.44
366.826	94.44
367.052	82.44
367.278	91.44
367.505	91.44
367.731	85.44
367.957	88.44
368.184	86.44
368.41	98.44
368.636	102.44
368.862	115.44
369.089	104.44
369.315	81.44
369.541	93.44
369.767	91.44
369.993	90.44
370.219	97.44
370.445	87.44
370.672	72.44
370.898	88.44
371.124	85.44
371.35	76.44
371.576	70.44
371.802	73.44
372.028	82.44
372.254	87.44
372.48	94.44
372.706	83.44
372.932	84.44
373.158	82.44
373.384	83.44
373.61	93.44
373.835	82.44
374.061	102.44
374.287	95.44
374.513	84.44
374.739	93.44
374.965	88.44
375.191	73.44
375.416	78.44
375.642	88.44
375.868	86.44
376.094	77.44
376.319	89.44
376.545	73.44
376.771	101.44
376.997	85.44
377.222	76.44
377.448	72.44
377.674	94.44
377.899	88.44
378.125	98.44
378.35	92.44
378.576	86.44
378.802	92.44
379.027	90.44
379.253	81.44
379.478	77.44
379.704	93.44
379.929	88.44
380.155	105.44
380.38	91.44
380.606	87.44
380.831	88.44
381.057	90.44
381.282	78.44
381.507	85.44
381.733	87.44
381.958	94.44
382.184	82.44
382.409	92.44
382.634	88.44
382.86	94.44
383.085	86.44
383.31	106.44
383.535	109.44
383.761	94.44
383.986	84.44
384.211	83.44
384.436	87.44
384.662	86.44
384.887	80.44
385.112	99.44
385.337	93.44
385.562	93.44
385.787	93.44
386.013	106.44
386.238	98.44
386.463	87.44
386.688	120.44
386.913	87.44
387.138	114.44
387.363	99.44
387.588	110.44
387.813	110.44
388.038	87.44
388.263	95.44
388.488	94.44
388.713	99.44
388.938	103.44
389.163	89.44
389.387	83.44
389.612	82.44
389.837	78.44
390.062	85.44
390.287	76.44
390.512	94.44
390.736	110.44
390.961	92.44
391.186	94.44
391.411	90.44
391.636	92.44
391.86	94.44
392.085	83.44
392.31	84.44
392.534	87.44
392.759	81.44
392.984	83.44
393.208	96.44
393.433	72.44
393.658	96.44
393.882	82.44
394.107	88.44
394.331	84.44
394.556	89.44
394.78	89.44
395.005	96.44
395.229	77.44
395.454	68.44
395.678	89.44
395.903	98.44
396.127	80.44
396.352	94.44
396.576	72.44
396.801	89.44
397.025	88.44
397.249	82.44
397.474	106.44
397.698	81.44
397.922	71.44
398.147	79.44
398.371	72.44
398.595	96.44
398.82	86.44
399.044	85.44
399.268	85.44
399.492	79.44
399.717	82.44
399.941	94.44
400.165	86.44
400.389	80.44
400.613	78.44
400.837	88.44
401.062	81.44
401.286	92.44
401.51	93.44
401.734	101.44
401.958	90.44
402.182	115.44
402.406	135.44
402.63	109.44
402.854	77.44
403.078	77.44
403.302	93.44
403.526	88.44
403.75	92.44
403.974	80.44
404.198	81.44
404.422	74.44
404.645	80.44
404.869	81.44
405.093	76.44
405.317	84.44
405.541	98.44
405.765	95.44
405.988	113.44
406.212	164.44
406.436	210.44
406.66	135.44
406.883	99.44
407.107	93.44
407.331	84.44
407.555	77.44
407.778	88.44
408.002	79.44
408.226	82.44
408.449	81.44
408.673	90.44
408.896	89.44
409.12	93.44
409.344	68.44
409.567	90.44
409.791	92.44
410.014	96.44
410.238	96.44
410.461	89.44
410.685	91.44
410.908	88.44
411.132	93.44
411.355	92.44
411.578	83.44
411.802	91.44
412.025	87.44
412.249	79.44
412.472	88.44
412.695	107.44
412.919	85.44
413.142	98.44
413.365	76.44
413.589	85.44
413.812	86.44
414.035	63.44
414.258	78.44
414.482	90.44
414.705	82.44
414.928	93.44
415.151	84.44
415.374	96.44
415.597	93.44
415.821	95.44
416.044	82.44
416.267	78.44
416.49	88.44
416.713	77.44
416.936	79.44
417.159	90.44
417.382	81.44
417.605	93.44
417.828	92.44
418.051	93.44
418.274	76.44
418.497	85.44
418.72	87.44
418.943	84.44
419.166	83.44
419.389	98.44
419.611	71.44
419.834	80.44
420.057	76.44
420.28	73.44
420.503	89.44
420.726	89.44
420.948	72.44
421.171	105.44
421.394	93.44
421.617	91.44
421.839	88.44
422.062	76.44
422.285	90.44
422.507	94.44
422.73	89.44
422.953	90.44
423.175	97.44
423.398	92.44
423.621	84.44
423.843	65.44
424.066	89.44
424.288	88.44
424.511	89.44
424.733	89.44
424.956	119.44
425.178	95.44
425.401	92.44
425.623	96.44
425.846	87.44
426.068	98.44
426.291	84.44
426.513	80.44
426.735	86.44
426.958	96.44
427.18	98.44
427.402	115.44
427.625	153.44
427.847	115.44
428.069	84.44
428.292	88.44
428.514	86.44
428.736	91.44
428.958	85.44
429.181	85.44
429.403	77.44
429.625	75.44
429.847	85.44
430.069	86.44
430.292	98.44
430.514	78.44
430.736	89.44
430.958	80.44
431.18	84.44
431.402	90.44
431.624	72.44
431.846	78.44
432.068	84.44
432.29	70.44
432.512	80.44
432.734	96.44
432.956	97.44
433.178	92.44
433.4	87.44
433.622	104.44
433.844	88.44
434.066	70.44
434.287	76.44
434.509	78.44
434.731	85.44
434.953	83.44
435.175	89.44
435.397	93.44
435.618	90.44
435.84	99.44
436.062	118.44
436.284	112.44
436.505	105.44
436.727	104.44
436.949	92.44
437.17	96.44
437.392	95.44
437.614	91.44
437.835	96.44
438.057	101.44
438.278	85.44
438.5	90.44
438.721	95.44
438.943	90.44
439.165	97.44
439.386	87.44
439.608	87.44
439.829	92.44
440.05	107.44
440.272	134.44
440.493	92.44
440.715	85.44
440.936	85.44
441.158	81.44
441.379	84.44
441.6	72.44
441.822	100.44
442.043	87.44
442.264	85.44
442.486	88.44
442.707	80.44
442.928	104.44
443.149	113.44
443.371	117.44
443.592	85.44
443.813	99.44
444.034	93.44
444.255	82.44
444.476	94.44
444.698	80.44
444.919	58.44
445.14	122.44
445.361	110.44
445.582	104.44
445.803	116.44
446.024	121.44
446.245	102.44
446.466	90.44
446.687	90.44
446.908	88.44
447.129	82.44
447.35	93.44
447.571	80.44
447.792	83.44
448.013	98.44
448.234	98.44
448.455	95.44
448.675	91.44
448.896	105.44
449.117	96.44
449.338	111.44
449.559	111.44
449.779	119.44
450	96.44
450.221	80.44
450.442	98.44
450.662	100.44
450.883	109.44
451.104	100.44
451.324	85.44
451.545	86.44
451.766	72.44
451.986	78.44
452.207	77.44
452.428	89.44
452.648	84.44
452.869	101.44
453.089	97.44
453.31	114.44
453.53	76.44
453.751	86.44
453.971	98.44
454.192	104.44
454.412	78.44
454.633	68.44
454.853	80.44
455.073	103.44
455.294	96.44
455.514	90.44
455.734	86.44
455.955	88.44
456.175	78.44
456.395	85.44
456.616	80.44
456.836	76.44
457.056	69.44
457.276	75.44
457.497	70.44
457.717	83.44
457.937	99.44
458.157	85.44
458.377	88.44
458.598	106.44
458.818	130.44
459.038	137.44
459.258	104.44
459.478	91.44
459.698	70.44
459.918	72.44
460.138	81.44
460.358	86.44
460.578	79.44
460.798	73.44
461.018	74.44
461.238	89.44
461.458	78.44
461.678	91.44
461.898	89.44
462.118	83.44
462.338	78.44
462.558	78.44
462.777	76.44
462.997	78.44
463.217	90.44
463.437	78.44
463.657	88.44
463.876	79.44
464.096	87.44
464.316	74.44
464.536	80.44
464.755	79.44
464.975	92.44
465.195	146.44
465.414	122.44
465.634	87.44
465.854	82.44
466.073	89.44
466.293	68.44
466.512	73.44
466.732	90.44
466.951	91.44
467.171	68.44
467.391	100.44
467.61	96.44
467.829	93.44
468.049	108.44
468.268	93.44
468.488	81.44
468.707	82.44
468.927	86.44
469.146	66.44
469.365	82.44
469.585	86.44
469.804	99.44
470.023	92.44
470.243	92.44
470.462	96.44
470.681	94.44
470.901	84.44
471.12	70.44
471.339	79.44
471.558	95.44
471.777	71.44
471.997	91.44
472.216	99.44
472.435	134.44
472.654	93.44
472.873	72.44
473.092	76.44
473.311	88.44
473.53	78.44
473.749	78.44
473.968	81.44
474.187	89.44
474.406	73.44
474.625	96.44
474.844	90.44
475.063	81.44
475.282	90.44
475.501	96.44
475.72	98.44
475.939	54.44
476.158	81.44
476.377	96.44
476.596	71.44
476.814	81.44
477.033	88.44
477.252	87.44
477.471	84.44
477.69	97.44
477.908	91.44
478.127	77.44
478.346	92.44
478.564	78.44
478.783	86.44
479.002	78.44
479.22	96.44
479.439	90.44
479.658	92.44
479.876	87.44
480.095	90.44
480.313	93.44
480.532	86.44
480.751	97.44
480.969	110.44
481.188	194.44
481.406	149.44
481.624	95.44
481.843	99.44
482.061	86.44
482.28	83.44
482.498	73.44
482.717	84.44
482.935	88.44
483.153	83.44
483.372	87.44
483.59	82.44
483.808	84.44
484.027	82.44
484.245	99.44
484.463	76.44
484.681	89.44
484.9	92.44
485.118	84.44
485.336	91.44
485.554	97.44
485.772	84.44
485.99	100.44
486.209	78.44
486.427	103.44
486.645	111.44
486.863	95.44
487.081	99.44
487.299	88.44
487.517	94.44
487.735	76.44
487.953	88.44
488.171	104.44
488.389	80.44
488.607	89.44
488.825	101.44
489.043	82.44
489.261	90.44
489.479	83.44
489.696	81.44
489.914	79.44
490.132	92.44
490.35	84.44
490.568	85.44
490.786	89.44
491.003	88.44
491.221	84.44
491.439	94.44
491.657	88.44
491.874	76.44
492.092	82.44
492.31	93.44
492.527	84.44
492.745	85.44
492.963	88.44
493.18	84.44
493.398	87.44
493.615	85.44
493.833	97.44
494.05	87.44
494.268	74.44
494.485	88.44
494.703	74.44
494.92	90.44
495.138	70.44
495.355	99.44
495.573	97.44
495.79	96.44
496.008	90.44
496.225	89.44
496.442	94.44
496.66	93.44
496.877	84.44
497.094	75.44
497.312	84.44
497.529	92.44
497.746	101.44
497.963	81.44
498.181	84.44
498.398	92.44
498.615	109.44
498.832	104.44
499.049	69.44
499.267	90.44
499.484	85.44
499.701	89.44
499.918	84.44
500.135	80.44
500.352	96.44
500.569	87.44
500.786	84.44
501.003	91.44
501.22	98.44
501.437	85.44
501.654	98.44
501.871	108.44
502.088	94.44
502.305	89.44
502.522	90.44
502.739	84.44
502.956	87.44
503.172	92.44
503.389	75.44
503.606	83.44
503.823	90.44
504.04	80.44
504.256	96.44
504.473	95.44
504.69	86.44
504.907	92.44
505.123	92.44
505.34	83.44
505.557	96.44
505.773	88.44
505.99	100.44
506.207	93.44
506.423	80.44
506.64	71.44
506.856	81.44
507.073	90.44
507.289	79.44
507.506	93.44
507.722	106.44
507.939	112.44
508.155	88.44
508.372	87.44
508.588	88.44
508.805	90.44
509.021	97.44
509.238	85.44
509.454	109.44
509.67	93.44
509.887	100.44
510.103	129.44
510.319	210.44
510.536	715.44
510.752	2138.44
510.968	590.44
511.184	133.44
511.401	94.44
511.617	93.44
511.833	77.44
512.049	98.44
512.265	81.44
512.481	97.44
512.698	89.44
512.914	86.44
513.13	93.44
513.346	101.44
513.562	89.44
513.778	93.44
513.994	77.44
514.21	95.44
514.426	109.44
514.642	128.44
514.858	126.44
515.074	160.44
515.29	384.44
515.506	1295.44
515.721	465.44
515.937	134.44
516.153	102.44
516.369	109.44
516.585	102.44
516.801	84.44
517.016	88.44
517.232	92.44
517.448	81.44
