Data from Uncirc_1983_H10_HRD10591_00026.txt Node
Date: Wed Jan 03 12:25:37 EST 2024
User: Yrep
Spectrometer: HR+D1059
Trigger mode: 1
Integration Time (sec): 1.000000E-1
Scans to average: 1
Electric dark correction enabled: true
Nonlinearity correction enabled: false
Boxcar width: 0
XAxis mode: Wavelengths
Number of Pixels in Spectrum: 2048
>>>>>Begin Spectral Data<<<<<
223.165	-23.38
223.4	-23.38
223.635	-23.38
223.869	-21.38
224.104	-38.38
224.338	-12.38
224.573	-23.38
224.808	-13.38
225.042	-8.38
225.277	2.62
225.511	12.62
225.746	2.62
225.98	0.62
226.215	7.62
226.449	25.62
226.683	27.62
226.918	26.62
227.152	34.62
227.387	31.62
227.621	34.62
227.856	42.62
228.09	28.62
228.324	31.62
228.559	45.62
228.793	50.62
229.027	37.62
229.262	55.62
229.496	58.62
229.73	80.62
229.964	87.62
230.199	70.62
230.433	84.62
230.667	67.62
230.901	66.62
231.136	81.62
231.37	81.62
231.604	76.62
231.838	81.62
232.072	70.62
232.306	86.62
232.541	77.62
232.775	74.62
233.009	78.62
233.243	89.62
233.477	80.62
233.711	90.62
233.945	76.62
234.179	65.62
234.413	68.62
234.647	82.62
234.881	88.62
235.115	88.62
235.349	88.62
235.583	82.62
235.817	72.62
236.051	78.62
236.285	76.62
236.519	78.62
236.753	70.62
236.987	87.62
237.221	95.62
237.455	76.62
237.689	69.62
237.922	66.62
238.156	47.62
238.39	74.62
238.624	63.62
238.858	74.62
239.091	75.62
239.325	76.62
239.559	80.62
239.793	87.62
240.027	85.62
240.26	84.62
240.494	72.62
240.728	61.62
240.961	78.62
241.195	75.62
241.429	63.62
241.662	74.62
241.896	72.62
242.13	72.62
242.363	74.62
242.597	66.62
242.83	71.62
243.064	76.62
243.298	80.62
243.531	82.62
243.765	75.62
243.998	74.62
244.232	67.62
244.465	70.62
244.699	79.62
244.932	64.62
245.166	80.62
245.399	86.62
245.633	79.62
245.866	85.62
246.099	78.62
246.333	87.62
246.566	67.62
246.8	69.62
247.033	72.62
247.266	80.62
247.5	78.62
247.733	74.62
247.966	88.62
248.2	76.62
248.433	82.62
248.666	70.62
248.899	76.62
249.133	72.62
249.366	92.62
249.599	74.62
249.832	82.62
250.066	92.62
250.299	81.62
250.532	83.62
250.765	87.62
250.998	74.62
251.231	80.62
251.465	91.62
251.698	92.62
251.931	76.62
252.164	81.62
252.397	75.62
252.63	73.62
252.863	82.62
253.096	80.62
253.329	85.62
253.562	86.62
253.795	80.62
254.028	71.62
254.261	84.62
254.494	83.62
254.727	79.62
254.96	72.62
255.193	92.62
255.426	79.62
255.659	79.62
255.892	70.62
256.124	83.62
256.357	75.62
256.59	82.62
256.823	88.62
257.056	81.62
257.289	86.62
257.521	80.62
257.754	75.62
257.987	92.62
258.22	83.62
258.452	97.62
258.685	80.62
258.918	86.62
259.151	75.62
259.383	77.62
259.616	73.62
259.849	70.62
260.081	85.62
260.314	91.62
260.547	82.62
260.779	91.62
261.012	67.62
261.244	66.62
261.477	93.62
261.71	96.62
261.942	106.62
262.175	111.62
262.407	84.62
262.64	73.62
262.872	92.62
263.105	74.62
263.337	68.62
263.57	68.62
263.802	84.62
264.035	86.62
264.267	71.62
264.499	75.62
264.732	69.62
264.964	86.62
265.197	73.62
265.429	78.62
265.661	78.62
265.894	85.62
266.126	79.62
266.358	68.62
266.591	87.62
266.823	72.62
267.055	67.62
267.287	78.62
267.52	74.62
267.752	91.62
267.984	94.62
268.216	90.62
268.448	90.62
268.681	77.62
268.913	78.62
269.145	79.62
269.377	79.62
269.609	80.62
269.841	88.62
270.073	97.62
270.306	81.62
270.538	86.62
270.77	96.62
271.002	81.62
271.234	76.62
271.466	85.62
271.698	70.62
271.93	68.62
272.162	85.62
272.394	81.62
272.626	79.62
272.858	76.62
273.09	76.62
273.322	74.62
273.553	90.62
273.785	80.62
274.017	90.62
274.249	87.62
274.481	81.62
274.713	80.62
274.945	90.62
275.176	80.62
275.408	96.62
275.64	87.62
275.872	87.62
276.104	94.62
276.335	85.62
276.567	88.62
276.799	97.62
277.031	111.62
277.262	90.62
277.494	101.62
277.726	80.62
277.957	89.62
278.189	84.62
278.421	84.62
278.652	81.62
278.884	92.62
279.115	87.62
279.347	81.62
279.579	82.62
279.81	82.62
280.042	83.62
280.273	87.62
280.505	85.62
280.736	93.62
280.968	76.62
281.199	93.62
281.431	89.62
281.662	82.62
281.894	98.62
282.125	95.62
282.356	100.62
282.588	119.62
282.819	105.62
283.051	91.62
283.282	88.62
283.513	90.62
283.745	79.62
283.976	82.62
284.207	86.62
284.439	83.62
284.67	83.62
284.901	94.62
285.132	88.62
285.364	79.62
285.595	81.62
285.826	78.62
286.057	92.62
286.288	95.62
286.52	80.62
286.751	84.62
286.982	77.62
287.213	64.62
287.444	87.62
287.675	73.62
287.906	78.62
288.138	85.62
288.369	104.62
288.6	95.62
288.831	94.62
289.062	70.62
289.293	84.62
289.524	84.62
289.755	85.62
289.986	83.62
290.217	86.62
290.448	78.62
290.679	83.62
290.91	87.62
291.141	90.62
291.371	95.62
291.602	76.62
291.833	83.62
292.064	82.62
292.295	81.62
292.526	87.62
292.757	86.62
292.987	94.62
293.218	89.62
293.449	93.62
293.68	97.62
293.91	72.62
294.141	86.62
294.372	88.62
294.603	88.62
294.833	96.62
295.064	82.62
295.295	90.62
295.525	105.62
295.756	90.62
295.987	95.62
296.217	108.62
296.448	121.62
296.679	88.62
296.909	100.62
297.14	96.62
297.37	89.62
297.601	80.62
297.831	77.62
298.062	88.62
298.292	96.62
298.523	98.62
298.753	94.62
298.984	96.62
299.214	89.62
299.445	83.62
299.675	102.62
299.905	88.62
300.136	78.62
300.366	96.62
300.597	90.62
300.827	94.62
301.057	91.62
301.288	97.62
301.518	88.62
301.748	93.62
301.979	110.62
302.209	85.62
302.439	85.62
302.669	89.62
302.9	92.62
303.13	95.62
303.36	91.62
303.59	94.62
303.82	95.62
304.051	97.62
304.281	77.62
304.511	97.62
304.741	88.62
304.971	96.62
305.201	87.62
305.431	78.62
305.661	72.62
305.891	70.62
306.121	94.62
306.352	89.62
306.582	100.62
306.812	82.62
307.042	91.62
307.272	85.62
307.502	87.62
307.731	89.62
307.961	85.62
308.191	71.62
308.421	83.62
308.651	90.62
308.881	80.62
309.111	89.62
309.341	101.62
309.571	91.62
309.8	84.62
310.03	97.62
310.26	83.62
310.49	81.62
310.72	102.62
310.949	86.62
311.179	104.62
311.409	94.62
311.639	103.62
311.868	101.62
312.098	108.62
312.328	86.62
312.557	92.62
312.787	96.62
313.017	89.62
313.246	88.62
313.476	74.62
313.706	91.62
313.935	100.62
314.165	94.62
314.394	99.62
314.624	106.62
314.853	79.62
315.083	87.62
315.312	78.62
315.542	96.62
315.771	73.62
316.001	90.62
316.23	89.62
316.46	83.62
316.689	94.62
316.919	87.62
317.148	88.62
317.377	89.62
317.607	98.62
317.836	87.62
318.065	82.62
318.295	78.62
318.524	88.62
318.753	80.62
318.983	100.62
319.212	98.62
319.441	105.62
319.67	100.62
319.9	100.62
320.129	83.62
320.358	93.62
320.587	87.62
320.816	101.62
321.046	103.62
321.275	99.62
321.504	91.62
321.733	90.62
321.962	101.62
322.191	87.62
322.42	105.62
322.649	106.62
322.878	120.62
323.108	119.62
323.337	120.62
323.566	126.62
323.795	128.62
324.024	172.62
324.253	329.62
324.482	708.62
324.71	1400.62
324.939	1850.62
325.168	681.62
325.397	224.62
325.626	123.62
325.855	118.62
326.084	121.62
326.313	122.62
326.542	142.62
326.77	206.62
326.999	412.62
327.228	818.62
327.457	1479.62
327.686	1162.62
327.914	326.62
328.143	187.62
328.372	132.62
328.6	114.62
328.829	107.62
329.058	118.62
329.287	129.62
329.515	89.62
329.744	86.62
329.972	96.62
330.201	105.62
330.43	102.62
330.658	114.62
330.887	128.62
331.115	117.62
331.344	101.62
331.572	91.62
331.801	103.62
332.03	87.62
332.258	89.62
332.486	90.62
332.715	85.62
332.943	91.62
333.172	86.62
333.4	103.62
333.629	105.62
333.857	103.62
334.085	90.62
334.314	107.62
334.542	105.62
334.771	91.62
334.999	87.62
335.227	87.62
335.455	101.62
335.684	88.62
335.912	84.62
336.14	98.62
336.369	98.62
336.597	98.62
336.825	85.62
337.053	94.62
337.281	109.62
337.51	92.62
337.738	99.62
337.966	92.62
338.194	99.62
338.422	98.62
338.65	98.62
338.878	89.62
339.106	92.62
339.334	82.62
339.562	88.62
339.79	95.62
340.018	78.62
340.246	85.62
340.474	100.62
340.702	86.62
340.93	84.62
341.158	101.62
341.386	100.62
341.614	87.62
341.842	101.62
342.07	88.62
342.298	84.62
342.526	88.62
342.754	77.62
342.981	79.62
343.209	87.62
343.437	97.62
343.665	80.62
343.893	94.62
344.12	92.62
344.348	95.62
344.576	82.62
344.804	104.62
345.031	89.62
345.259	87.62
345.487	104.62
345.714	105.62
345.942	92.62
346.17	112.62
346.397	86.62
346.625	96.62
346.853	101.62
347.08	86.62
347.308	92.62
347.535	97.62
347.763	82.62
347.99	100.62
348.218	116.62
348.445	107.62
348.673	99.62
348.9	98.62
349.128	97.62
349.355	93.62
349.583	86.62
349.81	86.62
350.037	105.62
350.265	92.62
350.492	88.62
350.72	91.62
350.947	108.62
351.174	108.62
351.402	111.62
351.629	103.62
351.856	103.62
352.083	95.62
352.311	101.62
352.538	98.62
352.765	114.62
352.992	108.62
353.22	111.62
353.447	94.62
353.674	95.62
353.901	85.62
354.128	72.62
354.355	95.62
354.583	110.62
354.81	102.62
355.037	102.62
355.264	96.62
355.491	90.62
355.718	96.62
355.945	84.62
356.172	87.62
356.399	91.62
356.626	87.62
356.853	83.62
357.08	94.62
357.307	87.62
357.534	93.62
357.761	99.62
357.988	93.62
358.215	107.62
358.441	80.62
358.668	94.62
358.895	79.62
359.122	83.62
359.349	81.62
359.576	93.62
359.802	92.62
360.029	105.62
360.256	94.62
360.483	87.62
360.709	72.62
360.936	91.62
361.163	73.62
361.39	88.62
361.616	80.62
361.843	96.62
362.07	95.62
362.296	96.62
362.523	96.62
362.749	97.62
362.976	83.62
363.203	99.62
363.429	83.62
363.656	84.62
363.882	104.62
364.109	78.62
364.335	85.62
364.562	83.62
364.788	96.62
365.015	84.62
365.241	100.62
365.468	110.62
365.694	91.62
365.92	100.62
366.147	93.62
366.373	80.62
366.599	97.62
366.826	78.62
367.052	95.62
367.278	86.62
367.505	85.62
367.731	111.62
367.957	98.62
368.184	96.62
368.41	82.62
368.636	95.62
368.862	104.62
369.089	108.62
369.315	81.62
369.541	98.62
369.767	79.62
369.993	87.62
370.219	75.62
370.445	93.62
370.672	84.62
370.898	93.62
371.124	90.62
371.35	88.62
371.576	99.62
371.802	89.62
372.028	89.62
372.254	91.62
372.48	67.62
372.706	73.62
372.932	88.62
373.158	80.62
373.384	99.62
373.61	86.62
373.835	78.62
374.061	84.62
374.287	98.62
374.513	88.62
374.739	90.62
374.965	89.62
375.191	81.62
375.416	90.62
375.642	86.62
375.868	85.62
376.094	84.62
376.319	70.62
376.545	98.62
376.771	89.62
376.997	102.62
377.222	84.62
377.448	96.62
377.674	77.62
377.899	79.62
378.125	92.62
378.35	87.62
378.576	88.62
378.802	86.62
379.027	103.62
379.253	102.62
379.478	95.62
379.704	95.62
379.929	89.62
380.155	84.62
380.38	82.62
380.606	94.62
380.831	88.62
381.057	103.62
381.282	89.62
381.507	102.62
381.733	89.62
381.958	90.62
382.184	99.62
382.409	104.62
382.634	106.62
382.86	103.62
383.085	116.62
383.31	102.62
383.535	105.62
383.761	98.62
383.986	91.62
384.211	97.62
384.436	111.62
384.662	98.62
384.887	100.62
385.112	105.62
385.337	106.62
385.562	102.62
385.787	112.62
386.013	113.62
386.238	119.62
386.463	111.62
386.688	104.62
386.913	102.62
387.138	91.62
387.363	83.62
387.588	97.62
387.813	111.62
388.038	113.62
388.263	113.62
388.488	112.62
388.713	102.62
388.938	108.62
389.163	96.62
389.387	103.62
389.612	104.62
389.837	84.62
390.062	82.62
390.287	80.62
390.512	89.62
390.736	88.62
390.961	83.62
391.186	93.62
391.411	99.62
391.636	85.62
391.86	98.62
392.085	86.62
392.31	91.62
392.534	72.62
392.759	83.62
392.984	80.62
393.208	94.62
393.433	82.62
393.658	99.62
393.882	86.62
394.107	78.62
394.331	99.62
394.556	81.62
394.78	87.62
395.005	105.62
395.229	88.62
395.454	101.62
395.678	82.62
395.903	93.62
396.127	89.62
396.352	84.62
396.576	88.62
396.801	92.62
397.025	90.62
397.249	71.62
397.474	90.62
397.698	79.62
397.922	82.62
398.147	86.62
398.371	74.62
398.595	80.62
398.82	86.62
399.044	90.62
399.268	104.62
399.492	92.62
399.717	90.62
399.941	99.62
400.165	73.62
400.389	90.62
400.613	80.62
400.837	91.62
401.062	86.62
401.286	80.62
401.51	94.62
401.734	91.62
401.958	98.62
402.182	126.62
402.406	141.62
402.63	114.62
402.854	92.62
403.078	76.62
403.302	72.62
403.526	86.62
403.75	83.62
403.974	82.62
404.198	72.62
404.422	82.62
404.645	86.62
404.869	89.62
405.093	84.62
405.317	86.62
405.541	99.62
405.765	95.62
405.988	102.62
406.212	157.62
406.436	190.62
406.66	127.62
406.883	98.62
407.107	83.62
407.331	76.62
407.555	83.62
407.778	90.62
408.002	73.62
408.226	94.62
408.449	91.62
408.673	90.62
408.896	84.62
409.12	84.62
409.344	92.62
409.567	74.62
409.791	79.62
410.014	88.62
410.238	96.62
410.461	96.62
410.685	82.62
410.908	79.62
411.132	99.62
411.355	102.62
411.578	90.62
411.802	88.62
412.025	88.62
412.249	89.62
412.472	73.62
412.695	94.62
412.919	102.62
413.142	84.62
413.365	86.62
413.589	82.62
413.812	83.62
414.035	95.62
414.258	90.62
414.482	90.62
414.705	89.62
414.928	95.62
415.151	90.62
415.374	103.62
415.597	83.62
415.821	88.62
416.044	84.62
416.267	84.62
416.49	85.62
416.713	90.62
416.936	98.62
417.159	86.62
417.382	97.62
417.605	86.62
417.828	86.62
418.051	85.62
418.274	96.62
418.497	67.62
418.72	97.62
418.943	93.62
419.166	82.62
419.389	79.62
419.611	86.62
419.834	87.62
420.057	88.62
420.28	77.62
420.503	93.62
420.726	81.62
420.948	76.62
421.171	86.62
421.394	79.62
421.617	91.62
421.839	86.62
422.062	73.62
422.285	74.62
422.507	91.62
422.73	101.62
422.953	88.62
423.175	82.62
423.398	71.62
423.621	86.62
423.843	93.62
424.066	84.62
424.288	86.62
424.511	75.62
424.733	96.62
424.956	85.62
425.178	82.62
425.401	90.62
425.623	97.62
425.846	78.62
426.068	107.62
426.291	96.62
426.513	90.62
426.735	88.62
426.958	85.62
427.18	98.62
427.402	116.62
427.625	137.62
427.847	119.62
428.069	100.62
428.292	102.62
428.514	97.62
428.736	93.62
428.958	84.62
429.181	82.62
429.403	82.62
429.625	88.62
429.847	85.62
430.069	101.62
430.292	96.62
430.514	81.62
430.736	84.62
430.958	87.62
431.18	95.62
431.402	80.62
431.624	88.62
431.846	80.62
432.068	83.62
432.29	91.62
432.512	70.62
432.734	94.62
432.956	86.62
433.178	90.62
433.4	107.62
433.622	98.62
433.844	88.62
434.066	91.62
434.287	93.62
434.509	87.62
434.731	96.62
434.953	93.62
435.175	82.62
435.397	100.62
435.618	92.62
435.84	85.62
436.062	109.62
436.284	107.62
436.505	107.62
436.727	104.62
436.949	85.62
437.17	87.62
437.392	72.62
437.614	86.62
437.835	106.62
438.057	103.62
438.278	90.62
438.5	104.62
438.721	113.62
438.943	86.62
439.165	83.62
439.386	93.62
439.608	95.62
439.829	84.62
440.05	123.62
440.272	130.62
440.493	90.62
440.715	90.62
440.936	84.62
441.158	76.62
441.379	90.62
441.6	90.62
441.822	88.62
442.043	87.62
442.264	105.62
442.486	107.62
442.707	93.62
442.928	106.62
443.149	108.62
443.371	119.62
443.592	98.62
443.813	89.62
444.034	92.62
444.255	83.62
444.476	89.62
444.698	92.62
444.919	84.62
445.14	119.62
445.361	121.62
445.582	107.62
445.803	107.62
446.024	113.62
446.245	116.62
446.466	92.62
446.687	88.62
446.908	88.62
447.129	83.62
447.35	81.62
447.571	79.62
447.792	94.62
448.013	108.62
448.234	104.62
448.455	100.62
448.675	89.62
448.896	113.62
449.117	94.62
449.338	89.62
449.559	107.62
449.779	120.62
450	86.62
450.221	92.62
450.442	95.62
450.662	94.62
450.883	93.62
451.104	104.62
451.324	104.62
451.545	88.62
451.766	79.62
451.986	99.62
452.207	92.62
452.428	85.62
452.648	85.62
452.869	104.62
453.089	96.62
453.31	92.62
453.53	73.62
453.751	78.62
453.971	87.62
454.192	95.62
454.412	85.62
454.633	90.62
454.853	89.62
455.073	67.62
455.294	82.62
455.514	91.62
455.734	86.62
455.955	84.62
456.175	87.62
456.395	75.62
456.616	92.62
456.836	76.62
457.056	93.62
457.276	72.62
457.497	90.62
457.717	88.62
457.937	91.62
458.157	93.62
458.377	78.62
458.598	84.62
458.818	132.62
459.038	118.62
459.258	93.62
459.478	90.62
459.698	87.62
459.918	76.62
460.138	98.62
460.358	68.62
460.578	95.62
460.798	84.62
461.018	94.62
461.238	93.62
461.458	82.62
461.678	71.62
461.898	84.62
462.118	94.62
462.338	91.62
462.558	83.62
462.777	78.62
462.997	92.62
463.217	89.62
463.437	90.62
463.657	88.62
463.876	91.62
464.096	100.62
464.316	88.62
464.536	85.62
464.755	90.62
464.975	84.62
465.195	125.62
465.414	135.62
465.634	86.62
465.854	86.62
466.073	99.62
466.293	82.62
466.512	97.62
466.732	78.62
466.951	92.62
467.171	78.62
467.391	92.62
467.61	102.62
467.829	76.62
468.049	97.62
468.268	91.62
468.488	87.62
468.707	92.62
468.927	75.62
469.146	86.62
469.365	81.62
469.585	88.62
469.804	87.62
470.023	100.62
470.243	68.62
470.462	91.62
470.681	119.62
470.901	87.62
471.12	92.62
471.339	90.62
471.558	79.62
471.777	78.62
471.997	85.62
472.216	99.62
472.435	83.62
472.654	84.62
472.873	92.62
473.092	98.62
473.311	89.62
473.53	85.62
473.749	93.62
473.968	91.62
474.187	101.62
474.406	84.62
474.625	88.62
474.844	85.62
475.063	98.62
475.282	97.62
475.501	91.62
475.72	88.62
475.939	82.62
476.158	98.62
476.377	71.62
476.596	85.62
476.814	83.62
477.033	103.62
477.252	89.62
477.471	85.62
477.69	79.62
477.908	83.62
478.127	94.62
478.346	97.62
478.564	93.62
478.783	105.62
479.002	91.62
479.22	87.62
479.439	92.62
479.658	102.62
479.876	87.62
480.095	73.62
480.313	97.62
480.532	78.62
480.751	75.62
480.969	96.62
481.188	118.62
481.406	107.62
481.624	87.62
481.843	80.62
482.061	87.62
482.28	87.62
482.498	102.62
482.717	97.62
482.935	80.62
483.153	82.62
483.372	96.62
483.59	95.62
483.808	91.62
484.027	87.62
484.245	105.62
484.463	80.62
484.681	91.62
484.9	84.62
485.118	92.62
485.336	91.62
485.554	90.62
485.772	94.62
485.99	104.62
486.209	97.62
486.427	99.62
486.645	101.62
486.863	105.62
487.081	87.62
487.299	76.62
487.517	99.62
487.735	86.62
487.953	101.62
488.171	90.62
488.389	96.62
488.607	103.62
488.825	102.62
489.043	102.62
489.261	98.62
489.479	95.62
489.696	87.62
489.914	91.62
490.132	84.62
490.35	95.62
490.568	85.62
490.786	108.62
491.003	95.62
491.221	94.62
491.439	95.62
491.657	89.62
491.874	94.62
492.092	97.62
492.31	87.62
492.527	88.62
492.745	87.62
492.963	82.62
493.18	92.62
493.398	98.62
493.615	89.62
493.833	91.62
494.05	82.62
494.268	92.62
494.485	91.62
494.703	91.62
494.92	85.62
495.138	99.62
495.355	90.62
495.573	99.62
495.79	69.62
496.008	89.62
496.225	89.62
496.442	86.62
496.66	102.62
496.877	82.62
497.094	96.62
497.312	94.62
497.529	83.62
497.746	91.62
497.963	96.62
498.181	94.62
498.398	86.62
498.615	113.62
498.832	107.62
499.049	88.62
499.267	96.62
499.484	73.62
499.701	98.62
499.918	90.62
500.135	84.62
500.352	83.62
500.569	82.62
500.786	84.62
501.003	92.62
501.22	88.62
501.437	82.62
501.654	87.62
501.871	98.62
502.088	90.62
502.305	92.62
502.522	90.62
502.739	83.62
502.956	102.62
503.172	105.62
503.389	85.62
503.606	97.62
503.823	90.62
504.04	90.62
504.256	91.62
504.473	93.62
504.69	88.62
504.907	109.62
505.123	89.62
505.34	76.62
505.557	78.62
505.773	91.62
505.99	94.62
506.207	102.62
506.423	91.62
506.64	86.62
506.856	96.62
507.073	87.62
507.289	85.62
507.506	98.62
507.722	94.62
507.939	103.62
508.155	99.62
508.372	95.62
508.588	105.62
508.805	75.62
509.021	100.62
509.238	96.62
509.454	94.62
509.67	100.62
509.887	99.62
510.103	123.62
510.319	192.62
510.536	658.62
510.752	1959.62
510.968	548.62
511.184	142.62
511.401	103.62
511.617	98.62
511.833	86.62
512.049	89.62
512.265	80.62
512.481	82.62
512.698	80.62
512.914	87.62
513.13	101.62
513.346	83.62
513.562	98.62
513.778	90.62
513.994	106.62
514.21	104.62
514.426	106.62
514.642	114.62
514.858	111.62
515.074	139.62
515.29	363.62
515.506	1146.62
515.721	411.62
515.937	146.62
516.153	112.62
516.369	106.62
516.585	90.62
