Data from Uncirc_1983_H10_HRD10591_00016.txt Node
Date: Wed Jan 03 12:25:35 EST 2024
User: Yrep
Spectrometer: HR+D1059
Trigger mode: 1
Integration Time (sec): 1.000000E-1
Scans to average: 1
Electric dark correction enabled: true
Nonlinearity correction enabled: false
Boxcar width: 0
XAxis mode: Wavelengths
Number of Pixels in Spectrum: 2048
>>>>>Begin Spectral Data<<<<<
223.165	-25.62
223.4	-25.62
223.635	-25.62
223.869	-21.62
224.104	-21.62
224.338	-26.62
224.573	-11.62
224.808	1.38
225.042	-0.62
225.277	2.38
225.511	-22.62
225.746	-0.62
225.98	8.38
226.215	13.38
226.449	15.38
226.683	18.38
226.918	36.38
227.152	35.38
227.387	50.38
227.621	37.38
227.856	45.38
228.09	35.38
228.324	49.38
228.559	50.38
228.793	63.38
229.027	57.38
229.262	70.38
229.496	68.38
229.73	79.38
229.964	64.38
230.199	75.38
230.433	83.38
230.667	79.38
230.901	83.38
231.136	83.38
231.37	66.38
231.604	91.38
231.838	84.38
232.072	90.38
232.306	89.38
232.541	85.38
232.775	79.38
233.009	75.38
233.243	85.38
233.477	76.38
233.711	85.38
233.945	75.38
234.179	83.38
234.413	83.38
234.647	89.38
234.881	75.38
235.115	81.38
235.349	75.38
235.583	59.38
235.817	77.38
236.051	84.38
236.285	73.38
236.519	71.38
236.753	73.38
236.987	79.38
237.221	76.38
237.455	88.38
237.689	87.38
237.922	88.38
238.156	90.38
238.39	67.38
238.624	79.38
238.858	81.38
239.091	64.38
239.325	81.38
239.559	80.38
239.793	50.38
240.027	84.38
240.26	71.38
240.494	76.38
240.728	79.38
240.961	91.38
241.195	92.38
241.429	87.38
241.662	80.38
241.896	64.38
242.13	81.38
242.363	78.38
242.597	77.38
242.83	81.38
243.064	65.38
243.298	65.38
243.531	65.38
243.765	68.38
243.998	84.38
244.232	79.38
244.465	74.38
244.699	69.38
244.932	85.38
245.166	75.38
245.399	74.38
245.633	93.38
245.866	80.38
246.099	92.38
246.333	64.38
246.566	81.38
246.8	90.38
247.033	82.38
247.266	71.38
247.5	84.38
247.733	82.38
247.966	69.38
248.2	67.38
248.433	68.38
248.666	89.38
248.899	65.38
249.133	80.38
249.366	108.38
249.599	93.38
249.832	89.38
250.066	92.38
250.299	84.38
250.532	83.38
250.765	89.38
250.998	79.38
251.231	81.38
251.465	98.38
251.698	82.38
251.931	77.38
252.164	67.38
252.397	80.38
252.63	76.38
252.863	73.38
253.096	84.38
253.329	74.38
253.562	79.38
253.795	90.38
254.028	78.38
254.261	81.38
254.494	92.38
254.727	83.38
254.96	87.38
255.193	86.38
255.426	86.38
255.659	68.38
255.892	81.38
256.124	76.38
256.357	85.38
256.59	99.38
256.823	76.38
257.056	74.38
257.289	81.38
257.521	75.38
257.754	74.38
257.987	83.38
258.22	75.38
258.452	79.38
258.685	85.38
258.918	79.38
259.151	88.38
259.383	89.38
259.616	85.38
259.849	72.38
260.081	92.38
260.314	89.38
260.547	75.38
260.779	74.38
261.012	83.38
261.244	89.38
261.477	81.38
261.71	79.38
261.942	89.38
262.175	108.38
262.407	95.38
262.64	85.38
262.872	85.38
263.105	84.38
263.337	84.38
263.57	96.38
263.802	79.38
264.035	90.38
264.267	85.38
264.499	97.38
264.732	71.38
264.964	75.38
265.197	78.38
265.429	71.38
265.661	70.38
265.894	88.38
266.126	85.38
266.358	88.38
266.591	79.38
266.823	82.38
267.055	91.38
267.287	88.38
267.52	75.38
267.752	83.38
267.984	95.38
268.216	98.38
268.448	81.38
268.681	76.38
268.913	83.38
269.145	84.38
269.377	70.38
269.609	83.38
269.841	87.38
270.073	97.38
270.306	95.38
270.538	87.38
270.77	68.38
271.002	86.38
271.234	79.38
271.466	87.38
271.698	96.38
271.93	86.38
272.162	81.38
272.394	82.38
272.626	103.38
272.858	95.38
273.09	90.38
273.322	106.38
273.553	94.38
273.785	82.38
274.017	86.38
274.249	87.38
274.481	84.38
274.713	85.38
274.945	94.38
275.176	73.38
275.408	83.38
275.64	96.38
275.872	84.38
276.104	91.38
276.335	101.38
276.567	99.38
276.799	90.38
277.031	87.38
277.262	97.38
277.494	92.38
277.726	91.38
277.957	76.38
278.189	97.38
278.421	100.38
278.652	91.38
278.884	92.38
279.115	82.38
279.347	79.38
279.579	88.38
279.81	83.38
280.042	101.38
280.273	75.38
280.505	82.38
280.736	79.38
280.968	80.38
281.199	102.38
281.431	86.38
281.662	91.38
281.894	92.38
282.125	91.38
282.356	98.38
282.588	135.38
282.819	107.38
283.051	93.38
283.282	95.38
283.513	92.38
283.745	84.38
283.976	83.38
284.207	92.38
284.439	73.38
284.67	93.38
284.901	88.38
285.132	82.38
285.364	86.38
285.595	77.38
285.826	83.38
286.057	92.38
286.288	91.38
286.52	82.38
286.751	85.38
286.982	82.38
287.213	82.38
287.444	80.38
287.675	80.38
287.906	87.38
288.138	100.38
288.369	99.38
288.6	87.38
288.831	80.38
289.062	104.38
289.293	89.38
289.524	85.38
289.755	80.38
289.986	97.38
290.217	92.38
290.448	83.38
290.679	87.38
290.91	99.38
291.141	83.38
291.371	77.38
291.602	76.38
291.833	77.38
292.064	100.38
292.295	93.38
292.526	103.38
292.757	77.38
292.987	82.38
293.218	93.38
293.449	85.38
293.68	103.38
293.91	103.38
294.141	95.38
294.372	99.38
294.603	93.38
294.833	80.38
295.064	83.38
295.295	82.38
295.525	92.38
295.756	84.38
295.987	101.38
296.217	127.38
296.448	118.38
296.679	89.38
296.909	93.38
297.14	82.38
297.37	95.38
297.601	79.38
297.831	77.38
298.062	94.38
298.292	76.38
298.523	95.38
298.753	74.38
298.984	74.38
299.214	80.38
299.445	72.38
299.675	105.38
299.905	83.38
300.136	91.38
300.366	88.38
300.597	94.38
300.827	102.38
301.057	97.38
301.288	93.38
301.518	93.38
301.748	104.38
301.979	94.38
302.209	107.38
302.439	86.38
302.669	92.38
302.9	83.38
303.13	85.38
303.36	86.38
303.59	90.38
303.82	103.38
304.051	79.38
304.281	84.38
304.511	95.38
304.741	104.38
304.971	91.38
305.201	91.38
305.431	84.38
305.661	82.38
305.891	89.38
306.121	83.38
306.352	94.38
306.582	97.38
306.812	88.38
307.042	87.38
307.272	96.38
307.502	83.38
307.731	84.38
307.961	89.38
308.191	88.38
308.421	103.38
308.651	89.38
308.881	94.38
309.111	92.38
309.341	80.38
309.571	105.38
309.8	88.38
310.03	89.38
310.26	102.38
310.49	80.38
310.72	97.38
310.949	92.38
311.179	86.38
311.409	89.38
311.639	85.38
311.868	90.38
312.098	85.38
312.328	89.38
312.557	90.38
312.787	86.38
313.017	87.38
313.246	95.38
313.476	90.38
313.706	86.38
313.935	96.38
314.165	96.38
314.394	100.38
314.624	84.38
314.853	89.38
315.083	95.38
315.312	95.38
315.542	84.38
315.771	77.38
316.001	96.38
316.23	85.38
316.46	88.38
316.689	102.38
316.919	92.38
317.148	76.38
317.377	101.38
317.607	95.38
317.836	88.38
318.065	92.38
318.295	83.38
318.524	91.38
318.753	93.38
318.983	83.38
319.212	91.38
319.441	93.38
319.67	103.38
319.9	83.38
320.129	93.38
320.358	95.38
320.587	94.38
320.816	91.38
321.046	103.38
321.275	95.38
321.504	89.38
321.733	104.38
321.962	89.38
322.191	91.38
322.42	110.38
322.649	102.38
322.878	114.38
323.108	107.38
323.337	114.38
323.566	107.38
323.795	148.38
324.024	163.38
324.253	321.38
324.482	634.38
324.71	1330.38
324.939	1759.38
325.168	651.38
325.397	206.38
325.626	130.38
325.855	122.38
326.084	110.38
326.313	128.38
326.542	140.38
326.77	205.38
326.999	369.38
327.228	777.38
327.457	1358.38
327.686	1101.38
327.914	316.38
328.143	172.38
328.372	134.38
328.6	104.38
328.829	108.38
329.058	116.38
329.287	113.38
329.515	105.38
329.744	108.38
329.972	103.38
330.201	93.38
330.43	109.38
330.658	119.38
330.887	114.38
331.115	116.38
331.344	96.38
331.572	98.38
331.801	99.38
332.03	95.38
332.258	105.38
332.486	88.38
332.715	82.38
332.943	92.38
333.172	91.38
333.4	93.38
333.629	101.38
333.857	96.38
334.085	99.38
334.314	101.38
334.542	83.38
334.771	104.38
334.999	92.38
335.227	99.38
335.455	96.38
335.684	101.38
335.912	99.38
336.14	112.38
336.369	91.38
336.597	99.38
336.825	106.38
337.053	93.38
337.281	102.38
337.51	98.38
337.738	95.38
337.966	92.38
338.194	89.38
338.422	93.38
338.65	85.38
338.878	75.38
339.106	82.38
339.334	95.38
339.562	84.38
339.79	84.38
340.018	91.38
340.246	95.38
340.474	94.38
340.702	90.38
340.93	93.38
341.158	84.38
341.386	85.38
341.614	97.38
341.842	92.38
342.07	83.38
342.298	94.38
342.526	90.38
342.754	82.38
342.981	95.38
343.209	88.38
343.437	91.38
343.665	93.38
343.893	85.38
344.12	87.38
344.348	90.38
344.576	85.38
344.804	88.38
345.031	98.38
345.259	95.38
345.487	104.38
345.714	89.38
345.942	76.38
346.17	90.38
346.397	75.38
346.625	105.38
346.853	93.38
347.08	89.38
347.308	90.38
347.535	97.38
347.763	105.38
347.99	86.38
348.218	95.38
348.445	96.38
348.673	101.38
348.9	83.38
349.128	101.38
349.355	101.38
349.583	106.38
349.81	83.38
350.037	88.38
350.265	99.38
350.492	95.38
350.72	92.38
350.947	96.38
351.174	99.38
351.402	97.38
351.629	100.38
351.856	80.38
352.083	106.38
352.311	92.38
352.538	95.38
352.765	104.38
352.992	100.38
353.22	107.38
353.447	90.38
353.674	85.38
353.901	92.38
354.128	91.38
354.355	101.38
354.583	95.38
354.81	97.38
355.037	99.38
355.264	91.38
355.491	100.38
355.718	93.38
355.945	96.38
356.172	89.38
356.399	99.38
356.626	103.38
356.853	84.38
357.08	90.38
357.307	87.38
357.534	89.38
357.761	103.38
357.988	93.38
358.215	95.38
358.441	109.38
358.668	87.38
358.895	89.38
359.122	87.38
359.349	73.38
359.576	98.38
359.802	105.38
360.029	106.38
360.256	111.38
360.483	75.38
360.709	79.38
360.936	106.38
361.163	106.38
361.39	86.38
361.616	100.38
361.843	91.38
362.07	94.38
362.296	93.38
362.523	94.38
362.749	110.38
362.976	90.38
363.203	89.38
363.429	89.38
363.656	89.38
363.882	90.38
364.109	95.38
364.335	104.38
364.562	104.38
364.788	87.38
365.015	92.38
365.241	76.38
365.468	106.38
365.694	108.38
365.92	95.38
366.147	92.38
366.373	79.38
366.599	83.38
366.826	89.38
367.052	92.38
367.278	98.38
367.505	99.38
367.731	87.38
367.957	100.38
368.184	76.38
368.41	97.38
368.636	92.38
368.862	114.38
369.089	98.38
369.315	93.38
369.541	87.38
369.767	96.38
369.993	96.38
370.219	98.38
370.445	76.38
370.672	86.38
370.898	91.38
371.124	81.38
371.35	87.38
371.576	102.38
371.802	91.38
372.028	89.38
372.254	87.38
372.48	85.38
372.706	100.38
372.932	96.38
373.158	91.38
373.384	101.38
373.61	88.38
373.835	74.38
374.061	89.38
374.287	97.38
374.513	87.38
374.739	76.38
374.965	107.38
375.191	87.38
375.416	93.38
375.642	86.38
375.868	76.38
376.094	84.38
376.319	71.38
376.545	92.38
376.771	105.38
376.997	86.38
377.222	88.38
377.448	91.38
377.674	67.38
377.899	85.38
378.125	97.38
378.35	84.38
378.576	92.38
378.802	95.38
379.027	111.38
379.253	89.38
379.478	100.38
379.704	85.38
379.929	92.38
380.155	88.38
380.38	101.38
380.606	99.38
380.831	106.38
381.057	92.38
381.282	93.38
381.507	96.38
381.733	97.38
381.958	87.38
382.184	91.38
382.409	111.38
382.634	99.38
382.86	91.38
383.085	105.38
383.31	104.38
383.535	96.38
383.761	89.38
383.986	93.38
384.211	99.38
384.436	91.38
384.662	96.38
384.887	97.38
385.112	107.38
385.337	117.38
385.562	104.38
385.787	114.38
386.013	114.38
386.238	113.38
386.463	105.38
386.688	103.38
386.913	110.38
387.138	109.38
387.363	104.38
387.588	104.38
387.813	92.38
388.038	97.38
388.263	114.38
388.488	116.38
388.713	92.38
388.938	108.38
389.163	89.38
389.387	97.38
389.612	95.38
389.837	90.38
390.062	94.38
390.287	95.38
390.512	88.38
390.736	85.38
390.961	90.38
391.186	100.38
391.411	82.38
391.636	95.38
391.86	85.38
392.085	87.38
392.31	73.38
392.534	79.38
392.759	86.38
392.984	82.38
393.208	112.38
393.433	113.38
393.658	99.38
393.882	60.38
394.107	76.38
394.331	72.38
394.556	76.38
394.78	97.38
395.005	85.38
395.229	84.38
395.454	89.38
395.678	93.38
395.903	97.38
396.127	89.38
396.352	98.38
396.576	77.38
396.801	98.38
397.025	100.38
397.249	89.38
397.474	94.38
397.698	83.38
397.922	90.38
398.147	87.38
398.371	83.38
398.595	85.38
398.82	82.38
399.044	82.38
399.268	79.38
399.492	87.38
399.717	80.38
399.941	75.38
400.165	96.38
400.389	90.38
400.613	97.38
400.837	108.38
401.062	85.38
401.286	86.38
401.51	75.38
401.734	95.38
401.958	112.38
402.182	108.38
402.406	132.38
402.63	116.38
402.854	95.38
403.078	76.38
403.302	80.38
403.526	87.38
403.75	79.38
403.974	72.38
404.198	99.38
404.422	91.38
404.645	92.38
404.869	97.38
405.093	88.38
405.317	91.38
405.541	106.38
405.765	95.38
405.988	108.38
406.212	148.38
406.436	183.38
406.66	114.38
406.883	94.38
407.107	82.38
407.331	103.38
407.555	87.38
407.778	99.38
408.002	93.38
408.226	89.38
408.449	81.38
408.673	96.38
408.896	85.38
409.12	95.38
409.344	73.38
409.567	78.38
409.791	91.38
410.014	96.38
410.238	76.38
410.461	95.38
410.685	89.38
410.908	103.38
411.132	95.38
411.355	104.38
411.578	95.38
411.802	86.38
412.025	90.38
412.249	98.38
412.472	97.38
412.695	83.38
412.919	90.38
413.142	80.38
413.365	75.38
413.589	83.38
413.812	77.38
414.035	92.38
414.258	75.38
414.482	87.38
414.705	88.38
414.928	88.38
415.151	103.38
415.374	103.38
415.597	92.38
415.821	93.38
416.044	88.38
416.267	93.38
416.49	87.38
416.713	83.38
416.936	84.38
417.159	90.38
417.382	82.38
417.605	88.38
417.828	95.38
418.051	92.38
418.274	106.38
418.497	82.38
418.72	68.38
418.943	91.38
419.166	82.38
419.389	92.38
419.611	92.38
419.834	80.38
420.057	94.38
420.28	83.38
420.503	91.38
420.726	103.38
420.948	92.38
421.171	106.38
421.394	82.38
421.617	91.38
421.839	69.38
422.062	88.38
422.285	98.38
422.507	107.38
422.73	114.38
422.953	94.38
423.175	96.38
423.398	86.38
423.621	89.38
423.843	88.38
424.066	93.38
424.288	75.38
424.511	90.38
424.733	95.38
424.956	88.38
425.178	87.38
425.401	85.38
425.623	96.38
425.846	85.38
426.068	86.38
426.291	96.38
426.513	84.38
426.735	93.38
426.958	93.38
427.18	108.38
427.402	112.38
427.625	125.38
427.847	101.38
428.069	96.38
428.292	104.38
428.514	95.38
428.736	89.38
428.958	80.38
429.181	92.38
429.403	84.38
429.625	95.38
429.847	83.38
430.069	105.38
430.292	102.38
430.514	89.38
430.736	79.38
430.958	85.38
431.18	96.38
431.402	87.38
431.624	78.38
431.846	79.38
432.068	94.38
432.29	96.38
432.512	92.38
432.734	88.38
432.956	96.38
433.178	89.38
433.4	113.38
433.622	96.38
433.844	95.38
434.066	81.38
434.287	107.38
434.509	87.38
434.731	90.38
434.953	87.38
435.175	76.38
435.397	89.38
435.618	97.38
435.84	105.38
436.062	105.38
436.284	97.38
436.505	95.38
436.727	97.38
436.949	93.38
437.17	79.38
437.392	77.38
437.614	76.38
437.835	104.38
438.057	98.38
438.278	94.38
438.5	102.38
438.721	114.38
438.943	95.38
439.165	86.38
439.386	94.38
439.608	90.38
439.829	92.38
440.05	112.38
440.272	131.38
440.493	97.38
440.715	89.38
440.936	72.38
441.158	96.38
441.379	92.38
441.6	93.38
441.822	99.38
442.043	91.38
442.264	100.38
442.486	103.38
442.707	94.38
442.928	92.38
443.149	116.38
443.371	111.38
443.592	91.38
443.813	102.38
444.034	92.38
444.255	87.38
444.476	93.38
444.698	76.38
444.919	79.38
445.14	113.38
445.361	114.38
445.582	122.38
445.803	116.38
446.024	121.38
446.245	107.38
446.466	99.38
446.687	97.38
446.908	86.38
447.129	96.38
447.35	92.38
447.571	84.38
447.792	88.38
448.013	110.38
448.234	97.38
448.455	92.38
448.675	91.38
448.896	103.38
449.117	89.38
449.338	87.38
449.559	113.38
449.779	134.38
450	91.38
450.221	87.38
450.442	89.38
450.662	102.38
450.883	92.38
451.104	101.38
451.324	90.38
451.545	83.38
451.766	93.38
451.986	90.38
452.207	75.38
452.428	89.38
452.648	91.38
452.869	95.38
453.089	98.38
453.31	112.38
453.53	88.38
453.751	83.38
453.971	100.38
454.192	106.38
454.412	99.38
454.633	90.38
454.853	82.38
455.073	90.38
455.294	94.38
455.514	87.38
455.734	84.38
455.955	85.38
456.175	93.38
456.395	68.38
456.616	72.38
456.836	77.38
457.056	83.38
457.276	84.38
457.497	91.38
457.717	88.38
457.937	79.38
458.157	71.38
458.377	76.38
458.598	95.38
458.818	136.38
459.038	133.38
459.258	129.38
459.478	95.38
459.698	92.38
459.918	99.38
460.138	81.38
460.358	87.38
460.578	75.38
460.798	91.38
461.018	75.38
461.238	85.38
461.458	96.38
461.678	77.38
461.898	77.38
462.118	77.38
462.338	83.38
462.558	85.38
462.777	84.38
462.997	88.38
463.217	86.38
463.437	80.38
463.657	75.38
463.876	81.38
464.096	83.38
464.316	81.38
464.536	74.38
464.755	71.38
464.975	93.38
465.195	141.38
465.414	141.38
465.634	88.38
465.854	71.38
466.073	85.38
466.293	76.38
466.512	92.38
466.732	96.38
466.951	79.38
467.171	104.38
467.391	86.38
467.61	99.38
467.829	86.38
468.049	93.38
468.268	83.38
468.488	98.38
468.707	70.38
468.927	91.38
469.146	97.38
469.365	81.38
469.585	77.38
469.804	81.38
470.023	92.38
470.243	83.38
470.462	93.38
470.681	89.38
470.901	87.38
471.12	91.38
471.339	101.38
471.558	84.38
471.777	87.38
471.997	72.38
472.216	87.38
472.435	75.38
472.654	83.38
472.873	87.38
473.092	81.38
473.311	88.38
473.53	88.38
473.749	93.38
473.968	87.38
474.187	97.38
474.406	86.38
474.625	90.38
474.844	95.38
475.063	103.38
475.282	95.38
475.501	89.38
475.72	96.38
475.939	88.38
476.158	89.38
476.377	87.38
476.596	96.38
476.814	93.38
477.033	99.38
477.252	95.38
477.471	92.38
477.69	77.38
477.908	79.38
478.127	86.38
478.346	88.38
478.564	86.38
478.783	103.38
479.002	86.38
479.22	92.38
479.439	90.38
479.658	104.38
479.876	91.38
480.095	81.38
480.313	91.38
480.532	86.38
480.751	107.38
480.969	88.38
481.188	97.38
481.406	96.38
481.624	89.38
481.843	89.38
482.061	90.38
482.28	74.38
482.498	104.38
482.717	98.38
482.935	89.38
483.153	99.38
483.372	95.38
483.59	97.38
483.808	84.38
484.027	99.38
484.245	89.38
484.463	85.38
484.681	91.38
484.9	79.38
485.118	85.38
485.336	95.38
485.554	89.38
485.772	101.38
485.99	93.38
486.209	103.38
486.427	105.38
486.645	121.38
486.863	117.38
487.081	86.38
487.299	94.38
487.517	89.38
487.735	87.38
487.953	104.38
488.171	89.38
488.389	90.38
488.607	95.38
488.825	101.38
489.043	93.38
489.261	107.38
489.479	88.38
489.696	85.38
489.914	74.38
490.132	89.38
490.35	109.38
490.568	80.38
490.786	92.38
491.003	77.38
491.221	83.38
491.439	89.38
491.657	85.38
491.874	99.38
492.092	87.38
492.31	87.38
492.527	90.38
492.745	82.38
492.963	83.38
493.18	103.38
493.398	84.38
493.615	106.38
493.833	93.38
494.05	86.38
494.268	88.38
494.485	94.38
494.703	88.38
494.92	82.38
495.138	83.38
495.355	87.38
495.573	96.38
495.79	95.38
496.008	97.38
496.225	74.38
496.442	83.38
496.66	99.38
496.877	95.38
497.094	88.38
497.312	96.38
497.529	89.38
497.746	93.38
497.963	96.38
498.181	97.38
498.398	79.38
498.615	104.38
498.832	108.38
499.049	89.38
499.267	100.38
499.484	84.38
499.701	97.38
499.918	89.38
500.135	105.38
500.352	77.38
500.569	85.38
500.786	95.38
501.003	77.38
501.22	95.38
501.437	87.38
501.654	98.38
501.871	111.38
502.088	105.38
502.305	95.38
502.522	90.38
502.739	92.38
502.956	90.38
503.172	91.38
503.389	99.38
503.606	101.38
503.823	87.38
504.04	97.38
504.256	97.38
504.473	92.38
504.69	89.38
504.907	90.38
505.123	84.38
505.34	98.38
505.557	88.38
505.773	83.38
505.99	90.38
506.207	93.38
506.423	78.38
506.64	85.38
506.856	96.38
507.073	86.38
507.289	81.38
507.506	85.38
507.722	109.38
507.939	114.38
508.155	96.38
508.372	91.38
508.588	95.38
508.805	81.38
509.021	95.38
509.238	102.38
509.454	99.38
509.67	108.38
509.887	100.38
510.103	119.38
510.319	203.38
510.536	611.38
510.752	1880.38
510.968	499.38
511.184	145.38
511.401	93.38
511.617	80.38
511.833	99.38
512.049	87.38
512.265	89.38
512.481	73.38
512.698	92.38
512.914	106.38
513.13	85.38
513.346	89.38
513.562	104.38
513.778	97.38
513.994	77.38
514.21	100.38
514.426	116.38
514.642	108.38
514.858	102.38
515.074	133.38
515.29	351.38
515.506	1106.38
515.721	428.38
515.937	140.38
516.153	95.38
516.369	92.38
516.585	101.38
