Data from Uncirc_1983_H10_HRD10591_00070.txt Node
Date: Wed Jan 03 12:25:46 EST 2024
User: Yrep
Spectrometer: HR+D1059
Trigger mode: 1
Integration Time (sec): 1.000000E-1
Scans to average: 1
Electric dark correction enabled: true
Nonlinearity correction enabled: false
Boxcar width: 0
XAxis mode: Wavelengths
Number of Pixels in Spectrum: 2048
>>>>>Begin Spectral Data<<<<<
223.165	-19.5
223.4	-19.5
223.635	-19.5
223.869	-8.5
224.104	-23.5
224.338	-15.5
224.573	-16.5
224.808	-24.5
225.042	-24.5
225.277	-1.5
225.511	-2.5
225.746	8.5
225.98	-2.5
226.215	9.5
226.449	24.5
226.683	30.5
226.918	33.5
227.152	32.5
227.387	20.5
227.621	36.5
227.856	39.5
228.09	40.5
228.324	40.5
228.559	64.5
228.793	52.5
229.027	59.5
229.262	55.5
229.496	72.5
229.73	88.5
229.964	86.5
230.199	83.5
230.433	73.5
230.667	65.5
230.901	69.5
231.136	79.5
231.37	68.5
231.604	79.5
231.838	84.5
232.072	89.5
232.306	83.5
232.541	84.5
232.775	72.5
233.009	57.5
233.243	73.5
233.477	75.5
233.711	84.5
233.945	76.5
234.179	81.5
234.413	80.5
234.647	76.5
234.881	81.5
235.115	85.5
235.349	83.5
235.583	73.5
235.817	77.5
236.051	78.5
236.285	81.5
236.519	64.5
236.753	98.5
236.987	69.5
237.221	85.5
237.455	98.5
237.689	93.5
237.922	79.5
238.156	80.5
238.39	57.5
238.624	81.5
238.858	73.5
239.091	79.5
239.325	71.5
239.559	93.5
239.793	82.5
240.027	80.5
240.26	81.5
240.494	75.5
240.728	70.5
240.961	85.5
241.195	75.5
241.429	82.5
241.662	76.5
241.896	76.5
242.13	75.5
242.363	84.5
242.597	80.5
242.83	65.5
243.064	66.5
243.298	74.5
243.531	68.5
243.765	64.5
243.998	57.5
244.232	95.5
244.465	92.5
244.699	73.5
244.932	81.5
245.166	74.5
245.399	85.5
245.633	91.5
245.866	92.5
246.099	73.5
246.333	75.5
246.566	70.5
246.8	75.5
247.033	73.5
247.266	79.5
247.5	77.5
247.733	69.5
247.966	82.5
248.2	57.5
248.433	79.5
248.666	76.5
248.899	75.5
249.133	73.5
249.366	99.5
249.599	93.5
249.832	99.5
250.066	82.5
250.299	84.5
250.532	69.5
250.765	82.5
250.998	92.5
251.231	89.5
251.465	88.5
251.698	77.5
251.931	69.5
252.164	85.5
252.397	85.5
252.63	81.5
252.863	73.5
253.096	85.5
253.329	89.5
253.562	82.5
253.795	94.5
254.028	70.5
254.261	88.5
254.494	83.5
254.727	80.5
254.96	73.5
255.193	81.5
255.426	67.5
255.659	63.5
255.892	90.5
256.124	71.5
256.357	79.5
256.59	80.5
256.823	79.5
257.056	93.5
257.289	74.5
257.521	81.5
257.754	96.5
257.987	83.5
258.22	79.5
258.452	79.5
258.685	80.5
258.918	84.5
259.151	79.5
259.383	89.5
259.616	84.5
259.849	80.5
260.081	78.5
260.314	74.5
260.547	76.5
260.779	84.5
261.012	89.5
261.244	83.5
261.477	78.5
261.71	90.5
261.942	100.5
262.175	117.5
262.407	89.5
262.64	79.5
262.872	95.5
263.105	84.5
263.337	85.5
263.57	79.5
263.802	72.5
264.035	81.5
264.267	87.5
264.499	81.5
264.732	76.5
264.964	83.5
265.197	71.5
265.429	75.5
265.661	91.5
265.894	86.5
266.126	95.5
266.358	67.5
266.591	79.5
266.823	81.5
267.055	77.5
267.287	74.5
267.52	88.5
267.752	68.5
267.984	74.5
268.216	86.5
268.448	85.5
268.681	72.5
268.913	86.5
269.145	88.5
269.377	85.5
269.609	80.5
269.841	85.5
270.073	75.5
270.306	65.5
270.538	87.5
270.77	66.5
271.002	87.5
271.234	85.5
271.466	84.5
271.698	88.5
271.93	90.5
272.162	80.5
272.394	73.5
272.626	91.5
272.858	75.5
273.09	69.5
273.322	80.5
273.553	75.5
273.785	91.5
274.017	90.5
274.249	91.5
274.481	81.5
274.713	81.5
274.945	93.5
275.176	75.5
275.408	85.5
275.64	82.5
275.872	86.5
276.104	80.5
276.335	90.5
276.567	105.5
276.799	100.5
277.031	98.5
277.262	90.5
277.494	84.5
277.726	89.5
277.957	82.5
278.189	87.5
278.421	82.5
278.652	91.5
278.884	81.5
279.115	95.5
279.347	89.5
279.579	80.5
279.81	88.5
280.042	81.5
280.273	83.5
280.505	92.5
280.736	82.5
280.968	91.5
281.199	93.5
281.431	86.5
281.662	79.5
281.894	99.5
282.125	80.5
282.356	114.5
282.588	134.5
282.819	112.5
283.051	76.5
283.282	74.5
283.513	81.5
283.745	83.5
283.976	92.5
284.207	86.5
284.439	85.5
284.67	88.5
284.901	83.5
285.132	83.5
285.364	85.5
285.595	83.5
285.826	97.5
286.057	97.5
286.288	79.5
286.52	93.5
286.751	81.5
286.982	77.5
287.213	93.5
287.444	89.5
287.675	84.5
287.906	89.5
288.138	85.5
288.369	99.5
288.6	102.5
288.831	68.5
289.062	73.5
289.293	85.5
289.524	107.5
289.755	79.5
289.986	81.5
290.217	88.5
290.448	76.5
290.679	83.5
290.91	88.5
291.141	82.5
291.371	75.5
291.602	85.5
291.833	81.5
292.064	87.5
292.295	77.5
292.526	95.5
292.757	85.5
292.987	76.5
293.218	89.5
293.449	92.5
293.68	83.5
293.91	97.5
294.141	89.5
294.372	98.5
294.603	73.5
294.833	70.5
295.064	88.5
295.295	96.5
295.525	91.5
295.756	84.5
295.987	103.5
296.217	119.5
296.448	111.5
296.679	89.5
296.909	72.5
297.14	84.5
297.37	99.5
297.601	85.5
297.831	79.5
298.062	91.5
298.292	100.5
298.523	80.5
298.753	85.5
298.984	89.5
299.214	91.5
299.445	88.5
299.675	96.5
299.905	90.5
300.136	92.5
300.366	97.5
300.597	99.5
300.827	96.5
301.057	103.5
301.288	102.5
301.518	104.5
301.748	92.5
301.979	85.5
302.209	91.5
302.439	94.5
302.669	89.5
302.9	88.5
303.13	93.5
303.36	98.5
303.59	104.5
303.82	115.5
304.051	97.5
304.281	91.5
304.511	89.5
304.741	85.5
304.971	84.5
305.201	90.5
305.431	92.5
305.661	83.5
305.891	91.5
306.121	94.5
306.352	95.5
306.582	106.5
306.812	87.5
307.042	96.5
307.272	93.5
307.502	84.5
307.731	111.5
307.961	89.5
308.191	93.5
308.421	83.5
308.651	83.5
308.881	75.5
309.111	99.5
309.341	103.5
309.571	92.5
309.8	93.5
310.03	99.5
310.26	82.5
310.49	98.5
310.72	95.5
310.949	92.5
311.179	105.5
311.409	79.5
311.639	77.5
311.868	102.5
312.098	91.5
312.328	92.5
312.557	108.5
312.787	104.5
313.017	98.5
313.246	99.5
313.476	88.5
313.706	95.5
313.935	97.5
314.165	95.5
314.394	87.5
314.624	90.5
314.853	92.5
315.083	79.5
315.312	76.5
315.542	101.5
315.771	95.5
316.001	90.5
316.23	69.5
316.46	81.5
316.689	94.5
316.919	68.5
317.148	87.5
317.377	82.5
317.607	79.5
317.836	85.5
318.065	90.5
318.295	105.5
318.524	81.5
318.753	101.5
318.983	93.5
319.212	92.5
319.441	98.5
319.67	105.5
319.9	106.5
320.129	88.5
320.358	92.5
320.587	91.5
320.816	107.5
321.046	93.5
321.275	97.5
321.504	91.5
321.733	89.5
321.962	90.5
322.191	96.5
322.42	106.5
322.649	102.5
322.878	113.5
323.108	102.5
323.337	115.5
323.566	129.5
323.795	155.5
324.024	187.5
324.253	362.5
324.482	736.5
324.71	1497.5
324.939	1972.5
325.168	725.5
325.397	226.5
325.626	144.5
325.855	132.5
326.084	116.5
326.313	120.5
326.542	140.5
326.77	211.5
326.999	393.5
327.228	831.5
327.457	1547.5
327.686	1218.5
327.914	339.5
328.143	179.5
328.372	148.5
328.6	120.5
328.829	107.5
329.058	113.5
329.287	124.5
329.515	100.5
329.744	106.5
329.972	110.5
330.201	116.5
330.43	114.5
330.658	121.5
330.887	134.5
331.115	106.5
331.344	118.5
331.572	102.5
331.801	101.5
332.03	96.5
332.258	100.5
332.486	84.5
332.715	95.5
332.943	87.5
333.172	94.5
333.4	94.5
333.629	95.5
333.857	122.5
334.085	103.5
334.314	121.5
334.542	125.5
334.771	137.5
334.999	104.5
335.227	97.5
335.455	91.5
335.684	111.5
335.912	100.5
336.14	84.5
336.369	88.5
336.597	101.5
336.825	87.5
337.053	94.5
337.281	72.5
337.51	93.5
337.738	97.5
337.966	87.5
338.194	104.5
338.422	96.5
338.65	84.5
338.878	83.5
339.106	88.5
339.334	92.5
339.562	86.5
339.79	97.5
340.018	84.5
340.246	91.5
340.474	85.5
340.702	96.5
340.93	104.5
341.158	87.5
341.386	90.5
341.614	86.5
341.842	93.5
342.07	98.5
342.298	95.5
342.526	87.5
342.754	90.5
342.981	97.5
343.209	95.5
343.437	87.5
343.665	92.5
343.893	97.5
344.12	89.5
344.348	81.5
344.576	87.5
344.804	95.5
345.031	95.5
345.259	91.5
345.487	113.5
345.714	86.5
345.942	87.5
346.17	95.5
346.397	97.5
346.625	85.5
346.853	91.5
347.08	79.5
347.308	84.5
347.535	92.5
347.763	88.5
347.99	96.5
348.218	92.5
348.445	101.5
348.673	103.5
348.9	88.5
349.128	95.5
349.355	99.5
349.583	83.5
349.81	91.5
350.037	111.5
350.265	97.5
350.492	86.5
350.72	105.5
350.947	107.5
351.174	114.5
351.402	107.5
351.629	104.5
351.856	102.5
352.083	99.5
352.311	99.5
352.538	96.5
352.765	97.5
352.992	104.5
353.22	109.5
353.447	102.5
353.674	110.5
353.901	92.5
354.128	99.5
354.355	98.5
354.583	103.5
354.81	101.5
355.037	89.5
355.264	98.5
355.491	97.5
355.718	98.5
355.945	111.5
356.172	99.5
356.399	78.5
356.626	95.5
356.853	87.5
357.08	103.5
357.307	80.5
357.534	90.5
357.761	96.5
357.988	104.5
358.215	71.5
358.441	97.5
358.668	80.5
358.895	88.5
359.122	96.5
359.349	89.5
359.576	99.5
359.802	92.5
360.029	107.5
360.256	96.5
360.483	98.5
360.709	91.5
360.936	84.5
361.163	87.5
361.39	83.5
361.616	93.5
361.843	86.5
362.07	98.5
362.296	85.5
362.523	79.5
362.749	101.5
362.976	94.5
363.203	93.5
363.429	74.5
363.656	90.5
363.882	92.5
364.109	85.5
364.335	101.5
364.562	92.5
364.788	96.5
365.015	73.5
365.241	89.5
365.468	89.5
365.694	91.5
365.92	104.5
366.147	81.5
366.373	82.5
366.599	98.5
366.826	82.5
367.052	89.5
367.278	91.5
367.505	83.5
367.731	80.5
367.957	92.5
368.184	83.5
368.41	91.5
368.636	104.5
368.862	101.5
369.089	100.5
369.315	108.5
369.541	92.5
369.767	87.5
369.993	87.5
370.219	100.5
370.445	80.5
370.672	91.5
370.898	94.5
371.124	91.5
371.35	83.5
371.576	82.5
371.802	95.5
372.028	63.5
372.254	88.5
372.48	100.5
372.706	88.5
372.932	88.5
373.158	86.5
373.384	81.5
373.61	96.5
373.835	82.5
374.061	87.5
374.287	88.5
374.513	88.5
374.739	93.5
374.965	87.5
375.191	84.5
375.416	93.5
375.642	82.5
375.868	101.5
376.094	100.5
376.319	87.5
376.545	88.5
376.771	85.5
376.997	86.5
377.222	81.5
377.448	89.5
377.674	92.5
377.899	84.5
378.125	71.5
378.35	97.5
378.576	76.5
378.802	92.5
379.027	88.5
379.253	73.5
379.478	76.5
379.704	98.5
379.929	93.5
380.155	89.5
380.38	81.5
380.606	93.5
380.831	92.5
381.057	93.5
381.282	81.5
381.507	97.5
381.733	92.5
381.958	97.5
382.184	93.5
382.409	93.5
382.634	109.5
382.86	107.5
383.085	92.5
383.31	89.5
383.535	108.5
383.761	103.5
383.986	95.5
384.211	99.5
384.436	84.5
384.662	94.5
384.887	105.5
385.112	104.5
385.337	82.5
385.562	94.5
385.787	99.5
386.013	97.5
386.238	108.5
386.463	104.5
386.688	111.5
386.913	99.5
387.138	95.5
387.363	99.5
387.588	97.5
387.813	91.5
388.038	93.5
388.263	103.5
388.488	97.5
388.713	90.5
388.938	79.5
389.163	108.5
389.387	93.5
389.612	82.5
389.837	99.5
390.062	105.5
390.287	98.5
390.512	100.5
390.736	73.5
390.961	85.5
391.186	94.5
391.411	84.5
391.636	92.5
391.86	82.5
392.085	70.5
392.31	81.5
392.534	87.5
392.759	81.5
392.984	75.5
393.208	85.5
393.433	74.5
393.658	74.5
393.882	87.5
394.107	92.5
394.331	90.5
394.556	92.5
394.78	101.5
395.005	96.5
395.229	82.5
395.454	82.5
395.678	79.5
395.903	95.5
396.127	83.5
396.352	72.5
396.576	90.5
396.801	81.5
397.025	79.5
397.249	87.5
397.474	100.5
397.698	104.5
397.922	91.5
398.147	91.5
398.371	91.5
398.595	91.5
398.82	88.5
399.044	95.5
399.268	80.5
399.492	88.5
399.717	97.5
399.941	75.5
400.165	95.5
400.389	87.5
400.613	88.5
400.837	99.5
401.062	81.5
401.286	84.5
401.51	90.5
401.734	85.5
401.958	94.5
402.182	119.5
402.406	151.5
402.63	117.5
402.854	84.5
403.078	91.5
403.302	73.5
403.526	83.5
403.75	72.5
403.974	75.5
404.198	90.5
404.422	115.5
404.645	92.5
404.869	88.5
405.093	95.5
405.317	93.5
405.541	96.5
405.765	96.5
405.988	119.5
406.212	148.5
406.436	207.5
406.66	129.5
406.883	95.5
407.107	80.5
407.331	91.5
407.555	100.5
407.778	76.5
408.002	95.5
408.226	88.5
408.449	81.5
408.673	92.5
408.896	87.5
409.12	93.5
409.344	95.5
409.567	93.5
409.791	89.5
410.014	101.5
410.238	95.5
410.461	74.5
410.685	93.5
410.908	90.5
411.132	105.5
411.355	86.5
411.578	96.5
411.802	96.5
412.025	97.5
412.249	88.5
412.472	96.5
412.695	102.5
412.919	80.5
413.142	80.5
413.365	79.5
413.589	105.5
413.812	95.5
414.035	84.5
414.258	95.5
414.482	88.5
414.705	87.5
414.928	93.5
415.151	101.5
415.374	99.5
415.597	94.5
415.821	96.5
416.044	85.5
416.267	87.5
416.49	81.5
416.713	83.5
416.936	75.5
417.159	89.5
417.382	85.5
417.605	89.5
417.828	104.5
418.051	81.5
418.274	97.5
418.497	87.5
418.72	91.5
418.943	76.5
419.166	89.5
419.389	94.5
419.611	82.5
419.834	83.5
420.057	94.5
420.28	106.5
420.503	83.5
420.726	75.5
420.948	81.5
421.171	87.5
421.394	99.5
421.617	92.5
421.839	84.5
422.062	85.5
422.285	114.5
422.507	99.5
422.73	101.5
422.953	86.5
423.175	94.5
423.398	80.5
423.621	88.5
423.843	97.5
424.066	96.5
424.288	96.5
424.511	95.5
424.733	76.5
424.956	117.5
425.178	95.5
425.401	101.5
425.623	103.5
425.846	84.5
426.068	88.5
426.291	88.5
426.513	92.5
426.735	80.5
426.958	96.5
427.18	107.5
427.402	130.5
427.625	149.5
427.847	120.5
428.069	111.5
428.292	73.5
428.514	89.5
428.736	74.5
428.958	99.5
429.181	86.5
429.403	68.5
429.625	87.5
429.847	73.5
430.069	81.5
430.292	80.5
430.514	84.5
430.736	82.5
430.958	81.5
431.18	88.5
431.402	82.5
431.624	87.5
431.846	85.5
432.068	74.5
432.29	76.5
432.512	88.5
432.734	82.5
432.956	97.5
433.178	76.5
433.4	106.5
433.622	97.5
433.844	99.5
434.066	100.5
434.287	89.5
434.509	94.5
434.731	87.5
434.953	89.5
435.175	100.5
435.397	89.5
435.618	87.5
435.84	97.5
436.062	106.5
436.284	105.5
436.505	96.5
436.727	104.5
436.949	74.5
437.17	89.5
437.392	74.5
437.614	85.5
437.835	111.5
438.057	110.5
438.278	112.5
438.5	103.5
438.721	103.5
438.943	89.5
439.165	84.5
439.386	93.5
439.608	83.5
439.829	93.5
440.05	129.5
440.272	127.5
440.493	94.5
440.715	103.5
440.936	89.5
441.158	88.5
441.379	94.5
441.6	101.5
441.822	83.5
442.043	104.5
442.264	106.5
442.486	102.5
442.707	98.5
442.928	88.5
443.149	132.5
443.371	126.5
443.592	99.5
443.813	109.5
444.034	90.5
444.255	85.5
444.476	89.5
444.698	97.5
444.919	92.5
445.14	151.5
445.361	108.5
445.582	99.5
445.803	126.5
446.024	128.5
446.245	112.5
446.466	113.5
446.687	86.5
446.908	85.5
447.129	85.5
447.35	96.5
447.571	84.5
447.792	92.5
448.013	109.5
448.234	107.5
448.455	89.5
448.675	108.5
448.896	117.5
449.117	93.5
449.338	106.5
449.559	112.5
449.779	97.5
450	88.5
450.221	93.5
450.442	105.5
450.662	90.5
450.883	86.5
451.104	106.5
451.324	90.5
451.545	84.5
451.766	79.5
451.986	95.5
452.207	88.5
452.428	92.5
452.648	92.5
452.869	109.5
453.089	105.5
453.31	125.5
453.53	63.5
453.751	92.5
453.971	98.5
454.192	103.5
454.412	106.5
454.633	82.5
454.853	85.5
455.073	84.5
455.294	98.5
455.514	96.5
455.734	89.5
455.955	81.5
456.175	82.5
456.395	89.5
456.616	89.5
456.836	91.5
457.056	82.5
457.276	82.5
457.497	99.5
457.717	76.5
457.937	68.5
458.157	90.5
458.377	92.5
458.598	100.5
458.818	122.5
459.038	146.5
459.258	108.5
459.478	96.5
459.698	95.5
459.918	83.5
460.138	91.5
460.358	81.5
460.578	84.5
460.798	85.5
461.018	74.5
461.238	77.5
461.458	87.5
461.678	74.5
461.898	81.5
462.118	90.5
462.338	89.5
462.558	89.5
462.777	82.5
462.997	85.5
463.217	84.5
463.437	86.5
463.657	84.5
463.876	71.5
464.096	79.5
464.316	90.5
464.536	88.5
464.755	96.5
464.975	100.5
465.195	131.5
465.414	139.5
465.634	88.5
465.854	85.5
466.073	79.5
466.293	84.5
466.512	99.5
466.732	84.5
466.951	96.5
467.171	91.5
467.391	90.5
467.61	84.5
467.829	92.5
468.049	83.5
468.268	114.5
468.488	87.5
468.707	87.5
468.927	87.5
469.146	95.5
469.365	89.5
469.585	76.5
469.804	84.5
470.023	103.5
470.243	72.5
470.462	110.5
470.681	113.5
470.901	102.5
471.12	92.5
471.339	76.5
471.558	75.5
471.777	101.5
471.997	87.5
472.216	109.5
472.435	140.5
472.654	74.5
472.873	94.5
473.092	79.5
473.311	94.5
473.53	99.5
473.749	86.5
473.968	104.5
474.187	94.5
474.406	99.5
474.625	93.5
474.844	87.5
475.063	71.5
475.282	85.5
475.501	83.5
475.72	72.5
475.939	109.5
476.158	90.5
476.377	87.5
476.596	83.5
476.814	87.5
477.033	103.5
477.252	99.5
477.471	85.5
477.69	81.5
477.908	77.5
478.127	79.5
478.346	101.5
478.564	99.5
478.783	91.5
479.002	101.5
479.22	89.5
479.439	105.5
479.658	106.5
479.876	102.5
480.095	95.5
480.313	90.5
480.532	100.5
480.751	93.5
480.969	113.5
481.188	182.5
481.406	149.5
481.624	90.5
481.843	90.5
482.061	99.5
482.28	97.5
482.498	96.5
482.717	72.5
482.935	76.5
483.153	95.5
483.372	79.5
483.59	97.5
483.808	74.5
484.027	81.5
484.245	88.5
484.463	108.5
484.681	92.5
484.9	96.5
485.118	99.5
485.336	91.5
485.554	90.5
485.772	94.5
485.99	97.5
486.209	100.5
486.427	105.5
486.645	92.5
486.863	107.5
487.081	101.5
487.299	96.5
487.517	103.5
487.735	101.5
487.953	89.5
488.171	95.5
488.389	96.5
488.607	95.5
488.825	89.5
489.043	84.5
489.261	96.5
489.479	84.5
489.696	79.5
489.914	79.5
490.132	88.5
490.35	98.5
490.568	87.5
490.786	93.5
491.003	75.5
491.221	91.5
491.439	69.5
491.657	93.5
491.874	89.5
492.092	91.5
492.31	92.5
492.527	91.5
492.745	82.5
492.963	92.5
493.18	80.5
493.398	99.5
493.615	98.5
493.833	90.5
494.05	95.5
494.268	99.5
494.485	92.5
494.703	79.5
494.92	73.5
495.138	109.5
495.355	87.5
495.573	88.5
495.79	84.5
496.008	87.5
496.225	79.5
496.442	87.5
496.66	98.5
496.877	94.5
497.094	101.5
497.312	86.5
497.529	83.5
497.746	99.5
497.963	90.5
498.181	75.5
498.398	89.5
498.615	108.5
498.832	99.5
499.049	90.5
499.267	92.5
499.484	87.5
499.701	87.5
499.918	90.5
500.135	77.5
500.352	91.5
500.569	98.5
500.786	77.5
501.003	101.5
501.22	73.5
501.437	75.5
501.654	95.5
501.871	97.5
502.088	93.5
502.305	82.5
502.522	76.5
502.739	82.5
502.956	95.5
503.172	99.5
503.389	96.5
503.606	123.5
503.823	113.5
504.04	95.5
504.256	82.5
504.473	87.5
504.69	96.5
504.907	91.5
505.123	88.5
505.34	87.5
505.557	96.5
505.773	90.5
505.99	87.5
506.207	92.5
506.423	88.5
506.64	102.5
506.856	85.5
507.073	93.5
507.289	82.5
507.506	90.5
507.722	106.5
507.939	110.5
508.155	90.5
508.372	79.5
508.588	84.5
508.805	79.5
509.021	102.5
509.238	104.5
509.454	100.5
509.67	104.5
509.887	103.5
510.103	132.5
510.319	192.5
510.536	703.5
510.752	2198.5
510.968	607.5
511.184	142.5
511.401	107.5
511.617	97.5
511.833	105.5
512.049	85.5
512.265	92.5
512.481	88.5
512.698	75.5
512.914	91.5
513.13	109.5
513.346	83.5
513.562	98.5
513.778	85.5
513.994	93.5
514.21	97.5
514.426	115.5
514.642	115.5
514.858	115.5
515.074	144.5
515.29	408.5
515.506	1284.5
515.721	470.5
515.937	142.5
516.153	110.5
516.369	90.5
516.585	90.5
516.801	95.5
517.016	104.5
517.232	82.5
517.448	97.5
517.664	80.5
517.879	97.5
518.095	79.5
518.311	91.5
518.527	106.5
518.742	92.5
518.958	83.5
519.173	81.5
519.389	95.5
519.605	72.5
519.82	99.5
520.036	106.5
520.251	112.5
520.467	111.5
520.682	110.5
520.898	104.5
521.113	107.5
521.329	132.5
521.544	197.5
521.76	494.5
521.975	2097.5
522.19	1254.5
522.406	285.5
522.621	122.5
522.836	109.5
523.052	96.5
523.267	98.5
523.482	96.5
523.698	105.5
523.913	114.5
524.128	91.5
524.343	83.5
524.559	78.5
524.774	89.5
524.989	98.5
525.204	100.5
525.419	91.5
525.634	93.5
525.849	91.5
526.064	104.5
526.28	86.5
526.495	83.5
526.71	100.5
526.925	98.5
527.14	88.5
527.355	95.5
527.57	97.5
527.785	91.5
527.999	74.5
528.214	79.5
528.429	103.5
528.644	95.5
528.859	87.5
529.074	97.5
529.289	112.5
529.503	161.5
529.718	102.5
529.933	95.5
530.148	91.5
530.363	103.5
530.577	80.5
530.792	70.5
531.007	101.5
531.221	82.5
531.436	88.5
531.651	87.5
531.865	95.5
532.08	89.5
532.295	81.5
532.509	93.5
532.724	84.5
532.938	93.5
533.153	73.5
533.367	103.5
533.582	79.5
533.796	87.5
534.011	96.5
534.225	94.5
534.44	85.5
534.654	100.5
534.868	85.5
535.083	91.5
535.297	102.5
535.511	115.5
535.726	107.5
535.94	101.5
