Data from Uncirc_1983_H10_HRD10591_00019.txt Node
Date: Wed Jan 03 12:25:35 EST 2024
User: Yrep
Spectrometer: HR+D1059
Trigger mode: 1
Integration Time (sec): 1.000000E-1
Scans to average: 1
Electric dark correction enabled: true
Nonlinearity correction enabled: false
Boxcar width: 0
XAxis mode: Wavelengths
Number of Pixels in Spectrum: 2048
>>>>>Begin Spectral Data<<<<<
223.165	-27.44
223.4	-27.44
223.635	-27.44
223.869	-17.44
224.104	-25.44
224.338	-21.44
224.573	-8.44
224.808	-2.44
225.042	-10.44
225.277	8.56
225.511	0.56
225.746	8.56
225.98	-6.44
226.215	22.56
226.449	15.56
226.683	10.56
226.918	23.56
227.152	29.56
227.387	32.56
227.621	46.56
227.856	41.56
228.09	45.56
228.324	59.56
228.559	58.56
228.793	59.56
229.027	71.56
229.262	55.56
229.496	62.56
229.73	82.56
229.964	66.56
230.199	67.56
230.433	79.56
230.667	75.56
230.901	90.56
231.136	75.56
231.37	71.56
231.604	76.56
231.838	92.56
232.072	88.56
232.306	71.56
232.541	88.56
232.775	76.56
233.009	78.56
233.243	88.56
233.477	77.56
233.711	87.56
233.945	71.56
234.179	92.56
234.413	70.56
234.647	89.56
234.881	93.56
235.115	71.56
235.349	77.56
235.583	74.56
235.817	87.56
236.051	73.56
236.285	79.56
236.519	73.56
236.753	73.56
236.987	92.56
237.221	88.56
237.455	89.56
237.689	77.56
237.922	91.56
238.156	86.56
238.39	73.56
238.624	78.56
238.858	78.56
239.091	73.56
239.325	88.56
239.559	94.56
239.793	84.56
240.027	82.56
240.26	73.56
240.494	81.56
240.728	79.56
240.961	75.56
241.195	78.56
241.429	68.56
241.662	78.56
241.896	70.56
242.13	76.56
242.363	92.56
242.597	76.56
242.83	73.56
243.064	78.56
243.298	81.56
243.531	78.56
243.765	87.56
243.998	93.56
244.232	86.56
244.465	89.56
244.699	97.56
244.932	86.56
245.166	77.56
245.399	73.56
245.633	82.56
245.866	77.56
246.099	81.56
246.333	81.56
246.566	90.56
246.8	63.56
247.033	68.56
247.266	81.56
247.5	84.56
247.733	64.56
247.966	92.56
248.2	76.56
248.433	87.56
248.666	79.56
248.899	79.56
249.133	74.56
249.366	101.56
249.599	103.56
249.832	95.56
250.066	72.56
250.299	78.56
250.532	85.56
250.765	76.56
250.998	62.56
251.231	84.56
251.465	77.56
251.698	78.56
251.931	86.56
252.164	86.56
252.397	80.56
252.63	73.56
252.863	76.56
253.096	72.56
253.329	79.56
253.562	82.56
253.795	78.56
254.028	81.56
254.261	89.56
254.494	92.56
254.727	77.56
254.96	78.56
255.193	83.56
255.426	77.56
255.659	81.56
255.892	86.56
256.124	75.56
256.357	108.56
256.59	93.56
256.823	86.56
257.056	88.56
257.289	83.56
257.521	76.56
257.754	93.56
257.987	84.56
258.22	94.56
258.452	89.56
258.685	79.56
258.918	103.56
259.151	86.56
259.383	87.56
259.616	66.56
259.849	85.56
260.081	89.56
260.314	100.56
260.547	87.56
260.779	83.56
261.012	79.56
261.244	83.56
261.477	86.56
261.71	80.56
261.942	105.56
262.175	114.56
262.407	92.56
262.64	87.56
262.872	94.56
263.105	73.56
263.337	78.56
263.57	89.56
263.802	83.56
264.035	78.56
264.267	83.56
264.499	84.56
264.732	86.56
264.964	82.56
265.197	105.56
265.429	91.56
265.661	79.56
265.894	101.56
266.126	81.56
266.358	82.56
266.591	77.56
266.823	75.56
267.055	80.56
267.287	79.56
267.52	85.56
267.752	91.56
267.984	86.56
268.216	75.56
268.448	87.56
268.681	58.56
268.913	83.56
269.145	90.56
269.377	94.56
269.609	81.56
269.841	88.56
270.073	89.56
270.306	74.56
270.538	77.56
270.77	78.56
271.002	83.56
271.234	85.56
271.466	74.56
271.698	97.56
271.93	67.56
272.162	95.56
272.394	91.56
272.626	80.56
272.858	75.56
273.09	91.56
273.322	71.56
273.553	87.56
273.785	91.56
274.017	84.56
274.249	89.56
274.481	87.56
274.713	83.56
274.945	83.56
275.176	94.56
275.408	81.56
275.64	82.56
275.872	75.56
276.104	84.56
276.335	85.56
276.567	94.56
276.799	85.56
277.031	87.56
277.262	81.56
277.494	77.56
277.726	99.56
277.957	99.56
278.189	93.56
278.421	88.56
278.652	82.56
278.884	97.56
279.115	89.56
279.347	98.56
279.579	71.56
279.81	93.56
280.042	91.56
280.273	79.56
280.505	93.56
280.736	89.56
280.968	91.56
281.199	88.56
281.431	87.56
281.662	83.56
281.894	82.56
282.125	94.56
282.356	98.56
282.588	110.56
282.819	103.56
283.051	97.56
283.282	90.56
283.513	88.56
283.745	75.56
283.976	89.56
284.207	97.56
284.439	101.56
284.67	106.56
284.901	103.56
285.132	88.56
285.364	91.56
285.595	72.56
285.826	81.56
286.057	97.56
286.288	91.56
286.52	94.56
286.751	93.56
286.982	83.56
287.213	92.56
287.444	83.56
287.675	84.56
287.906	98.56
288.138	83.56
288.369	94.56
288.6	101.56
288.831	78.56
289.062	99.56
289.293	90.56
289.524	91.56
289.755	94.56
289.986	86.56
290.217	104.56
290.448	87.56
290.679	97.56
290.91	95.56
291.141	93.56
291.371	103.56
291.602	81.56
291.833	100.56
292.064	83.56
292.295	89.56
292.526	92.56
292.757	91.56
292.987	86.56
293.218	88.56
293.449	90.56
293.68	77.56
293.91	93.56
294.141	87.56
294.372	89.56
294.603	108.56
294.833	107.56
295.064	90.56
295.295	85.56
295.525	85.56
295.756	96.56
295.987	115.56
296.217	116.56
296.448	106.56
296.679	94.56
296.909	101.56
297.14	93.56
297.37	90.56
297.601	91.56
297.831	76.56
298.062	87.56
298.292	90.56
298.523	86.56
298.753	85.56
298.984	100.56
299.214	77.56
299.445	85.56
299.675	83.56
299.905	86.56
300.136	91.56
300.366	81.56
300.597	91.56
300.827	99.56
301.057	98.56
301.288	105.56
301.518	94.56
301.748	83.56
301.979	94.56
302.209	82.56
302.439	95.56
302.669	85.56
302.9	90.56
303.13	95.56
303.36	78.56
303.59	78.56
303.82	85.56
304.051	91.56
304.281	86.56
304.511	85.56
304.741	92.56
304.971	82.56
305.201	102.56
305.431	97.56
305.661	78.56
305.891	106.56
306.121	91.56
306.352	92.56
306.582	103.56
306.812	83.56
307.042	98.56
307.272	93.56
307.502	93.56
307.731	94.56
307.961	100.56
308.191	97.56
308.421	90.56
308.651	90.56
308.881	77.56
309.111	91.56
309.341	88.56
309.571	98.56
309.8	101.56
310.03	104.56
310.26	85.56
310.49	98.56
310.72	109.56
310.949	97.56
311.179	98.56
311.409	102.56
311.639	102.56
311.868	99.56
312.098	99.56
312.328	89.56
312.557	111.56
312.787	105.56
313.017	96.56
313.246	77.56
313.476	88.56
313.706	95.56
313.935	82.56
314.165	115.56
314.394	93.56
314.624	109.56
314.853	101.56
315.083	91.56
315.312	93.56
315.542	100.56
315.771	94.56
316.001	74.56
316.23	98.56
316.46	84.56
316.689	93.56
316.919	85.56
317.148	96.56
317.377	81.56
317.607	92.56
317.836	91.56
318.065	91.56
318.295	87.56
318.524	82.56
318.753	91.56
318.983	88.56
319.212	103.56
319.441	104.56
319.67	105.56
319.9	89.56
320.129	93.56
320.358	108.56
320.587	91.56
320.816	120.56
321.046	87.56
321.275	105.56
321.504	91.56
321.733	96.56
321.962	107.56
322.191	104.56
322.42	99.56
322.649	121.56
322.878	114.56
323.108	112.56
323.337	119.56
323.566	126.56
323.795	138.56
324.024	181.56
324.253	345.56
324.482	683.56
324.71	1443.56
324.939	1863.56
325.168	692.56
325.397	235.56
325.626	135.56
325.855	124.56
326.084	121.56
326.313	123.56
326.542	145.56
326.77	213.56
326.999	381.56
327.228	821.56
327.457	1465.56
327.686	1180.56
327.914	326.56
328.143	179.56
328.372	135.56
328.6	117.56
328.829	110.56
329.058	107.56
329.287	122.56
329.515	101.56
329.744	105.56
329.972	93.56
330.201	85.56
330.43	97.56
330.658	109.56
330.887	131.56
331.115	118.56
331.344	90.56
331.572	93.56
331.801	109.56
332.03	104.56
332.258	99.56
332.486	91.56
332.715	87.56
332.943	103.56
333.172	108.56
333.4	95.56
333.629	104.56
333.857	113.56
334.085	95.56
334.314	103.56
334.542	86.56
334.771	92.56
334.999	102.56
335.227	89.56
335.455	85.56
335.684	111.56
335.912	94.56
336.14	98.56
336.369	110.56
336.597	107.56
336.825	95.56
337.053	93.56
337.281	97.56
337.51	78.56
337.738	92.56
337.966	97.56
338.194	89.56
338.422	97.56
338.65	81.56
338.878	86.56
339.106	79.56
339.334	96.56
339.562	89.56
339.79	102.56
340.018	108.56
340.246	101.56
340.474	91.56
340.702	96.56
340.93	101.56
341.158	92.56
341.386	84.56
341.614	85.56
341.842	87.56
342.07	89.56
342.298	87.56
342.526	89.56
342.754	95.56
342.981	85.56
343.209	107.56
343.437	93.56
343.665	93.56
343.893	78.56
344.12	94.56
344.348	89.56
344.576	89.56
344.804	110.56
345.031	106.56
345.259	99.56
345.487	101.56
345.714	91.56
345.942	101.56
346.17	98.56
346.397	81.56
346.625	87.56
346.853	89.56
347.08	107.56
347.308	95.56
347.535	106.56
347.763	109.56
347.99	95.56
348.218	103.56
348.445	104.56
348.673	99.56
348.9	97.56
349.128	100.56
349.355	91.56
349.583	92.56
349.81	92.56
350.037	86.56
350.265	108.56
350.492	110.56
350.72	106.56
350.947	91.56
351.174	107.56
351.402	117.56
351.629	102.56
351.856	109.56
352.083	99.56
352.311	105.56
352.538	110.56
352.765	98.56
352.992	113.56
353.22	106.56
353.447	115.56
353.674	102.56
353.901	95.56
354.128	98.56
354.355	92.56
354.583	107.56
354.81	97.56
355.037	115.56
355.264	110.56
355.491	102.56
355.718	102.56
355.945	87.56
356.172	94.56
356.399	97.56
356.626	97.56
356.853	90.56
357.08	107.56
357.307	100.56
357.534	99.56
357.761	87.56
357.988	105.56
358.215	103.56
358.441	105.56
358.668	84.56
358.895	94.56
359.122	85.56
359.349	107.56
359.576	106.56
359.802	99.56
360.029	99.56
360.256	101.56
360.483	93.56
360.709	89.56
360.936	101.56
361.163	92.56
361.39	87.56
361.616	89.56
361.843	95.56
362.07	89.56
362.296	94.56
362.523	97.56
362.749	99.56
362.976	85.56
363.203	86.56
363.429	110.56
363.656	94.56
363.882	99.56
364.109	90.56
364.335	95.56
364.562	85.56
364.788	90.56
365.015	84.56
365.241	107.56
365.468	111.56
365.694	111.56
365.92	89.56
366.147	100.56
366.373	95.56
366.599	94.56
366.826	76.56
367.052	78.56
367.278	92.56
367.505	110.56
367.731	79.56
367.957	100.56
368.184	101.56
368.41	84.56
368.636	107.56
368.862	105.56
369.089	114.56
369.315	89.56
369.541	89.56
369.767	101.56
369.993	88.56
370.219	101.56
370.445	85.56
370.672	89.56
370.898	93.56
371.124	88.56
371.35	87.56
371.576	105.56
371.802	75.56
372.028	90.56
372.254	92.56
372.48	103.56
372.706	77.56
372.932	85.56
373.158	102.56
373.384	96.56
373.61	94.56
373.835	86.56
374.061	82.56
374.287	90.56
374.513	85.56
374.739	95.56
374.965	92.56
375.191	91.56
375.416	99.56
375.642	79.56
375.868	93.56
376.094	100.56
376.319	102.56
376.545	81.56
376.771	84.56
376.997	88.56
377.222	91.56
377.448	93.56
377.674	85.56
377.899	87.56
378.125	77.56
378.35	102.56
378.576	80.56
378.802	95.56
379.027	92.56
379.253	86.56
379.478	83.56
379.704	100.56
379.929	96.56
380.155	97.56
380.38	110.56
380.606	96.56
380.831	93.56
381.057	103.56
381.282	109.56
381.507	101.56
381.733	99.56
381.958	93.56
382.184	96.56
382.409	102.56
382.634	104.56
382.86	99.56
383.085	106.56
383.31	114.56
383.535	110.56
383.761	110.56
383.986	98.56
384.211	101.56
384.436	92.56
384.662	115.56
384.887	95.56
385.112	99.56
385.337	109.56
385.562	108.56
385.787	105.56
386.013	110.56
386.238	118.56
386.463	126.56
386.688	121.56
386.913	118.56
387.138	118.56
387.363	98.56
387.588	97.56
387.813	108.56
388.038	111.56
388.263	119.56
388.488	115.56
388.713	90.56
388.938	90.56
389.163	94.56
389.387	100.56
389.612	103.56
389.837	110.56
390.062	106.56
390.287	88.56
390.512	90.56
390.736	94.56
390.961	93.56
391.186	85.56
391.411	92.56
391.636	90.56
391.86	88.56
392.085	105.56
392.31	86.56
392.534	95.56
392.759	92.56
392.984	91.56
393.208	92.56
393.433	113.56
393.658	103.56
393.882	88.56
394.107	95.56
394.331	106.56
394.556	90.56
394.78	95.56
395.005	109.56
395.229	76.56
395.454	97.56
395.678	79.56
395.903	90.56
396.127	93.56
396.352	96.56
396.576	87.56
396.801	105.56
397.025	99.56
397.249	85.56
397.474	85.56
397.698	92.56
397.922	89.56
398.147	82.56
398.371	79.56
398.595	85.56
398.82	85.56
399.044	98.56
399.268	97.56
399.492	89.56
399.717	97.56
399.941	83.56
400.165	107.56
400.389	91.56
400.613	82.56
400.837	98.56
401.062	85.56
401.286	79.56
401.51	93.56
401.734	81.56
401.958	88.56
402.182	126.56
402.406	145.56
402.63	119.56
402.854	94.56
403.078	95.56
403.302	77.56
403.526	90.56
403.75	89.56
403.974	93.56
404.198	95.56
404.422	77.56
404.645	95.56
404.869	86.56
405.093	101.56
405.317	78.56
405.541	95.56
405.765	109.56
405.988	106.56
406.212	156.56
406.436	205.56
406.66	120.56
406.883	111.56
407.107	93.56
407.331	69.56
407.555	90.56
407.778	104.56
408.002	94.56
408.226	101.56
408.449	88.56
408.673	89.56
408.896	86.56
409.12	80.56
409.344	86.56
409.567	85.56
409.791	107.56
410.014	93.56
410.238	90.56
410.461	84.56
410.685	92.56
410.908	102.56
411.132	106.56
411.355	86.56
411.578	102.56
411.802	82.56
412.025	89.56
412.249	99.56
412.472	83.56
412.695	83.56
412.919	90.56
413.142	90.56
413.365	100.56
413.589	82.56
413.812	91.56
414.035	106.56
414.258	91.56
414.482	98.56
414.705	85.56
414.928	94.56
415.151	103.56
415.374	75.56
415.597	94.56
415.821	89.56
416.044	92.56
416.267	89.56
416.49	106.56
416.713	82.56
416.936	99.56
417.159	103.56
417.382	81.56
417.605	87.56
417.828	98.56
418.051	106.56
418.274	95.56
418.497	88.56
418.72	85.56
418.943	81.56
419.166	93.56
419.389	85.56
419.611	87.56
419.834	86.56
420.057	89.56
420.28	101.56
420.503	90.56
420.726	82.56
420.948	92.56
421.171	101.56
421.394	95.56
421.617	93.56
421.839	88.56
422.062	89.56
422.285	106.56
422.507	109.56
422.73	106.56
422.953	93.56
423.175	92.56
423.398	110.56
423.621	78.56
423.843	74.56
424.066	93.56
424.288	79.56
424.511	79.56
424.733	95.56
424.956	103.56
425.178	96.56
425.401	97.56
425.623	96.56
425.846	95.56
426.068	90.56
426.291	87.56
426.513	104.56
426.735	89.56
426.958	81.56
427.18	93.56
427.402	124.56
427.625	154.56
427.847	125.56
428.069	95.56
428.292	98.56
428.514	89.56
428.736	89.56
428.958	77.56
429.181	92.56
429.403	93.56
429.625	92.56
429.847	82.56
430.069	99.56
430.292	98.56
430.514	100.56
430.736	96.56
430.958	78.56
431.18	85.56
431.402	79.56
431.624	81.56
431.846	90.56
432.068	82.56
432.29	94.56
432.512	95.56
432.734	94.56
432.956	82.56
433.178	98.56
433.4	104.56
433.622	92.56
433.844	91.56
434.066	103.56
434.287	95.56
434.509	100.56
434.731	97.56
434.953	95.56
435.175	81.56
435.397	97.56
435.618	84.56
435.84	107.56
436.062	119.56
436.284	116.56
436.505	97.56
436.727	94.56
436.949	102.56
437.17	83.56
437.392	83.56
437.614	77.56
437.835	102.56
438.057	101.56
438.278	105.56
438.5	110.56
438.721	125.56
438.943	105.56
439.165	68.56
439.386	91.56
439.608	85.56
439.829	91.56
440.05	114.56
440.272	126.56
440.493	104.56
440.715	90.56
440.936	93.56
441.158	83.56
441.379	87.56
441.6	86.56
441.822	94.56
442.043	95.56
442.264	93.56
442.486	97.56
442.707	87.56
442.928	101.56
443.149	122.56
443.371	106.56
443.592	99.56
443.813	106.56
444.034	105.56
444.255	98.56
444.476	99.56
444.698	97.56
444.919	98.56
445.14	145.56
445.361	111.56
445.582	129.56
445.803	122.56
446.024	142.56
446.245	134.56
446.466	118.56
446.687	90.56
446.908	87.56
447.129	85.56
447.35	88.56
447.571	79.56
447.792	91.56
448.013	98.56
448.234	100.56
448.455	92.56
448.675	109.56
448.896	106.56
449.117	102.56
449.338	95.56
449.559	131.56
449.779	126.56
450	98.56
450.221	89.56
450.442	93.56
450.662	95.56
450.883	103.56
451.104	107.56
451.324	98.56
451.545	88.56
451.766	86.56
451.986	97.56
452.207	89.56
452.428	94.56
452.648	105.56
452.869	112.56
453.089	114.56
453.31	126.56
453.53	94.56
453.751	89.56
453.971	97.56
454.192	106.56
454.412	97.56
454.633	90.56
454.853	101.56
455.073	80.56
455.294	94.56
455.514	105.56
455.734	77.56
455.955	98.56
456.175	85.56
456.395	86.56
456.616	78.56
456.836	85.56
457.056	97.56
457.276	91.56
457.497	92.56
457.717	101.56
457.937	86.56
458.157	72.56
458.377	89.56
458.598	109.56
458.818	134.56
459.038	163.56
459.258	93.56
459.478	92.56
459.698	82.56
459.918	89.56
460.138	92.56
460.358	72.56
460.578	74.56
460.798	83.56
461.018	77.56
461.238	89.56
461.458	91.56
461.678	84.56
461.898	80.56
462.118	85.56
462.338	90.56
462.558	88.56
462.777	85.56
462.997	83.56
463.217	91.56
463.437	83.56
463.657	85.56
463.876	85.56
464.096	92.56
464.316	94.56
464.536	89.56
464.755	91.56
464.975	91.56
465.195	153.56
465.414	133.56
465.634	94.56
465.854	83.56
466.073	95.56
466.293	89.56
466.512	85.56
466.732	98.56
466.951	95.56
467.171	94.56
467.391	88.56
467.61	92.56
467.829	97.56
468.049	91.56
468.268	88.56
468.488	76.56
468.707	87.56
468.927	99.56
469.146	86.56
469.365	77.56
469.585	85.56
469.804	88.56
470.023	99.56
470.243	92.56
470.462	91.56
470.681	94.56
470.901	92.56
471.12	101.56
471.339	94.56
471.558	87.56
471.777	89.56
471.997	93.56
472.216	91.56
472.435	93.56
472.654	81.56
472.873	77.56
473.092	87.56
473.311	86.56
473.53	92.56
473.749	89.56
473.968	79.56
474.187	91.56
474.406	83.56
474.625	87.56
474.844	87.56
475.063	86.56
475.282	73.56
475.501	75.56
475.72	93.56
475.939	94.56
476.158	94.56
476.377	90.56
476.596	85.56
476.814	95.56
477.033	93.56
477.252	82.56
477.471	87.56
477.69	99.56
477.908	97.56
478.127	83.56
478.346	86.56
478.564	80.56
478.783	91.56
479.002	94.56
479.22	90.56
479.439	108.56
479.658	99.56
479.876	102.56
480.095	90.56
480.313	91.56
480.532	91.56
480.751	84.56
480.969	104.56
481.188	106.56
481.406	94.56
481.624	85.56
481.843	86.56
482.061	73.56
482.28	88.56
482.498	91.56
482.717	97.56
482.935	97.56
483.153	95.56
483.372	90.56
483.59	84.56
483.808	84.56
484.027	97.56
484.245	93.56
484.463	73.56
484.681	96.56
484.9	95.56
485.118	100.56
485.336	105.56
485.554	106.56
485.772	97.56
485.99	101.56
486.209	102.56
486.427	118.56
486.645	110.56
486.863	118.56
487.081	92.56
487.299	97.56
487.517	107.56
487.735	94.56
487.953	100.56
488.171	103.56
488.389	93.56
488.607	106.56
488.825	102.56
489.043	85.56
489.261	97.56
489.479	99.56
489.696	84.56
489.914	94.56
490.132	96.56
490.35	87.56
490.568	93.56
490.786	93.56
491.003	74.56
491.221	96.56
491.439	99.56
491.657	89.56
491.874	81.56
492.092	79.56
492.31	90.56
492.527	95.56
492.745	114.56
492.963	96.56
493.18	99.56
493.398	104.56
493.615	92.56
493.833	93.56
494.05	102.56
494.268	91.56
494.485	101.56
494.703	105.56
494.92	82.56
495.138	87.56
495.355	92.56
495.573	85.56
495.79	89.56
496.008	100.56
496.225	91.56
496.442	89.56
496.66	100.56
496.877	97.56
497.094	93.56
497.312	84.56
497.529	90.56
497.746	101.56
497.963	102.56
498.181	91.56
498.398	85.56
498.615	116.56
498.832	102.56
499.049	89.56
499.267	89.56
499.484	90.56
499.701	97.56
499.918	82.56
500.135	93.56
500.352	81.56
500.569	90.56
500.786	94.56
501.003	79.56
501.22	95.56
501.437	97.56
501.654	101.56
501.871	102.56
502.088	83.56
502.305	81.56
502.522	92.56
502.739	87.56
502.956	104.56
503.172	102.56
503.389	104.56
503.606	97.56
503.823	90.56
504.04	89.56
504.256	88.56
504.473	93.56
504.69	104.56
504.907	94.56
505.123	96.56
505.34	83.56
505.557	88.56
505.773	77.56
505.99	91.56
506.207	93.56
506.423	95.56
506.64	97.56
506.856	75.56
507.073	81.56
507.289	72.56
507.506	101.56
507.722	110.56
507.939	125.56
508.155	89.56
508.372	99.56
508.588	90.56
508.805	92.56
509.021	86.56
509.238	86.56
509.454	87.56
509.67	101.56
509.887	110.56
510.103	136.56
510.319	198.56
510.536	658.56
510.752	2011.56
510.968	542.56
511.184	145.56
511.401	109.56
511.617	101.56
511.833	93.56
512.049	90.56
512.265	82.56
512.481	95.56
512.698	108.56
512.914	77.56
513.13	97.56
513.346	85.56
513.562	82.56
513.778	104.56
513.994	89.56
514.21	93.56
514.426	117.56
514.642	120.56
514.858	120.56
515.074	162.56
515.29	381.56
