Data from Uncirc_1983_H10_HRD10591_00082.txt Node
Date: Wed Jan 03 12:25:48 EST 2024
User: Yrep
Spectrometer: HR+D1059
Trigger mode: 1
Integration Time (sec): 1.000000E-1
Scans to average: 1
Electric dark correction enabled: true
Nonlinearity correction enabled: false
Boxcar width: 0
XAxis mode: Wavelengths
Number of Pixels in Spectrum: 2048
>>>>>Begin Spectral Data<<<<<
223.165	-11.44
223.4	-11.44
223.635	-11.44
223.869	-30.44
224.104	-11.44
224.338	-15.44
224.573	-22.44
224.808	-25.44
225.042	-14.44
225.277	-10.44
225.511	2.56
225.746	4.56
225.98	17.56
226.215	27.56
226.449	14.56
226.683	25.56
226.918	17.56
227.152	31.56
227.387	31.56
227.621	28.56
227.856	35.56
228.09	42.56
228.324	46.56
228.559	53.56
228.793	61.56
229.027	54.56
229.262	57.56
229.496	67.56
229.73	79.56
229.964	68.56
230.199	77.56
230.433	56.56
230.667	66.56
230.901	70.56
231.136	60.56
231.37	77.56
231.604	70.56
231.838	74.56
232.072	84.56
232.306	84.56
232.541	88.56
232.775	93.56
233.009	95.56
233.243	83.56
233.477	80.56
233.711	81.56
233.945	87.56
234.179	83.56
234.413	74.56
234.647	82.56
234.881	71.56
235.115	72.56
235.349	84.56
235.583	52.56
235.817	82.56
236.051	85.56
236.285	76.56
236.519	72.56
236.753	74.56
236.987	70.56
237.221	80.56
237.455	82.56
237.689	83.56
237.922	73.56
238.156	70.56
238.39	72.56
238.624	80.56
238.858	83.56
239.091	72.56
239.325	58.56
239.559	79.56
239.793	88.56
240.027	73.56
240.26	83.56
240.494	74.56
240.728	84.56
240.961	75.56
241.195	83.56
241.429	77.56
241.662	81.56
241.896	78.56
242.13	74.56
242.363	81.56
242.597	87.56
242.83	72.56
243.064	73.56
243.298	80.56
243.531	86.56
243.765	83.56
243.998	81.56
244.232	86.56
244.465	70.56
244.699	85.56
244.932	79.56
245.166	85.56
245.399	74.56
245.633	71.56
245.866	75.56
246.099	92.56
246.333	81.56
246.566	71.56
246.8	79.56
247.033	81.56
247.266	84.56
247.5	90.56
247.733	66.56
247.966	88.56
248.2	69.56
248.433	82.56
248.666	73.56
248.899	86.56
249.133	79.56
249.366	95.56
249.599	101.56
249.832	85.56
250.066	93.56
250.299	83.56
250.532	84.56
250.765	76.56
250.998	87.56
251.231	78.56
251.465	72.56
251.698	83.56
251.931	80.56
252.164	92.56
252.397	81.56
252.63	69.56
252.863	71.56
253.096	77.56
253.329	74.56
253.562	71.56
253.795	72.56
254.028	85.56
254.261	74.56
254.494	79.56
254.727	82.56
254.96	79.56
255.193	84.56
255.426	86.56
255.659	83.56
255.892	81.56
256.124	89.56
256.357	93.56
256.59	88.56
256.823	89.56
257.056	71.56
257.289	71.56
257.521	93.56
257.754	76.56
257.987	81.56
258.22	82.56
258.452	74.56
258.685	96.56
258.918	75.56
259.151	89.56
259.383	84.56
259.616	85.56
259.849	75.56
260.081	94.56
260.314	97.56
260.547	86.56
260.779	92.56
261.012	75.56
261.244	93.56
261.477	85.56
261.71	92.56
261.942	87.56
262.175	95.56
262.407	89.56
262.64	88.56
262.872	77.56
263.105	77.56
263.337	91.56
263.57	81.56
263.802	87.56
264.035	82.56
264.267	68.56
264.499	73.56
264.732	92.56
264.964	75.56
265.197	81.56
265.429	68.56
265.661	94.56
265.894	91.56
266.126	79.56
266.358	84.56
266.591	74.56
266.823	82.56
267.055	75.56
267.287	68.56
267.52	72.56
267.752	89.56
267.984	89.56
268.216	80.56
268.448	76.56
268.681	89.56
268.913	89.56
269.145	82.56
269.377	101.56
269.609	79.56
269.841	71.56
270.073	74.56
270.306	77.56
270.538	89.56
270.77	83.56
271.002	75.56
271.234	79.56
271.466	81.56
271.698	91.56
271.93	81.56
272.162	84.56
272.394	79.56
272.626	80.56
272.858	71.56
273.09	91.56
273.322	86.56
273.553	90.56
273.785	60.56
274.017	72.56
274.249	105.56
274.481	83.56
274.713	79.56
274.945	103.56
275.176	92.56
275.408	90.56
275.64	87.56
275.872	82.56
276.104	95.56
276.335	83.56
276.567	85.56
276.799	92.56
277.031	105.56
277.262	79.56
277.494	98.56
277.726	93.56
277.957	69.56
278.189	87.56
278.421	89.56
278.652	91.56
278.884	97.56
279.115	93.56
279.347	93.56
279.579	94.56
279.81	103.56
280.042	93.56
280.273	89.56
280.505	71.56
280.736	87.56
280.968	94.56
281.199	83.56
281.431	98.56
281.662	93.56
281.894	89.56
282.125	107.56
282.356	110.56
282.588	136.56
282.819	113.56
283.051	93.56
283.282	88.56
283.513	91.56
283.745	82.56
283.976	90.56
284.207	80.56
284.439	96.56
284.67	77.56
284.901	83.56
285.132	82.56
285.364	104.56
285.595	97.56
285.826	82.56
286.057	94.56
286.288	99.56
286.52	87.56
286.751	93.56
286.982	99.56
287.213	90.56
287.444	79.56
287.675	95.56
287.906	73.56
288.138	91.56
288.369	93.56
288.6	95.56
288.831	81.56
289.062	88.56
289.293	85.56
289.524	88.56
289.755	88.56
289.986	89.56
290.217	81.56
290.448	97.56
290.679	95.56
290.91	83.56
291.141	87.56
291.371	90.56
291.602	89.56
291.833	81.56
292.064	84.56
292.295	95.56
292.526	90.56
292.757	93.56
292.987	90.56
293.218	107.56
293.449	95.56
293.68	91.56
293.91	93.56
294.141	84.56
294.372	86.56
294.603	99.56
294.833	97.56
295.064	79.56
295.295	97.56
295.525	93.56
295.756	94.56
295.987	113.56
296.217	130.56
296.448	98.56
296.679	85.56
296.909	90.56
297.14	91.56
297.37	81.56
297.601	76.56
297.831	84.56
298.062	109.56
298.292	87.56
298.523	89.56
298.753	90.56
298.984	96.56
299.214	90.56
299.445	96.56
299.675	97.56
299.905	103.56
300.136	100.56
300.366	83.56
300.597	92.56
300.827	95.56
301.057	98.56
301.288	107.56
301.518	92.56
301.748	91.56
301.979	103.56
302.209	90.56
302.439	81.56
302.669	96.56
302.9	88.56
303.13	88.56
303.36	98.56
303.59	97.56
303.82	103.56
304.051	99.56
304.281	88.56
304.511	90.56
304.741	94.56
304.971	97.56
305.201	96.56
305.431	103.56
305.661	93.56
305.891	95.56
306.121	82.56
306.352	98.56
306.582	103.56
306.812	94.56
307.042	89.56
307.272	95.56
307.502	87.56
307.731	103.56
307.961	87.56
308.191	88.56
308.421	88.56
308.651	89.56
308.881	90.56
309.111	97.56
309.341	97.56
309.571	93.56
309.8	94.56
310.03	92.56
310.26	92.56
310.49	112.56
310.72	88.56
310.949	91.56
311.179	89.56
311.409	101.56
311.639	90.56
311.868	100.56
312.098	83.56
312.328	93.56
312.557	98.56
312.787	88.56
313.017	104.56
313.246	88.56
313.476	105.56
313.706	81.56
313.935	87.56
314.165	88.56
314.394	85.56
314.624	92.56
314.853	95.56
315.083	100.56
315.312	87.56
315.542	91.56
315.771	84.56
316.001	93.56
316.23	100.56
316.46	76.56
316.689	74.56
316.919	89.56
317.148	109.56
317.377	99.56
317.607	98.56
317.836	87.56
318.065	99.56
318.295	99.56
318.524	88.56
318.753	93.56
318.983	87.56
319.212	101.56
319.441	105.56
319.67	97.56
319.9	104.56
320.129	88.56
320.358	106.56
320.587	83.56
320.816	100.56
321.046	90.56
321.275	100.56
321.504	82.56
321.733	92.56
321.962	77.56
322.191	91.56
322.42	104.56
322.649	103.56
322.878	100.56
323.108	119.56
323.337	114.56
323.566	128.56
323.795	152.56
324.024	181.56
324.253	364.56
324.482	721.56
324.71	1460.56
324.939	1944.56
325.168	721.56
325.397	243.56
325.626	138.56
325.855	125.56
326.084	107.56
326.313	126.56
326.542	135.56
326.77	223.56
326.999	389.56
327.228	849.56
327.457	1522.56
327.686	1197.56
327.914	327.56
328.143	191.56
328.372	141.56
328.6	127.56
328.829	104.56
329.058	102.56
329.287	127.56
329.515	129.56
329.744	103.56
329.972	111.56
330.201	129.56
330.43	149.56
330.658	130.56
330.887	134.56
331.115	108.56
331.344	99.56
331.572	113.56
331.801	104.56
332.03	105.56
332.258	90.56
332.486	89.56
332.715	100.56
332.943	92.56
333.172	111.56
333.4	101.56
333.629	103.56
333.857	108.56
334.085	118.56
334.314	127.56
334.542	165.56
334.771	147.56
334.999	90.56
335.227	94.56
335.455	94.56
335.684	91.56
335.912	105.56
336.14	95.56
336.369	99.56
336.597	91.56
336.825	90.56
337.053	94.56
337.281	97.56
337.51	95.56
337.738	89.56
337.966	106.56
338.194	106.56
338.422	99.56
338.65	93.56
338.878	93.56
339.106	92.56
339.334	93.56
339.562	88.56
339.79	79.56
340.018	83.56
340.246	81.56
340.474	105.56
340.702	93.56
340.93	98.56
341.158	94.56
341.386	99.56
341.614	101.56
341.842	104.56
342.07	94.56
342.298	72.56
342.526	97.56
342.754	103.56
342.981	85.56
343.209	101.56
343.437	104.56
343.665	85.56
343.893	101.56
344.12	99.56
344.348	93.56
344.576	93.56
344.804	85.56
345.031	96.56
345.259	96.56
345.487	96.56
345.714	89.56
345.942	101.56
346.17	91.56
346.397	88.56
346.625	100.56
346.853	87.56
347.08	83.56
347.308	81.56
347.535	105.56
347.763	70.56
347.99	111.56
348.218	107.56
348.445	91.56
348.673	100.56
348.9	83.56
349.128	92.56
349.355	103.56
349.583	108.56
349.81	87.56
350.037	98.56
350.265	97.56
350.492	78.56
350.72	96.56
350.947	108.56
351.174	97.56
351.402	103.56
351.629	94.56
351.856	96.56
352.083	93.56
352.311	121.56
352.538	112.56
352.765	101.56
352.992	107.56
353.22	114.56
353.447	85.56
353.674	107.56
353.901	92.56
354.128	116.56
354.355	94.56
354.583	92.56
354.81	84.56
355.037	100.56
355.264	90.56
355.491	94.56
355.718	81.56
355.945	100.56
356.172	87.56
356.399	97.56
356.626	106.56
356.853	86.56
357.08	93.56
357.307	86.56
357.534	89.56
357.761	87.56
357.988	106.56
358.215	87.56
358.441	90.56
358.668	88.56
358.895	99.56
359.122	99.56
359.349	84.56
359.576	94.56
359.802	98.56
360.029	113.56
360.256	98.56
360.483	104.56
360.709	85.56
360.936	97.56
361.163	98.56
361.39	81.56
361.616	86.56
361.843	89.56
362.07	92.56
362.296	111.56
362.523	99.56
362.749	90.56
362.976	92.56
363.203	80.56
363.429	83.56
363.656	94.56
363.882	81.56
364.109	83.56
364.335	88.56
364.562	91.56
364.788	95.56
365.015	100.56
365.241	96.56
365.468	94.56
365.694	92.56
365.92	88.56
366.147	107.56
366.373	82.56
366.599	82.56
366.826	82.56
367.052	75.56
367.278	87.56
367.505	95.56
367.731	108.56
367.957	97.56
368.184	91.56
368.41	97.56
368.636	97.56
368.862	106.56
369.089	105.56
369.315	85.56
369.541	88.56
369.767	98.56
369.993	98.56
370.219	87.56
370.445	81.56
370.672	87.56
370.898	96.56
371.124	77.56
371.35	89.56
371.576	88.56
371.802	93.56
372.028	89.56
372.254	80.56
372.48	71.56
372.706	89.56
372.932	85.56
373.158	91.56
373.384	95.56
373.61	86.56
373.835	89.56
374.061	89.56
374.287	91.56
374.513	84.56
374.739	91.56
374.965	105.56
375.191	104.56
375.416	80.56
375.642	91.56
375.868	113.56
376.094	87.56
376.319	81.56
376.545	86.56
376.771	90.56
376.997	92.56
377.222	92.56
377.448	84.56
377.674	98.56
377.899	77.56
378.125	99.56
378.35	102.56
378.576	100.56
378.802	97.56
379.027	96.56
379.253	92.56
379.478	91.56
379.704	92.56
379.929	91.56
380.155	69.56
380.38	79.56
380.606	102.56
380.831	88.56
381.057	87.56
381.282	101.56
381.507	92.56
381.733	84.56
381.958	104.56
382.184	90.56
382.409	92.56
382.634	108.56
382.86	98.56
383.085	105.56
383.31	90.56
383.535	93.56
383.761	113.56
383.986	91.56
384.211	95.56
384.436	92.56
384.662	83.56
384.887	101.56
385.112	93.56
385.337	91.56
385.562	99.56
385.787	99.56
386.013	100.56
386.238	85.56
386.463	100.56
386.688	105.56
386.913	97.56
387.138	100.56
387.363	113.56
387.588	112.56
387.813	95.56
388.038	93.56
388.263	97.56
388.488	119.56
388.713	101.56
388.938	84.56
389.163	91.56
389.387	106.56
389.612	89.56
389.837	89.56
390.062	102.56
390.287	85.56
390.512	106.56
390.736	79.56
390.961	101.56
391.186	90.56
391.411	102.56
391.636	72.56
391.86	85.56
392.085	85.56
392.31	99.56
392.534	85.56
392.759	88.56
392.984	71.56
393.208	95.56
393.433	90.56
393.658	83.56
393.882	89.56
394.107	99.56
394.331	71.56
394.556	93.56
394.78	84.56
395.005	84.56
395.229	81.56
395.454	91.56
395.678	80.56
395.903	83.56
396.127	92.56
396.352	91.56
396.576	79.56
396.801	84.56
397.025	88.56
397.249	89.56
397.474	90.56
397.698	105.56
397.922	91.56
398.147	89.56
398.371	80.56
398.595	84.56
398.82	92.56
399.044	83.56
399.268	83.56
399.492	79.56
399.717	87.56
399.941	82.56
400.165	92.56
400.389	76.56
400.613	88.56
400.837	79.56
401.062	84.56
401.286	72.56
401.51	87.56
401.734	81.56
401.958	95.56
402.182	117.56
402.406	124.56
402.63	88.56
402.854	97.56
403.078	91.56
403.302	93.56
403.526	84.56
403.75	93.56
403.974	97.56
404.198	92.56
404.422	88.56
404.645	95.56
404.869	77.56
405.093	104.56
405.317	117.56
405.541	93.56
405.765	109.56
405.988	117.56
406.212	159.56
406.436	200.56
406.66	139.56
406.883	103.56
407.107	88.56
407.331	93.56
407.555	86.56
407.778	86.56
408.002	82.56
408.226	95.56
408.449	97.56
408.673	91.56
408.896	89.56
409.12	96.56
409.344	75.56
409.567	94.56
409.791	87.56
410.014	78.56
410.238	107.56
410.461	100.56
410.685	87.56
410.908	92.56
411.132	121.56
411.355	96.56
411.578	97.56
411.802	101.56
412.025	78.56
412.249	108.56
412.472	93.56
412.695	120.56
412.919	92.56
413.142	103.56
413.365	86.56
413.589	85.56
413.812	99.56
414.035	104.56
414.258	103.56
414.482	90.56
414.705	86.56
414.928	83.56
415.151	89.56
415.374	88.56
415.597	87.56
415.821	88.56
416.044	84.56
416.267	87.56
416.49	89.56
416.713	81.56
416.936	85.56
417.159	89.56
417.382	87.56
417.605	84.56
417.828	96.56
418.051	98.56
418.274	85.56
418.497	74.56
418.72	75.56
418.943	83.56
419.166	81.56
419.389	91.56
419.611	75.56
419.834	87.56
420.057	78.56
420.28	87.56
420.503	76.56
420.726	84.56
420.948	78.56
421.171	92.56
421.394	87.56
421.617	104.56
421.839	86.56
422.062	97.56
422.285	111.56
422.507	95.56
422.73	99.56
422.953	87.56
423.175	77.56
423.398	90.56
423.621	83.56
423.843	72.56
424.066	73.56
424.288	92.56
424.511	100.56
424.733	90.56
424.956	94.56
425.178	98.56
425.401	97.56
425.623	90.56
425.846	74.56
426.068	91.56
426.291	91.56
426.513	96.56
426.735	92.56
426.958	91.56
427.18	91.56
427.402	114.56
427.625	137.56
427.847	135.56
428.069	108.56
428.292	100.56
428.514	87.56
428.736	85.56
428.958	94.56
429.181	78.56
429.403	71.56
429.625	87.56
429.847	100.56
430.069	93.56
430.292	88.56
430.514	97.56
430.736	76.56
430.958	73.56
431.18	92.56
431.402	91.56
431.624	71.56
431.846	71.56
432.068	89.56
432.29	75.56
432.512	89.56
432.734	86.56
432.956	91.56
433.178	88.56
433.4	98.56
433.622	89.56
433.844	105.56
434.066	88.56
434.287	88.56
434.509	97.56
434.731	97.56
434.953	86.56
435.175	106.56
435.397	103.56
435.618	104.56
435.84	102.56
436.062	103.56
436.284	105.56
436.505	99.56
436.727	96.56
436.949	83.56
437.17	90.56
437.392	104.56
437.614	94.56
437.835	93.56
438.057	121.56
438.278	112.56
438.5	104.56
438.721	110.56
438.943	95.56
439.165	83.56
439.386	83.56
439.608	96.56
439.829	105.56
440.05	114.56
440.272	122.56
440.493	92.56
440.715	89.56
440.936	79.56
441.158	90.56
441.379	104.56
441.6	95.56
441.822	91.56
442.043	92.56
442.264	100.56
442.486	101.56
442.707	91.56
442.928	88.56
443.149	123.56
443.371	122.56
443.592	91.56
443.813	111.56
444.034	122.56
444.255	103.56
444.476	93.56
444.698	92.56
444.919	85.56
445.14	135.56
445.361	119.56
445.582	115.56
445.803	115.56
446.024	113.56
446.245	123.56
446.466	112.56
446.687	92.56
446.908	80.56
447.129	103.56
447.35	96.56
447.571	97.56
447.792	100.56
448.013	106.56
448.234	96.56
448.455	84.56
448.675	107.56
448.896	109.56
449.117	90.56
449.338	105.56
449.559	109.56
449.779	107.56
450	87.56
450.221	90.56
450.442	93.56
450.662	89.56
450.883	90.56
451.104	107.56
451.324	101.56
451.545	89.56
451.766	83.56
451.986	99.56
452.207	85.56
452.428	86.56
452.648	99.56
452.869	108.56
453.089	110.56
453.31	113.56
453.53	86.56
453.751	109.56
453.971	107.56
454.192	114.56
454.412	88.56
454.633	98.56
454.853	87.56
455.073	84.56
455.294	70.56
455.514	86.56
455.734	81.56
455.955	85.56
456.175	84.56
456.395	82.56
456.616	94.56
456.836	76.56
457.056	92.56
457.276	99.56
457.497	93.56
457.717	80.56
457.937	90.56
458.157	83.56
458.377	104.56
458.598	103.56
458.818	141.56
459.038	130.56
459.258	117.56
459.478	90.56
459.698	83.56
459.918	81.56
460.138	71.56
460.358	77.56
460.578	83.56
460.798	87.56
461.018	103.56
461.238	87.56
461.458	80.56
461.678	70.56
461.898	94.56
462.118	96.56
462.338	68.56
462.558	79.56
462.777	99.56
462.997	77.56
463.217	84.56
463.437	91.56
463.657	91.56
463.876	103.56
464.096	89.56
464.316	89.56
464.536	90.56
464.755	93.56
464.975	111.56
465.195	138.56
465.414	135.56
465.634	90.56
465.854	89.56
466.073	97.56
466.293	92.56
466.512	74.56
466.732	74.56
466.951	75.56
467.171	76.56
467.391	104.56
467.61	100.56
467.829	95.56
468.049	113.56
468.268	115.56
468.488	97.56
468.707	89.56
468.927	88.56
469.146	86.56
469.365	76.56
469.585	96.56
469.804	98.56
470.023	102.56
470.243	91.56
470.462	102.56
470.681	103.56
470.901	96.56
471.12	80.56
471.339	88.56
471.558	96.56
471.777	91.56
471.997	90.56
472.216	129.56
472.435	152.56
472.654	83.56
472.873	79.56
473.092	77.56
473.311	81.56
473.53	84.56
473.749	87.56
473.968	110.56
474.187	89.56
474.406	88.56
474.625	93.56
474.844	87.56
475.063	97.56
475.282	89.56
475.501	93.56
475.72	95.56
475.939	93.56
476.158	92.56
476.377	83.56
476.596	87.56
476.814	97.56
477.033	93.56
477.252	84.56
477.471	87.56
477.69	83.56
477.908	84.56
478.127	96.56
478.346	86.56
478.564	98.56
478.783	99.56
479.002	93.56
479.22	108.56
479.439	81.56
479.658	91.56
479.876	96.56
480.095	85.56
480.313	78.56
480.532	91.56
480.751	98.56
480.969	120.56
481.188	231.56
481.406	171.56
481.624	92.56
481.843	75.56
482.061	89.56
482.28	85.56
482.498	91.56
482.717	81.56
482.935	91.56
483.153	89.56
483.372	88.56
483.59	75.56
483.808	91.56
484.027	94.56
484.245	85.56
484.463	87.56
484.681	80.56
484.9	93.56
485.118	93.56
485.336	92.56
485.554	97.56
485.772	91.56
485.99	100.56
486.209	95.56
486.427	106.56
486.645	98.56
486.863	103.56
487.081	97.56
487.299	114.56
487.517	108.56
487.735	90.56
487.953	87.56
488.171	93.56
488.389	89.56
488.607	92.56
488.825	74.56
489.043	80.56
489.261	85.56
489.479	81.56
489.696	91.56
489.914	90.56
490.132	87.56
490.35	83.56
490.568	83.56
490.786	95.56
491.003	100.56
491.221	97.56
491.439	92.56
491.657	105.56
491.874	95.56
492.092	91.56
492.31	85.56
492.527	78.56
492.745	89.56
492.963	88.56
493.18	73.56
493.398	101.56
493.615	83.56
493.833	105.56
494.05	82.56
494.268	84.56
494.485	88.56
494.703	91.56
494.92	95.56
495.138	97.56
495.355	98.56
495.573	91.56
495.79	96.56
496.008	103.56
496.225	81.56
496.442	99.56
496.66	87.56
496.877	86.56
497.094	102.56
497.312	89.56
497.529	104.56
497.746	102.56
497.963	90.56
498.181	88.56
498.398	105.56
498.615	102.56
498.832	91.56
499.049	104.56
499.267	86.56
499.484	88.56
499.701	84.56
499.918	90.56
500.135	97.56
500.352	95.56
500.569	76.56
500.786	96.56
501.003	91.56
501.22	103.56
501.437	67.56
501.654	103.56
501.871	99.56
502.088	90.56
502.305	95.56
502.522	95.56
502.739	93.56
502.956	94.56
503.172	79.56
503.389	90.56
503.606	110.56
503.823	81.56
504.04	102.56
504.256	90.56
504.473	89.56
504.69	84.56
504.907	83.56
505.123	87.56
505.34	74.56
505.557	90.56
505.773	82.56
505.99	104.56
506.207	92.56
506.423	95.56
506.64	79.56
506.856	98.56
507.073	99.56
507.289	89.56
507.506	91.56
507.722	100.56
507.939	102.56
508.155	94.56
508.372	98.56
508.588	86.56
508.805	87.56
509.021	91.56
509.238	104.56
509.454	94.56
509.67	93.56
509.887	114.56
510.103	129.56
510.319	212.56
510.536	705.56
510.752	2261.56
510.968	608.56
511.184	142.56
511.401	113.56
511.617	106.56
511.833	109.56
512.049	83.56
512.265	83.56
512.481	92.56
512.698	100.56
512.914	83.56
513.13	91.56
513.346	86.56
513.562	99.56
513.778	103.56
513.994	103.56
514.21	102.56
514.426	115.56
514.642	139.56
514.858	120.56
515.074	139.56
515.29	404.56
515.506	1315.56
515.721	478.56
