Data from Uncirc_1983_H10_HRD10591_00092.txt Node
Date: Wed Jan 03 12:25:50 EST 2024
User: Yrep
Spectrometer: HR+D1059
Trigger mode: 1
Integration Time (sec): 1.000000E-1
Scans to average: 1
Electric dark correction enabled: true
Nonlinearity correction enabled: false
Boxcar width: 0
XAxis mode: Wavelengths
Number of Pixels in Spectrum: 2048
>>>>>Begin Spectral Data<<<<<
223.165	-21.81
223.4	-21.81
223.635	-21.81
223.869	-22.81
224.104	-12.81
224.338	-10.81
224.573	-18.81
224.808	-6.81
225.042	-3.81
225.277	5.19
225.511	4.19
225.746	7.19
225.98	-1.81
226.215	0.19
226.449	20.19
226.683	7.19
226.918	23.19
227.152	32.19
227.387	34.19
227.621	27.19
227.856	42.19
228.09	47.19
228.324	67.19
228.559	64.19
228.793	75.19
229.027	57.19
229.262	67.19
229.496	68.19
229.73	75.19
229.964	84.19
230.199	74.19
230.433	69.19
230.667	71.19
230.901	88.19
231.136	95.19
231.37	74.19
231.604	72.19
231.838	87.19
232.072	91.19
232.306	77.19
232.541	68.19
232.775	85.19
233.009	89.19
233.243	88.19
233.477	76.19
233.711	81.19
233.945	90.19
234.179	70.19
234.413	83.19
234.647	86.19
234.881	89.19
235.115	89.19
235.349	84.19
235.583	90.19
235.817	83.19
236.051	76.19
236.285	74.19
236.519	96.19
236.753	70.19
236.987	89.19
237.221	75.19
237.455	88.19
237.689	78.19
237.922	86.19
238.156	78.19
238.39	61.19
238.624	78.19
238.858	89.19
239.091	77.19
239.325	91.19
239.559	87.19
239.793	93.19
240.027	76.19
240.26	82.19
240.494	85.19
240.728	87.19
240.961	61.19
241.195	85.19
241.429	80.19
241.662	73.19
241.896	75.19
242.13	82.19
242.363	75.19
242.597	73.19
242.83	80.19
243.064	87.19
243.298	65.19
243.531	84.19
243.765	86.19
243.998	81.19
244.232	78.19
244.465	93.19
244.699	75.19
244.932	84.19
245.166	75.19
245.399	76.19
245.633	80.19
245.866	86.19
246.099	87.19
246.333	78.19
246.566	83.19
246.8	71.19
247.033	87.19
247.266	93.19
247.5	83.19
247.733	80.19
247.966	87.19
248.2	59.19
248.433	83.19
248.666	83.19
248.899	78.19
249.133	70.19
249.366	99.19
249.599	96.19
249.832	76.19
250.066	88.19
250.299	79.19
250.532	93.19
250.765	84.19
250.998	77.19
251.231	79.19
251.465	78.19
251.698	73.19
251.931	87.19
252.164	93.19
252.397	84.19
252.63	103.19
252.863	95.19
253.096	79.19
253.329	88.19
253.562	91.19
253.795	66.19
254.028	88.19
254.261	79.19
254.494	69.19
254.727	84.19
254.96	80.19
255.193	73.19
255.426	80.19
255.659	83.19
255.892	93.19
256.124	83.19
256.357	91.19
256.59	88.19
256.823	74.19
257.056	98.19
257.289	86.19
257.521	88.19
257.754	86.19
257.987	74.19
258.22	76.19
258.452	90.19
258.685	78.19
258.918	79.19
259.151	81.19
259.383	92.19
259.616	86.19
259.849	90.19
260.081	95.19
260.314	81.19
260.547	86.19
260.779	93.19
261.012	73.19
261.244	85.19
261.477	97.19
261.71	103.19
261.942	91.19
262.175	105.19
262.407	93.19
262.64	80.19
262.872	83.19
263.105	78.19
263.337	85.19
263.57	92.19
263.802	85.19
264.035	88.19
264.267	81.19
264.499	76.19
264.732	93.19
264.964	104.19
265.197	79.19
265.429	76.19
265.661	80.19
265.894	97.19
266.126	97.19
266.358	84.19
266.591	77.19
266.823	87.19
267.055	91.19
267.287	75.19
267.52	80.19
267.752	96.19
267.984	88.19
268.216	72.19
268.448	91.19
268.681	75.19
268.913	78.19
269.145	93.19
269.377	83.19
269.609	73.19
269.841	84.19
270.073	81.19
270.306	91.19
270.538	91.19
270.77	87.19
271.002	96.19
271.234	94.19
271.466	89.19
271.698	80.19
271.93	76.19
272.162	70.19
272.394	82.19
272.626	97.19
272.858	100.19
273.09	85.19
273.322	88.19
273.553	75.19
273.785	94.19
274.017	91.19
274.249	79.19
274.481	74.19
274.713	90.19
274.945	85.19
275.176	93.19
275.408	71.19
275.64	79.19
275.872	85.19
276.104	90.19
276.335	100.19
276.567	89.19
276.799	101.19
277.031	90.19
277.262	107.19
277.494	94.19
277.726	89.19
277.957	79.19
278.189	93.19
278.421	69.19
278.652	96.19
278.884	76.19
279.115	93.19
279.347	95.19
279.579	86.19
279.81	86.19
280.042	85.19
280.273	90.19
280.505	89.19
280.736	91.19
280.968	86.19
281.199	87.19
281.431	96.19
281.662	89.19
281.894	94.19
282.125	91.19
282.356	114.19
282.588	109.19
282.819	116.19
283.051	103.19
283.282	90.19
283.513	97.19
283.745	96.19
283.976	76.19
284.207	80.19
284.439	87.19
284.67	89.19
284.901	88.19
285.132	82.19
285.364	91.19
285.595	84.19
285.826	86.19
286.057	94.19
286.288	86.19
286.52	97.19
286.751	86.19
286.982	93.19
287.213	87.19
287.444	98.19
287.675	96.19
287.906	100.19
288.138	75.19
288.369	79.19
288.6	94.19
288.831	87.19
289.062	87.19
289.293	87.19
289.524	86.19
289.755	87.19
289.986	86.19
290.217	85.19
290.448	78.19
290.679	101.19
290.91	100.19
291.141	74.19
291.371	77.19
291.602	86.19
291.833	83.19
292.064	96.19
292.295	98.19
292.526	81.19
292.757	83.19
292.987	81.19
293.218	97.19
293.449	79.19
293.68	92.19
293.91	75.19
294.141	93.19
294.372	87.19
294.603	99.19
294.833	101.19
295.064	97.19
295.295	91.19
295.525	90.19
295.756	110.19
295.987	113.19
296.217	125.19
296.448	113.19
296.679	99.19
296.909	100.19
297.14	81.19
297.37	107.19
297.601	82.19
297.831	103.19
298.062	94.19
298.292	103.19
298.523	94.19
298.753	99.19
298.984	99.19
299.214	97.19
299.445	88.19
299.675	94.19
299.905	107.19
300.136	91.19
300.366	87.19
300.597	105.19
300.827	110.19
301.057	103.19
301.288	96.19
301.518	99.19
301.748	106.19
301.979	112.19
302.209	96.19
302.439	103.19
302.669	83.19
302.9	86.19
303.13	80.19
303.36	96.19
303.59	109.19
303.82	94.19
304.051	103.19
304.281	90.19
304.511	95.19
304.741	93.19
304.971	87.19
305.201	99.19
305.431	94.19
305.661	90.19
305.891	91.19
306.121	97.19
306.352	108.19
306.582	92.19
306.812	102.19
307.042	85.19
307.272	96.19
307.502	103.19
307.731	96.19
307.961	84.19
308.191	90.19
308.421	93.19
308.651	100.19
308.881	103.19
309.111	123.19
309.341	99.19
309.571	104.19
309.8	93.19
310.03	93.19
310.26	108.19
310.49	101.19
310.72	97.19
310.949	105.19
311.179	97.19
311.409	101.19
311.639	97.19
311.868	86.19
312.098	77.19
312.328	102.19
312.557	92.19
312.787	112.19
313.017	96.19
313.246	102.19
313.476	88.19
313.706	96.19
313.935	93.19
314.165	101.19
314.394	103.19
314.624	111.19
314.853	95.19
315.083	104.19
315.312	108.19
315.542	109.19
315.771	107.19
316.001	100.19
316.23	93.19
316.46	94.19
316.689	99.19
316.919	102.19
317.148	94.19
317.377	103.19
317.607	102.19
317.836	94.19
318.065	100.19
318.295	95.19
318.524	98.19
318.753	105.19
318.983	87.19
319.212	117.19
319.441	108.19
319.67	101.19
319.9	96.19
320.129	88.19
320.358	88.19
320.587	93.19
320.816	107.19
321.046	108.19
321.275	95.19
321.504	90.19
321.733	108.19
321.962	91.19
322.191	98.19
322.42	90.19
322.649	100.19
322.878	106.19
323.108	112.19
323.337	128.19
323.566	134.19
323.795	131.19
324.024	179.19
324.253	309.19
324.482	656.19
324.71	1352.19
324.939	1829.19
325.168	686.19
325.397	221.19
325.626	144.19
325.855	133.19
326.084	124.19
326.313	117.19
326.542	135.19
326.77	215.19
326.999	410.19
327.228	774.19
327.457	1407.19
327.686	1136.19
327.914	320.19
328.143	184.19
328.372	155.19
328.6	122.19
328.829	119.19
329.058	136.19
329.287	124.19
329.515	119.19
329.744	111.19
329.972	108.19
330.201	123.19
330.43	147.19
330.658	127.19
330.887	129.19
331.115	122.19
331.344	98.19
331.572	93.19
331.801	101.19
332.03	101.19
332.258	101.19
332.486	103.19
332.715	92.19
332.943	107.19
333.172	107.19
333.4	101.19
333.629	112.19
333.857	115.19
334.085	108.19
334.314	122.19
334.542	163.19
334.771	157.19
334.999	105.19
335.227	108.19
335.455	87.19
335.684	102.19
335.912	110.19
336.14	104.19
336.369	97.19
336.597	80.19
336.825	105.19
337.053	107.19
337.281	99.19
337.51	90.19
337.738	95.19
337.966	84.19
338.194	89.19
338.422	80.19
338.65	86.19
338.878	101.19
339.106	105.19
339.334	102.19
339.562	96.19
339.79	85.19
340.018	83.19
340.246	103.19
340.474	95.19
340.702	96.19
340.93	96.19
341.158	100.19
341.386	99.19
341.614	110.19
341.842	101.19
342.07	80.19
342.298	97.19
342.526	105.19
342.754	83.19
342.981	108.19
343.209	79.19
343.437	104.19
343.665	100.19
343.893	98.19
344.12	91.19
344.348	80.19
344.576	85.19
344.804	93.19
345.031	94.19
345.259	103.19
345.487	103.19
345.714	93.19
345.942	100.19
346.17	88.19
346.397	93.19
346.625	101.19
346.853	102.19
347.08	107.19
347.308	99.19
347.535	103.19
347.763	107.19
347.99	91.19
348.218	111.19
348.445	110.19
348.673	88.19
348.9	103.19
349.128	101.19
349.355	96.19
349.583	102.19
349.81	89.19
350.037	111.19
350.265	84.19
350.492	95.19
350.72	103.19
350.947	88.19
351.174	118.19
351.402	112.19
351.629	111.19
351.856	113.19
352.083	90.19
352.311	99.19
352.538	99.19
352.765	117.19
352.992	115.19
353.22	110.19
353.447	119.19
353.674	93.19
353.901	110.19
354.128	101.19
354.355	104.19
354.583	98.19
354.81	96.19
355.037	93.19
355.264	98.19
355.491	87.19
355.718	97.19
355.945	111.19
356.172	89.19
356.399	96.19
356.626	95.19
356.853	87.19
357.08	95.19
357.307	86.19
357.534	84.19
357.761	70.19
357.988	103.19
358.215	85.19
358.441	99.19
358.668	99.19
358.895	95.19
359.122	83.19
359.349	93.19
359.576	109.19
359.802	108.19
360.029	107.19
360.256	112.19
360.483	87.19
360.709	96.19
360.936	104.19
361.163	104.19
361.39	92.19
361.616	101.19
361.843	94.19
362.07	105.19
362.296	94.19
362.523	102.19
362.749	90.19
362.976	105.19
363.203	91.19
363.429	90.19
363.656	86.19
363.882	93.19
364.109	77.19
364.335	91.19
364.562	94.19
364.788	97.19
365.015	98.19
365.241	102.19
365.468	104.19
365.694	92.19
365.92	97.19
366.147	95.19
366.373	94.19
366.599	103.19
366.826	103.19
367.052	85.19
367.278	78.19
367.505	90.19
367.731	109.19
367.957	83.19
368.184	98.19
368.41	108.19
368.636	105.19
368.862	116.19
369.089	114.19
369.315	103.19
369.541	81.19
369.767	95.19
369.993	103.19
370.219	86.19
370.445	94.19
370.672	76.19
370.898	85.19
371.124	84.19
371.35	94.19
371.576	97.19
371.802	100.19
372.028	91.19
372.254	85.19
372.48	97.19
372.706	105.19
372.932	101.19
373.158	92.19
373.384	96.19
373.61	87.19
373.835	93.19
374.061	90.19
374.287	93.19
374.513	104.19
374.739	85.19
374.965	99.19
375.191	83.19
375.416	97.19
375.642	103.19
375.868	97.19
376.094	94.19
376.319	98.19
376.545	98.19
376.771	89.19
376.997	93.19
377.222	108.19
377.448	104.19
377.674	93.19
377.899	108.19
378.125	96.19
378.35	87.19
378.576	77.19
378.802	78.19
379.027	96.19
379.253	109.19
379.478	97.19
379.704	94.19
379.929	80.19
380.155	94.19
380.38	100.19
380.606	85.19
380.831	103.19
381.057	99.19
381.282	97.19
381.507	97.19
381.733	98.19
381.958	89.19
382.184	106.19
382.409	109.19
382.634	96.19
382.86	91.19
383.085	105.19
383.31	108.19
383.535	103.19
383.761	113.19
383.986	101.19
384.211	103.19
384.436	104.19
384.662	102.19
384.887	103.19
385.112	93.19
385.337	92.19
385.562	107.19
385.787	97.19
386.013	102.19
386.238	108.19
386.463	102.19
386.688	98.19
386.913	99.19
387.138	115.19
387.363	99.19
387.588	95.19
387.813	107.19
388.038	99.19
388.263	111.19
388.488	108.19
388.713	86.19
388.938	101.19
389.163	104.19
389.387	84.19
389.612	87.19
389.837	87.19
390.062	93.19
390.287	89.19
390.512	101.19
390.736	101.19
390.961	99.19
391.186	92.19
391.411	110.19
391.636	96.19
391.86	89.19
392.085	81.19
392.31	100.19
392.534	89.19
392.759	107.19
392.984	91.19
393.208	88.19
393.433	85.19
393.658	99.19
393.882	86.19
394.107	87.19
394.331	91.19
394.556	88.19
394.78	78.19
395.005	91.19
395.229	80.19
395.454	93.19
395.678	103.19
395.903	90.19
396.127	96.19
396.352	87.19
396.576	91.19
396.801	101.19
397.025	101.19
397.249	89.19
397.474	86.19
397.698	69.19
397.922	95.19
398.147	91.19
398.371	96.19
398.595	78.19
398.82	84.19
399.044	89.19
399.268	94.19
399.492	87.19
399.717	103.19
399.941	96.19
400.165	102.19
400.389	86.19
400.613	83.19
400.837	88.19
401.062	89.19
401.286	103.19
401.51	87.19
401.734	74.19
401.958	100.19
402.182	109.19
402.406	153.19
402.63	98.19
402.854	87.19
403.078	99.19
403.302	99.19
403.526	93.19
403.75	90.19
403.974	90.19
404.198	96.19
404.422	100.19
404.645	81.19
404.869	83.19
405.093	116.19
405.317	106.19
405.541	97.19
405.765	104.19
405.988	106.19
406.212	161.19
406.436	195.19
406.66	126.19
406.883	87.19
407.107	100.19
407.331	95.19
407.555	102.19
407.778	104.19
408.002	89.19
408.226	87.19
408.449	94.19
408.673	106.19
408.896	93.19
409.12	108.19
409.344	97.19
409.567	106.19
409.791	95.19
410.014	98.19
410.238	103.19
410.461	104.19
410.685	110.19
410.908	98.19
411.132	105.19
411.355	96.19
411.578	91.19
411.802	109.19
412.025	100.19
412.249	91.19
412.472	94.19
412.695	101.19
412.919	98.19
413.142	95.19
413.365	85.19
413.589	85.19
413.812	91.19
414.035	104.19
414.258	94.19
414.482	92.19
414.705	95.19
414.928	89.19
415.151	121.19
415.374	109.19
415.597	92.19
415.821	84.19
416.044	94.19
416.267	90.19
416.49	90.19
416.713	90.19
416.936	93.19
417.159	94.19
417.382	103.19
417.605	108.19
417.828	89.19
418.051	101.19
418.274	81.19
418.497	101.19
418.72	83.19
418.943	80.19
419.166	85.19
419.389	99.19
419.611	106.19
419.834	89.19
420.057	91.19
420.28	83.19
420.503	102.19
420.726	94.19
420.948	100.19
421.171	99.19
421.394	101.19
421.617	107.19
421.839	115.19
422.062	91.19
422.285	89.19
422.507	95.19
422.73	100.19
422.953	107.19
423.175	78.19
423.398	95.19
423.621	94.19
423.843	90.19
424.066	81.19
424.288	99.19
424.511	71.19
424.733	96.19
424.956	105.19
425.178	99.19
425.401	106.19
425.623	109.19
425.846	98.19
426.068	79.19
426.291	103.19
426.513	106.19
426.735	104.19
426.958	94.19
427.18	101.19
427.402	124.19
427.625	150.19
427.847	126.19
428.069	110.19
428.292	81.19
428.514	83.19
428.736	87.19
428.958	87.19
429.181	84.19
429.403	97.19
429.625	91.19
429.847	86.19
430.069	89.19
430.292	92.19
430.514	89.19
430.736	99.19
430.958	78.19
431.18	95.19
431.402	93.19
431.624	105.19
431.846	92.19
432.068	99.19
432.29	92.19
432.512	107.19
432.734	89.19
432.956	95.19
433.178	97.19
433.4	112.19
433.622	94.19
433.844	77.19
434.066	97.19
434.287	78.19
434.509	92.19
434.731	100.19
434.953	89.19
435.175	91.19
435.397	91.19
435.618	100.19
435.84	106.19
436.062	141.19
436.284	112.19
436.505	95.19
436.727	94.19
436.949	83.19
437.17	92.19
437.392	109.19
437.614	85.19
437.835	96.19
438.057	118.19
438.278	108.19
438.5	107.19
438.721	129.19
438.943	97.19
439.165	107.19
439.386	85.19
439.608	94.19
439.829	83.19
440.05	115.19
440.272	121.19
440.493	80.19
440.715	92.19
440.936	92.19
441.158	93.19
441.379	90.19
441.6	93.19
441.822	98.19
442.043	104.19
442.264	102.19
442.486	91.19
442.707	88.19
442.928	113.19
443.149	119.19
443.371	115.19
443.592	100.19
443.813	105.19
444.034	100.19
444.255	86.19
444.476	93.19
444.698	98.19
444.919	89.19
445.14	117.19
445.361	107.19
445.582	117.19
445.803	115.19
446.024	117.19
446.245	120.19
446.466	104.19
446.687	110.19
446.908	102.19
447.129	81.19
447.35	95.19
447.571	100.19
447.792	97.19
448.013	101.19
448.234	108.19
448.455	101.19
448.675	112.19
448.896	106.19
449.117	108.19
449.338	104.19
449.559	133.19
449.779	128.19
450	90.19
450.221	101.19
450.442	92.19
450.662	100.19
450.883	117.19
451.104	110.19
451.324	84.19
451.545	79.19
451.766	91.19
451.986	86.19
452.207	96.19
452.428	97.19
452.648	90.19
452.869	105.19
453.089	126.19
453.31	112.19
453.53	85.19
453.751	98.19
453.971	99.19
454.192	112.19
454.412	85.19
454.633	93.19
454.853	96.19
455.073	91.19
455.294	92.19
455.514	94.19
455.734	99.19
455.955	83.19
456.175	88.19
456.395	95.19
456.616	86.19
456.836	74.19
457.056	96.19
457.276	80.19
457.497	85.19
457.717	72.19
457.937	99.19
458.157	100.19
458.377	92.19
458.598	112.19
458.818	134.19
459.038	155.19
459.258	113.19
459.478	99.19
459.698	92.19
459.918	89.19
460.138	87.19
460.358	85.19
460.578	95.19
460.798	84.19
461.018	79.19
461.238	96.19
461.458	84.19
461.678	90.19
461.898	74.19
462.118	91.19
462.338	87.19
462.558	99.19
462.777	87.19
462.997	76.19
463.217	77.19
463.437	87.19
463.657	97.19
463.876	90.19
464.096	91.19
464.316	98.19
464.536	85.19
464.755	96.19
464.975	109.19
465.195	164.19
465.414	133.19
465.634	111.19
465.854	97.19
466.073	92.19
466.293	99.19
466.512	96.19
466.732	97.19
466.951	95.19
467.171	96.19
467.391	81.19
467.61	92.19
467.829	108.19
468.049	122.19
468.268	125.19
468.488	95.19
468.707	91.19
468.927	101.19
469.146	75.19
469.365	89.19
469.585	99.19
469.804	103.19
470.023	97.19
470.243	104.19
470.462	105.19
470.681	99.19
470.901	95.19
471.12	103.19
471.339	88.19
471.558	87.19
471.777	95.19
471.997	106.19
472.216	142.19
472.435	183.19
472.654	109.19
472.873	85.19
473.092	74.19
473.311	83.19
473.53	83.19
473.749	112.19
473.968	99.19
474.187	110.19
474.406	95.19
474.625	80.19
474.844	95.19
475.063	75.19
475.282	87.19
475.501	92.19
475.72	91.19
475.939	75.19
476.158	87.19
476.377	79.19
476.596	98.19
476.814	95.19
477.033	97.19
477.252	100.19
477.471	109.19
477.69	100.19
477.908	93.19
478.127	97.19
478.346	97.19
478.564	92.19
478.783	92.19
479.002	99.19
479.22	108.19
479.439	101.19
479.658	102.19
479.876	101.19
480.095	96.19
480.313	104.19
480.532	96.19
480.751	120.19
480.969	135.19
481.188	277.19
481.406	187.19
481.624	101.19
481.843	87.19
482.061	79.19
482.28	83.19
482.498	96.19
482.717	89.19
482.935	89.19
483.153	89.19
483.372	81.19
483.59	88.19
483.808	86.19
484.027	91.19
484.245	105.19
484.463	95.19
484.681	95.19
484.9	118.19
485.118	96.19
485.336	87.19
485.554	96.19
485.772	94.19
485.99	100.19
486.209	112.19
486.427	102.19
486.645	106.19
486.863	120.19
487.081	105.19
487.299	94.19
487.517	105.19
487.735	91.19
487.953	92.19
488.171	103.19
488.389	87.19
488.607	107.19
488.825	89.19
489.043	108.19
489.261	97.19
489.479	104.19
489.696	91.19
489.914	93.19
490.132	74.19
490.35	88.19
490.568	87.19
490.786	104.19
491.003	101.19
491.221	95.19
491.439	95.19
491.657	96.19
491.874	81.19
492.092	95.19
492.31	98.19
492.527	90.19
492.745	97.19
492.963	102.19
493.18	88.19
493.398	99.19
493.615	107.19
493.833	91.19
494.05	108.19
494.268	108.19
494.485	99.19
494.703	99.19
494.92	89.19
495.138	97.19
495.355	94.19
495.573	107.19
495.79	87.19
496.008	101.19
496.225	85.19
496.442	105.19
496.66	102.19
496.877	87.19
497.094	101.19
497.312	89.19
497.529	89.19
497.746	88.19
497.963	70.19
498.181	98.19
498.398	99.19
498.615	105.19
498.832	101.19
499.049	80.19
499.267	89.19
499.484	99.19
499.701	89.19
499.918	100.19
500.135	94.19
500.352	101.19
500.569	86.19
500.786	91.19
501.003	93.19
501.22	102.19
501.437	93.19
501.654	85.19
501.871	107.19
502.088	85.19
502.305	106.19
502.522	92.19
502.739	90.19
502.956	89.19
503.172	91.19
503.389	89.19
503.606	105.19
503.823	103.19
504.04	86.19
504.256	94.19
504.473	87.19
504.69	99.19
504.907	90.19
505.123	85.19
505.34	100.19
505.557	85.19
505.773	98.19
505.99	89.19
506.207	96.19
506.423	104.19
506.64	101.19
506.856	107.19
507.073	89.19
507.289	69.19
507.506	109.19
507.722	95.19
507.939	100.19
508.155	109.19
508.372	104.19
508.588	93.19
508.805	100.19
509.021	88.19
509.238	103.19
509.454	89.19
509.67	95.19
509.887	111.19
510.103	117.19
510.319	186.19
510.536	679.19
510.752	1979.19
510.968	551.19
511.184	142.19
511.401	103.19
511.617	106.19
511.833	92.19
512.049	99.19
512.265	88.19
512.481	88.19
512.698	101.19
512.914	77.19
513.13	81.19
513.346	89.19
513.562	83.19
513.778	98.19
513.994	101.19
514.21	92.19
