Data from Uncirc_1983_H10_HRD10591_00018.txt Node
Date: Wed Jan 03 12:25:35 EST 2024
User: Yrep
Spectrometer: HR+D1059
Trigger mode: 1
Integration Time (sec): 1.000000E-1
Scans to average: 1
Electric dark correction enabled: true
Nonlinearity correction enabled: false
Boxcar width: 0
XAxis mode: Wavelengths
Number of Pixels in Spectrum: 2048
>>>>>Begin Spectral Data<<<<<
223.165	-28.88
223.4	-28.88
223.635	-28.88
223.869	-11.88
224.104	-22.88
224.338	-9.88
224.573	-14.88
224.808	-16.88
225.042	0.12
225.277	-6.88
225.511	3.12
225.746	-1.88
225.98	6.12
226.215	21.12
226.449	15.12
226.683	17.12
226.918	21.12
227.152	30.12
227.387	31.12
227.621	41.12
227.856	48.12
228.09	52.12
228.324	49.12
228.559	51.12
228.793	59.12
229.027	48.12
229.262	49.12
229.496	67.12
229.73	83.12
229.964	99.12
230.199	82.12
230.433	81.12
230.667	84.12
230.901	66.12
231.136	76.12
231.37	90.12
231.604	76.12
231.838	81.12
232.072	91.12
232.306	75.12
232.541	65.12
232.775	87.12
233.009	91.12
233.243	85.12
233.477	76.12
233.711	87.12
233.945	91.12
234.179	75.12
234.413	91.12
234.647	83.12
234.881	85.12
235.115	81.12
235.349	82.12
235.583	81.12
235.817	76.12
236.051	67.12
236.285	69.12
236.519	70.12
236.753	71.12
236.987	76.12
237.221	82.12
237.455	93.12
237.689	74.12
237.922	75.12
238.156	61.12
238.39	88.12
238.624	71.12
238.858	72.12
239.091	91.12
239.325	78.12
239.559	78.12
239.793	76.12
240.027	85.12
240.26	73.12
240.494	74.12
240.728	75.12
240.961	83.12
241.195	82.12
241.429	82.12
241.662	71.12
241.896	69.12
242.13	83.12
242.363	65.12
242.597	77.12
242.83	78.12
243.064	77.12
243.298	86.12
243.531	73.12
243.765	78.12
243.998	78.12
244.232	85.12
244.465	83.12
244.699	83.12
244.932	67.12
245.166	93.12
245.399	90.12
245.633	73.12
245.866	74.12
246.099	82.12
246.333	79.12
246.566	86.12
246.8	79.12
247.033	89.12
247.266	79.12
247.5	81.12
247.733	78.12
247.966	69.12
248.2	74.12
248.433	75.12
248.666	85.12
248.899	69.12
249.133	86.12
249.366	87.12
249.599	98.12
249.832	72.12
250.066	83.12
250.299	76.12
250.532	85.12
250.765	84.12
250.998	88.12
251.231	82.12
251.465	83.12
251.698	70.12
251.931	66.12
252.164	76.12
252.397	70.12
252.63	81.12
252.863	87.12
253.096	87.12
253.329	87.12
253.562	87.12
253.795	100.12
254.028	78.12
254.261	87.12
254.494	73.12
254.727	91.12
254.96	85.12
255.193	78.12
255.426	83.12
255.659	69.12
255.892	87.12
256.124	86.12
256.357	89.12
256.59	88.12
256.823	74.12
257.056	86.12
257.289	85.12
257.521	89.12
257.754	63.12
257.987	73.12
258.22	81.12
258.452	83.12
258.685	66.12
258.918	89.12
259.151	73.12
259.383	83.12
259.616	91.12
259.849	84.12
260.081	74.12
260.314	97.12
260.547	89.12
260.779	83.12
261.012	89.12
261.244	83.12
261.477	88.12
261.71	92.12
261.942	85.12
262.175	112.12
262.407	72.12
262.64	72.12
262.872	74.12
263.105	78.12
263.337	86.12
263.57	87.12
263.802	75.12
264.035	90.12
264.267	85.12
264.499	77.12
264.732	85.12
264.964	79.12
265.197	81.12
265.429	99.12
265.661	97.12
265.894	78.12
266.126	83.12
266.358	90.12
266.591	84.12
266.823	86.12
267.055	80.12
267.287	106.12
267.52	94.12
267.752	94.12
267.984	90.12
268.216	71.12
268.448	77.12
268.681	86.12
268.913	71.12
269.145	88.12
269.377	93.12
269.609	79.12
269.841	77.12
270.073	90.12
270.306	82.12
270.538	85.12
270.77	83.12
271.002	74.12
271.234	72.12
271.466	83.12
271.698	81.12
271.93	81.12
272.162	89.12
272.394	87.12
272.626	95.12
272.858	88.12
273.09	84.12
273.322	86.12
273.553	85.12
273.785	89.12
274.017	79.12
274.249	77.12
274.481	88.12
274.713	93.12
274.945	74.12
275.176	87.12
275.408	89.12
275.64	81.12
275.872	81.12
276.104	78.12
276.335	75.12
276.567	99.12
276.799	112.12
277.031	104.12
277.262	67.12
277.494	78.12
277.726	84.12
277.957	92.12
278.189	86.12
278.421	68.12
278.652	89.12
278.884	83.12
279.115	78.12
279.347	97.12
279.579	83.12
279.81	97.12
280.042	81.12
280.273	93.12
280.505	99.12
280.736	83.12
280.968	87.12
281.199	93.12
281.431	77.12
281.662	81.12
281.894	95.12
282.125	94.12
282.356	115.12
282.588	134.12
282.819	116.12
283.051	100.12
283.282	89.12
283.513	94.12
283.745	106.12
283.976	78.12
284.207	75.12
284.439	87.12
284.67	94.12
284.901	85.12
285.132	95.12
285.364	102.12
285.595	88.12
285.826	76.12
286.057	87.12
286.288	78.12
286.52	86.12
286.751	102.12
286.982	88.12
287.213	77.12
287.444	77.12
287.675	101.12
287.906	89.12
288.138	85.12
288.369	88.12
288.6	101.12
288.831	83.12
289.062	92.12
289.293	97.12
289.524	78.12
289.755	81.12
289.986	86.12
290.217	78.12
290.448	78.12
290.679	101.12
290.91	101.12
291.141	87.12
291.371	97.12
291.602	89.12
291.833	100.12
292.064	89.12
292.295	94.12
292.526	89.12
292.757	89.12
292.987	90.12
293.218	83.12
293.449	78.12
293.68	98.12
293.91	78.12
294.141	85.12
294.372	104.12
294.603	87.12
294.833	96.12
295.064	98.12
295.295	95.12
295.525	102.12
295.756	84.12
295.987	102.12
296.217	117.12
296.448	132.12
296.679	83.12
296.909	89.12
297.14	95.12
297.37	89.12
297.601	90.12
297.831	83.12
298.062	84.12
298.292	76.12
298.523	77.12
298.753	93.12
298.984	93.12
299.214	97.12
299.445	99.12
299.675	90.12
299.905	104.12
300.136	99.12
300.366	79.12
300.597	72.12
300.827	93.12
301.057	89.12
301.288	101.12
301.518	96.12
301.748	83.12
301.979	94.12
302.209	85.12
302.439	87.12
302.669	96.12
302.9	88.12
303.13	103.12
303.36	105.12
303.59	96.12
303.82	103.12
304.051	97.12
304.281	81.12
304.511	92.12
304.741	100.12
304.971	76.12
305.201	110.12
305.431	82.12
305.661	106.12
305.891	101.12
306.121	95.12
306.352	99.12
306.582	111.12
306.812	87.12
307.042	93.12
307.272	87.12
307.502	104.12
307.731	83.12
307.961	93.12
308.191	100.12
308.421	99.12
308.651	92.12
308.881	84.12
309.111	85.12
309.341	105.12
309.571	97.12
309.8	101.12
310.03	110.12
310.26	100.12
310.49	77.12
310.72	96.12
310.949	107.12
311.179	99.12
311.409	92.12
311.639	90.12
311.868	91.12
312.098	98.12
312.328	86.12
312.557	100.12
312.787	98.12
313.017	101.12
313.246	93.12
313.476	82.12
313.706	98.12
313.935	103.12
314.165	103.12
314.394	89.12
314.624	93.12
314.853	98.12
315.083	92.12
315.312	87.12
315.542	91.12
315.771	91.12
316.001	89.12
316.23	97.12
316.46	98.12
316.689	97.12
316.919	90.12
317.148	100.12
317.377	102.12
317.607	107.12
317.836	91.12
318.065	86.12
318.295	97.12
318.524	83.12
318.753	93.12
318.983	102.12
319.212	101.12
319.441	87.12
319.67	114.12
319.9	92.12
320.129	96.12
320.358	95.12
320.587	117.12
320.816	95.12
321.046	87.12
321.275	102.12
321.504	92.12
321.733	92.12
321.962	89.12
322.191	96.12
322.42	110.12
322.649	118.12
322.878	110.12
323.108	115.12
323.337	138.12
323.566	135.12
323.795	149.12
324.024	207.12
324.253	360.12
324.482	755.12
324.71	1514.12
324.939	1980.12
325.168	741.12
325.397	225.12
325.626	138.12
325.855	132.12
326.084	124.12
326.313	140.12
326.542	156.12
326.77	222.12
326.999	432.12
327.228	853.12
327.457	1541.12
327.686	1250.12
327.914	349.12
328.143	191.12
328.372	137.12
328.6	108.12
328.829	118.12
329.058	117.12
329.287	132.12
329.515	99.12
329.744	93.12
329.972	107.12
330.201	101.12
330.43	124.12
330.658	108.12
330.887	145.12
331.115	116.12
331.344	105.12
331.572	93.12
331.801	106.12
332.03	87.12
332.258	91.12
332.486	99.12
332.715	97.12
332.943	76.12
333.172	87.12
333.4	89.12
333.629	114.12
333.857	102.12
334.085	110.12
334.314	104.12
334.542	95.12
334.771	87.12
334.999	87.12
335.227	90.12
335.455	96.12
335.684	105.12
335.912	95.12
336.14	90.12
336.369	93.12
336.597	97.12
336.825	104.12
337.053	92.12
337.281	89.12
337.51	83.12
337.738	105.12
337.966	94.12
338.194	94.12
338.422	99.12
338.65	89.12
338.878	97.12
339.106	78.12
339.334	98.12
339.562	90.12
339.79	97.12
340.018	92.12
340.246	92.12
340.474	101.12
340.702	100.12
340.93	89.12
341.158	94.12
341.386	103.12
341.614	99.12
341.842	95.12
342.07	103.12
342.298	91.12
342.526	104.12
342.754	87.12
342.981	79.12
343.209	87.12
343.437	86.12
343.665	90.12
343.893	97.12
344.12	90.12
344.348	100.12
344.576	85.12
344.804	93.12
345.031	90.12
345.259	105.12
345.487	81.12
345.714	97.12
345.942	93.12
346.17	100.12
346.397	105.12
346.625	84.12
346.853	81.12
347.08	99.12
347.308	91.12
347.535	98.12
347.763	111.12
347.99	109.12
348.218	111.12
348.445	102.12
348.673	98.12
348.9	104.12
349.128	91.12
349.355	86.12
349.583	107.12
349.81	92.12
350.037	101.12
350.265	105.12
350.492	89.12
350.72	100.12
350.947	109.12
351.174	99.12
351.402	109.12
351.629	89.12
351.856	106.12
352.083	114.12
352.311	118.12
352.538	114.12
352.765	115.12
352.992	112.12
353.22	108.12
353.447	119.12
353.674	103.12
353.901	95.12
354.128	89.12
354.355	94.12
354.583	102.12
354.81	95.12
355.037	101.12
355.264	81.12
355.491	93.12
355.718	95.12
355.945	81.12
356.172	104.12
356.399	103.12
356.626	95.12
356.853	95.12
357.08	106.12
357.307	101.12
357.534	102.12
357.761	96.12
357.988	106.12
358.215	105.12
358.441	108.12
358.668	86.12
358.895	102.12
359.122	101.12
359.349	95.12
359.576	84.12
359.802	103.12
360.029	92.12
360.256	107.12
360.483	92.12
360.709	100.12
360.936	88.12
361.163	94.12
361.39	92.12
361.616	106.12
361.843	88.12
362.07	101.12
362.296	89.12
362.523	79.12
362.749	97.12
362.976	93.12
363.203	91.12
363.429	101.12
363.656	97.12
363.882	89.12
364.109	99.12
364.335	88.12
364.562	100.12
364.788	95.12
365.015	105.12
365.241	105.12
365.468	102.12
365.694	91.12
365.92	107.12
366.147	83.12
366.373	73.12
366.599	91.12
366.826	103.12
367.052	99.12
367.278	102.12
367.505	109.12
367.731	97.12
367.957	98.12
368.184	94.12
368.41	97.12
368.636	111.12
368.862	115.12
369.089	112.12
369.315	90.12
369.541	99.12
369.767	90.12
369.993	94.12
370.219	94.12
370.445	98.12
370.672	89.12
370.898	105.12
371.124	93.12
371.35	100.12
371.576	94.12
371.802	101.12
372.028	93.12
372.254	94.12
372.48	84.12
372.706	85.12
372.932	81.12
373.158	86.12
373.384	92.12
373.61	97.12
373.835	81.12
374.061	100.12
374.287	95.12
374.513	109.12
374.739	106.12
374.965	84.12
375.191	90.12
375.416	88.12
375.642	81.12
375.868	93.12
376.094	85.12
376.319	77.12
376.545	89.12
376.771	88.12
376.997	90.12
377.222	90.12
377.448	101.12
377.674	98.12
377.899	91.12
378.125	95.12
378.35	90.12
378.576	102.12
378.802	90.12
379.027	99.12
379.253	102.12
379.478	89.12
379.704	94.12
379.929	103.12
380.155	95.12
380.38	96.12
380.606	101.12
380.831	84.12
381.057	104.12
381.282	106.12
381.507	98.12
381.733	95.12
381.958	109.12
382.184	107.12
382.409	101.12
382.634	104.12
382.86	109.12
383.085	110.12
383.31	110.12
383.535	104.12
383.761	98.12
383.986	98.12
384.211	98.12
384.436	111.12
384.662	98.12
384.887	100.12
385.112	109.12
385.337	114.12
385.562	100.12
385.787	107.12
386.013	107.12
386.238	110.12
386.463	119.12
386.688	106.12
386.913	109.12
387.138	103.12
387.363	110.12
387.588	110.12
387.813	113.12
388.038	111.12
388.263	116.12
388.488	127.12
388.713	105.12
388.938	103.12
389.163	110.12
389.387	109.12
389.612	90.12
389.837	81.12
390.062	88.12
390.287	100.12
390.512	98.12
390.736	86.12
390.961	94.12
391.186	102.12
391.411	109.12
391.636	94.12
391.86	86.12
392.085	93.12
392.31	85.12
392.534	83.12
392.759	109.12
392.984	93.12
393.208	90.12
393.433	120.12
393.658	112.12
393.882	90.12
394.107	74.12
394.331	75.12
394.556	88.12
394.78	97.12
395.005	101.12
395.229	94.12
395.454	82.12
395.678	85.12
395.903	94.12
396.127	91.12
396.352	94.12
396.576	86.12
396.801	100.12
397.025	91.12
397.249	102.12
397.474	87.12
397.698	95.12
397.922	86.12
398.147	91.12
398.371	80.12
398.595	100.12
398.82	73.12
399.044	83.12
399.268	75.12
399.492	75.12
399.717	100.12
399.941	100.12
400.165	83.12
400.389	97.12
400.613	95.12
400.837	94.12
401.062	99.12
401.286	90.12
401.51	89.12
401.734	99.12
401.958	102.12
402.182	124.12
402.406	139.12
402.63	117.12
402.854	85.12
403.078	101.12
403.302	86.12
403.526	93.12
403.75	90.12
403.974	79.12
404.198	95.12
404.422	99.12
404.645	90.12
404.869	88.12
405.093	89.12
405.317	91.12
405.541	98.12
405.765	95.12
405.988	111.12
406.212	148.12
406.436	208.12
406.66	143.12
406.883	105.12
407.107	99.12
407.331	89.12
407.555	89.12
407.778	95.12
408.002	85.12
408.226	97.12
408.449	93.12
408.673	81.12
408.896	89.12
409.12	92.12
409.344	91.12
409.567	90.12
409.791	89.12
410.014	81.12
410.238	91.12
410.461	97.12
410.685	95.12
410.908	99.12
411.132	104.12
411.355	101.12
411.578	92.12
411.802	86.12
412.025	75.12
412.249	99.12
412.472	87.12
412.695	97.12
412.919	87.12
413.142	82.12
413.365	69.12
413.589	90.12
413.812	89.12
414.035	111.12
414.258	87.12
414.482	99.12
414.705	93.12
414.928	103.12
415.151	107.12
415.374	89.12
415.597	75.12
415.821	87.12
416.044	94.12
416.267	90.12
416.49	90.12
416.713	87.12
416.936	89.12
417.159	96.12
417.382	105.12
417.605	76.12
417.828	94.12
418.051	83.12
418.274	107.12
418.497	93.12
418.72	86.12
418.943	105.12
419.166	89.12
419.389	92.12
419.611	81.12
419.834	99.12
420.057	83.12
420.28	87.12
420.503	82.12
420.726	92.12
420.948	89.12
421.171	93.12
421.394	89.12
421.617	92.12
421.839	99.12
422.062	85.12
422.285	107.12
422.507	99.12
422.73	103.12
422.953	107.12
423.175	97.12
423.398	90.12
423.621	82.12
423.843	98.12
424.066	90.12
424.288	81.12
424.511	85.12
424.733	90.12
424.956	97.12
425.178	84.12
425.401	97.12
425.623	93.12
425.846	90.12
426.068	89.12
426.291	86.12
426.513	83.12
426.735	93.12
426.958	105.12
427.18	92.12
427.402	108.12
427.625	146.12
427.847	128.12
428.069	93.12
428.292	79.12
428.514	90.12
428.736	82.12
428.958	95.12
429.181	72.12
429.403	83.12
429.625	82.12
429.847	99.12
430.069	106.12
430.292	85.12
430.514	83.12
430.736	93.12
430.958	87.12
431.18	93.12
431.402	95.12
431.624	88.12
431.846	86.12
432.068	90.12
432.29	88.12
432.512	97.12
432.734	98.12
432.956	83.12
433.178	96.12
433.4	96.12
433.622	101.12
433.844	70.12
434.066	89.12
434.287	85.12
434.509	82.12
434.731	87.12
434.953	90.12
435.175	85.12
435.397	100.12
435.618	106.12
435.84	106.12
436.062	114.12
436.284	108.12
436.505	103.12
436.727	105.12
436.949	101.12
437.17	86.12
437.392	92.12
437.614	94.12
437.835	99.12
438.057	108.12
438.278	106.12
438.5	116.12
438.721	114.12
438.943	103.12
439.165	88.12
439.386	72.12
439.608	92.12
439.829	107.12
440.05	117.12
440.272	126.12
440.493	94.12
440.715	74.12
440.936	100.12
441.158	93.12
441.379	82.12
441.6	94.12
441.822	93.12
442.043	102.12
442.264	123.12
442.486	95.12
442.707	97.12
442.928	102.12
443.149	126.12
443.371	104.12
443.592	97.12
443.813	107.12
444.034	95.12
444.255	108.12
444.476	84.12
444.698	79.12
444.919	97.12
445.14	149.12
445.361	133.12
445.582	109.12
445.803	117.12
446.024	134.12
446.245	141.12
446.466	103.12
446.687	93.12
446.908	78.12
447.129	101.12
447.35	75.12
447.571	79.12
447.792	94.12
448.013	108.12
448.234	107.12
448.455	97.12
448.675	91.12
448.896	114.12
449.117	101.12
449.338	115.12
449.559	122.12
449.779	133.12
450	87.12
450.221	92.12
450.442	84.12
450.662	84.12
450.883	112.12
451.104	98.12
451.324	101.12
451.545	87.12
451.766	93.12
451.986	85.12
452.207	102.12
452.428	87.12
452.648	83.12
452.869	103.12
453.089	104.12
453.31	99.12
453.53	96.12
453.751	109.12
453.971	92.12
454.192	101.12
454.412	79.12
454.633	74.12
454.853	84.12
455.073	87.12
455.294	85.12
455.514	103.12
455.734	86.12
455.955	93.12
456.175	98.12
456.395	79.12
456.616	92.12
456.836	89.12
457.056	93.12
457.276	83.12
457.497	87.12
457.717	85.12
457.937	97.12
458.157	87.12
458.377	93.12
458.598	91.12
458.818	144.12
459.038	136.12
459.258	103.12
459.478	85.12
459.698	81.12
459.918	102.12
460.138	73.12
460.358	83.12
460.578	90.12
460.798	98.12
461.018	77.12
461.238	93.12
461.458	70.12
461.678	78.12
461.898	88.12
462.118	83.12
462.338	97.12
462.558	88.12
462.777	89.12
462.997	87.12
463.217	85.12
463.437	91.12
463.657	91.12
463.876	77.12
464.096	95.12
464.316	89.12
464.536	81.12
464.755	94.12
464.975	123.12
465.195	142.12
465.414	147.12
465.634	89.12
465.854	91.12
466.073	94.12
466.293	94.12
466.512	87.12
466.732	77.12
466.951	85.12
467.171	99.12
467.391	111.12
467.61	109.12
467.829	94.12
468.049	90.12
468.268	101.12
468.488	91.12
468.707	86.12
468.927	97.12
469.146	86.12
469.365	85.12
469.585	83.12
469.804	101.12
470.023	98.12
470.243	76.12
470.462	97.12
470.681	92.12
470.901	99.12
471.12	93.12
471.339	92.12
471.558	98.12
471.777	107.12
471.997	89.12
472.216	79.12
472.435	79.12
472.654	99.12
472.873	103.12
473.092	92.12
473.311	78.12
473.53	88.12
473.749	95.12
473.968	101.12
474.187	98.12
474.406	102.12
474.625	89.12
474.844	93.12
475.063	85.12
475.282	79.12
475.501	84.12
475.72	81.12
475.939	78.12
476.158	99.12
476.377	91.12
476.596	100.12
476.814	93.12
477.033	90.12
477.252	100.12
477.471	99.12
477.69	85.12
477.908	86.12
478.127	91.12
478.346	99.12
478.564	90.12
478.783	89.12
479.002	95.12
479.22	94.12
479.439	90.12
479.658	90.12
479.876	97.12
480.095	96.12
480.313	83.12
480.532	101.12
480.751	77.12
480.969	99.12
481.188	93.12
481.406	90.12
481.624	93.12
481.843	86.12
482.061	87.12
482.28	87.12
482.498	89.12
482.717	94.12
482.935	93.12
483.153	79.12
483.372	86.12
483.59	87.12
483.808	89.12
484.027	89.12
484.245	82.12
484.463	103.12
484.681	97.12
484.9	94.12
485.118	94.12
485.336	89.12
485.554	91.12
485.772	103.12
485.99	102.12
486.209	111.12
486.427	101.12
486.645	100.12
486.863	102.12
487.081	92.12
487.299	96.12
487.517	93.12
487.735	93.12
487.953	108.12
488.171	90.12
488.389	93.12
488.607	109.12
488.825	89.12
489.043	95.12
489.261	96.12
489.479	100.12
489.696	92.12
489.914	91.12
490.132	99.12
490.35	92.12
490.568	94.12
490.786	94.12
491.003	91.12
491.221	87.12
491.439	95.12
491.657	87.12
491.874	91.12
492.092	109.12
492.31	94.12
492.527	99.12
492.745	102.12
492.963	79.12
493.18	93.12
493.398	102.12
493.615	97.12
493.833	103.12
494.05	83.12
494.268	96.12
494.485	99.12
494.703	92.12
494.92	107.12
495.138	85.12
495.355	106.12
495.573	95.12
495.79	103.12
496.008	105.12
496.225	87.12
496.442	99.12
496.66	88.12
496.877	94.12
497.094	92.12
497.312	84.12
497.529	84.12
497.746	97.12
497.963	89.12
498.181	91.12
498.398	94.12
498.615	98.12
498.832	106.12
499.049	102.12
499.267	93.12
499.484	100.12
499.701	83.12
499.918	83.12
500.135	99.12
500.352	94.12
500.569	105.12
500.786	95.12
501.003	90.12
501.22	78.12
501.437	85.12
501.654	97.12
501.871	106.12
502.088	85.12
502.305	99.12
502.522	89.12
502.739	87.12
502.956	93.12
503.172	93.12
503.389	104.12
503.606	91.12
503.823	85.12
504.04	91.12
504.256	92.12
504.473	90.12
504.69	84.12
504.907	90.12
505.123	84.12
505.34	87.12
505.557	94.12
505.773	91.12
505.99	92.12
506.207	98.12
506.423	92.12
506.64	84.12
506.856	94.12
507.073	103.12
507.289	85.12
507.506	98.12
507.722	111.12
507.939	96.12
508.155	81.12
508.372	83.12
508.588	114.12
508.805	106.12
509.021	95.12
509.238	105.12
509.454	89.12
509.67	99.12
509.887	114.12
510.103	109.12
510.319	204.12
510.536	688.12
510.752	2083.12
510.968	579.12
511.184	151.12
511.401	102.12
511.617	105.12
511.833	87.12
512.049	88.12
512.265	89.12
512.481	87.12
512.698	88.12
512.914	91.12
513.13	110.12
513.346	100.12
513.562	93.12
513.778	93.12
513.994	101.12
514.21	90.12
514.426	117.12
514.642	123.12
514.858	119.12
515.074	154.12
