Data from Uncirc_1983_H10_HRD10591_00061.txt Node
Date: Wed Jan 03 12:25:44 EST 2024
User: Yrep
Spectrometer: HR+D1059
Trigger mode: 1
Integration Time (sec): 1.000000E-1
Scans to average: 1
Electric dark correction enabled: true
Nonlinearity correction enabled: false
Boxcar width: 0
XAxis mode: Wavelengths
Number of Pixels in Spectrum: 2048
>>>>>Begin Spectral Data<<<<<
223.165	-30.5
223.4	-30.5
223.635	-30.5
223.869	-31.5
224.104	-14.5
224.338	-12.5
224.573	-14.5
224.808	-23.5
225.042	-12.5
225.277	-7.5
225.511	4.5
225.746	7.5
225.98	3.5
226.215	17.5
226.449	19.5
226.683	27.5
226.918	31.5
227.152	35.5
227.387	33.5
227.621	45.5
227.856	52.5
228.09	50.5
228.324	52.5
228.559	54.5
228.793	50.5
229.027	71.5
229.262	58.5
229.496	69.5
229.73	90.5
229.964	86.5
230.199	82.5
230.433	71.5
230.667	82.5
230.901	68.5
231.136	77.5
231.37	94.5
231.604	77.5
231.838	90.5
232.072	78.5
232.306	91.5
232.541	78.5
232.775	82.5
233.009	84.5
233.243	80.5
233.477	86.5
233.711	85.5
233.945	77.5
234.179	77.5
234.413	85.5
234.647	82.5
234.881	75.5
235.115	80.5
235.349	80.5
235.583	89.5
235.817	90.5
236.051	72.5
236.285	68.5
236.519	72.5
236.753	71.5
236.987	92.5
237.221	80.5
237.455	76.5
237.689	86.5
237.922	84.5
238.156	75.5
238.39	84.5
238.624	63.5
238.858	72.5
239.091	70.5
239.325	80.5
239.559	72.5
239.793	76.5
240.027	89.5
240.26	73.5
240.494	84.5
240.728	85.5
240.961	84.5
241.195	75.5
241.429	84.5
241.662	82.5
241.896	65.5
242.13	80.5
242.363	90.5
242.597	86.5
242.83	75.5
243.064	74.5
243.298	90.5
243.531	76.5
243.765	82.5
243.998	66.5
244.232	82.5
244.465	73.5
244.699	74.5
244.932	76.5
245.166	82.5
245.399	76.5
245.633	102.5
245.866	87.5
246.099	73.5
246.333	88.5
246.566	67.5
246.8	90.5
247.033	83.5
247.266	75.5
247.5	78.5
247.733	88.5
247.966	72.5
248.2	81.5
248.433	97.5
248.666	84.5
248.899	90.5
249.133	87.5
249.366	91.5
249.599	90.5
249.832	94.5
250.066	86.5
250.299	84.5
250.532	90.5
250.765	75.5
250.998	84.5
251.231	73.5
251.465	86.5
251.698	90.5
251.931	80.5
252.164	73.5
252.397	77.5
252.63	84.5
252.863	84.5
253.096	78.5
253.329	95.5
253.562	87.5
253.795	77.5
254.028	88.5
254.261	92.5
254.494	85.5
254.727	91.5
254.96	74.5
255.193	85.5
255.426	91.5
255.659	79.5
255.892	85.5
256.124	93.5
256.357	85.5
256.59	90.5
256.823	77.5
257.056	77.5
257.289	89.5
257.521	94.5
257.754	86.5
257.987	77.5
258.22	75.5
258.452	81.5
258.685	88.5
258.918	79.5
259.151	77.5
259.383	82.5
259.616	91.5
259.849	91.5
260.081	99.5
260.314	83.5
260.547	96.5
260.779	80.5
261.012	87.5
261.244	80.5
261.477	100.5
261.71	88.5
261.942	99.5
262.175	107.5
262.407	94.5
262.64	90.5
262.872	97.5
263.105	91.5
263.337	86.5
263.57	83.5
263.802	95.5
264.035	83.5
264.267	82.5
264.499	77.5
264.732	76.5
264.964	98.5
265.197	88.5
265.429	81.5
265.661	76.5
265.894	86.5
266.126	92.5
266.358	83.5
266.591	94.5
266.823	84.5
267.055	86.5
267.287	93.5
267.52	80.5
267.752	76.5
267.984	78.5
268.216	92.5
268.448	89.5
268.681	86.5
268.913	88.5
269.145	96.5
269.377	90.5
269.609	82.5
269.841	81.5
270.073	83.5
270.306	88.5
270.538	77.5
270.77	74.5
271.002	87.5
271.234	80.5
271.466	75.5
271.698	82.5
271.93	75.5
272.162	82.5
272.394	97.5
272.626	73.5
272.858	92.5
273.09	82.5
273.322	75.5
273.553	82.5
273.785	102.5
274.017	71.5
274.249	69.5
274.481	89.5
274.713	96.5
274.945	96.5
275.176	90.5
275.408	82.5
275.64	91.5
275.872	91.5
276.104	72.5
276.335	90.5
276.567	100.5
276.799	92.5
277.031	90.5
277.262	98.5
277.494	77.5
277.726	80.5
277.957	81.5
278.189	90.5
278.421	88.5
278.652	88.5
278.884	84.5
279.115	96.5
279.347	97.5
279.579	93.5
279.81	98.5
280.042	91.5
280.273	86.5
280.505	80.5
280.736	87.5
280.968	98.5
281.199	80.5
281.431	87.5
281.662	99.5
281.894	85.5
282.125	97.5
282.356	122.5
282.588	130.5
282.819	124.5
283.051	80.5
283.282	94.5
283.513	101.5
283.745	88.5
283.976	81.5
284.207	82.5
284.439	76.5
284.67	96.5
284.901	77.5
285.132	84.5
285.364	99.5
285.595	81.5
285.826	81.5
286.057	90.5
286.288	77.5
286.52	97.5
286.751	88.5
286.982	96.5
287.213	86.5
287.444	98.5
287.675	91.5
287.906	92.5
288.138	95.5
288.369	82.5
288.6	89.5
288.831	84.5
289.062	91.5
289.293	92.5
289.524	71.5
289.755	92.5
289.986	82.5
290.217	90.5
290.448	85.5
290.679	106.5
290.91	97.5
291.141	86.5
291.371	92.5
291.602	89.5
291.833	89.5
292.064	74.5
292.295	95.5
292.526	80.5
292.757	103.5
292.987	80.5
293.218	92.5
293.449	101.5
293.68	80.5
293.91	95.5
294.141	98.5
294.372	90.5
294.603	78.5
294.833	102.5
295.064	97.5
295.295	80.5
295.525	86.5
295.756	108.5
295.987	117.5
296.217	120.5
296.448	116.5
296.679	84.5
296.909	94.5
297.14	91.5
297.37	87.5
297.601	86.5
297.831	90.5
298.062	90.5
298.292	92.5
298.523	97.5
298.753	73.5
298.984	89.5
299.214	84.5
299.445	82.5
299.675	96.5
299.905	84.5
300.136	96.5
300.366	93.5
300.597	77.5
300.827	87.5
301.057	101.5
301.288	115.5
301.518	103.5
301.748	88.5
301.979	114.5
302.209	89.5
302.439	100.5
302.669	98.5
302.9	87.5
303.13	85.5
303.36	89.5
303.59	86.5
303.82	107.5
304.051	101.5
304.281	96.5
304.511	102.5
304.741	87.5
304.971	94.5
305.201	91.5
305.431	91.5
305.661	90.5
305.891	98.5
306.121	84.5
306.352	96.5
306.582	106.5
306.812	86.5
307.042	86.5
307.272	80.5
307.502	99.5
307.731	84.5
307.961	81.5
308.191	92.5
308.421	75.5
308.651	92.5
308.881	89.5
309.111	86.5
309.341	111.5
309.571	104.5
309.8	90.5
310.03	108.5
310.26	98.5
310.49	92.5
310.72	102.5
310.949	96.5
311.179	100.5
311.409	92.5
311.639	100.5
311.868	92.5
312.098	92.5
312.328	92.5
312.557	89.5
312.787	86.5
313.017	101.5
313.246	92.5
313.476	85.5
313.706	98.5
313.935	88.5
314.165	100.5
314.394	98.5
314.624	115.5
314.853	96.5
315.083	88.5
315.312	102.5
315.542	91.5
315.771	97.5
316.001	88.5
316.23	86.5
316.46	83.5
316.689	101.5
316.919	83.5
317.148	93.5
317.377	98.5
317.607	91.5
317.836	92.5
318.065	106.5
318.295	88.5
318.524	84.5
318.753	83.5
318.983	89.5
319.212	101.5
319.441	107.5
319.67	112.5
319.9	90.5
320.129	89.5
320.358	85.5
320.587	97.5
320.816	104.5
321.046	93.5
321.275	108.5
321.504	93.5
321.733	100.5
321.962	104.5
322.191	102.5
322.42	100.5
322.649	115.5
322.878	86.5
323.108	123.5
323.337	117.5
323.566	134.5
323.795	158.5
324.024	189.5
324.253	370.5
324.482	765.5
324.71	1554.5
324.939	2055.5
325.168	767.5
325.397	248.5
325.626	128.5
325.855	127.5
326.084	126.5
326.313	123.5
326.542	149.5
326.77	226.5
326.999	420.5
327.228	864.5
327.457	1604.5
327.686	1252.5
327.914	348.5
328.143	185.5
328.372	123.5
328.6	128.5
328.829	127.5
329.058	119.5
329.287	113.5
329.515	110.5
329.744	105.5
329.972	97.5
330.201	123.5
330.43	117.5
330.658	133.5
330.887	123.5
331.115	113.5
331.344	87.5
331.572	94.5
331.801	93.5
332.03	101.5
332.258	88.5
332.486	91.5
332.715	87.5
332.943	82.5
333.172	101.5
333.4	97.5
333.629	93.5
333.857	113.5
334.085	115.5
334.314	108.5
334.542	119.5
334.771	122.5
334.999	94.5
335.227	93.5
335.455	98.5
335.684	110.5
335.912	74.5
336.14	88.5
336.369	101.5
336.597	103.5
336.825	97.5
337.053	89.5
337.281	99.5
337.51	89.5
337.738	90.5
337.966	96.5
338.194	97.5
338.422	98.5
338.65	96.5
338.878	88.5
339.106	92.5
339.334	104.5
339.562	102.5
339.79	99.5
340.018	83.5
340.246	94.5
340.474	78.5
340.702	101.5
340.93	67.5
341.158	81.5
341.386	82.5
341.614	98.5
341.842	94.5
342.07	88.5
342.298	77.5
342.526	84.5
342.754	90.5
342.981	97.5
343.209	85.5
343.437	93.5
343.665	85.5
343.893	85.5
344.12	91.5
344.348	104.5
344.576	90.5
344.804	100.5
345.031	92.5
345.259	89.5
345.487	92.5
345.714	102.5
345.942	108.5
346.17	82.5
346.397	96.5
346.625	111.5
346.853	98.5
347.08	98.5
347.308	85.5
347.535	109.5
347.763	97.5
347.99	89.5
348.218	88.5
348.445	104.5
348.673	81.5
348.9	83.5
349.128	91.5
349.355	99.5
349.583	98.5
349.81	94.5
350.037	93.5
350.265	104.5
350.492	98.5
350.72	94.5
350.947	97.5
351.174	111.5
351.402	108.5
351.629	112.5
351.856	104.5
352.083	108.5
352.311	103.5
352.538	102.5
352.765	98.5
352.992	107.5
353.22	101.5
353.447	97.5
353.674	106.5
353.901	92.5
354.128	87.5
354.355	82.5
354.583	76.5
354.81	109.5
355.037	114.5
355.264	91.5
355.491	81.5
355.718	78.5
355.945	105.5
356.172	83.5
356.399	107.5
356.626	110.5
356.853	101.5
357.08	91.5
357.307	95.5
357.534	92.5
357.761	102.5
357.988	89.5
358.215	91.5
358.441	92.5
358.668	96.5
358.895	80.5
359.122	91.5
359.349	101.5
359.576	101.5
359.802	116.5
360.029	108.5
360.256	110.5
360.483	83.5
360.709	90.5
360.936	98.5
361.163	98.5
361.39	92.5
361.616	92.5
361.843	83.5
362.07	94.5
362.296	95.5
362.523	80.5
362.749	98.5
362.976	88.5
363.203	99.5
363.429	89.5
363.656	97.5
363.882	92.5
364.109	93.5
364.335	99.5
364.562	98.5
364.788	98.5
365.015	96.5
365.241	100.5
365.468	107.5
365.694	101.5
365.92	106.5
366.147	94.5
366.373	92.5
366.599	80.5
366.826	97.5
367.052	74.5
367.278	92.5
367.505	84.5
367.731	88.5
367.957	105.5
368.184	103.5
368.41	104.5
368.636	109.5
368.862	111.5
369.089	122.5
369.315	74.5
369.541	101.5
369.767	76.5
369.993	85.5
370.219	82.5
370.445	82.5
370.672	100.5
370.898	96.5
371.124	98.5
371.35	78.5
371.576	92.5
371.802	83.5
372.028	76.5
372.254	83.5
372.48	93.5
372.706	88.5
372.932	92.5
373.158	93.5
373.384	88.5
373.61	96.5
373.835	90.5
374.061	81.5
374.287	86.5
374.513	94.5
374.739	85.5
374.965	93.5
375.191	89.5
375.416	82.5
375.642	103.5
375.868	85.5
376.094	83.5
376.319	96.5
376.545	97.5
376.771	82.5
376.997	84.5
377.222	93.5
377.448	94.5
377.674	80.5
377.899	83.5
378.125	81.5
378.35	76.5
378.576	100.5
378.802	67.5
379.027	97.5
379.253	93.5
379.478	81.5
379.704	97.5
379.929	98.5
380.155	98.5
380.38	93.5
380.606	104.5
380.831	101.5
381.057	97.5
381.282	93.5
381.507	99.5
381.733	98.5
381.958	100.5
382.184	103.5
382.409	105.5
382.634	93.5
382.86	98.5
383.085	86.5
383.31	111.5
383.535	92.5
383.761	112.5
383.986	109.5
384.211	93.5
384.436	99.5
384.662	98.5
384.887	107.5
385.112	114.5
385.337	113.5
385.562	95.5
385.787	97.5
386.013	110.5
386.238	116.5
386.463	97.5
386.688	109.5
386.913	91.5
387.138	106.5
387.363	115.5
387.588	110.5
387.813	98.5
388.038	110.5
388.263	95.5
388.488	80.5
388.713	99.5
388.938	83.5
389.163	94.5
389.387	96.5
389.612	94.5
389.837	91.5
390.062	87.5
390.287	84.5
390.512	96.5
390.736	89.5
390.961	81.5
391.186	96.5
391.411	99.5
391.636	90.5
391.86	90.5
392.085	92.5
392.31	95.5
392.534	89.5
392.759	89.5
392.984	77.5
393.208	89.5
393.433	100.5
393.658	84.5
393.882	80.5
394.107	90.5
394.331	94.5
394.556	82.5
394.78	86.5
395.005	83.5
395.229	94.5
395.454	86.5
395.678	92.5
395.903	99.5
396.127	94.5
396.352	94.5
396.576	86.5
396.801	92.5
397.025	77.5
397.249	90.5
397.474	86.5
397.698	77.5
397.922	81.5
398.147	78.5
398.371	69.5
398.595	84.5
398.82	92.5
399.044	77.5
399.268	84.5
399.492	88.5
399.717	83.5
399.941	86.5
400.165	88.5
400.389	86.5
400.613	85.5
400.837	88.5
401.062	89.5
401.286	83.5
401.51	92.5
401.734	88.5
401.958	91.5
402.182	144.5
402.406	139.5
402.63	93.5
402.854	86.5
403.078	80.5
403.302	102.5
403.526	93.5
403.75	93.5
403.974	90.5
404.198	84.5
404.422	77.5
404.645	92.5
404.869	94.5
405.093	101.5
405.317	97.5
405.541	101.5
405.765	103.5
405.988	113.5
406.212	158.5
406.436	216.5
406.66	132.5
406.883	106.5
407.107	98.5
407.331	92.5
407.555	107.5
407.778	99.5
408.002	89.5
408.226	96.5
408.449	94.5
408.673	85.5
408.896	76.5
409.12	82.5
409.344	86.5
409.567	94.5
409.791	86.5
410.014	94.5
410.238	91.5
410.461	76.5
410.685	88.5
410.908	94.5
411.132	105.5
411.355	99.5
411.578	85.5
411.802	91.5
412.025	96.5
412.249	75.5
412.472	80.5
412.695	94.5
412.919	96.5
413.142	92.5
413.365	87.5
413.589	96.5
413.812	93.5
414.035	94.5
414.258	95.5
414.482	94.5
414.705	74.5
414.928	86.5
415.151	98.5
415.374	81.5
415.597	98.5
415.821	89.5
416.044	75.5
416.267	90.5
416.49	93.5
416.713	98.5
416.936	86.5
417.159	91.5
417.382	78.5
417.605	97.5
417.828	107.5
418.051	105.5
418.274	100.5
418.497	86.5
418.72	100.5
418.943	83.5
419.166	92.5
419.389	96.5
419.611	77.5
419.834	105.5
420.057	91.5
420.28	86.5
420.503	90.5
420.726	83.5
420.948	90.5
421.171	96.5
421.394	92.5
421.617	83.5
421.839	95.5
422.062	81.5
422.285	98.5
422.507	96.5
422.73	102.5
422.953	90.5
423.175	88.5
423.398	98.5
423.621	82.5
423.843	88.5
424.066	86.5
424.288	98.5
424.511	86.5
424.733	97.5
424.956	110.5
425.178	90.5
425.401	102.5
425.623	88.5
425.846	76.5
426.068	85.5
426.291	85.5
426.513	88.5
426.735	83.5
426.958	97.5
427.18	101.5
427.402	123.5
427.625	148.5
427.847	123.5
428.069	105.5
428.292	84.5
428.514	94.5
428.736	85.5
428.958	82.5
429.181	92.5
429.403	85.5
429.625	85.5
429.847	88.5
430.069	96.5
430.292	89.5
430.514	89.5
430.736	99.5
430.958	100.5
431.18	89.5
431.402	92.5
431.624	83.5
431.846	92.5
432.068	81.5
432.29	73.5
432.512	96.5
432.734	80.5
432.956	90.5
433.178	107.5
433.4	104.5
433.622	104.5
433.844	78.5
434.066	99.5
434.287	92.5
434.509	103.5
434.731	76.5
434.953	82.5
435.175	88.5
435.397	89.5
435.618	93.5
435.84	101.5
436.062	115.5
436.284	97.5
436.505	110.5
436.727	101.5
436.949	102.5
437.17	94.5
437.392	98.5
437.614	87.5
437.835	102.5
438.057	112.5
438.278	90.5
438.5	106.5
438.721	116.5
438.943	104.5
439.165	91.5
439.386	88.5
439.608	101.5
439.829	99.5
440.05	106.5
440.272	127.5
440.493	86.5
440.715	93.5
440.936	85.5
441.158	87.5
441.379	103.5
441.6	90.5
441.822	93.5
442.043	89.5
442.264	93.5
442.486	96.5
442.707	100.5
442.928	106.5
443.149	126.5
443.371	129.5
443.592	105.5
443.813	98.5
444.034	102.5
444.255	98.5
444.476	90.5
444.698	88.5
444.919	88.5
445.14	133.5
445.361	125.5
445.582	115.5
445.803	117.5
446.024	126.5
446.245	114.5
446.466	101.5
446.687	95.5
446.908	97.5
447.129	88.5
447.35	96.5
447.571	94.5
447.792	107.5
448.013	89.5
448.234	86.5
448.455	105.5
448.675	114.5
448.896	103.5
449.117	100.5
449.338	111.5
449.559	123.5
449.779	128.5
450	104.5
450.221	82.5
450.442	88.5
450.662	90.5
450.883	103.5
451.104	106.5
451.324	100.5
451.545	99.5
451.766	100.5
451.986	87.5
452.207	85.5
452.428	90.5
452.648	97.5
452.869	105.5
453.089	116.5
453.31	112.5
453.53	94.5
453.751	92.5
453.971	93.5
454.192	96.5
454.412	96.5
454.633	89.5
454.853	73.5
455.073	84.5
455.294	89.5
455.514	95.5
455.734	86.5
455.955	104.5
456.175	84.5
456.395	83.5
456.616	77.5
456.836	85.5
457.056	82.5
457.276	83.5
457.497	91.5
457.717	88.5
457.937	88.5
458.157	87.5
458.377	88.5
458.598	106.5
458.818	148.5
459.038	143.5
459.258	117.5
459.478	90.5
459.698	86.5
459.918	84.5
460.138	86.5
460.358	84.5
460.578	84.5
460.798	80.5
461.018	89.5
461.238	96.5
461.458	87.5
461.678	90.5
461.898	85.5
462.118	89.5
462.338	90.5
462.558	101.5
462.777	78.5
462.997	81.5
463.217	71.5
463.437	84.5
463.657	82.5
463.876	85.5
464.096	92.5
464.316	95.5
464.536	88.5
464.755	87.5
464.975	101.5
465.195	159.5
465.414	141.5
465.634	95.5
465.854	87.5
466.073	90.5
466.293	73.5
466.512	76.5
466.732	80.5
466.951	101.5
467.171	70.5
467.391	101.5
467.61	96.5
467.829	96.5
468.049	107.5
468.268	100.5
468.488	92.5
468.707	106.5
468.927	85.5
469.146	72.5
469.365	92.5
469.585	87.5
469.804	104.5
470.023	102.5
470.243	104.5
470.462	93.5
470.681	107.5
470.901	95.5
471.12	71.5
471.339	85.5
471.558	72.5
471.777	87.5
471.997	91.5
472.216	120.5
472.435	125.5
472.654	99.5
472.873	88.5
473.092	109.5
473.311	96.5
473.53	88.5
473.749	103.5
473.968	94.5
474.187	92.5
474.406	86.5
474.625	91.5
474.844	94.5
475.063	90.5
475.282	82.5
475.501	103.5
475.72	90.5
475.939	93.5
476.158	100.5
476.377	93.5
476.596	84.5
476.814	92.5
477.033	92.5
477.252	98.5
477.471	95.5
477.69	90.5
477.908	88.5
478.127	94.5
478.346	94.5
478.564	87.5
478.783	97.5
479.002	90.5
479.22	86.5
479.439	93.5
479.658	92.5
479.876	100.5
480.095	90.5
480.313	87.5
480.532	101.5
480.751	89.5
480.969	119.5
481.188	180.5
481.406	131.5
481.624	99.5
481.843	86.5
482.061	86.5
482.28	89.5
482.498	96.5
482.717	90.5
482.935	77.5
483.153	79.5
483.372	103.5
483.59	95.5
483.808	89.5
484.027	90.5
484.245	100.5
484.463	87.5
484.681	91.5
484.9	99.5
485.118	92.5
485.336	100.5
485.554	97.5
485.772	105.5
485.99	99.5
486.209	87.5
486.427	92.5
486.645	104.5
486.863	106.5
487.081	99.5
487.299	99.5
487.517	102.5
487.735	97.5
487.953	104.5
488.171	100.5
488.389	100.5
488.607	99.5
488.825	89.5
489.043	97.5
489.261	93.5
489.479	90.5
489.696	86.5
489.914	84.5
490.132	86.5
490.35	86.5
490.568	97.5
490.786	78.5
491.003	96.5
491.221	97.5
491.439	100.5
491.657	82.5
491.874	92.5
492.092	88.5
492.31	86.5
492.527	96.5
492.745	94.5
492.963	106.5
493.18	105.5
493.398	108.5
493.615	89.5
493.833	100.5
494.05	98.5
494.268	88.5
494.485	101.5
494.703	97.5
494.92	82.5
495.138	81.5
495.355	93.5
495.573	83.5
495.79	84.5
496.008	90.5
496.225	90.5
496.442	98.5
496.66	90.5
496.877	90.5
497.094	98.5
497.312	84.5
497.529	92.5
497.746	92.5
497.963	90.5
498.181	93.5
498.398	90.5
498.615	109.5
498.832	104.5
499.049	84.5
499.267	89.5
499.484	98.5
499.701	85.5
499.918	84.5
500.135	94.5
500.352	70.5
500.569	86.5
500.786	102.5
501.003	88.5
501.22	106.5
501.437	93.5
501.654	93.5
501.871	95.5
502.088	90.5
502.305	85.5
502.522	91.5
502.739	96.5
502.956	94.5
503.172	89.5
503.389	75.5
503.606	100.5
503.823	107.5
504.04	84.5
504.256	100.5
504.473	89.5
504.69	89.5
504.907	97.5
505.123	92.5
505.34	101.5
505.557	90.5
505.773	84.5
505.99	84.5
506.207	90.5
506.423	96.5
506.64	96.5
506.856	87.5
507.073	97.5
507.289	97.5
507.506	95.5
507.722	105.5
507.939	107.5
508.155	101.5
508.372	104.5
508.588	98.5
508.805	95.5
509.021	102.5
509.238	88.5
509.454	98.5
509.67	91.5
509.887	110.5
510.103	126.5
510.319	209.5
510.536	739.5
510.752	2297.5
510.968	628.5
511.184	166.5
511.401	101.5
511.617	98.5
511.833	93.5
512.049	86.5
512.265	87.5
512.481	82.5
512.698	88.5
512.914	97.5
513.13	106.5
513.346	98.5
513.562	98.5
513.778	88.5
513.994	89.5
514.21	95.5
514.426	108.5
514.642	118.5
514.858	116.5
515.074	169.5
515.29	428.5
515.506	1350.5
515.721	467.5
515.937	156.5
516.153	121.5
516.369	107.5
516.585	88.5
516.801	86.5
517.016	82.5
517.232	92.5
517.448	96.5
517.664	93.5
517.879	97.5
518.095	92.5
518.311	96.5
518.527	101.5
518.742	101.5
518.958	92.5
519.173	95.5
519.389	90.5
519.605	82.5
519.82	84.5
520.036	93.5
520.251	114.5
520.467	118.5
520.682	107.5
520.898	109.5
521.113	102.5
521.329	129.5
521.544	186.5
521.76	514.5
521.975	2274.5
522.19	1310.5
522.406	292.5
522.621	124.5
522.836	107.5
523.052	98.5
523.267	94.5
523.482	93.5
523.698	96.5
523.913	114.5
524.128	118.5
524.343	85.5
524.559	88.5
524.774	93.5
524.989	85.5
525.204	97.5
525.419	94.5
525.634	84.5
525.849	103.5
526.064	93.5
526.28	93.5
526.495	87.5
526.71	100.5
526.925	84.5
527.14	94.5
527.355	91.5
527.57	109.5
527.785	91.5
527.999	83.5
528.214	90.5
528.429	91.5
528.644	102.5
528.859	103.5
529.074	100.5
529.289	128.5
529.503	162.5
529.718	92.5
529.933	89.5
530.148	92.5
530.363	107.5
530.577	88.5
530.792	76.5
531.007	90.5
531.221	97.5
531.436	85.5
531.651	102.5
531.865	84.5
532.08	85.5
532.295	89.5
532.509	107.5
532.724	101.5
532.938	96.5
533.153	98.5
533.367	99.5
533.582	97.5
533.796	94.5
534.011	89.5
534.225	83.5
534.44	91.5
534.654	103.5
534.868	89.5
535.083	87.5
535.297	100.5
