Data from Uncirc_1983_H10_HRD10591_00046.txt Node
Date: Wed Jan 03 12:25:41 EST 2024
User: Yrep
Spectrometer: HR+D1059
Trigger mode: 1
Integration Time (sec): 1.000000E-1
Scans to average: 1
Electric dark correction enabled: true
Nonlinearity correction enabled: false
Boxcar width: 0
XAxis mode: Wavelengths
Number of Pixels in Spectrum: 2048
>>>>>Begin Spectral Data<<<<<
223.165	-8.06
223.4	-8.06
223.635	-8.06
223.869	-15.06
224.104	-19.06
224.338	-12.06
224.573	-7.06
224.808	-18.06
225.042	-16.06
225.277	-9.06
225.511	-2.06
225.746	-0.06
225.98	15.94
226.215	7.94
226.449	10.94
226.683	24.94
226.918	20.94
227.152	25.94
227.387	17.94
227.621	37.94
227.856	32.94
228.09	46.94
228.324	28.94
228.559	49.94
228.793	49.94
229.027	57.94
229.262	66.94
229.496	79.94
229.73	85.94
229.964	81.94
230.199	58.94
230.433	62.94
230.667	61.94
230.901	77.94
231.136	93.94
231.37	72.94
231.604	76.94
231.838	86.94
232.072	78.94
232.306	84.94
232.541	73.94
232.775	69.94
233.009	74.94
233.243	79.94
233.477	92.94
233.711	95.94
233.945	73.94
234.179	77.94
234.413	88.94
234.647	81.94
234.881	61.94
235.115	81.94
235.349	61.94
235.583	85.94
235.817	80.94
236.051	58.94
236.285	71.94
236.519	68.94
236.753	57.94
236.987	72.94
237.221	88.94
237.455	82.94
237.689	83.94
237.922	88.94
238.156	70.94
238.39	73.94
238.624	80.94
238.858	82.94
239.091	79.94
239.325	67.94
239.559	88.94
239.793	70.94
240.027	77.94
240.26	70.94
240.494	83.94
240.728	68.94
240.961	85.94
241.195	87.94
241.429	64.94
241.662	62.94
241.896	72.94
242.13	66.94
242.363	74.94
242.597	76.94
242.83	85.94
243.064	65.94
243.298	83.94
243.531	81.94
243.765	68.94
243.998	86.94
244.232	81.94
244.465	74.94
244.699	73.94
244.932	71.94
245.166	60.94
245.399	76.94
245.633	77.94
245.866	63.94
246.099	80.94
246.333	71.94
246.566	85.94
246.8	76.94
247.033	85.94
247.266	76.94
247.5	85.94
247.733	75.94
247.966	84.94
248.2	93.94
248.433	83.94
248.666	80.94
248.899	80.94
249.133	84.94
249.366	105.94
249.599	86.94
249.832	95.94
250.066	92.94
250.299	80.94
250.532	87.94
250.765	64.94
250.998	78.94
251.231	80.94
251.465	78.94
251.698	73.94
251.931	58.94
252.164	98.94
252.397	76.94
252.63	84.94
252.863	72.94
253.096	83.94
253.329	78.94
253.562	72.94
253.795	91.94
254.028	84.94
254.261	63.94
254.494	77.94
254.727	92.94
254.96	74.94
255.193	72.94
255.426	85.94
255.659	84.94
255.892	84.94
256.124	66.94
256.357	69.94
256.59	80.94
256.823	71.94
257.056	84.94
257.289	88.94
257.521	83.94
257.754	79.94
257.987	86.94
258.22	85.94
258.452	84.94
258.685	78.94
258.918	83.94
259.151	73.94
259.383	84.94
259.616	86.94
259.849	88.94
260.081	76.94
260.314	72.94
260.547	82.94
260.779	79.94
261.012	84.94
261.244	68.94
261.477	92.94
261.71	85.94
261.942	90.94
262.175	90.94
262.407	70.94
262.64	78.94
262.872	80.94
263.105	84.94
263.337	83.94
263.57	84.94
263.802	70.94
264.035	96.94
264.267	84.94
264.499	86.94
264.732	72.94
264.964	64.94
265.197	79.94
265.429	68.94
265.661	74.94
265.894	77.94
266.126	76.94
266.358	83.94
266.591	78.94
266.823	76.94
267.055	96.94
267.287	86.94
267.52	73.94
267.752	73.94
267.984	80.94
268.216	95.94
268.448	88.94
268.681	87.94
268.913	83.94
269.145	84.94
269.377	85.94
269.609	78.94
269.841	81.94
270.073	70.94
270.306	92.94
270.538	82.94
270.77	76.94
271.002	100.94
271.234	70.94
271.466	74.94
271.698	83.94
271.93	69.94
272.162	100.94
272.394	85.94
272.626	77.94
272.858	86.94
273.09	82.94
273.322	87.94
273.553	79.94
273.785	77.94
274.017	78.94
274.249	98.94
274.481	77.94
274.713	71.94
274.945	96.94
275.176	76.94
275.408	86.94
275.64	81.94
275.872	94.94
276.104	87.94
276.335	90.94
276.567	103.94
276.799	95.94
277.031	97.94
277.262	81.94
277.494	70.94
277.726	82.94
277.957	78.94
278.189	84.94
278.421	83.94
278.652	78.94
278.884	79.94
279.115	87.94
279.347	81.94
279.579	95.94
279.81	87.94
280.042	85.94
280.273	101.94
280.505	89.94
280.736	78.94
280.968	89.94
281.199	94.94
281.431	83.94
281.662	94.94
281.894	67.94
282.125	88.94
282.356	104.94
282.588	133.94
282.819	115.94
283.051	88.94
283.282	83.94
283.513	91.94
283.745	89.94
283.976	81.94
284.207	79.94
284.439	80.94
284.67	83.94
284.901	80.94
285.132	77.94
285.364	73.94
285.595	82.94
285.826	88.94
286.057	97.94
286.288	84.94
286.52	95.94
286.751	72.94
286.982	80.94
287.213	90.94
287.444	76.94
287.675	86.94
287.906	74.94
288.138	103.94
288.369	96.94
288.6	88.94
288.831	83.94
289.062	85.94
289.293	87.94
289.524	86.94
289.755	69.94
289.986	65.94
290.217	89.94
290.448	90.94
290.679	80.94
290.91	87.94
291.141	85.94
291.371	93.94
291.602	79.94
291.833	93.94
292.064	93.94
292.295	81.94
292.526	80.94
292.757	91.94
292.987	88.94
293.218	81.94
293.449	81.94
293.68	72.94
293.91	86.94
294.141	79.94
294.372	85.94
294.603	77.94
294.833	100.94
295.064	86.94
295.295	106.94
295.525	97.94
295.756	97.94
295.987	121.94
296.217	137.94
296.448	108.94
296.679	80.94
296.909	102.94
297.14	98.94
297.37	83.94
297.601	74.94
297.831	92.94
298.062	85.94
298.292	84.94
298.523	78.94
298.753	89.94
298.984	98.94
299.214	91.94
299.445	77.94
299.675	87.94
299.905	90.94
300.136	82.94
300.366	81.94
300.597	83.94
300.827	94.94
301.057	101.94
301.288	90.94
301.518	87.94
301.748	90.94
301.979	85.94
302.209	78.94
302.439	92.94
302.669	78.94
302.9	99.94
303.13	72.94
303.36	85.94
303.59	82.94
303.82	85.94
304.051	87.94
304.281	80.94
304.511	92.94
304.741	85.94
304.971	82.94
305.201	89.94
305.431	93.94
305.661	79.94
305.891	96.94
306.121	89.94
306.352	86.94
306.582	86.94
306.812	83.94
307.042	89.94
307.272	89.94
307.502	82.94
307.731	105.94
307.961	86.94
308.191	85.94
308.421	84.94
308.651	92.94
308.881	70.94
309.111	98.94
309.341	98.94
309.571	110.94
309.8	82.94
310.03	88.94
310.26	94.94
310.49	88.94
310.72	81.94
310.949	102.94
311.179	103.94
311.409	90.94
311.639	96.94
311.868	84.94
312.098	99.94
312.328	76.94
312.557	100.94
312.787	101.94
313.017	100.94
313.246	97.94
313.476	84.94
313.706	98.94
313.935	76.94
314.165	87.94
314.394	90.94
314.624	82.94
314.853	99.94
315.083	101.94
315.312	98.94
315.542	87.94
315.771	90.94
316.001	72.94
316.23	85.94
316.46	104.94
316.689	102.94
316.919	86.94
317.148	87.94
317.377	82.94
317.607	99.94
317.836	103.94
318.065	92.94
318.295	105.94
318.524	84.94
318.753	85.94
318.983	99.94
319.212	98.94
319.441	113.94
319.67	112.94
319.9	87.94
320.129	85.94
320.358	99.94
320.587	86.94
320.816	95.94
321.046	98.94
321.275	101.94
321.504	89.94
321.733	95.94
321.962	93.94
322.191	86.94
322.42	100.94
322.649	104.94
322.878	105.94
323.108	122.94
323.337	108.94
323.566	124.94
323.795	159.94
324.024	194.94
324.253	359.94
324.482	764.94
324.71	1577.94
324.939	2060.94
325.168	737.94
325.397	230.94
325.626	142.94
325.855	132.94
326.084	121.94
326.313	129.94
326.542	129.94
326.77	220.94
326.999	416.94
327.228	876.94
327.457	1569.94
327.686	1267.94
327.914	324.94
328.143	191.94
328.372	145.94
328.6	120.94
328.829	112.94
329.058	106.94
329.287	114.94
329.515	115.94
329.744	104.94
329.972	87.94
330.201	96.94
330.43	119.94
330.658	116.94
330.887	127.94
331.115	109.94
331.344	94.94
331.572	117.94
331.801	105.94
332.03	93.94
332.258	94.94
332.486	77.94
332.715	96.94
332.943	88.94
333.172	82.94
333.4	91.94
333.629	89.94
333.857	98.94
334.085	88.94
334.314	91.94
334.542	114.94
334.771	94.94
334.999	95.94
335.227	94.94
335.455	80.94
335.684	93.94
335.912	94.94
336.14	100.94
336.369	97.94
336.597	89.94
336.825	100.94
337.053	97.94
337.281	98.94
337.51	101.94
337.738	90.94
337.966	90.94
338.194	104.94
338.422	102.94
338.65	86.94
338.878	88.94
339.106	72.94
339.334	93.94
339.562	74.94
339.79	85.94
340.018	83.94
340.246	80.94
340.474	82.94
340.702	87.94
340.93	98.94
341.158	90.94
341.386	85.94
341.614	92.94
341.842	102.94
342.07	73.94
342.298	79.94
342.526	92.94
342.754	75.94
342.981	91.94
343.209	94.94
343.437	106.94
343.665	78.94
343.893	86.94
344.12	80.94
344.348	89.94
344.576	90.94
344.804	91.94
345.031	99.94
345.259	89.94
345.487	98.94
345.714	97.94
345.942	89.94
346.17	94.94
346.397	95.94
346.625	88.94
346.853	99.94
347.08	96.94
347.308	106.94
347.535	88.94
347.763	96.94
347.99	98.94
348.218	96.94
348.445	82.94
348.673	83.94
348.9	73.94
349.128	84.94
349.355	89.94
349.583	95.94
349.81	88.94
350.037	94.94
350.265	90.94
350.492	94.94
350.72	82.94
350.947	103.94
351.174	100.94
351.402	93.94
351.629	96.94
351.856	95.94
352.083	106.94
352.311	86.94
352.538	97.94
352.765	87.94
352.992	106.94
353.22	101.94
353.447	104.94
353.674	93.94
353.901	99.94
354.128	103.94
354.355	86.94
354.583	82.94
354.81	87.94
355.037	92.94
355.264	98.94
355.491	89.94
355.718	82.94
355.945	86.94
356.172	99.94
356.399	83.94
356.626	76.94
356.853	92.94
357.08	87.94
357.307	92.94
357.534	96.94
357.761	82.94
357.988	109.94
358.215	92.94
358.441	92.94
358.668	86.94
358.895	82.94
359.122	89.94
359.349	88.94
359.576	97.94
359.802	92.94
360.029	103.94
360.256	97.94
360.483	99.94
360.709	87.94
360.936	84.94
361.163	97.94
361.39	88.94
361.616	69.94
361.843	77.94
362.07	89.94
362.296	106.94
362.523	88.94
362.749	94.94
362.976	80.94
363.203	97.94
363.429	101.94
363.656	87.94
363.882	77.94
364.109	78.94
364.335	81.94
364.562	94.94
364.788	80.94
365.015	78.94
365.241	100.94
365.468	103.94
365.694	88.94
365.92	95.94
366.147	83.94
366.373	96.94
366.599	93.94
366.826	81.94
367.052	88.94
367.278	81.94
367.505	80.94
367.731	84.94
367.957	84.94
368.184	81.94
368.41	85.94
368.636	102.94
368.862	103.94
369.089	102.94
369.315	92.94
369.541	87.94
369.767	80.94
369.993	88.94
370.219	83.94
370.445	71.94
370.672	85.94
370.898	94.94
371.124	80.94
371.35	82.94
371.576	88.94
371.802	98.94
372.028	82.94
372.254	90.94
372.48	86.94
372.706	85.94
372.932	86.94
373.158	89.94
373.384	82.94
373.61	73.94
373.835	99.94
374.061	96.94
374.287	90.94
374.513	81.94
374.739	75.94
374.965	80.94
375.191	95.94
375.416	84.94
375.642	90.94
375.868	85.94
376.094	80.94
376.319	85.94
376.545	87.94
376.771	73.94
376.997	98.94
377.222	84.94
377.448	83.94
377.674	96.94
377.899	87.94
378.125	84.94
378.35	95.94
378.576	90.94
378.802	86.94
379.027	94.94
379.253	89.94
379.478	100.94
379.704	80.94
379.929	89.94
380.155	91.94
380.38	75.94
380.606	80.94
380.831	86.94
381.057	93.94
381.282	99.94
381.507	92.94
381.733	95.94
381.958	105.94
382.184	83.94
382.409	108.94
382.634	91.94
382.86	89.94
383.085	92.94
383.31	99.94
383.535	90.94
383.761	104.94
383.986	98.94
384.211	85.94
384.436	85.94
384.662	95.94
384.887	99.94
385.112	95.94
385.337	112.94
385.562	103.94
385.787	116.94
386.013	88.94
386.238	81.94
386.463	89.94
386.688	104.94
386.913	90.94
387.138	119.94
387.363	102.94
387.588	90.94
387.813	95.94
388.038	100.94
388.263	109.94
388.488	99.94
388.713	92.94
388.938	104.94
389.163	104.94
389.387	110.94
389.612	103.94
389.837	96.94
390.062	95.94
390.287	78.94
390.512	79.94
390.736	87.94
390.961	80.94
391.186	91.94
391.411	90.94
391.636	94.94
391.86	80.94
392.085	97.94
392.31	68.94
392.534	67.94
392.759	96.94
392.984	88.94
393.208	83.94
393.433	106.94
393.658	96.94
393.882	79.94
394.107	93.94
394.331	80.94
394.556	89.94
394.78	73.94
395.005	81.94
395.229	88.94
395.454	90.94
395.678	90.94
395.903	100.94
396.127	85.94
396.352	73.94
396.576	81.94
396.801	90.94
397.025	90.94
397.249	99.94
397.474	90.94
397.698	98.94
397.922	96.94
398.147	91.94
398.371	92.94
398.595	91.94
398.82	88.94
399.044	83.94
399.268	82.94
399.492	90.94
399.717	82.94
399.941	81.94
400.165	94.94
400.389	83.94
400.613	77.94
400.837	77.94
401.062	94.94
401.286	85.94
401.51	92.94
401.734	90.94
401.958	101.94
402.182	140.94
402.406	151.94
402.63	116.94
402.854	93.94
403.078	90.94
403.302	80.94
403.526	88.94
403.75	79.94
403.974	67.94
404.198	87.94
404.422	78.94
404.645	85.94
404.869	77.94
405.093	96.94
405.317	100.94
405.541	90.94
405.765	92.94
405.988	96.94
406.212	174.94
406.436	211.94
406.66	136.94
406.883	100.94
407.107	87.94
407.331	88.94
407.555	89.94
407.778	92.94
408.002	81.94
408.226	86.94
408.449	86.94
408.673	88.94
408.896	105.94
409.12	86.94
409.344	96.94
409.567	76.94
409.791	87.94
410.014	84.94
410.238	92.94
410.461	92.94
410.685	100.94
410.908	92.94
411.132	104.94
411.355	97.94
411.578	87.94
411.802	100.94
412.025	88.94
412.249	87.94
412.472	89.94
412.695	97.94
412.919	84.94
413.142	90.94
413.365	81.94
413.589	78.94
413.812	98.94
414.035	86.94
414.258	91.94
414.482	82.94
414.705	92.94
414.928	88.94
415.151	103.94
415.374	97.94
415.597	83.94
415.821	87.94
416.044	78.94
416.267	88.94
416.49	94.94
416.713	79.94
416.936	101.94
417.159	88.94
417.382	85.94
417.605	99.94
417.828	91.94
418.051	80.94
418.274	92.94
418.497	97.94
418.72	82.94
418.943	72.94
419.166	99.94
419.389	88.94
419.611	88.94
419.834	79.94
420.057	93.94
420.28	87.94
420.503	96.94
420.726	87.94
420.948	88.94
421.171	85.94
421.394	86.94
421.617	86.94
421.839	87.94
422.062	92.94
422.285	90.94
422.507	101.94
422.73	98.94
422.953	96.94
423.175	92.94
423.398	89.94
423.621	96.94
423.843	76.94
424.066	90.94
424.288	84.94
424.511	80.94
424.733	102.94
424.956	107.94
425.178	101.94
425.401	95.94
425.623	80.94
425.846	95.94
426.068	95.94
426.291	99.94
426.513	76.94
426.735	90.94
426.958	97.94
427.18	108.94
427.402	134.94
427.625	149.94
427.847	130.94
428.069	116.94
428.292	90.94
428.514	87.94
428.736	83.94
428.958	78.94
429.181	87.94
429.403	74.94
429.625	88.94
429.847	97.94
430.069	102.94
430.292	75.94
430.514	92.94
430.736	74.94
430.958	77.94
431.18	69.94
431.402	78.94
431.624	80.94
431.846	84.94
432.068	94.94
432.29	81.94
432.512	87.94
432.734	96.94
432.956	80.94
433.178	88.94
433.4	88.94
433.622	83.94
433.844	80.94
434.066	83.94
434.287	97.94
434.509	92.94
434.731	81.94
434.953	92.94
435.175	70.94
435.397	87.94
435.618	76.94
435.84	96.94
436.062	115.94
436.284	123.94
436.505	92.94
436.727	86.94
436.949	98.94
437.17	78.94
437.392	97.94
437.614	102.94
437.835	95.94
438.057	106.94
438.278	103.94
438.5	102.94
438.721	104.94
438.943	110.94
439.165	84.94
439.386	93.94
439.608	80.94
439.829	88.94
440.05	119.94
440.272	130.94
440.493	93.94
440.715	88.94
440.936	85.94
441.158	93.94
441.379	85.94
441.6	94.94
441.822	78.94
442.043	92.94
442.264	94.94
442.486	108.94
442.707	85.94
442.928	96.94
443.149	111.94
443.371	127.94
443.592	100.94
443.813	110.94
444.034	101.94
444.255	96.94
444.476	71.94
444.698	87.94
444.919	81.94
445.14	137.94
445.361	119.94
445.582	102.94
445.803	119.94
446.024	124.94
446.245	124.94
446.466	100.94
446.687	80.94
446.908	84.94
447.129	82.94
447.35	81.94
447.571	87.94
447.792	89.94
448.013	97.94
448.234	93.94
448.455	93.94
448.675	99.94
448.896	101.94
449.117	90.94
449.338	93.94
449.559	118.94
449.779	119.94
450	93.94
450.221	86.94
450.442	84.94
450.662	83.94
450.883	88.94
451.104	98.94
451.324	87.94
451.545	82.94
451.766	75.94
451.986	92.94
452.207	89.94
452.428	92.94
452.648	89.94
452.869	117.94
453.089	102.94
453.31	117.94
453.53	73.94
453.751	89.94
453.971	95.94
454.192	108.94
454.412	80.94
454.633	93.94
454.853	87.94
455.073	82.94
455.294	93.94
455.514	87.94
455.734	87.94
455.955	98.94
456.175	88.94
456.395	81.94
456.616	93.94
456.836	94.94
457.056	83.94
457.276	73.94
457.497	85.94
457.717	80.94
457.937	81.94
458.157	81.94
458.377	93.94
458.598	112.94
458.818	145.94
459.038	156.94
459.258	127.94
459.478	71.94
459.698	86.94
459.918	90.94
460.138	91.94
460.358	81.94
460.578	91.94
460.798	83.94
461.018	99.94
461.238	73.94
461.458	81.94
461.678	81.94
461.898	80.94
462.118	88.94
462.338	88.94
462.558	82.94
462.777	86.94
462.997	74.94
463.217	78.94
463.437	86.94
463.657	92.94
463.876	80.94
464.096	94.94
464.316	87.94
464.536	96.94
464.755	79.94
464.975	106.94
465.195	162.94
465.414	137.94
465.634	89.94
465.854	84.94
466.073	84.94
466.293	80.94
466.512	86.94
466.732	83.94
466.951	98.94
467.171	78.94
467.391	92.94
467.61	95.94
467.829	94.94
468.049	88.94
468.268	92.94
468.488	72.94
468.707	90.94
468.927	84.94
469.146	93.94
469.365	65.94
469.585	104.94
469.804	94.94
470.023	78.94
470.243	69.94
470.462	87.94
470.681	104.94
470.901	94.94
471.12	86.94
471.339	91.94
471.558	97.94
471.777	92.94
471.997	100.94
472.216	90.94
472.435	92.94
472.654	88.94
472.873	77.94
473.092	65.94
473.311	89.94
473.53	87.94
473.749	83.94
473.968	93.94
474.187	106.94
474.406	76.94
474.625	80.94
474.844	95.94
475.063	80.94
475.282	90.94
475.501	87.94
475.72	80.94
475.939	83.94
476.158	87.94
476.377	81.94
476.596	86.94
476.814	82.94
477.033	97.94
477.252	96.94
477.471	86.94
477.69	72.94
477.908	80.94
478.127	96.94
478.346	92.94
478.564	77.94
478.783	79.94
479.002	86.94
479.22	87.94
479.439	85.94
479.658	97.94
479.876	82.94
480.095	82.94
480.313	88.94
480.532	84.94
480.751	87.94
480.969	71.94
481.188	128.94
481.406	105.94
481.624	90.94
481.843	86.94
482.061	92.94
482.28	80.94
482.498	85.94
482.717	86.94
482.935	98.94
483.153	77.94
483.372	98.94
483.59	101.94
483.808	86.94
484.027	84.94
484.245	94.94
484.463	98.94
484.681	93.94
484.9	99.94
485.118	86.94
485.336	100.94
485.554	93.94
485.772	88.94
485.99	108.94
486.209	88.94
486.427	99.94
486.645	107.94
486.863	96.94
487.081	95.94
487.299	90.94
487.517	86.94
487.735	98.94
487.953	79.94
488.171	90.94
488.389	111.94
488.607	94.94
488.825	80.94
489.043	88.94
489.261	100.94
489.479	96.94
489.696	76.94
489.914	78.94
490.132	80.94
490.35	83.94
490.568	80.94
490.786	74.94
491.003	84.94
491.221	97.94
491.439	80.94
491.657	84.94
491.874	92.94
492.092	85.94
492.31	97.94
492.527	97.94
492.745	78.94
492.963	82.94
493.18	85.94
493.398	85.94
493.615	96.94
493.833	94.94
494.05	102.94
494.268	88.94
494.485	81.94
494.703	83.94
494.92	82.94
495.138	76.94
495.355	88.94
495.573	101.94
495.79	99.94
496.008	76.94
496.225	85.94
496.442	85.94
496.66	91.94
496.877	89.94
497.094	86.94
497.312	90.94
497.529	82.94
497.746	84.94
497.963	81.94
498.181	78.94
498.398	85.94
498.615	102.94
498.832	88.94
499.049	90.94
499.267	86.94
499.484	74.94
499.701	82.94
499.918	89.94
500.135	85.94
500.352	78.94
500.569	101.94
500.786	81.94
501.003	74.94
501.22	82.94
501.437	89.94
501.654	96.94
501.871	105.94
502.088	93.94
502.305	93.94
502.522	82.94
502.739	92.94
502.956	98.94
503.172	98.94
503.389	97.94
503.606	103.94
503.823	101.94
504.04	78.94
504.256	84.94
504.473	86.94
504.69	85.94
504.907	86.94
505.123	100.94
505.34	91.94
505.557	90.94
505.773	98.94
505.99	87.94
506.207	87.94
506.423	84.94
506.64	93.94
506.856	95.94
507.073	94.94
507.289	88.94
507.506	93.94
507.722	113.94
507.939	100.94
508.155	96.94
508.372	87.94
508.588	99.94
508.805	98.94
509.021	102.94
509.238	115.94
509.454	92.94
509.67	106.94
509.887	104.94
510.103	146.94
510.319	212.94
510.536	773.94
510.752	2478.94
510.968	661.94
511.184	160.94
511.401	110.94
511.617	88.94
511.833	92.94
512.049	81.94
512.265	80.94
512.481	82.94
512.698	89.94
512.914	74.94
513.13	88.94
513.346	100.94
513.562	97.94
513.778	87.94
513.994	92.94
514.21	92.94
514.426	113.94
514.642	114.94
514.858	132.94
515.074	154.94
515.29	458.94
515.506	1487.94
515.721	540.94
515.937	145.94
516.153	115.94
516.369	105.94
516.585	93.94
516.801	84.94
517.016	98.94
