Data from Uncirc_1983_H10_HRD10591_00013.txt Node
Date: Wed Jan 03 12:25:34 EST 2024
User: Yrep
Spectrometer: HR+D1059
Trigger mode: 1
Integration Time (sec): 1.000000E-1
Scans to average: 1
Electric dark correction enabled: true
Nonlinearity correction enabled: false
Boxcar width: 0
XAxis mode: Wavelengths
Number of Pixels in Spectrum: 2048
>>>>>Begin Spectral Data<<<<<
223.165	-2.19
223.4	-2.19
223.635	-2.19
223.869	-25.19
224.104	-11.19
224.338	-5.19
224.573	-15.19
224.808	-16.19
225.042	-12.19
225.277	-10.19
225.511	-10.19
225.746	8.81
225.98	16.81
226.215	2.81
226.449	8.81
226.683	12.81
226.918	28.81
227.152	28.81
227.387	31.81
227.621	40.81
227.856	35.81
228.09	33.81
228.324	43.81
228.559	48.81
228.793	53.81
229.027	56.81
229.262	58.81
229.496	67.81
229.73	73.81
229.964	93.81
230.199	92.81
230.433	85.81
230.667	78.81
230.901	77.81
231.136	74.81
231.37	49.81
231.604	66.81
231.838	79.81
232.072	81.81
232.306	89.81
232.541	80.81
232.775	73.81
233.009	72.81
233.243	77.81
233.477	79.81
233.711	78.81
233.945	78.81
234.179	92.81
234.413	77.81
234.647	91.81
234.881	72.81
235.115	82.81
235.349	72.81
235.583	82.81
235.817	82.81
236.051	65.81
236.285	61.81
236.519	86.81
236.753	77.81
236.987	74.81
237.221	69.81
237.455	64.81
237.689	62.81
237.922	76.81
238.156	79.81
238.39	69.81
238.624	78.81
238.858	80.81
239.091	64.81
239.325	70.81
239.559	71.81
239.793	64.81
240.027	85.81
240.26	76.81
240.494	76.81
240.728	73.81
240.961	64.81
241.195	79.81
241.429	75.81
241.662	68.81
241.896	71.81
242.13	65.81
242.363	68.81
242.597	85.81
242.83	73.81
243.064	76.81
243.298	66.81
243.531	71.81
243.765	80.81
243.998	82.81
244.232	85.81
244.465	78.81
244.699	61.81
244.932	80.81
245.166	87.81
245.399	64.81
245.633	87.81
245.866	83.81
246.099	73.81
246.333	68.81
246.566	83.81
246.8	73.81
247.033	89.81
247.266	63.81
247.5	76.81
247.733	83.81
247.966	68.81
248.2	62.81
248.433	74.81
248.666	89.81
248.899	64.81
249.133	81.81
249.366	83.81
249.599	84.81
249.832	71.81
250.066	80.81
250.299	71.81
250.532	79.81
250.765	78.81
250.998	72.81
251.231	72.81
251.465	81.81
251.698	69.81
251.931	73.81
252.164	57.81
252.397	69.81
252.63	51.81
252.863	82.81
253.096	82.81
253.329	89.81
253.562	71.81
253.795	82.81
254.028	78.81
254.261	82.81
254.494	76.81
254.727	68.81
254.96	75.81
255.193	81.81
255.426	83.81
255.659	74.81
255.892	81.81
256.124	79.81
256.357	79.81
256.59	77.81
256.823	76.81
257.056	86.81
257.289	87.81
257.521	78.81
257.754	82.81
257.987	66.81
258.22	74.81
258.452	80.81
258.685	85.81
258.918	78.81
259.151	81.81
259.383	78.81
259.616	97.81
259.849	81.81
260.081	66.81
260.314	68.81
260.547	79.81
260.779	74.81
261.012	74.81
261.244	83.81
261.477	84.81
261.71	83.81
261.942	81.81
262.175	103.81
262.407	85.81
262.64	73.81
262.872	90.81
263.105	74.81
263.337	80.81
263.57	86.81
263.802	81.81
264.035	84.81
264.267	79.81
264.499	69.81
264.732	89.81
264.964	77.81
265.197	89.81
265.429	84.81
265.661	86.81
265.894	63.81
266.126	80.81
266.358	63.81
266.591	85.81
266.823	71.81
267.055	77.81
267.287	75.81
267.52	68.81
267.752	91.81
267.984	67.81
268.216	70.81
268.448	92.81
268.681	69.81
268.913	86.81
269.145	81.81
269.377	88.81
269.609	91.81
269.841	80.81
270.073	69.81
270.306	70.81
270.538	79.81
270.77	79.81
271.002	91.81
271.234	89.81
271.466	72.81
271.698	71.81
271.93	91.81
272.162	88.81
272.394	95.81
272.626	90.81
272.858	76.81
273.09	94.81
273.322	80.81
273.553	81.81
273.785	84.81
274.017	68.81
274.249	77.81
274.481	82.81
274.713	93.81
274.945	81.81
275.176	87.81
275.408	73.81
275.64	74.81
275.872	85.81
276.104	87.81
276.335	77.81
276.567	83.81
276.799	82.81
277.031	97.81
277.262	85.81
277.494	92.81
277.726	76.81
277.957	78.81
278.189	82.81
278.421	80.81
278.652	87.81
278.884	81.81
279.115	88.81
279.347	85.81
279.579	78.81
279.81	67.81
280.042	78.81
280.273	72.81
280.505	84.81
280.736	68.81
280.968	72.81
281.199	87.81
281.431	84.81
281.662	79.81
281.894	84.81
282.125	103.81
282.356	94.81
282.588	107.81
282.819	94.81
283.051	90.81
283.282	84.81
283.513	95.81
283.745	82.81
283.976	76.81
284.207	82.81
284.439	92.81
284.67	76.81
284.901	97.81
285.132	101.81
285.364	77.81
285.595	93.81
285.826	80.81
286.057	80.81
286.288	82.81
286.52	84.81
286.751	76.81
286.982	86.81
287.213	78.81
287.444	87.81
287.675	90.81
287.906	97.81
288.138	93.81
288.369	92.81
288.6	93.81
288.831	82.81
289.062	78.81
289.293	72.81
289.524	92.81
289.755	91.81
289.986	77.81
290.217	99.81
290.448	76.81
290.679	82.81
290.91	79.81
291.141	96.81
291.371	84.81
291.602	79.81
291.833	80.81
292.064	85.81
292.295	94.81
292.526	82.81
292.757	89.81
292.987	86.81
293.218	79.81
293.449	86.81
293.68	81.81
293.91	77.81
294.141	83.81
294.372	83.81
294.603	85.81
294.833	85.81
295.064	75.81
295.295	76.81
295.525	97.81
295.756	94.81
295.987	101.81
296.217	118.81
296.448	105.81
296.679	71.81
296.909	69.81
297.14	78.81
297.37	76.81
297.601	85.81
297.831	102.81
298.062	77.81
298.292	84.81
298.523	91.81
298.753	82.81
298.984	90.81
299.214	87.81
299.445	92.81
299.675	93.81
299.905	78.81
300.136	93.81
300.366	82.81
300.597	91.81
300.827	81.81
301.057	88.81
301.288	85.81
301.518	76.81
301.748	90.81
301.979	102.81
302.209	88.81
302.439	92.81
302.669	91.81
302.9	100.81
303.13	92.81
303.36	94.81
303.59	83.81
303.82	96.81
304.051	86.81
304.281	108.81
304.511	91.81
304.741	87.81
304.971	80.81
305.201	80.81
305.431	87.81
305.661	93.81
305.891	93.81
306.121	90.81
306.352	97.81
306.582	105.81
306.812	104.81
307.042	84.81
307.272	77.81
307.502	96.81
307.731	84.81
307.961	70.81
308.191	102.81
308.421	88.81
308.651	103.81
308.881	94.81
309.111	87.81
309.341	86.81
309.571	83.81
309.8	102.81
310.03	100.81
310.26	89.81
310.49	87.81
310.72	70.81
310.949	83.81
311.179	84.81
311.409	85.81
311.639	103.81
311.868	88.81
312.098	85.81
312.328	92.81
312.557	100.81
312.787	94.81
313.017	85.81
313.246	87.81
313.476	86.81
313.706	94.81
313.935	105.81
314.165	94.81
314.394	109.81
314.624	81.81
314.853	86.81
315.083	89.81
315.312	77.81
315.542	88.81
315.771	95.81
316.001	90.81
316.23	82.81
316.46	80.81
316.689	75.81
316.919	96.81
317.148	81.81
317.377	95.81
317.607	78.81
317.836	97.81
318.065	80.81
318.295	85.81
318.524	76.81
318.753	87.81
318.983	88.81
319.212	91.81
319.441	103.81
319.67	91.81
319.9	96.81
320.129	81.81
320.358	85.81
320.587	104.81
320.816	96.81
321.046	104.81
321.275	96.81
321.504	88.81
321.733	97.81
321.962	102.81
322.191	93.81
322.42	88.81
322.649	95.81
322.878	92.81
323.108	99.81
323.337	101.81
323.566	124.81
323.795	135.81
324.024	166.81
324.253	308.81
324.482	646.81
324.71	1325.81
324.939	1728.81
325.168	631.81
325.397	216.81
325.626	121.81
325.855	119.81
326.084	115.81
326.313	119.81
326.542	129.81
326.77	198.81
326.999	374.81
327.228	786.81
327.457	1382.81
327.686	1068.81
327.914	302.81
328.143	167.81
328.372	134.81
328.6	110.81
328.829	111.81
329.058	104.81
329.287	96.81
329.515	97.81
329.744	95.81
329.972	100.81
330.201	103.81
330.43	101.81
330.658	103.81
330.887	121.81
331.115	106.81
331.344	88.81
331.572	101.81
331.801	82.81
332.03	81.81
332.258	91.81
332.486	96.81
332.715	80.81
332.943	78.81
333.172	88.81
333.4	82.81
333.629	110.81
333.857	80.81
334.085	94.81
334.314	85.81
334.542	92.81
334.771	90.81
334.999	95.81
335.227	93.81
335.455	97.81
335.684	105.81
335.912	103.81
336.14	95.81
336.369	95.81
336.597	95.81
336.825	84.81
337.053	88.81
337.281	112.81
337.51	98.81
337.738	83.81
337.966	88.81
338.194	83.81
338.422	85.81
338.65	99.81
338.878	90.81
339.106	81.81
339.334	86.81
339.562	85.81
339.79	78.81
340.018	88.81
340.246	90.81
340.474	85.81
340.702	80.81
340.93	77.81
341.158	87.81
341.386	84.81
341.614	95.81
341.842	88.81
342.07	95.81
342.298	97.81
342.526	91.81
342.754	90.81
342.981	77.81
343.209	85.81
343.437	100.81
343.665	77.81
343.893	100.81
344.12	92.81
344.348	100.81
344.576	92.81
344.804	83.81
345.031	100.81
345.259	77.81
345.487	87.81
345.714	87.81
345.942	86.81
346.17	91.81
346.397	102.81
346.625	94.81
346.853	92.81
347.08	84.81
347.308	85.81
347.535	104.81
347.763	97.81
347.99	92.81
348.218	88.81
348.445	96.81
348.673	92.81
348.9	83.81
349.128	94.81
349.355	94.81
349.583	96.81
349.81	79.81
350.037	84.81
350.265	95.81
350.492	88.81
350.72	86.81
350.947	92.81
351.174	98.81
351.402	110.81
351.629	85.81
351.856	112.81
352.083	100.81
352.311	90.81
352.538	108.81
352.765	96.81
352.992	90.81
353.22	107.81
353.447	80.81
353.674	104.81
353.901	102.81
354.128	93.81
354.355	92.81
354.583	101.81
354.81	95.81
355.037	95.81
355.264	79.81
355.491	93.81
355.718	88.81
355.945	86.81
356.172	92.81
356.399	93.81
356.626	88.81
356.853	93.81
357.08	81.81
357.307	82.81
357.534	70.81
357.761	87.81
357.988	94.81
358.215	101.81
358.441	94.81
358.668	84.81
358.895	78.81
359.122	92.81
359.349	81.81
359.576	79.81
359.802	90.81
360.029	105.81
360.256	106.81
360.483	92.81
360.709	82.81
360.936	95.81
361.163	94.81
361.39	99.81
361.616	90.81
361.843	94.81
362.07	92.81
362.296	84.81
362.523	77.81
362.749	91.81
362.976	77.81
363.203	87.81
363.429	88.81
363.656	88.81
363.882	89.81
364.109	96.81
364.335	89.81
364.562	93.81
364.788	83.81
365.015	92.81
365.241	85.81
365.468	101.81
365.694	90.81
365.92	84.81
366.147	81.81
366.373	93.81
366.599	80.81
366.826	95.81
367.052	71.81
367.278	76.81
367.505	90.81
367.731	96.81
367.957	85.81
368.184	90.81
368.41	91.81
368.636	105.81
368.862	106.81
369.089	93.81
369.315	83.81
369.541	76.81
369.767	76.81
369.993	82.81
370.219	92.81
370.445	78.81
370.672	85.81
370.898	88.81
371.124	92.81
371.35	82.81
371.576	90.81
371.802	88.81
372.028	77.81
372.254	83.81
372.48	92.81
372.706	73.81
372.932	88.81
373.158	71.81
373.384	82.81
373.61	79.81
373.835	90.81
374.061	89.81
374.287	92.81
374.513	86.81
374.739	90.81
374.965	90.81
375.191	80.81
375.416	78.81
375.642	90.81
375.868	102.81
376.094	92.81
376.319	89.81
376.545	84.81
376.771	92.81
376.997	78.81
377.222	92.81
377.448	95.81
377.674	88.81
377.899	89.81
378.125	92.81
378.35	80.81
378.576	99.81
378.802	88.81
379.027	90.81
379.253	85.81
379.478	86.81
379.704	97.81
379.929	96.81
380.155	91.81
380.38	90.81
380.606	84.81
380.831	111.81
381.057	105.81
381.282	92.81
381.507	95.81
381.733	89.81
381.958	98.81
382.184	101.81
382.409	80.81
382.634	99.81
382.86	83.81
383.085	111.81
383.31	96.81
383.535	85.81
383.761	88.81
383.986	90.81
384.211	99.81
384.436	109.81
384.662	90.81
384.887	109.81
385.112	100.81
385.337	104.81
385.562	103.81
385.787	113.81
386.013	103.81
386.238	106.81
386.463	96.81
386.688	112.81
386.913	107.81
387.138	104.81
387.363	95.81
387.588	101.81
387.813	99.81
388.038	101.81
388.263	120.81
388.488	123.81
388.713	112.81
388.938	93.81
389.163	84.81
389.387	81.81
389.612	92.81
389.837	90.81
390.062	96.81
390.287	92.81
390.512	83.81
390.736	92.81
390.961	96.81
391.186	100.81
391.411	77.81
391.636	84.81
391.86	85.81
392.085	85.81
392.31	83.81
392.534	82.81
392.759	90.81
392.984	88.81
393.208	91.81
393.433	98.81
393.658	100.81
393.882	87.81
394.107	92.81
394.331	88.81
394.556	87.81
394.78	79.81
395.005	83.81
395.229	87.81
395.454	97.81
395.678	78.81
395.903	64.81
396.127	87.81
396.352	81.81
396.576	76.81
396.801	93.81
397.025	90.81
397.249	94.81
397.474	94.81
397.698	100.81
397.922	90.81
398.147	77.81
398.371	85.81
398.595	83.81
398.82	80.81
399.044	79.81
399.268	84.81
399.492	80.81
399.717	82.81
399.941	84.81
400.165	96.81
400.389	81.81
400.613	93.81
400.837	76.81
401.062	83.81
401.286	73.81
401.51	81.81
401.734	96.81
401.958	93.81
402.182	105.81
402.406	133.81
402.63	117.81
402.854	76.81
403.078	98.81
403.302	84.81
403.526	102.81
403.75	81.81
403.974	96.81
404.198	90.81
404.422	92.81
404.645	87.81
404.869	73.81
405.093	86.81
405.317	104.81
405.541	92.81
405.765	105.81
405.988	94.81
406.212	117.81
406.436	176.81
406.66	119.81
406.883	71.81
407.107	79.81
407.331	88.81
407.555	93.81
407.778	89.81
408.002	98.81
408.226	76.81
408.449	84.81
408.673	90.81
408.896	80.81
409.12	89.81
409.344	84.81
409.567	77.81
409.791	92.81
410.014	94.81
410.238	108.81
410.461	93.81
410.685	91.81
410.908	106.81
411.132	99.81
411.355	104.81
411.578	92.81
411.802	87.81
412.025	98.81
412.249	90.81
412.472	87.81
412.695	93.81
412.919	95.81
413.142	81.81
413.365	85.81
413.589	84.81
413.812	92.81
414.035	79.81
414.258	97.81
414.482	80.81
414.705	88.81
414.928	97.81
415.151	92.81
415.374	91.81
415.597	102.81
415.821	94.81
416.044	84.81
416.267	96.81
416.49	89.81
416.713	92.81
416.936	78.81
417.159	69.81
417.382	80.81
417.605	92.81
417.828	93.81
418.051	95.81
418.274	79.81
418.497	85.81
418.72	77.81
418.943	77.81
419.166	82.81
419.389	81.81
419.611	95.81
419.834	84.81
420.057	98.81
420.28	89.81
420.503	81.81
420.726	80.81
420.948	90.81
421.171	100.81
421.394	85.81
421.617	92.81
421.839	91.81
422.062	90.81
422.285	82.81
422.507	101.81
422.73	101.81
422.953	98.81
423.175	80.81
423.398	82.81
423.621	77.81
423.843	86.81
424.066	85.81
424.288	80.81
424.511	90.81
424.733	101.81
424.956	95.81
425.178	83.81
425.401	105.81
425.623	85.81
425.846	74.81
426.068	91.81
426.291	89.81
426.513	102.81
426.735	86.81
426.958	89.81
427.18	85.81
427.402	117.81
427.625	127.81
427.847	100.81
428.069	98.81
428.292	74.81
428.514	65.81
428.736	87.81
428.958	86.81
429.181	87.81
429.403	75.81
429.625	79.81
429.847	83.81
430.069	92.81
430.292	85.81
430.514	83.81
430.736	80.81
430.958	72.81
431.18	89.81
431.402	86.81
431.624	90.81
431.846	82.81
432.068	88.81
432.29	109.81
432.512	77.81
432.734	86.81
432.956	96.81
433.178	101.81
433.4	89.81
433.622	73.81
433.844	83.81
434.066	78.81
434.287	95.81
434.509	89.81
434.731	64.81
434.953	96.81
435.175	88.81
435.397	80.81
435.618	74.81
435.84	95.81
436.062	108.81
436.284	111.81
436.505	99.81
436.727	87.81
436.949	100.81
437.17	81.81
437.392	93.81
437.614	87.81
437.835	90.81
438.057	90.81
438.278	114.81
438.5	95.81
438.721	118.81
438.943	99.81
439.165	84.81
439.386	79.81
439.608	100.81
439.829	102.81
440.05	111.81
440.272	112.81
440.493	95.81
440.715	90.81
440.936	87.81
441.158	99.81
441.379	83.81
441.6	85.81
441.822	99.81
442.043	90.81
442.264	86.81
442.486	91.81
442.707	74.81
442.928	88.81
443.149	122.81
443.371	98.81
443.592	98.81
443.813	93.81
444.034	89.81
444.255	81.81
444.476	85.81
444.698	80.81
444.919	92.81
445.14	121.81
445.361	121.81
445.582	103.81
445.803	118.81
446.024	113.81
446.245	120.81
446.466	77.81
446.687	95.81
446.908	83.81
447.129	92.81
447.35	94.81
447.571	81.81
447.792	97.81
448.013	95.81
448.234	85.81
448.455	109.81
448.675	100.81
448.896	107.81
449.117	94.81
449.338	74.81
449.559	103.81
449.779	124.81
450	81.81
450.221	84.81
450.442	89.81
450.662	90.81
450.883	98.81
451.104	95.81
451.324	77.81
451.545	78.81
451.766	89.81
451.986	69.81
452.207	80.81
452.428	93.81
452.648	82.81
452.869	97.81
453.089	99.81
453.31	106.81
453.53	99.81
453.751	81.81
453.971	95.81
454.192	100.81
454.412	81.81
454.633	81.81
454.853	87.81
455.073	105.81
455.294	87.81
455.514	104.81
455.734	80.81
455.955	84.81
456.175	92.81
456.395	85.81
456.616	88.81
456.836	89.81
457.056	89.81
457.276	70.81
457.497	77.81
457.717	92.81
457.937	63.81
458.157	86.81
458.377	85.81
458.598	101.81
458.818	127.81
459.038	129.81
459.258	87.81
459.478	93.81
459.698	90.81
459.918	80.81
460.138	93.81
460.358	78.81
460.578	73.81
460.798	81.81
461.018	84.81
461.238	80.81
461.458	90.81
461.678	90.81
461.898	94.81
462.118	77.81
462.338	98.81
462.558	87.81
462.777	90.81
462.997	81.81
463.217	83.81
463.437	88.81
463.657	79.81
463.876	86.81
464.096	84.81
464.316	98.81
464.536	77.81
464.755	90.81
464.975	104.81
465.195	119.81
465.414	130.81
465.634	92.81
465.854	82.81
466.073	97.81
466.293	72.81
466.512	73.81
466.732	89.81
466.951	72.81
467.171	88.81
467.391	88.81
467.61	76.81
467.829	86.81
468.049	77.81
468.268	81.81
468.488	77.81
468.707	85.81
468.927	86.81
469.146	76.81
469.365	100.81
469.585	85.81
469.804	97.81
470.023	74.81
470.243	71.81
470.462	93.81
470.681	84.81
470.901	83.81
471.12	81.81
471.339	82.81
471.558	96.81
471.777	86.81
471.997	104.81
472.216	95.81
472.435	99.81
472.654	84.81
472.873	93.81
473.092	87.81
473.311	82.81
473.53	90.81
473.749	77.81
473.968	85.81
474.187	84.81
474.406	97.81
474.625	84.81
474.844	81.81
475.063	78.81
475.282	71.81
475.501	80.81
475.72	81.81
475.939	92.81
476.158	79.81
476.377	97.81
476.596	84.81
476.814	85.81
477.033	86.81
477.252	87.81
477.471	79.81
477.69	84.81
477.908	80.81
478.127	88.81
478.346	90.81
478.564	88.81
478.783	101.81
479.002	94.81
479.22	89.81
479.439	85.81
479.658	89.81
479.876	91.81
480.095	89.81
480.313	83.81
480.532	87.81
480.751	83.81
480.969	89.81
481.188	100.81
481.406	90.81
481.624	88.81
481.843	81.81
482.061	71.81
482.28	86.81
482.498	90.81
482.717	86.81
482.935	100.81
483.153	86.81
483.372	77.81
483.59	87.81
483.808	96.81
484.027	85.81
484.245	106.81
484.463	85.81
484.681	94.81
484.9	86.81
485.118	94.81
485.336	98.81
485.554	108.81
485.772	95.81
485.99	98.81
486.209	119.81
486.427	100.81
486.645	112.81
486.863	112.81
487.081	96.81
487.299	84.81
487.517	90.81
487.735	88.81
487.953	83.81
488.171	93.81
488.389	92.81
488.607	95.81
488.825	82.81
489.043	68.81
489.261	98.81
489.479	90.81
489.696	72.81
489.914	93.81
490.132	87.81
490.35	105.81
490.568	90.81
490.786	81.81
491.003	85.81
491.221	87.81
491.439	100.81
491.657	103.81
491.874	93.81
492.092	94.81
492.31	82.81
492.527	77.81
492.745	84.81
492.963	85.81
493.18	82.81
493.398	96.81
493.615	97.81
493.833	97.81
494.05	88.81
494.268	76.81
494.485	80.81
494.703	88.81
494.92	80.81
495.138	88.81
495.355	77.81
495.573	84.81
495.79	92.81
496.008	86.81
496.225	85.81
496.442	84.81
496.66	99.81
496.877	68.81
497.094	78.81
497.312	87.81
497.529	80.81
497.746	89.81
497.963	88.81
498.181	83.81
498.398	71.81
498.615	96.81
498.832	92.81
499.049	99.81
499.267	88.81
499.484	88.81
499.701	92.81
499.918	90.81
500.135	96.81
500.352	91.81
500.569	86.81
500.786	82.81
501.003	89.81
501.22	81.81
501.437	94.81
501.654	97.81
501.871	98.81
502.088	80.81
502.305	103.81
502.522	95.81
502.739	80.81
502.956	91.81
503.172	92.81
503.389	90.81
503.606	97.81
503.823	87.81
504.04	94.81
504.256	100.81
504.473	81.81
504.69	108.81
504.907	82.81
505.123	82.81
505.34	81.81
505.557	89.81
505.773	90.81
505.99	90.81
506.207	78.81
506.423	81.81
506.64	84.81
506.856	88.81
507.073	77.81
507.289	84.81
507.506	86.81
507.722	107.81
507.939	108.81
508.155	85.81
508.372	85.81
508.588	78.81
508.805	94.81
509.021	101.81
509.238	104.81
509.454	94.81
509.67	83.81
509.887	107.81
510.103	111.81
510.319	167.81
510.536	576.81
510.752	1680.81
510.968	474.81
511.184	152.81
511.401	100.81
511.617	97.81
511.833	106.81
512.049	101.81
512.265	87.81
512.481	88.81
512.698	104.81
512.914	94.81
513.13	88.81
513.346	89.81
513.562	80.81
513.778	96.81
513.994	94.81
514.21	90.81
514.426	99.81
514.642	107.81
514.858	109.81
515.074	125.81
515.29	336.81
515.506	986.81
515.721	355.81
515.937	125.81
516.153	92.81
516.369	93.81
516.585	89.81
516.801	100.81
517.016	101.81
517.232	75.81
