Data from Uncirc_1983_H10_HRD10591_00031.txt Node
Date: Wed Jan 03 12:25:38 EST 2024
User: Yrep
Spectrometer: HR+D1059
Trigger mode: 1
Integration Time (sec): 1.000000E-1
Scans to average: 1
Electric dark correction enabled: true
Nonlinearity correction enabled: false
Boxcar width: 0
XAxis mode: Wavelengths
Number of Pixels in Spectrum: 2048
>>>>>Begin Spectral Data<<<<<
223.165	-5.38
223.4	-5.38
223.635	-5.38
223.869	-21.38
224.104	-18.38
224.338	-8.38
224.573	-22.38
224.808	-11.38
225.042	-8.38
225.277	10.62
225.511	-7.38
225.746	-2.38
225.98	2.62
226.215	9.62
226.449	-1.38
226.683	19.62
226.918	20.62
227.152	43.62
227.387	32.62
227.621	39.62
227.856	37.62
228.09	40.62
228.324	50.62
228.559	58.62
228.793	51.62
229.027	67.62
229.262	56.62
229.496	77.62
229.73	72.62
229.964	84.62
230.199	64.62
230.433	65.62
230.667	60.62
230.901	65.62
231.136	69.62
231.37	66.62
231.604	70.62
231.838	84.62
232.072	76.62
232.306	76.62
232.541	78.62
232.775	76.62
233.009	72.62
233.243	87.62
233.477	92.62
233.711	74.62
233.945	73.62
234.179	71.62
234.413	80.62
234.647	82.62
234.881	87.62
235.115	84.62
235.349	72.62
235.583	82.62
235.817	75.62
236.051	69.62
236.285	74.62
236.519	82.62
236.753	88.62
236.987	83.62
237.221	90.62
237.455	86.62
237.689	63.62
237.922	77.62
238.156	90.62
238.39	71.62
238.624	67.62
238.858	60.62
239.091	69.62
239.325	69.62
239.559	94.62
239.793	65.62
240.027	73.62
240.26	81.62
240.494	84.62
240.728	70.62
240.961	93.62
241.195	80.62
241.429	76.62
241.662	64.62
241.896	72.62
242.13	75.62
242.363	67.62
242.597	70.62
242.83	71.62
243.064	68.62
243.298	64.62
243.531	69.62
243.765	96.62
243.998	91.62
244.232	80.62
244.465	82.62
244.699	69.62
244.932	73.62
245.166	78.62
245.399	75.62
245.633	72.62
245.866	87.62
246.099	77.62
246.333	65.62
246.566	80.62
246.8	70.62
247.033	82.62
247.266	77.62
247.5	84.62
247.733	70.62
247.966	80.62
248.2	85.62
248.433	98.62
248.666	80.62
248.899	79.62
249.133	70.62
249.366	92.62
249.599	88.62
249.832	83.62
250.066	74.62
250.299	89.62
250.532	81.62
250.765	82.62
250.998	84.62
251.231	74.62
251.465	90.62
251.698	78.62
251.931	97.62
252.164	73.62
252.397	78.62
252.63	85.62
252.863	74.62
253.096	77.62
253.329	77.62
253.562	88.62
253.795	76.62
254.028	82.62
254.261	83.62
254.494	80.62
254.727	80.62
254.96	70.62
255.193	88.62
255.426	70.62
255.659	73.62
255.892	84.62
256.124	80.62
256.357	82.62
256.59	81.62
256.823	81.62
257.056	67.62
257.289	66.62
257.521	71.62
257.754	64.62
257.987	89.62
258.22	71.62
258.452	89.62
258.685	74.62
258.918	84.62
259.151	92.62
259.383	86.62
259.616	85.62
259.849	74.62
260.081	88.62
260.314	74.62
260.547	81.62
260.779	88.62
261.012	97.62
261.244	92.62
261.477	80.62
261.71	83.62
261.942	110.62
262.175	105.62
262.407	100.62
262.64	89.62
262.872	89.62
263.105	83.62
263.337	96.62
263.57	86.62
263.802	95.62
264.035	80.62
264.267	88.62
264.499	85.62
264.732	69.62
264.964	94.62
265.197	82.62
265.429	77.62
265.661	68.62
265.894	68.62
266.126	83.62
266.358	84.62
266.591	92.62
266.823	82.62
267.055	84.62
267.287	76.62
267.52	73.62
267.752	96.62
267.984	90.62
268.216	86.62
268.448	83.62
268.681	91.62
268.913	88.62
269.145	70.62
269.377	88.62
269.609	94.62
269.841	81.62
270.073	72.62
270.306	82.62
270.538	85.62
270.77	86.62
271.002	95.62
271.234	82.62
271.466	84.62
271.698	77.62
271.93	80.62
272.162	91.62
272.394	98.62
272.626	84.62
272.858	94.62
273.09	57.62
273.322	84.62
273.553	82.62
273.785	84.62
274.017	84.62
274.249	77.62
274.481	86.62
274.713	80.62
274.945	82.62
275.176	88.62
275.408	75.62
275.64	87.62
275.872	93.62
276.104	94.62
276.335	88.62
276.567	83.62
276.799	109.62
277.031	87.62
277.262	92.62
277.494	85.62
277.726	80.62
277.957	72.62
278.189	84.62
278.421	65.62
278.652	82.62
278.884	76.62
279.115	84.62
279.347	91.62
279.579	97.62
279.81	79.62
280.042	93.62
280.273	75.62
280.505	83.62
280.736	85.62
280.968	83.62
281.199	76.62
281.431	74.62
281.662	91.62
281.894	87.62
282.125	93.62
282.356	115.62
282.588	120.62
282.819	111.62
283.051	79.62
283.282	96.62
283.513	88.62
283.745	87.62
283.976	98.62
284.207	88.62
284.439	94.62
284.67	93.62
284.901	81.62
285.132	84.62
285.364	88.62
285.595	97.62
285.826	94.62
286.057	86.62
286.288	84.62
286.52	92.62
286.751	88.62
286.982	88.62
287.213	101.62
287.444	92.62
287.675	91.62
287.906	89.62
288.138	85.62
288.369	84.62
288.6	83.62
288.831	83.62
289.062	89.62
289.293	90.62
289.524	90.62
289.755	92.62
289.986	74.62
290.217	90.62
290.448	96.62
290.679	81.62
290.91	77.62
291.141	77.62
291.371	90.62
291.602	85.62
291.833	89.62
292.064	70.62
292.295	82.62
292.526	72.62
292.757	80.62
292.987	65.62
293.218	87.62
293.449	90.62
293.68	95.62
293.91	84.62
294.141	74.62
294.372	82.62
294.603	81.62
294.833	97.62
295.064	94.62
295.295	80.62
295.525	89.62
295.756	98.62
295.987	103.62
296.217	121.62
296.448	105.62
296.679	88.62
296.909	69.62
297.14	93.62
297.37	91.62
297.601	98.62
297.831	92.62
298.062	98.62
298.292	80.62
298.523	95.62
298.753	90.62
298.984	90.62
299.214	90.62
299.445	101.62
299.675	94.62
299.905	80.62
300.136	88.62
300.366	84.62
300.597	89.62
300.827	97.62
301.057	92.62
301.288	94.62
301.518	94.62
301.748	84.62
301.979	96.62
302.209	86.62
302.439	89.62
302.669	82.62
302.9	84.62
303.13	104.62
303.36	90.62
303.59	98.62
303.82	90.62
304.051	86.62
304.281	90.62
304.511	89.62
304.741	89.62
304.971	90.62
305.201	84.62
305.431	77.62
305.661	93.62
305.891	92.62
306.121	87.62
306.352	103.62
306.582	86.62
306.812	88.62
307.042	95.62
307.272	90.62
307.502	96.62
307.731	85.62
307.961	81.62
308.191	91.62
308.421	99.62
308.651	86.62
308.881	94.62
309.111	84.62
309.341	105.62
309.571	95.62
309.8	85.62
310.03	93.62
310.26	88.62
310.49	96.62
310.72	92.62
310.949	96.62
311.179	91.62
311.409	97.62
311.639	94.62
311.868	89.62
312.098	91.62
312.328	81.62
312.557	101.62
312.787	98.62
313.017	93.62
313.246	99.62
313.476	93.62
313.706	88.62
313.935	100.62
314.165	91.62
314.394	92.62
314.624	85.62
314.853	77.62
315.083	92.62
315.312	96.62
315.542	88.62
315.771	92.62
316.001	96.62
316.23	85.62
316.46	79.62
316.689	88.62
316.919	89.62
317.148	96.62
317.377	84.62
317.607	82.62
317.836	74.62
318.065	82.62
318.295	88.62
318.524	80.62
318.753	91.62
318.983	89.62
319.212	94.62
319.441	105.62
319.67	100.62
319.9	97.62
320.129	98.62
320.358	85.62
320.587	100.62
320.816	101.62
321.046	96.62
321.275	76.62
321.504	81.62
321.733	103.62
321.962	88.62
322.191	97.62
322.42	95.62
322.649	97.62
322.878	114.62
323.108	104.62
323.337	99.62
323.566	106.62
323.795	140.62
324.024	194.62
324.253	357.62
324.482	754.62
324.71	1542.62
324.939	2042.62
325.168	728.62
325.397	228.62
325.626	141.62
325.855	126.62
326.084	108.62
326.313	126.62
326.542	149.62
326.77	213.62
326.999	416.62
327.228	867.62
327.457	1568.62
327.686	1236.62
327.914	352.62
328.143	170.62
328.372	127.62
328.6	118.62
328.829	123.62
329.058	116.62
329.287	130.62
329.515	113.62
329.744	106.62
329.972	105.62
330.201	102.62
330.43	106.62
330.658	102.62
330.887	114.62
331.115	108.62
331.344	105.62
331.572	102.62
331.801	101.62
332.03	100.62
332.258	95.62
332.486	98.62
332.715	96.62
332.943	95.62
333.172	97.62
333.4	88.62
333.629	103.62
333.857	91.62
334.085	100.62
334.314	89.62
334.542	93.62
334.771	114.62
334.999	92.62
335.227	77.62
335.455	92.62
335.684	94.62
335.912	94.62
336.14	100.62
336.369	80.62
336.597	89.62
336.825	86.62
337.053	98.62
337.281	87.62
337.51	90.62
337.738	80.62
337.966	96.62
338.194	83.62
338.422	89.62
338.65	69.62
338.878	99.62
339.106	84.62
339.334	90.62
339.562	86.62
339.79	90.62
340.018	100.62
340.246	93.62
340.474	93.62
340.702	78.62
340.93	83.62
341.158	87.62
341.386	91.62
341.614	87.62
341.842	87.62
342.07	102.62
342.298	87.62
342.526	90.62
342.754	88.62
342.981	86.62
343.209	93.62
343.437	100.62
343.665	83.62
343.893	97.62
344.12	93.62
344.348	96.62
344.576	97.62
344.804	84.62
345.031	97.62
345.259	94.62
345.487	94.62
345.714	77.62
345.942	88.62
346.17	99.62
346.397	111.62
346.625	104.62
346.853	102.62
347.08	87.62
347.308	86.62
347.535	100.62
347.763	99.62
347.99	94.62
348.218	82.62
348.445	88.62
348.673	99.62
348.9	84.62
349.128	90.62
349.355	83.62
349.583	90.62
349.81	98.62
350.037	91.62
350.265	92.62
350.492	86.62
350.72	98.62
350.947	90.62
351.174	104.62
351.402	115.62
351.629	98.62
351.856	93.62
352.083	93.62
352.311	104.62
352.538	90.62
352.765	103.62
352.992	115.62
353.22	110.62
353.447	108.62
353.674	116.62
353.901	92.62
354.128	82.62
354.355	116.62
354.583	93.62
354.81	108.62
355.037	92.62
355.264	105.62
355.491	83.62
355.718	96.62
355.945	90.62
356.172	93.62
356.399	93.62
356.626	88.62
356.853	98.62
357.08	89.62
357.307	101.62
357.534	83.62
357.761	87.62
357.988	96.62
358.215	106.62
358.441	108.62
358.668	86.62
358.895	93.62
359.122	78.62
359.349	82.62
359.576	99.62
359.802	93.62
360.029	112.62
360.256	105.62
360.483	89.62
360.709	93.62
360.936	91.62
361.163	93.62
361.39	93.62
361.616	84.62
361.843	102.62
362.07	105.62
362.296	88.62
362.523	82.62
362.749	85.62
362.976	99.62
363.203	100.62
363.429	92.62
363.656	91.62
363.882	76.62
364.109	91.62
364.335	101.62
364.562	85.62
364.788	83.62
365.015	100.62
365.241	104.62
365.468	100.62
365.694	108.62
365.92	108.62
366.147	95.62
366.373	84.62
366.599	84.62
366.826	86.62
367.052	78.62
367.278	86.62
367.505	88.62
367.731	92.62
367.957	85.62
368.184	84.62
368.41	77.62
368.636	116.62
368.862	107.62
369.089	98.62
369.315	90.62
369.541	88.62
369.767	95.62
369.993	102.62
370.219	85.62
370.445	83.62
370.672	89.62
370.898	92.62
371.124	89.62
371.35	94.62
371.576	101.62
371.802	77.62
372.028	72.62
372.254	84.62
372.48	91.62
372.706	98.62
372.932	77.62
373.158	91.62
373.384	107.62
373.61	106.62
373.835	87.62
374.061	86.62
374.287	105.62
374.513	77.62
374.739	88.62
374.965	90.62
375.191	86.62
375.416	90.62
375.642	86.62
375.868	87.62
376.094	82.62
376.319	88.62
376.545	84.62
376.771	86.62
376.997	105.62
377.222	88.62
377.448	80.62
377.674	91.62
377.899	84.62
378.125	82.62
378.35	85.62
378.576	84.62
378.802	89.62
379.027	94.62
379.253	98.62
379.478	95.62
379.704	107.62
379.929	97.62
380.155	108.62
380.38	100.62
380.606	94.62
380.831	99.62
381.057	117.62
381.282	94.62
381.507	90.62
381.733	100.62
381.958	107.62
382.184	97.62
382.409	103.62
382.634	110.62
382.86	91.62
383.085	104.62
383.31	111.62
383.535	109.62
383.761	104.62
383.986	68.62
384.211	88.62
384.436	113.62
384.662	89.62
384.887	100.62
385.112	104.62
385.337	105.62
385.562	109.62
385.787	106.62
386.013	116.62
386.238	108.62
386.463	117.62
386.688	105.62
386.913	100.62
387.138	96.62
387.363	102.62
387.588	114.62
387.813	105.62
388.038	98.62
388.263	126.62
388.488	113.62
388.713	96.62
388.938	85.62
389.163	101.62
389.387	111.62
389.612	98.62
389.837	105.62
390.062	106.62
390.287	98.62
390.512	102.62
390.736	98.62
390.961	114.62
391.186	102.62
391.411	101.62
391.636	93.62
391.86	85.62
392.085	82.62
392.31	76.62
392.534	80.62
392.759	86.62
392.984	93.62
393.208	98.62
393.433	104.62
393.658	93.62
393.882	77.62
394.107	83.62
394.331	86.62
394.556	86.62
394.78	95.62
395.005	97.62
395.229	100.62
395.454	74.62
395.678	86.62
395.903	73.62
396.127	101.62
396.352	96.62
396.576	85.62
396.801	91.62
397.025	105.62
397.249	84.62
397.474	91.62
397.698	80.62
397.922	81.62
398.147	88.62
398.371	83.62
398.595	94.62
398.82	98.62
399.044	92.62
399.268	91.62
399.492	80.62
399.717	96.62
399.941	83.62
400.165	100.62
400.389	81.62
400.613	73.62
400.837	87.62
401.062	86.62
401.286	84.62
401.51	96.62
401.734	82.62
401.958	93.62
402.182	112.62
402.406	141.62
402.63	112.62
402.854	97.62
403.078	105.62
403.302	89.62
403.526	84.62
403.75	93.62
403.974	89.62
404.198	88.62
404.422	82.62
404.645	92.62
404.869	88.62
405.093	99.62
405.317	95.62
405.541	103.62
405.765	100.62
405.988	106.62
406.212	162.62
406.436	202.62
406.66	132.62
406.883	101.62
407.107	98.62
407.331	97.62
407.555	85.62
407.778	97.62
408.002	91.62
408.226	78.62
408.449	98.62
408.673	104.62
408.896	91.62
409.12	89.62
409.344	92.62
409.567	102.62
409.791	95.62
410.014	89.62
410.238	98.62
410.461	76.62
410.685	107.62
410.908	104.62
411.132	109.62
411.355	101.62
411.578	98.62
411.802	78.62
412.025	82.62
412.249	96.62
412.472	73.62
412.695	82.62
412.919	89.62
413.142	108.62
413.365	87.62
413.589	82.62
413.812	92.62
414.035	89.62
414.258	89.62
414.482	89.62
414.705	83.62
414.928	90.62
415.151	114.62
415.374	89.62
415.597	89.62
415.821	96.62
416.044	82.62
416.267	92.62
416.49	82.62
416.713	93.62
416.936	97.62
417.159	93.62
417.382	98.62
417.605	91.62
417.828	91.62
418.051	76.62
418.274	88.62
418.497	86.62
418.72	90.62
418.943	76.62
419.166	97.62
419.389	86.62
419.611	86.62
419.834	87.62
420.057	89.62
420.28	78.62
420.503	88.62
420.726	90.62
420.948	94.62
421.171	106.62
421.394	100.62
421.617	95.62
421.839	84.62
422.062	81.62
422.285	100.62
422.507	83.62
422.73	93.62
422.953	95.62
423.175	83.62
423.398	89.62
423.621	96.62
423.843	89.62
424.066	84.62
424.288	80.62
424.511	91.62
424.733	95.62
424.956	115.62
425.178	109.62
425.401	97.62
425.623	107.62
425.846	88.62
426.068	97.62
426.291	89.62
426.513	87.62
426.735	87.62
426.958	99.62
427.18	110.62
427.402	118.62
427.625	143.62
427.847	108.62
428.069	97.62
428.292	90.62
428.514	82.62
428.736	78.62
428.958	92.62
429.181	92.62
429.403	90.62
429.625	94.62
429.847	106.62
430.069	90.62
430.292	97.62
430.514	94.62
430.736	100.62
430.958	106.62
431.18	86.62
431.402	84.62
431.624	72.62
431.846	80.62
432.068	103.62
432.29	76.62
432.512	81.62
432.734	100.62
432.956	99.62
433.178	117.62
433.4	112.62
433.622	90.62
433.844	106.62
434.066	88.62
434.287	87.62
434.509	84.62
434.731	101.62
434.953	106.62
435.175	76.62
435.397	89.62
435.618	96.62
435.84	108.62
436.062	117.62
436.284	92.62
436.505	106.62
436.727	87.62
436.949	96.62
437.17	91.62
437.392	92.62
437.614	89.62
437.835	110.62
438.057	106.62
438.278	119.62
438.5	110.62
438.721	122.62
438.943	118.62
439.165	97.62
439.386	94.62
439.608	85.62
439.829	93.62
440.05	122.62
440.272	136.62
440.493	85.62
440.715	97.62
440.936	81.62
441.158	93.62
441.379	96.62
441.6	95.62
441.822	94.62
442.043	104.62
442.264	108.62
442.486	106.62
442.707	93.62
442.928	97.62
443.149	122.62
443.371	127.62
443.592	94.62
443.813	111.62
444.034	96.62
444.255	107.62
444.476	100.62
444.698	94.62
444.919	89.62
445.14	127.62
445.361	116.62
445.582	118.62
445.803	116.62
446.024	125.62
446.245	122.62
446.466	118.62
446.687	94.62
446.908	87.62
447.129	94.62
447.35	96.62
447.571	86.62
447.792	84.62
448.013	104.62
448.234	112.62
448.455	100.62
448.675	113.62
448.896	119.62
449.117	121.62
449.338	109.62
449.559	136.62
449.779	131.62
450	89.62
450.221	87.62
450.442	96.62
450.662	97.62
450.883	95.62
451.104	110.62
451.324	97.62
451.545	82.62
451.766	93.62
451.986	104.62
452.207	90.62
452.428	100.62
452.648	108.62
452.869	95.62
453.089	94.62
453.31	109.62
453.53	95.62
453.751	92.62
453.971	93.62
454.192	97.62
454.412	102.62
454.633	92.62
454.853	84.62
455.073	89.62
455.294	82.62
455.514	108.62
455.734	82.62
455.955	84.62
456.175	93.62
456.395	82.62
456.616	93.62
456.836	82.62
457.056	72.62
457.276	84.62
457.497	87.62
457.717	92.62
457.937	88.62
458.157	84.62
458.377	88.62
458.598	100.62
458.818	136.62
459.038	163.62
459.258	108.62
459.478	93.62
459.698	83.62
459.918	91.62
460.138	75.62
460.358	97.62
460.578	89.62
460.798	86.62
461.018	107.62
461.238	88.62
461.458	80.62
461.678	87.62
461.898	85.62
462.118	72.62
462.338	84.62
462.558	84.62
462.777	78.62
462.997	102.62
463.217	101.62
463.437	89.62
463.657	75.62
463.876	105.62
464.096	93.62
464.316	98.62
464.536	92.62
464.755	98.62
464.975	87.62
465.195	148.62
465.414	160.62
465.634	101.62
465.854	92.62
466.073	98.62
466.293	85.62
466.512	86.62
466.732	94.62
466.951	71.62
467.171	90.62
467.391	99.62
467.61	96.62
467.829	99.62
468.049	85.62
468.268	93.62
468.488	92.62
468.707	96.62
468.927	80.62
469.146	87.62
469.365	99.62
469.585	93.62
469.804	95.62
470.023	82.62
470.243	99.62
470.462	97.62
470.681	111.62
470.901	92.62
471.12	101.62
471.339	88.62
471.558	84.62
471.777	91.62
471.997	85.62
472.216	103.62
472.435	110.62
472.654	104.62
472.873	88.62
473.092	93.62
473.311	85.62
473.53	72.62
473.749	86.62
473.968	91.62
474.187	85.62
474.406	89.62
474.625	78.62
474.844	104.62
475.063	93.62
475.282	87.62
475.501	89.62
475.72	86.62
475.939	91.62
476.158	90.62
476.377	77.62
476.596	94.62
476.814	87.62
477.033	102.62
477.252	92.62
477.471	77.62
477.69	83.62
477.908	89.62
478.127	83.62
478.346	83.62
478.564	105.62
478.783	98.62
479.002	81.62
479.22	84.62
479.439	96.62
479.658	97.62
479.876	90.62
480.095	88.62
480.313	82.62
480.532	99.62
480.751	87.62
480.969	96.62
481.188	118.62
481.406	84.62
481.624	83.62
481.843	102.62
482.061	94.62
482.28	96.62
482.498	87.62
482.717	81.62
482.935	87.62
483.153	103.62
483.372	93.62
483.59	72.62
483.808	80.62
484.027	99.62
484.245	97.62
484.463	95.62
484.681	99.62
484.9	93.62
485.118	96.62
485.336	96.62
485.554	99.62
485.772	100.62
485.99	112.62
486.209	98.62
486.427	110.62
486.645	108.62
486.863	103.62
487.081	105.62
487.299	87.62
487.517	101.62
487.735	100.62
487.953	76.62
488.171	84.62
488.389	85.62
488.607	101.62
488.825	86.62
489.043	96.62
489.261	85.62
489.479	96.62
489.696	91.62
489.914	87.62
490.132	93.62
490.35	106.62
490.568	96.62
490.786	98.62
491.003	74.62
491.221	113.62
491.439	86.62
491.657	101.62
491.874	108.62
492.092	80.62
492.31	97.62
492.527	89.62
492.745	94.62
492.963	87.62
493.18	96.62
493.398	89.62
493.615	85.62
493.833	84.62
494.05	96.62
494.268	76.62
494.485	80.62
494.703	90.62
494.92	92.62
495.138	96.62
495.355	96.62
495.573	107.62
495.79	102.62
496.008	79.62
496.225	113.62
496.442	105.62
496.66	102.62
496.877	88.62
497.094	82.62
497.312	93.62
497.529	99.62
497.746	97.62
497.963	94.62
498.181	84.62
498.398	90.62
498.615	115.62
498.832	107.62
499.049	109.62
499.267	102.62
499.484	90.62
499.701	89.62
499.918	88.62
500.135	92.62
500.352	109.62
500.569	82.62
500.786	99.62
501.003	93.62
501.22	84.62
501.437	85.62
501.654	92.62
501.871	120.62
502.088	105.62
502.305	99.62
502.522	102.62
502.739	96.62
502.956	94.62
503.172	89.62
503.389	95.62
503.606	99.62
503.823	100.62
504.04	98.62
504.256	97.62
504.473	85.62
504.69	95.62
504.907	94.62
505.123	97.62
505.34	84.62
505.557	86.62
505.773	86.62
505.99	88.62
506.207	91.62
506.423	92.62
506.64	84.62
506.856	91.62
507.073	92.62
507.289	81.62
507.506	89.62
507.722	99.62
507.939	102.62
508.155	90.62
508.372	106.62
508.588	83.62
508.805	80.62
509.021	105.62
509.238	104.62
509.454	96.62
509.67	97.62
509.887	103.62
510.103	119.62
510.319	201.62
510.536	704.62
510.752	2100.62
510.968	583.62
511.184	150.62
511.401	108.62
511.617	99.62
511.833	80.62
512.049	98.62
512.265	97.62
512.481	93.62
512.698	84.62
512.914	90.62
513.13	84.62
513.346	104.62
513.562	98.62
513.778	99.62
513.994	97.62
514.21	100.62
514.426	109.62
514.642	134.62
514.858	124.62
515.074	166.62
515.29	381.62
515.506	1292.62
515.721	465.62
515.937	140.62
