Data from Uncirc_1983_H10_HRD10591_00094.txt Node
Date: Wed Jan 03 12:25:50 EST 2024
User: Yrep
Spectrometer: HR+D1059
Trigger mode: 1
Integration Time (sec): 1.000000E-1
Scans to average: 1
Electric dark correction enabled: true
Nonlinearity correction enabled: false
Boxcar width: 0
XAxis mode: Wavelengths
Number of Pixels in Spectrum: 2048
>>>>>Begin Spectral Data<<<<<
223.165	-25.31
223.4	-25.31
223.635	-25.31
223.869	-27.31
224.104	-19.31
224.338	-9.31
224.573	-6.31
224.808	-16.31
225.042	-14.31
225.277	-7.31
225.511	-1.31
225.746	-1.31
225.98	14.69
226.215	15.69
226.449	15.69
226.683	23.69
226.918	29.69
227.152	28.69
227.387	30.69
227.621	35.69
227.856	45.69
228.09	47.69
228.324	59.69
228.559	63.69
228.793	164.69
229.027	425.69
229.262	482.69
229.496	553.69
229.73	739.69
229.964	765.69
230.199	510.69
230.433	461.69
230.667	451.69
230.901	452.69
231.136	424.69
231.37	452.69
231.604	446.69
231.838	456.69
232.072	450.69
232.306	466.69
232.541	466.69
232.775	461.69
233.009	457.69
233.243	448.69
233.477	462.69
233.711	497.69
233.945	504.69
234.179	496.69
234.413	489.69
234.647	510.69
234.881	501.69
235.115	545.69
235.349	542.69
235.583	569.69
235.817	573.69
236.051	617.69
236.285	586.69
236.519	615.69
236.753	693.69
236.987	896.69
237.221	1321.69
237.455	1393.69
237.689	880.69
237.922	729.69
238.156	701.69
238.39	674.69
238.624	625.69
238.858	644.69
239.091	659.69
239.325	673.69
239.559	646.69
239.793	717.69
240.027	749.69
240.26	911.69
240.494	916.69
240.728	933.69
240.961	911.69
241.195	851.69
241.429	782.69
241.662	777.69
241.896	784.69
242.13	794.69
242.363	786.69
242.597	788.69
242.83	835.69
243.064	829.69
243.298	817.69
243.531	825.69
243.765	842.69
243.998	855.69
244.232	846.69
244.465	885.69
244.699	873.69
244.932	895.69
245.166	888.69
245.399	891.69
245.633	936.69
245.866	939.69
246.099	927.69
246.333	943.69
246.566	975.69
246.8	994.69
247.033	1007.69
247.266	1044.69
247.5	1111.69
247.733	1151.69
247.966	1142.69
248.2	1135.69
248.433	1150.69
248.666	1231.69
248.899	1306.69
249.133	1407.69
249.366	1401.69
249.599	1317.69
249.832	1243.69
250.066	1281.69
250.299	1377.69
250.532	1542.69
250.765	1650.69
250.998	1768.69
251.231	1664.69
251.465	1527.69
251.698	1450.69
251.931	1419.69
252.164	1422.69
252.397	1427.69
252.63	1480.69
252.863	1557.69
253.096	1664.69
253.329	1731.69
253.562	1624.69
253.795	1565.69
254.028	1558.69
254.261	1586.69
254.494	1815.69
254.727	2067.69
254.96	2240.69
255.193	1931.69
255.426	1786.69
255.659	1794.69
255.892	1909.69
256.124	2142.69
256.357	2036.69
256.59	1783.69
256.823	1717.69
257.056	1638.69
257.289	1596.69
257.521	1595.69
257.754	1629.69
257.987	1613.69
258.22	1558.69
258.452	1563.69
258.685	1576.69
258.918	1576.69
259.151	1607.69
259.383	1674.69
259.616	1741.69
259.849	1733.69
260.081	1907.69
260.314	2029.69
260.547	1993.69
260.779	1818.69
261.012	1766.69
261.244	1719.69
261.477	1723.69
261.71	1699.69
261.942	1739.69
262.175	1763.69
262.407	1669.69
262.64	1655.69
262.872	1655.69
263.105	1633.69
263.337	1630.69
263.57	1608.69
263.802	1677.69
264.035	1682.69
264.267	1662.69
264.499	1667.69
264.732	1682.69
264.964	1690.69
265.197	1697.69
265.429	1683.69
265.661	1723.69
265.894	1741.69
266.126	1745.69
266.358	1756.69
266.591	1782.69
266.823	1832.69
267.055	1904.69
267.287	1860.69
267.52	1849.69
267.752	1839.69
267.984	1863.69
268.216	1915.69
268.448	1958.69
268.681	1999.69
268.913	2101.69
269.145	2294.69
269.377	2321.69
269.609	2249.69
269.841	2229.69
270.073	2309.69
270.306	2579.69
270.538	2703.69
270.77	2575.69
271.002	2464.69
271.234	2463.69
271.466	2593.69
271.698	2682.69
271.93	2687.69
272.162	2696.69
272.394	2637.69
272.626	2465.69
272.858	2331.69
273.09	2269.69
273.322	2273.69
273.553	2225.69
273.785	2258.69
274.017	2206.69
274.249	2263.69
274.481	2258.69
274.713	2235.69
274.945	2298.69
275.176	2292.69
275.408	2255.69
275.64	2265.69
275.872	2278.69
276.104	2289.69
276.335	2285.69
276.567	2394.69
276.799	2576.69
277.031	2741.69
277.262	2849.69
277.494	2725.69
277.726	2597.69
277.957	2538.69
278.189	2437.69
278.421	2414.69
278.652	2399.69
278.884	2398.69
279.115	2374.69
279.347	2374.69
279.579	2354.69
279.81	2408.69
280.042	2399.69
280.273	2435.69
280.505	2443.69
280.736	2409.69
280.968	2377.69
281.199	2466.69
281.431	2445.69
281.662	2473.69
281.894	2486.69
282.125	2550.69
282.356	2727.69
282.588	2848.69
282.819	2706.69
283.051	2521.69
283.282	2571.69
283.513	2586.69
283.745	2611.69
283.976	2661.69
284.207	2658.69
284.439	2660.69
284.67	2603.69
284.901	2636.69
285.132	2696.69
285.364	2634.69
285.595	2703.69
285.826	2632.69
286.057	2681.69
286.288	2665.69
286.52	2704.69
286.751	2753.69
286.982	2743.69
287.213	2753.69
287.444	2819.69
287.675	2816.69
287.906	2879.69
288.138	2893.69
288.369	2933.69
288.6	2977.69
288.831	2860.69
289.062	2822.69
289.293	2810.69
289.524	2842.69
289.755	2799.69
289.986	2835.69
290.217	2818.69
290.448	2805.69
290.679	2837.69
290.91	2847.69
291.141	2843.69
291.371	2873.69
291.602	2829.69
291.833	2814.69
292.064	2832.69
292.295	2801.69
292.526	2867.69
292.757	2855.69
292.987	2795.69
293.218	2868.69
293.449	2861.69
293.68	2904.69
293.91	2839.69
294.141	2852.69
294.372	2842.69
294.603	2891.69
294.833	2865.69
295.064	2915.69
295.295	2910.69
295.525	2944.69
295.756	2959.69
295.987	3013.69
296.217	3166.69
296.448	3073.69
296.679	3031.69
296.909	2983.69
297.14	2974.69
297.37	3056.69
297.601	3065.69
297.831	3067.69
298.062	3066.69
298.292	3073.69
298.523	3120.69
298.753	3143.69
298.984	3109.69
299.214	3137.69
299.445	3088.69
299.675	3150.69
299.905	3203.69
300.136	3112.69
300.366	3197.69
300.597	3231.69
300.827	3322.69
301.057	3375.69
301.288	3429.69
301.518	3330.69
301.748	3326.69
301.979	3418.69
302.209	3401.69
302.439	3402.69
302.669	3389.69
302.9	3326.69
303.13	3265.69
303.36	3349.69
303.59	3359.69
303.82	3359.69
304.051	3391.69
304.281	3332.69
304.511	3281.69
304.741	3329.69
304.971	3279.69
305.201	3277.69
305.431	3307.69
305.661	3337.69
305.891	3272.69
306.121	3297.69
306.352	3333.69
306.582	3282.69
306.812	3200.69
307.042	3283.69
307.272	3290.69
307.502	3307.69
307.731	3336.69
307.961	3281.69
308.191	3290.69
308.421	3290.69
308.651	3291.69
308.881	3346.69
309.111	3351.69
309.341	3368.69
309.571	3463.69
309.8	3475.69
310.03	3562.69
310.26	3553.69
310.49	3501.69
310.72	3602.69
310.949	3749.69
311.179	3702.69
311.409	3626.69
311.639	3624.69
311.868	3659.69
312.098	3658.69
312.328	3738.69
312.557	3834.69
312.787	3935.69
313.017	3826.69
313.246	3765.69
313.476	3713.69
313.706	3694.69
313.935	3866.69
314.165	3919.69
314.394	3961.69
314.624	3893.69
314.853	3815.69
315.083	3765.69
315.312	3792.69
315.542	3780.69
315.771	3703.69
316.001	3689.69
316.23	3689.69
316.46	3642.69
316.689	3787.69
316.919	3774.69
317.148	3749.69
317.377	3768.69
317.607	3741.69
317.836	3741.69
318.065	3693.69
318.295	3684.69
318.524	3693.69
318.753	3641.69
318.983	3669.69
319.212	3683.69
319.441	3773.69
319.67	3826.69
319.9	3687.69
320.129	3793.69
320.358	3718.69
320.587	3769.69
320.816	3889.69
321.046	3826.69
321.275	3823.69
321.504	3874.69
321.733	3899.69
321.962	3905.69
322.191	3983.69
322.42	4059.69
322.649	4248.69
322.878	4250.69
323.108	4203.69
323.337	4496.69
323.566	4567.69
323.795	4845.69
324.024	5324.69
324.253	6924.69
324.482	10153.69
324.71	14574.69
324.939	15627.69
325.168	11394.69
325.397	6264.69
325.626	5144.69
325.855	4849.69
326.084	4649.69
326.313	4754.69
326.542	4838.69
326.77	5406.69
326.999	6737.69
327.228	9590.69
327.457	13583.69
327.686	12836.69
327.914	7059.69
328.143	5816.69
328.372	5529.69
328.6	5343.69
328.829	5232.69
329.058	5299.69
329.287	5285.69
329.515	5025.69
329.744	5007.69
329.972	5222.69
330.201	5552.69
330.43	5827.69
330.658	5737.69
330.887	5790.69
331.115	5354.69
331.344	5040.69
331.572	4945.69
331.801	5029.69
332.03	5097.69
332.258	4991.69
332.486	4976.69
332.715	5117.69
332.943	5288.69
333.172	5480.69
333.4	5673.69
333.629	5803.69
333.857	6026.69
334.085	6141.69
334.314	6448.69
334.542	6753.69
334.771	6571.69
334.999	5813.69
335.227	5544.69
335.455	5360.69
335.684	5191.69
335.912	5131.69
336.14	5026.69
336.369	5028.69
336.597	5073.69
336.825	5001.69
337.053	4915.69
337.281	4815.69
337.51	4754.69
337.738	4781.69
337.966	4739.69
338.194	4751.69
338.422	4679.69
338.65	4639.69
338.878	4575.69
339.106	4549.69
339.334	4526.69
339.562	4494.69
339.79	4444.69
340.018	4445.69
340.246	4419.69
340.474	4411.69
340.702	4401.69
340.93	4394.69
341.158	4421.69
341.386	4358.69
341.614	4369.69
341.842	4374.69
342.07	4321.69
342.298	4316.69
342.526	4357.69
342.754	4266.69
342.981	4445.69
343.209	4409.69
343.437	4670.69
343.665	4962.69
343.893	5178.69
344.12	5180.69
344.348	4985.69
344.576	4818.69
344.804	4705.69
345.031	4633.69
345.259	4609.69
345.487	4435.69
345.714	4291.69
345.942	4217.69
346.17	4162.69
346.397	4186.69
346.625	4233.69
346.853	4113.69
347.08	4155.69
347.308	4217.69
347.535	4305.69
347.763	4369.69
347.99	4254.69
348.218	4301.69
348.445	4287.69
348.673	4196.69
348.9	4145.69
349.128	4105.69
349.355	4064.69
349.583	4095.69
349.81	4105.69
350.037	4030.69
350.265	4071.69
350.492	4027.69
350.72	4112.69
350.947	4085.69
351.174	4131.69
351.402	4193.69
351.629	4156.69
351.856	4080.69
352.083	4175.69
352.311	4164.69
352.538	4235.69
352.765	4184.69
352.992	4058.69
353.22	4075.69
353.447	4111.69
353.674	4068.69
353.901	3981.69
354.128	3997.69
354.355	3990.69
354.583	4002.69
354.81	3978.69
355.037	3965.69
355.264	4001.69
355.491	3947.69
355.718	3969.69
355.945	3993.69
356.172	3960.69
356.399	3983.69
356.626	3939.69
356.853	3985.69
357.08	3980.69
357.307	3956.69
357.534	3971.69
357.761	3925.69
357.988	3994.69
358.215	3984.69
358.441	3993.69
358.668	4009.69
358.895	4069.69
359.122	4054.69
359.349	4143.69
359.576	4205.69
359.802	4371.69
360.029	4543.69
360.256	4548.69
360.483	4312.69
360.709	4209.69
360.936	4151.69
361.163	4198.69
361.39	4175.69
361.616	4198.69
361.843	4136.69
362.07	4136.69
362.296	4148.69
362.523	4185.69
362.749	4214.69
362.976	4055.69
363.203	4079.69
363.429	4051.69
363.656	4117.69
363.882	4086.69
364.109	4063.69
364.335	4036.69
364.562	4061.69
364.788	4030.69
365.015	4043.69
365.241	3983.69
365.468	4111.69
365.694	4140.69
365.92	4126.69
366.147	4032.69
366.373	4092.69
366.599	4034.69
366.826	4010.69
367.052	4005.69
367.278	4039.69
367.505	4069.69
367.731	4123.69
367.957	4080.69
368.184	4083.69
368.41	4235.69
368.636	4257.69
368.862	4329.69
369.089	4139.69
369.315	4165.69
369.541	4160.69
369.767	4163.69
369.993	4222.69
370.219	4137.69
370.445	4210.69
370.672	4275.69
370.898	4264.69
371.124	4302.69
371.35	4258.69
371.576	4265.69
371.802	4272.69
372.028	4277.69
372.254	4336.69
372.48	4370.69
372.706	4488.69
372.932	4487.69
373.158	4517.69
373.384	4353.69
373.61	4347.69
373.835	4414.69
374.061	4406.69
374.287	4494.69
374.513	4589.69
374.739	4639.69
374.965	4783.69
375.191	4785.69
375.416	4652.69
375.642	4549.69
375.868	4531.69
376.094	4445.69
376.319	4455.69
376.545	4407.69
376.771	4370.69
376.997	4326.69
377.222	4357.69
377.448	4287.69
377.674	4291.69
377.899	4314.69
378.125	4296.69
378.35	4273.69
378.576	4239.69
378.802	4244.69
379.027	4257.69
379.253	4310.69
379.478	4289.69
379.704	4265.69
379.929	4267.69
380.155	4276.69
380.38	4257.69
380.606	4357.69
380.831	4385.69
381.057	4387.69
381.282	4357.69
381.507	4377.69
381.733	4435.69
381.958	4471.69
382.184	4527.69
382.409	4550.69
382.634	4519.69
382.86	4551.69
383.085	4694.69
383.31	4767.69
383.535	4819.69
383.761	4824.69
383.986	4812.69
384.211	5024.69
384.436	5091.69
384.662	5112.69
384.887	5178.69
385.112	5189.69
385.337	5205.69
385.562	5224.69
385.787	5227.69
386.013	5282.69
386.238	5373.69
386.463	5319.69
386.688	5294.69
386.913	5137.69
387.138	5153.69
387.363	5216.69
387.588	5076.69
387.813	5153.69
388.038	5142.69
388.263	5167.69
388.488	5264.69
388.713	5197.69
388.938	5064.69
389.163	5165.69
389.387	5177.69
389.612	5049.69
389.837	5137.69
390.062	5117.69
390.287	5126.69
390.512	5110.69
390.736	5191.69
390.961	5304.69
391.186	5365.69
391.411	5492.69
391.636	5702.69
391.86	5802.69
392.085	5869.69
392.31	5735.69
392.534	5628.69
392.759	5537.69
392.984	5434.69
393.208	5387.69
393.433	5379.69
393.658	5396.69
393.882	5367.69
394.107	5404.69
394.331	5434.69
394.556	5452.69
394.78	5525.69
395.005	5489.69
395.229	5552.69
395.454	5692.69
395.678	5849.69
395.903	5846.69
396.127	5885.69
396.352	5652.69
396.576	5454.69
396.801	5499.69
397.025	5636.69
397.249	5702.69
397.474	5822.69
397.698	5825.69
397.922	6061.69
398.147	6073.69
398.371	6181.69
398.595	6314.69
398.82	6738.69
399.044	7183.69
399.268	7979.69
399.492	9051.69
399.717	9704.69
399.941	9457.69
400.165	8794.69
400.389	8090.69
400.613	7378.69
400.837	6788.69
401.062	6658.69
401.286	6607.69
401.51	6550.69
401.734	6534.69
401.958	6623.69
402.182	6857.69
402.406	6763.69
402.63	6834.69
402.854	7067.69
403.078	7153.69
403.302	7272.69
403.526	7377.69
403.75	7339.69
403.974	7462.69
404.198	7493.69
404.422	7524.69
404.645	7642.69
404.869	7641.69
405.093	7900.69
405.317	8154.69
405.541	8136.69
405.765	7559.69
405.988	7470.69
406.212	7506.69
406.436	7651.69
406.66	7908.69
406.883	7847.69
407.107	8374.69
407.331	8798.69
407.555	9393.69
407.778	9037.69
408.002	8293.69
408.226	7917.69
408.449	7769.69
408.673	7682.69
408.896	7849.69
409.12	7957.69
409.344	7608.69
409.567	7314.69
409.791	7229.69
410.014	7133.69
410.238	7008.69
410.461	7129.69
410.685	7131.69
410.908	7181.69
411.132	7397.69
411.355	7400.69
411.578	7019.69
411.802	6894.69
412.025	6796.69
412.249	7123.69
412.472	7525.69
412.695	7653.69
412.919	7083.69
413.142	6849.69
413.365	6691.69
413.589	6692.69
413.812	6506.69
414.035	6415.69
414.258	6427.69
414.482	6508.69
414.705	6594.69
414.928	6568.69
415.151	6502.69
415.374	6542.69
415.597	6401.69
415.821	6345.69
416.044	6321.69
416.267	6341.69
416.49	6276.69
416.713	6271.69
416.936	6385.69
417.159	6401.69
417.382	6422.69
417.605	6457.69
417.828	6593.69
418.051	6732.69
418.274	6518.69
418.497	6430.69
418.72	6631.69
418.943	6511.69
419.166	7042.69
419.389	7362.69
419.611	7234.69
419.834	7102.69
420.057	7003.69
420.28	6914.69
420.503	6726.69
420.726	6656.69
420.948	6765.69
421.171	7249.69
421.394	7064.69
421.617	6632.69
421.839	6610.69
422.062	6710.69
422.285	6845.69
422.507	7434.69
422.73	7887.69
422.953	7282.69
423.175	6970.69
423.398	7056.69
423.621	7070.69
423.843	7333.69
424.066	7285.69
424.288	7089.69
424.511	7361.69
424.733	7831.69
424.956	8229.69
425.178	7767.69
425.401	7808.69
425.623	7717.69
425.846	6867.69
426.068	6670.69
426.291	6533.69
426.513	6605.69
426.735	6634.69
426.958	7119.69
427.18	7753.69
427.402	8930.69
427.625	8867.69
427.847	7735.69
428.069	7246.69
428.292	6606.69
428.514	6123.69
428.736	6011.69
428.958	6109.69
429.181	5896.69
429.403	5821.69
429.625	6109.69
429.847	6251.69
430.069	6705.69
430.292	6402.69
430.514	5857.69
430.736	5878.69
430.958	5775.69
431.18	5672.69
431.402	5668.69
431.624	5730.69
431.846	5752.69
432.068	5743.69
432.29	5834.69
432.512	5794.69
432.734	5908.69
432.956	5723.69
433.178	5886.69
433.4	5792.69
433.622	5770.69
433.844	5828.69
434.066	5801.69
434.287	5910.69
434.509	6157.69
434.731	6321.69
434.953	6451.69
435.175	6596.69
435.397	6666.69
435.618	6538.69
435.84	6968.69
436.062	7790.69
436.284	7627.69
436.505	6537.69
436.727	6268.69
436.949	6033.69
437.17	5865.69
437.392	5787.69
437.614	5962.69
437.835	6321.69
438.057	7205.69
438.278	7770.69
438.5	7737.69
438.721	8582.69
438.943	7508.69
439.165	6359.69
439.386	6225.69
439.608	6300.69
439.829	6318.69
440.05	6584.69
440.272	6917.69
440.493	6421.69
440.715	6197.69
440.936	6088.69
441.158	6215.69
441.379	6322.69
441.6	6560.69
441.822	6824.69
442.043	7294.69
442.264	7945.69
442.486	7673.69
442.707	6839.69
442.928	6746.69
443.149	6920.69
443.371	7053.69
443.592	7655.69
443.813	8629.69
444.034	8448.69
444.255	7422.69
444.476	7338.69
444.698	7557.69
444.919	7654.69
445.14	7399.69
445.361	7287.69
445.582	7356.69
445.803	7869.69
446.024	8434.69
446.245	8107.69
446.466	7338.69
446.687	6489.69
446.908	6133.69
447.129	5723.69
447.35	5718.69
447.571	5715.69
447.792	5552.69
448.013	5731.69
448.234	5824.69
448.455	6463.69
448.675	7608.69
448.896	7986.69
449.117	6612.69
449.338	6817.69
449.559	8070.69
449.779	8306.69
450	6361.69
450.221	5718.69
450.442	5512.69
450.662	5468.69
450.883	5611.69
451.104	5658.69
451.324	5410.69
451.545	5265.69
451.766	5247.69
451.986	5121.69
452.207	5044.69
452.428	5045.69
452.648	5073.69
452.869	5130.69
453.089	5135.69
453.31	5274.69
453.53	5105.69
453.751	5049.69
453.971	5081.69
454.192	5146.69
454.412	4953.69
454.633	4921.69
454.853	4913.69
455.073	4923.69
455.294	5405.69
455.514	5858.69
455.734	5314.69
455.955	4843.69
456.175	4756.69
456.395	4709.69
456.616	4661.69
456.836	4777.69
457.056	4684.69
457.276	4628.69
457.497	4750.69
457.717	4758.69
457.937	4838.69
458.157	4944.69
458.377	5005.69
458.598	5279.69
458.818	5951.69
459.038	6592.69
459.258	6500.69
459.478	5933.69
459.698	5843.69
459.918	5954.69
460.138	6066.69
460.358	6316.69
460.578	6325.69
460.798	6391.69
461.018	6417.69
461.238	6260.69
461.458	6261.69
461.678	6225.69
461.898	6413.69
462.118	6451.69
462.338	6823.69
462.558	6875.69
462.777	7206.69
462.997	7802.69
463.217	8242.69
463.437	8013.69
463.657	7383.69
463.876	7207.69
464.096	7312.69
464.316	7228.69
464.536	7282.69
464.755	7041.69
464.975	6969.69
465.195	7013.69
465.414	6925.69
465.634	6152.69
465.854	5930.69
466.073	5721.69
466.293	5487.69
466.512	5361.69
466.732	5271.69
466.951	5247.69
467.171	5317.69
467.391	5343.69
467.61	5374.69
467.829	5297.69
468.049	5354.69
468.268	5304.69
468.488	5176.69
468.707	5041.69
468.927	5034.69
469.146	5062.69
469.365	5101.69
469.585	5148.69
469.804	5314.69
470.023	5434.69
470.243	5427.69
470.462	5495.69
470.681	5683.69
470.901	5546.69
471.12	5376.69
471.339	5367.69
471.558	5309.69
471.777	5204.69
471.997	5213.69
472.216	5446.69
472.435	5804.69
472.654	5438.69
472.873	5205.69
473.092	5133.69
473.311	5110.69
473.53	5104.69
473.749	5199.69
473.968	5685.69
474.187	6690.69
474.406	6141.69
474.625	5343.69
474.844	5145.69
475.063	5133.69
475.282	5081.69
475.501	5209.69
475.72	5150.69
475.939	5245.69
476.158	5207.69
476.377	5300.69
476.596	5265.69
476.814	5402.69
477.033	5414.69
477.252	5440.69
477.471	5606.69
477.69	5655.69
477.908	5804.69
478.127	5941.69
478.346	6056.69
478.564	6082.69
478.783	6198.69
479.002	6378.69
479.22	6357.69
479.439	6462.69
479.658	6557.69
479.876	6607.69
480.095	6836.69
480.313	7282.69
480.532	7053.69
480.751	7089.69
480.969	7154.69
481.188	8030.69
481.406	7799.69
481.624	6843.69
481.843	6506.69
482.061	6314.69
482.28	6216.69
482.498	6031.69
482.717	6005.69
482.935	6019.69
483.153	6003.69
483.372	5964.69
483.59	5953.69
483.808	6019.69
484.027	6059.69
484.245	6025.69
484.463	6073.69
484.681	6171.69
484.9	6121.69
485.118	6221.69
485.336	6281.69
485.554	6364.69
485.772	6412.69
485.99	6302.69
486.209	6435.69
486.427	6413.69
486.645	6451.69
486.863	6526.69
487.081	6453.69
487.299	6407.69
487.517	6394.69
487.735	6378.69
