Data from Uncirc_1983_H10_HRD10591_00098.txt Node
Date: Wed Jan 03 12:25:51 EST 2024
User: Yrep
Spectrometer: HR+D1059
Trigger mode: 1
Integration Time (sec): 1.000000E-1
Scans to average: 1
Electric dark correction enabled: true
Nonlinearity correction enabled: false
Boxcar width: 0
XAxis mode: Wavelengths
Number of Pixels in Spectrum: 2048
>>>>>Begin Spectral Data<<<<<
223.165	-9.44
223.4	-9.44
223.635	-9.44
223.869	-18.44
224.104	-13.44
224.338	-10.44
224.573	-16.44
224.808	-7.44
225.042	-16.44
225.277	1.56
225.511	-2.44
225.746	-4.44
225.98	12.56
226.215	8.56
226.449	13.56
226.683	9.56
226.918	16.56
227.152	36.56
227.387	31.56
227.621	49.56
227.856	48.56
228.09	43.56
228.324	44.56
228.559	54.56
228.793	61.56
229.027	66.56
229.262	61.56
229.496	72.56
229.73	87.56
229.964	83.56
230.199	81.56
230.433	75.56
230.667	77.56
230.901	72.56
231.136	82.56
231.37	91.56
231.604	82.56
231.838	73.56
232.072	74.56
232.306	73.56
232.541	85.56
232.775	85.56
233.009	72.56
233.243	87.56
233.477	93.56
233.711	83.56
233.945	100.56
234.179	73.56
234.413	77.56
234.647	74.56
234.881	76.56
235.115	85.56
235.349	94.56
235.583	85.56
235.817	73.56
236.051	88.56
236.285	85.56
236.519	81.56
236.753	81.56
236.987	65.56
237.221	70.56
237.455	85.56
237.689	73.56
237.922	83.56
238.156	84.56
238.39	66.56
238.624	72.56
238.858	67.56
239.091	84.56
239.325	81.56
239.559	78.56
239.793	75.56
240.027	83.56
240.26	81.56
240.494	85.56
240.728	85.56
240.961	74.56
241.195	77.56
241.429	83.56
241.662	70.56
241.896	81.56
242.13	75.56
242.363	83.56
242.597	85.56
242.83	76.56
243.064	78.56
243.298	73.56
243.531	77.56
243.765	85.56
243.998	74.56
244.232	83.56
244.465	82.56
244.699	78.56
244.932	84.56
245.166	65.56
245.399	81.56
245.633	72.56
245.866	99.56
246.099	75.56
246.333	82.56
246.566	83.56
246.8	83.56
247.033	83.56
247.266	95.56
247.5	81.56
247.733	73.56
247.966	85.56
248.2	84.56
248.433	76.56
248.666	81.56
248.899	79.56
249.133	77.56
249.366	98.56
249.599	87.56
249.832	77.56
250.066	83.56
250.299	93.56
250.532	87.56
250.765	93.56
250.998	91.56
251.231	81.56
251.465	94.56
251.698	75.56
251.931	86.56
252.164	87.56
252.397	85.56
252.63	73.56
252.863	88.56
253.096	77.56
253.329	81.56
253.562	86.56
253.795	87.56
254.028	87.56
254.261	87.56
254.494	75.56
254.727	90.56
254.96	85.56
255.193	81.56
255.426	71.56
255.659	79.56
255.892	82.56
256.124	93.56
256.357	89.56
256.59	74.56
256.823	74.56
257.056	84.56
257.289	89.56
257.521	93.56
257.754	92.56
257.987	85.56
258.22	82.56
258.452	84.56
258.685	92.56
258.918	90.56
259.151	87.56
259.383	89.56
259.616	91.56
259.849	83.56
260.081	81.56
260.314	77.56
260.547	68.56
260.779	84.56
261.012	85.56
261.244	98.56
261.477	90.56
261.71	103.56
261.942	111.56
262.175	106.56
262.407	96.56
262.64	88.56
262.872	95.56
263.105	92.56
263.337	81.56
263.57	94.56
263.802	81.56
264.035	87.56
264.267	83.56
264.499	87.56
264.732	91.56
264.964	85.56
265.197	82.56
265.429	76.56
265.661	79.56
265.894	74.56
266.126	77.56
266.358	69.56
266.591	78.56
266.823	95.56
267.055	90.56
267.287	86.56
267.52	92.56
267.752	92.56
267.984	84.56
268.216	87.56
268.448	86.56
268.681	76.56
268.913	87.56
269.145	71.56
269.377	76.56
269.609	92.56
269.841	86.56
270.073	89.56
270.306	93.56
270.538	85.56
270.77	90.56
271.002	97.56
271.234	88.56
271.466	88.56
271.698	86.56
271.93	95.56
272.162	99.56
272.394	99.56
272.626	74.56
272.858	82.56
273.09	93.56
273.322	91.56
273.553	87.56
273.785	89.56
274.017	90.56
274.249	88.56
274.481	98.56
274.713	94.56
274.945	100.56
275.176	83.56
275.408	85.56
275.64	95.56
275.872	90.56
276.104	92.56
276.335	90.56
276.567	86.56
276.799	108.56
277.031	91.56
277.262	86.56
277.494	99.56
277.726	91.56
277.957	90.56
278.189	91.56
278.421	93.56
278.652	86.56
278.884	93.56
279.115	98.56
279.347	88.56
279.579	86.56
279.81	89.56
280.042	73.56
280.273	79.56
280.505	103.56
280.736	90.56
280.968	88.56
281.199	88.56
281.431	107.56
281.662	97.56
281.894	92.56
282.125	79.56
282.356	115.56
282.588	122.56
282.819	119.56
283.051	89.56
283.282	90.56
283.513	94.56
283.745	78.56
283.976	84.56
284.207	95.56
284.439	87.56
284.67	92.56
284.901	101.56
285.132	89.56
285.364	95.56
285.595	84.56
285.826	84.56
286.057	89.56
286.288	63.56
286.52	92.56
286.751	101.56
286.982	95.56
287.213	58.56
287.444	99.56
287.675	102.56
287.906	92.56
288.138	85.56
288.369	97.56
288.6	84.56
288.831	78.56
289.062	98.56
289.293	94.56
289.524	100.56
289.755	89.56
289.986	89.56
290.217	82.56
290.448	85.56
290.679	93.56
290.91	91.56
291.141	78.56
291.371	85.56
291.602	92.56
291.833	84.56
292.064	73.56
292.295	81.56
292.526	94.56
292.757	76.56
292.987	86.56
293.218	92.56
293.449	88.56
293.68	87.56
293.91	91.56
294.141	99.56
294.372	86.56
294.603	79.56
294.833	81.56
295.064	93.56
295.295	89.56
295.525	104.56
295.756	107.56
295.987	124.56
296.217	123.56
296.448	117.56
296.679	109.56
296.909	102.56
297.14	95.56
297.37	91.56
297.601	81.56
297.831	88.56
298.062	98.56
298.292	90.56
298.523	104.56
298.753	87.56
298.984	96.56
299.214	106.56
299.445	97.56
299.675	88.56
299.905	95.56
300.136	109.56
300.366	85.56
300.597	96.56
300.827	94.56
301.057	98.56
301.288	93.56
301.518	100.56
301.748	91.56
301.979	99.56
302.209	96.56
302.439	101.56
302.669	84.56
302.9	102.56
303.13	108.56
303.36	104.56
303.59	100.56
303.82	105.56
304.051	90.56
304.281	84.56
304.511	69.56
304.741	77.56
304.971	90.56
305.201	88.56
305.431	82.56
305.661	109.56
305.891	92.56
306.121	101.56
306.352	94.56
306.582	95.56
306.812	92.56
307.042	100.56
307.272	90.56
307.502	92.56
307.731	98.56
307.961	99.56
308.191	91.56
308.421	104.56
308.651	95.56
308.881	83.56
309.111	88.56
309.341	91.56
309.571	113.56
309.8	102.56
310.03	106.56
310.26	88.56
310.49	96.56
310.72	105.56
310.949	104.56
311.179	93.56
311.409	92.56
311.639	96.56
311.868	99.56
312.098	102.56
312.328	90.56
312.557	82.56
312.787	98.56
313.017	98.56
313.246	103.56
313.476	94.56
313.706	102.56
313.935	96.56
314.165	93.56
314.394	101.56
314.624	100.56
314.853	82.56
315.083	92.56
315.312	92.56
315.542	89.56
315.771	86.56
316.001	85.56
316.23	82.56
316.46	89.56
316.689	106.56
316.919	97.56
317.148	76.56
317.377	100.56
317.607	89.56
317.836	84.56
318.065	94.56
318.295	98.56
318.524	101.56
318.753	85.56
318.983	86.56
319.212	94.56
319.441	107.56
319.67	93.56
319.9	93.56
320.129	94.56
320.358	108.56
320.587	89.56
320.816	114.56
321.046	95.56
321.275	97.56
321.504	103.56
321.733	104.56
321.962	92.56
322.191	93.56
322.42	105.56
322.649	107.56
322.878	117.56
323.108	97.56
323.337	113.56
323.566	124.56
323.795	130.56
324.024	199.56
324.253	353.56
324.482	746.56
324.71	1533.56
324.939	2021.56
325.168	720.56
325.397	216.56
325.626	146.56
325.855	132.56
326.084	116.56
326.313	132.56
326.542	146.56
326.77	215.56
326.999	428.56
327.228	844.56
327.457	1594.56
327.686	1240.56
327.914	351.56
328.143	183.56
328.372	155.56
328.6	139.56
328.829	118.56
329.058	121.56
329.287	114.56
329.515	104.56
329.744	117.56
329.972	119.56
330.201	131.56
330.43	164.56
330.658	135.56
330.887	132.56
331.115	105.56
331.344	108.56
331.572	93.56
331.801	109.56
332.03	107.56
332.258	98.56
332.486	100.56
332.715	106.56
332.943	101.56
333.172	98.56
333.4	96.56
333.629	101.56
333.857	102.56
334.085	122.56
334.314	151.56
334.542	174.56
334.771	171.56
334.999	98.56
335.227	98.56
335.455	100.56
335.684	93.56
335.912	92.56
336.14	93.56
336.369	98.56
336.597	84.56
336.825	95.56
337.053	90.56
337.281	102.56
337.51	85.56
337.738	95.56
337.966	97.56
338.194	77.56
338.422	96.56
338.65	102.56
338.878	97.56
339.106	92.56
339.334	96.56
339.562	94.56
339.79	95.56
340.018	87.56
340.246	75.56
340.474	83.56
340.702	92.56
340.93	87.56
341.158	90.56
341.386	89.56
341.614	95.56
341.842	90.56
342.07	92.56
342.298	90.56
342.526	103.56
342.754	73.56
342.981	91.56
343.209	85.56
343.437	97.56
343.665	95.56
343.893	101.56
344.12	93.56
344.348	111.56
344.576	95.56
344.804	97.56
345.031	105.56
345.259	90.56
345.487	93.56
345.714	103.56
345.942	101.56
346.17	92.56
346.397	91.56
346.625	78.56
346.853	103.56
347.08	108.56
347.308	99.56
347.535	87.56
347.763	99.56
347.99	98.56
348.218	107.56
348.445	100.56
348.673	107.56
348.9	104.56
349.128	106.56
349.355	96.56
349.583	94.56
349.81	89.56
350.037	99.56
350.265	95.56
350.492	101.56
350.72	86.56
350.947	106.56
351.174	99.56
351.402	109.56
351.629	99.56
351.856	109.56
352.083	111.56
352.311	126.56
352.538	111.56
352.765	107.56
352.992	109.56
353.22	105.56
353.447	103.56
353.674	99.56
353.901	102.56
354.128	104.56
354.355	101.56
354.583	93.56
354.81	99.56
355.037	85.56
355.264	98.56
355.491	93.56
355.718	90.56
355.945	88.56
356.172	92.56
356.399	94.56
356.626	97.56
356.853	79.56
357.08	88.56
357.307	97.56
357.534	95.56
357.761	95.56
357.988	111.56
358.215	100.56
358.441	106.56
358.668	74.56
358.895	88.56
359.122	95.56
359.349	87.56
359.576	107.56
359.802	106.56
360.029	117.56
360.256	105.56
360.483	104.56
360.709	93.56
360.936	93.56
361.163	93.56
361.39	77.56
361.616	90.56
361.843	104.56
362.07	106.56
362.296	89.56
362.523	110.56
362.749	80.56
362.976	104.56
363.203	91.56
363.429	96.56
363.656	95.56
363.882	91.56
364.109	87.56
364.335	99.56
364.562	86.56
364.788	85.56
365.015	94.56
365.241	104.56
365.468	95.56
365.694	106.56
365.92	94.56
366.147	82.56
366.373	96.56
366.599	84.56
366.826	93.56
367.052	90.56
367.278	86.56
367.505	91.56
367.731	85.56
367.957	83.56
368.184	86.56
368.41	95.56
368.636	113.56
368.862	113.56
369.089	109.56
369.315	93.56
369.541	87.56
369.767	84.56
369.993	89.56
370.219	90.56
370.445	99.56
370.672	82.56
370.898	92.56
371.124	88.56
371.35	97.56
371.576	86.56
371.802	99.56
372.028	99.56
372.254	85.56
372.48	85.56
372.706	90.56
372.932	81.56
373.158	82.56
373.384	85.56
373.61	98.56
373.835	98.56
374.061	86.56
374.287	93.56
374.513	79.56
374.739	90.56
374.965	116.56
375.191	95.56
375.416	92.56
375.642	96.56
375.868	103.56
376.094	97.56
376.319	94.56
376.545	87.56
376.771	75.56
376.997	85.56
377.222	81.56
377.448	90.56
377.674	94.56
377.899	88.56
378.125	99.56
378.35	79.56
378.576	91.56
378.802	91.56
379.027	88.56
379.253	104.56
379.478	107.56
379.704	86.56
379.929	89.56
380.155	101.56
380.38	89.56
380.606	108.56
380.831	99.56
381.057	82.56
381.282	89.56
381.507	93.56
381.733	94.56
381.958	101.56
382.184	105.56
382.409	115.56
382.634	91.56
382.86	85.56
383.085	108.56
383.31	102.56
383.535	105.56
383.761	109.56
383.986	104.56
384.211	100.56
384.436	102.56
384.662	91.56
384.887	93.56
385.112	90.56
385.337	93.56
385.562	91.56
385.787	105.56
386.013	105.56
386.238	114.56
386.463	95.56
386.688	106.56
386.913	95.56
387.138	93.56
387.363	89.56
387.588	94.56
387.813	96.56
388.038	89.56
388.263	118.56
388.488	94.56
388.713	92.56
388.938	86.56
389.163	93.56
389.387	95.56
389.612	98.56
389.837	91.56
390.062	101.56
390.287	101.56
390.512	95.56
390.736	103.56
390.961	97.56
391.186	101.56
391.411	87.56
391.636	92.56
391.86	99.56
392.085	93.56
392.31	85.56
392.534	76.56
392.759	78.56
392.984	79.56
393.208	79.56
393.433	98.56
393.658	97.56
393.882	85.56
394.107	87.56
394.331	90.56
394.556	79.56
394.78	88.56
395.005	92.56
395.229	88.56
395.454	90.56
395.678	85.56
395.903	91.56
396.127	95.56
396.352	83.56
396.576	79.56
396.801	93.56
397.025	90.56
397.249	82.56
397.474	91.56
397.698	87.56
397.922	94.56
398.147	83.56
398.371	97.56
398.595	88.56
398.82	78.56
399.044	83.56
399.268	71.56
399.492	82.56
399.717	89.56
399.941	97.56
400.165	104.56
400.389	92.56
400.613	85.56
400.837	85.56
401.062	96.56
401.286	90.56
401.51	96.56
401.734	91.56
401.958	106.56
402.182	118.56
402.406	157.56
402.63	100.56
402.854	88.56
403.078	77.56
403.302	94.56
403.526	94.56
403.75	84.56
403.974	81.56
404.198	79.56
404.422	79.56
404.645	86.56
404.869	92.56
405.093	78.56
405.317	105.56
405.541	98.56
405.765	94.56
405.988	115.56
406.212	156.56
406.436	202.56
406.66	131.56
406.883	82.56
407.107	103.56
407.331	95.56
407.555	95.56
407.778	85.56
408.002	87.56
408.226	98.56
408.449	85.56
408.673	88.56
408.896	93.56
409.12	117.56
409.344	99.56
409.567	99.56
409.791	87.56
410.014	105.56
410.238	98.56
410.461	78.56
410.685	87.56
410.908	96.56
411.132	99.56
411.355	99.56
411.578	100.56
411.802	85.56
412.025	93.56
412.249	81.56
412.472	81.56
412.695	97.56
412.919	93.56
413.142	77.56
413.365	70.56
413.589	95.56
413.812	97.56
414.035	74.56
414.258	81.56
414.482	81.56
414.705	94.56
414.928	94.56
415.151	99.56
415.374	81.56
415.597	86.56
415.821	87.56
416.044	76.56
416.267	92.56
416.49	77.56
416.713	97.56
416.936	85.56
417.159	95.56
417.382	86.56
417.605	88.56
417.828	100.56
418.051	100.56
418.274	83.56
418.497	76.56
418.72	103.56
418.943	85.56
419.166	90.56
419.389	84.56
419.611	77.56
419.834	89.56
420.057	79.56
420.28	93.56
420.503	97.56
420.726	89.56
420.948	103.56
421.171	96.56
421.394	101.56
421.617	93.56
421.839	90.56
422.062	93.56
422.285	98.56
422.507	97.56
422.73	91.56
422.953	94.56
423.175	97.56
423.398	93.56
423.621	90.56
423.843	87.56
424.066	95.56
424.288	87.56
424.511	88.56
424.733	85.56
424.956	109.56
425.178	91.56
425.401	102.56
425.623	101.56
425.846	106.56
426.068	93.56
426.291	92.56
426.513	91.56
426.735	76.56
426.958	92.56
427.18	100.56
427.402	121.56
427.625	161.56
427.847	117.56
428.069	114.56
428.292	101.56
428.514	98.56
428.736	97.56
428.958	94.56
429.181	89.56
429.403	98.56
429.625	94.56
429.847	98.56
430.069	77.56
430.292	100.56
430.514	85.56
430.736	99.56
430.958	79.56
431.18	107.56
431.402	100.56
431.624	99.56
431.846	81.56
432.068	83.56
432.29	77.56
432.512	104.56
432.734	83.56
432.956	89.56
433.178	108.56
433.4	100.56
433.622	91.56
433.844	95.56
434.066	83.56
434.287	100.56
434.509	102.56
434.731	103.56
434.953	84.56
435.175	82.56
435.397	100.56
435.618	97.56
435.84	98.56
436.062	115.56
436.284	99.56
436.505	90.56
436.727	102.56
436.949	102.56
437.17	98.56
437.392	97.56
437.614	107.56
437.835	111.56
438.057	102.56
438.278	79.56
438.5	109.56
438.721	128.56
438.943	100.56
439.165	94.56
439.386	88.56
439.608	78.56
439.829	102.56
440.05	111.56
440.272	143.56
440.493	102.56
440.715	88.56
440.936	97.56
441.158	92.56
441.379	100.56
441.6	83.56
441.822	78.56
442.043	88.56
442.264	102.56
442.486	96.56
442.707	92.56
442.928	88.56
443.149	111.56
443.371	121.56
443.592	111.56
443.813	91.56
444.034	103.56
444.255	101.56
444.476	90.56
444.698	89.56
444.919	95.56
445.14	127.56
445.361	132.56
445.582	105.56
445.803	119.56
446.024	115.56
446.245	130.56
446.466	114.56
446.687	94.56
446.908	86.56
447.129	102.56
447.35	100.56
447.571	106.56
447.792	97.56
448.013	97.56
448.234	97.56
448.455	106.56
448.675	109.56
448.896	109.56
449.117	94.56
449.338	90.56
449.559	116.56
449.779	122.56
450	95.56
450.221	81.56
450.442	91.56
450.662	92.56
450.883	92.56
451.104	122.56
451.324	94.56
451.545	71.56
451.766	94.56
451.986	93.56
452.207	83.56
452.428	91.56
452.648	108.56
452.869	97.56
453.089	116.56
453.31	101.56
453.53	86.56
453.751	93.56
453.971	94.56
454.192	103.56
454.412	85.56
454.633	81.56
454.853	83.56
455.073	84.56
455.294	87.56
455.514	100.56
455.734	101.56
455.955	88.56
456.175	92.56
456.395	81.56
456.616	87.56
456.836	83.56
457.056	90.56
457.276	102.56
457.497	86.56
457.717	90.56
457.937	81.56
458.157	93.56
458.377	97.56
458.598	101.56
458.818	128.56
459.038	134.56
459.258	115.56
459.478	87.56
459.698	87.56
459.918	73.56
460.138	85.56
460.358	91.56
460.578	98.56
460.798	91.56
461.018	104.56
461.238	98.56
461.458	92.56
461.678	92.56
461.898	86.56
462.118	81.56
462.338	79.56
462.558	82.56
462.777	79.56
462.997	67.56
463.217	82.56
463.437	92.56
463.657	91.56
463.876	108.56
464.096	99.56
464.316	96.56
464.536	91.56
464.755	107.56
464.975	115.56
465.195	142.56
465.414	129.56
465.634	81.56
465.854	90.56
466.073	95.56
466.293	89.56
466.512	85.56
466.732	90.56
466.951	103.56
467.171	93.56
467.391	105.56
467.61	107.56
467.829	82.56
468.049	112.56
468.268	115.56
468.488	93.56
468.707	101.56
468.927	86.56
469.146	74.56
469.365	76.56
469.585	75.56
469.804	98.56
470.023	94.56
470.243	98.56
470.462	93.56
470.681	99.56
470.901	94.56
471.12	78.56
471.339	92.56
471.558	93.56
471.777	96.56
471.997	96.56
472.216	141.56
472.435	202.56
472.654	117.56
472.873	108.56
473.092	96.56
473.311	99.56
473.53	110.56
473.749	101.56
473.968	105.56
474.187	103.56
474.406	98.56
474.625	86.56
474.844	81.56
475.063	92.56
475.282	93.56
475.501	81.56
475.72	98.56
475.939	75.56
476.158	94.56
476.377	83.56
476.596	75.56
476.814	101.56
477.033	103.56
477.252	87.56
477.471	87.56
477.69	91.56
477.908	95.56
478.127	84.56
478.346	94.56
478.564	93.56
478.783	75.56
479.002	106.56
479.22	95.56
479.439	101.56
479.658	103.56
479.876	103.56
480.095	69.56
480.313	93.56
480.532	86.56
480.751	95.56
480.969	133.56
481.188	296.56
481.406	211.56
481.624	105.56
481.843	98.56
482.061	81.56
482.28	76.56
482.498	83.56
482.717	89.56
482.935	90.56
483.153	86.56
483.372	106.56
483.59	91.56
483.808	96.56
484.027	94.56
484.245	105.56
484.463	91.56
484.681	85.56
484.9	95.56
485.118	94.56
485.336	95.56
485.554	102.56
485.772	97.56
485.99	111.56
486.209	114.56
486.427	103.56
486.645	107.56
486.863	115.56
487.081	102.56
487.299	93.56
487.517	95.56
487.735	90.56
487.953	87.56
488.171	87.56
488.389	93.56
488.607	97.56
488.825	89.56
489.043	91.56
489.261	101.56
489.479	78.56
489.696	87.56
489.914	109.56
490.132	91.56
490.35	92.56
490.568	95.56
490.786	78.56
491.003	95.56
491.221	102.56
491.439	90.56
491.657	87.56
491.874	95.56
492.092	79.56
492.31	88.56
492.527	85.56
492.745	91.56
492.963	103.56
493.18	93.56
493.398	82.56
493.615	94.56
493.833	106.56
494.05	93.56
494.268	93.56
494.485	94.56
494.703	94.56
494.92	91.56
495.138	92.56
495.355	94.56
495.573	90.56
495.79	87.56
496.008	88.56
496.225	84.56
496.442	94.56
496.66	92.56
496.877	80.56
497.094	100.56
497.312	104.56
497.529	106.56
497.746	108.56
497.963	92.56
498.181	107.56
498.398	103.56
498.615	112.56
498.832	100.56
499.049	93.56
499.267	84.56
499.484	92.56
499.701	88.56
499.918	90.56
500.135	88.56
500.352	89.56
500.569	90.56
500.786	97.56
501.003	109.56
501.22	93.56
501.437	91.56
501.654	90.56
501.871	101.56
502.088	98.56
502.305	99.56
502.522	86.56
502.739	93.56
502.956	95.56
503.172	73.56
503.389	91.56
503.606	98.56
503.823	101.56
504.04	96.56
504.256	86.56
504.473	89.56
504.69	98.56
504.907	108.56
505.123	101.56
505.34	96.56
505.557	97.56
505.773	102.56
505.99	99.56
506.207	86.56
506.423	93.56
506.64	105.56
506.856	92.56
507.073	92.56
507.289	99.56
507.506	108.56
507.722	101.56
507.939	108.56
508.155	97.56
508.372	86.56
508.588	94.56
508.805	91.56
509.021	91.56
509.238	94.56
509.454	98.56
509.67	94.56
509.887	105.56
510.103	124.56
510.319	198.56
510.536	711.56
510.752	2200.56
510.968	629.56
511.184	140.56
511.401	105.56
511.617	101.56
511.833	82.56
512.049	90.56
512.265	90.56
512.481	103.56
512.698	99.56
512.914	90.56
513.13	84.56
513.346	93.56
513.562	92.56
513.778	94.56
513.994	99.56
514.21	109.56
514.426	119.56
514.642	125.56
514.858	114.56
515.074	164.56
515.29	429.56
