Data from Uncirc_1983_H10_HRD10591_00034.txt Node
Date: Wed Jan 03 12:25:38 EST 2024
User: Yrep
Spectrometer: HR+D1059
Trigger mode: 1
Integration Time (sec): 1.000000E-1
Scans to average: 1
Electric dark correction enabled: true
Nonlinearity correction enabled: false
Boxcar width: 0
XAxis mode: Wavelengths
Number of Pixels in Spectrum: 2048
>>>>>Begin Spectral Data<<<<<
223.165	-15.75
223.4	-15.75
223.635	-15.75
223.869	-7.75
224.104	-22.75
224.338	-7.75
224.573	-7.75
224.808	-13.75
225.042	-9.75
225.277	0.25
225.511	-12.75
225.746	4.25
225.98	0.25
226.215	5.25
226.449	27.25
226.683	14.25
226.918	16.25
227.152	30.25
227.387	38.25
227.621	32.25
227.856	44.25
228.09	48.25
228.324	56.25
228.559	61.25
228.793	61.25
229.027	73.25
229.262	59.25
229.496	69.25
229.73	94.25
229.964	81.25
230.199	74.25
230.433	88.25
230.667	78.25
230.901	70.25
231.136	78.25
231.37	77.25
231.604	87.25
231.838	71.25
232.072	80.25
232.306	82.25
232.541	97.25
232.775	89.25
233.009	80.25
233.243	87.25
233.477	79.25
233.711	89.25
233.945	90.25
234.179	74.25
234.413	77.25
234.647	82.25
234.881	84.25
235.115	92.25
235.349	87.25
235.583	94.25
235.817	84.25
236.051	87.25
236.285	81.25
236.519	63.25
236.753	73.25
236.987	89.25
237.221	91.25
237.455	88.25
237.689	77.25
237.922	69.25
238.156	79.25
238.39	88.25
238.624	76.25
238.858	68.25
239.091	88.25
239.325	81.25
239.559	88.25
239.793	96.25
240.027	97.25
240.26	82.25
240.494	84.25
240.728	85.25
240.961	88.25
241.195	90.25
241.429	75.25
241.662	79.25
241.896	76.25
242.13	87.25
242.363	73.25
242.597	86.25
242.83	92.25
243.064	80.25
243.298	77.25
243.531	65.25
243.765	81.25
243.998	79.25
244.232	74.25
244.465	81.25
244.699	79.25
244.932	85.25
245.166	86.25
245.399	87.25
245.633	74.25
245.866	92.25
246.099	86.25
246.333	74.25
246.566	89.25
246.8	82.25
247.033	82.25
247.266	77.25
247.5	80.25
247.733	90.25
247.966	78.25
248.2	84.25
248.433	77.25
248.666	78.25
248.899	89.25
249.133	81.25
249.366	119.25
249.599	100.25
249.832	81.25
250.066	94.25
250.299	82.25
250.532	88.25
250.765	83.25
250.998	83.25
251.231	77.25
251.465	72.25
251.698	94.25
251.931	91.25
252.164	80.25
252.397	74.25
252.63	71.25
252.863	82.25
253.096	77.25
253.329	75.25
253.562	66.25
253.795	96.25
254.028	83.25
254.261	90.25
254.494	96.25
254.727	72.25
254.96	79.25
255.193	91.25
255.426	72.25
255.659	84.25
255.892	108.25
256.124	98.25
256.357	88.25
256.59	88.25
256.823	85.25
257.056	84.25
257.289	79.25
257.521	80.25
257.754	77.25
257.987	84.25
258.22	103.25
258.452	83.25
258.685	105.25
258.918	89.25
259.151	86.25
259.383	91.25
259.616	89.25
259.849	80.25
260.081	80.25
260.314	92.25
260.547	73.25
260.779	94.25
261.012	97.25
261.244	87.25
261.477	104.25
261.71	89.25
261.942	113.25
262.175	100.25
262.407	89.25
262.64	90.25
262.872	72.25
263.105	95.25
263.337	90.25
263.57	92.25
263.802	81.25
264.035	96.25
264.267	79.25
264.499	87.25
264.732	81.25
264.964	75.25
265.197	80.25
265.429	76.25
265.661	89.25
265.894	86.25
266.126	94.25
266.358	77.25
266.591	102.25
266.823	85.25
267.055	93.25
267.287	105.25
267.52	86.25
267.752	84.25
267.984	80.25
268.216	78.25
268.448	89.25
268.681	95.25
268.913	100.25
269.145	95.25
269.377	98.25
269.609	86.25
269.841	78.25
270.073	95.25
270.306	81.25
270.538	84.25
270.77	86.25
271.002	92.25
271.234	90.25
271.466	90.25
271.698	72.25
271.93	89.25
272.162	93.25
272.394	99.25
272.626	80.25
272.858	85.25
273.09	94.25
273.322	88.25
273.553	94.25
273.785	78.25
274.017	92.25
274.249	93.25
274.481	84.25
274.713	98.25
274.945	99.25
275.176	93.25
275.408	89.25
275.64	97.25
275.872	89.25
276.104	98.25
276.335	92.25
276.567	103.25
276.799	119.25
277.031	97.25
277.262	93.25
277.494	84.25
277.726	94.25
277.957	93.25
278.189	94.25
278.421	85.25
278.652	102.25
278.884	94.25
279.115	91.25
279.347	85.25
279.579	78.25
279.81	88.25
280.042	86.25
280.273	80.25
280.505	93.25
280.736	95.25
280.968	77.25
281.199	79.25
281.431	90.25
281.662	80.25
281.894	90.25
282.125	106.25
282.356	113.25
282.588	128.25
282.819	109.25
283.051	105.25
283.282	88.25
283.513	93.25
283.745	96.25
283.976	82.25
284.207	94.25
284.439	95.25
284.67	86.25
284.901	89.25
285.132	85.25
285.364	93.25
285.595	93.25
285.826	85.25
286.057	100.25
286.288	110.25
286.52	92.25
286.751	102.25
286.982	102.25
287.213	88.25
287.444	98.25
287.675	81.25
287.906	100.25
288.138	84.25
288.369	100.25
288.6	88.25
288.831	102.25
289.062	96.25
289.293	81.25
289.524	84.25
289.755	94.25
289.986	99.25
290.217	92.25
290.448	97.25
290.679	94.25
290.91	87.25
291.141	104.25
291.371	99.25
291.602	94.25
291.833	88.25
292.064	95.25
292.295	82.25
292.526	92.25
292.757	90.25
292.987	79.25
293.218	93.25
293.449	104.25
293.68	96.25
293.91	93.25
294.141	95.25
294.372	87.25
294.603	96.25
294.833	96.25
295.064	93.25
295.295	100.25
295.525	97.25
295.756	97.25
295.987	109.25
296.217	144.25
296.448	122.25
296.679	95.25
296.909	86.25
297.14	87.25
297.37	93.25
297.601	100.25
297.831	83.25
298.062	84.25
298.292	105.25
298.523	90.25
298.753	96.25
298.984	90.25
299.214	100.25
299.445	85.25
299.675	107.25
299.905	105.25
300.136	97.25
300.366	90.25
300.597	97.25
300.827	88.25
301.057	105.25
301.288	99.25
301.518	80.25
301.748	92.25
301.979	97.25
302.209	98.25
302.439	100.25
302.669	99.25
302.9	79.25
303.13	90.25
303.36	87.25
303.59	90.25
303.82	105.25
304.051	97.25
304.281	106.25
304.511	92.25
304.741	104.25
304.971	97.25
305.201	81.25
305.431	93.25
305.661	76.25
305.891	92.25
306.121	111.25
306.352	105.25
306.582	99.25
306.812	86.25
307.042	94.25
307.272	94.25
307.502	90.25
307.731	90.25
307.961	107.25
308.191	94.25
308.421	87.25
308.651	92.25
308.881	83.25
309.111	100.25
309.341	104.25
309.571	104.25
309.8	98.25
310.03	108.25
310.26	101.25
310.49	84.25
310.72	121.25
310.949	99.25
311.179	100.25
311.409	80.25
311.639	108.25
311.868	115.25
312.098	100.25
312.328	107.25
312.557	113.25
312.787	107.25
313.017	104.25
313.246	94.25
313.476	100.25
313.706	92.25
313.935	96.25
314.165	99.25
314.394	96.25
314.624	88.25
314.853	84.25
315.083	86.25
315.312	102.25
315.542	98.25
315.771	102.25
316.001	107.25
316.23	100.25
316.46	96.25
316.689	96.25
316.919	103.25
317.148	112.25
317.377	93.25
317.607	79.25
317.836	93.25
318.065	96.25
318.295	94.25
318.524	95.25
318.753	94.25
318.983	88.25
319.212	100.25
319.441	105.25
319.67	108.25
319.9	93.25
320.129	77.25
320.358	95.25
320.587	110.25
320.816	98.25
321.046	91.25
321.275	90.25
321.504	99.25
321.733	118.25
321.962	111.25
322.191	101.25
322.42	96.25
322.649	94.25
322.878	108.25
323.108	120.25
323.337	120.25
323.566	130.25
323.795	132.25
324.024	166.25
324.253	334.25
324.482	701.25
324.71	1399.25
324.939	1871.25
325.168	686.25
325.397	221.25
325.626	153.25
325.855	132.25
326.084	125.25
326.313	122.25
326.542	143.25
326.77	213.25
326.999	403.25
327.228	788.25
327.457	1460.25
327.686	1165.25
327.914	330.25
328.143	177.25
328.372	132.25
328.6	121.25
328.829	115.25
329.058	115.25
329.287	122.25
329.515	120.25
329.744	105.25
329.972	98.25
330.201	107.25
330.43	103.25
330.658	117.25
330.887	124.25
331.115	118.25
331.344	113.25
331.572	108.25
331.801	105.25
332.03	102.25
332.258	89.25
332.486	84.25
332.715	76.25
332.943	104.25
333.172	99.25
333.4	98.25
333.629	114.25
333.857	105.25
334.085	101.25
334.314	102.25
334.542	93.25
334.771	108.25
334.999	103.25
335.227	98.25
335.455	106.25
335.684	94.25
335.912	91.25
336.14	109.25
336.369	105.25
336.597	102.25
336.825	107.25
337.053	103.25
337.281	106.25
337.51	99.25
337.738	93.25
337.966	102.25
338.194	101.25
338.422	100.25
338.65	105.25
338.878	98.25
339.106	90.25
339.334	106.25
339.562	89.25
339.79	85.25
340.018	84.25
340.246	82.25
340.474	98.25
340.702	96.25
340.93	92.25
341.158	88.25
341.386	84.25
341.614	88.25
341.842	90.25
342.07	97.25
342.298	98.25
342.526	85.25
342.754	88.25
342.981	88.25
343.209	101.25
343.437	107.25
343.665	90.25
343.893	92.25
344.12	90.25
344.348	92.25
344.576	91.25
344.804	93.25
345.031	83.25
345.259	105.25
345.487	107.25
345.714	104.25
345.942	86.25
346.17	104.25
346.397	86.25
346.625	107.25
346.853	89.25
347.08	81.25
347.308	105.25
347.535	100.25
347.763	88.25
347.99	102.25
348.218	97.25
348.445	101.25
348.673	103.25
348.9	89.25
349.128	101.25
349.355	92.25
349.583	87.25
349.81	92.25
350.037	99.25
350.265	92.25
350.492	100.25
350.72	97.25
350.947	103.25
351.174	91.25
351.402	95.25
351.629	96.25
351.856	91.25
352.083	101.25
352.311	105.25
352.538	97.25
352.765	90.25
352.992	116.25
353.22	114.25
353.447	106.25
353.674	98.25
353.901	101.25
354.128	98.25
354.355	97.25
354.583	93.25
354.81	106.25
355.037	92.25
355.264	97.25
355.491	82.25
355.718	103.25
355.945	98.25
356.172	102.25
356.399	88.25
356.626	95.25
356.853	90.25
357.08	93.25
357.307	98.25
357.534	106.25
357.761	104.25
357.988	106.25
358.215	112.25
358.441	90.25
358.668	84.25
358.895	103.25
359.122	86.25
359.349	96.25
359.576	89.25
359.802	104.25
360.029	106.25
360.256	97.25
360.483	107.25
360.709	75.25
360.936	92.25
361.163	97.25
361.39	99.25
361.616	93.25
361.843	105.25
362.07	92.25
362.296	98.25
362.523	84.25
362.749	82.25
362.976	94.25
363.203	96.25
363.429	91.25
363.656	96.25
363.882	87.25
364.109	91.25
364.335	105.25
364.562	97.25
364.788	93.25
365.015	97.25
365.241	97.25
365.468	104.25
365.694	109.25
365.92	92.25
366.147	95.25
366.373	81.25
366.599	112.25
366.826	95.25
367.052	112.25
367.278	85.25
367.505	94.25
367.731	70.25
367.957	80.25
368.184	85.25
368.41	103.25
368.636	93.25
368.862	113.25
369.089	110.25
369.315	94.25
369.541	81.25
369.767	94.25
369.993	92.25
370.219	94.25
370.445	92.25
370.672	81.25
370.898	92.25
371.124	80.25
371.35	92.25
371.576	85.25
371.802	101.25
372.028	87.25
372.254	86.25
372.48	94.25
372.706	81.25
372.932	88.25
373.158	88.25
373.384	98.25
373.61	93.25
373.835	100.25
374.061	90.25
374.287	89.25
374.513	90.25
374.739	100.25
374.965	96.25
375.191	86.25
375.416	103.25
375.642	86.25
375.868	89.25
376.094	77.25
376.319	98.25
376.545	103.25
376.771	84.25
376.997	84.25
377.222	97.25
377.448	98.25
377.674	86.25
377.899	96.25
378.125	85.25
378.35	89.25
378.576	73.25
378.802	88.25
379.027	100.25
379.253	88.25
379.478	104.25
379.704	95.25
379.929	100.25
380.155	89.25
380.38	95.25
380.606	89.25
380.831	96.25
381.057	93.25
381.282	103.25
381.507	112.25
381.733	100.25
381.958	110.25
382.184	97.25
382.409	109.25
382.634	104.25
382.86	98.25
383.085	97.25
383.31	104.25
383.535	102.25
383.761	95.25
383.986	94.25
384.211	95.25
384.436	91.25
384.662	96.25
384.887	105.25
385.112	102.25
385.337	118.25
385.562	116.25
385.787	108.25
386.013	110.25
386.238	113.25
386.463	101.25
386.688	102.25
386.913	101.25
387.138	123.25
387.363	110.25
387.588	113.25
387.813	106.25
388.038	100.25
388.263	110.25
388.488	107.25
388.713	104.25
388.938	99.25
389.163	105.25
389.387	95.25
389.612	96.25
389.837	98.25
390.062	97.25
390.287	88.25
390.512	73.25
390.736	82.25
390.961	85.25
391.186	95.25
391.411	94.25
391.636	89.25
391.86	88.25
392.085	72.25
392.31	82.25
392.534	87.25
392.759	80.25
392.984	86.25
393.208	93.25
393.433	107.25
393.658	97.25
393.882	84.25
394.107	104.25
394.331	91.25
394.556	89.25
394.78	84.25
395.005	97.25
395.229	90.25
395.454	95.25
395.678	88.25
395.903	86.25
396.127	76.25
396.352	79.25
396.576	101.25
396.801	92.25
397.025	104.25
397.249	97.25
397.474	89.25
397.698	93.25
397.922	96.25
398.147	84.25
398.371	73.25
398.595	96.25
398.82	91.25
399.044	85.25
399.268	88.25
399.492	86.25
399.717	94.25
399.941	99.25
400.165	92.25
400.389	84.25
400.613	92.25
400.837	90.25
401.062	81.25
401.286	86.25
401.51	101.25
401.734	99.25
401.958	109.25
402.182	121.25
402.406	139.25
402.63	112.25
402.854	100.25
403.078	82.25
403.302	94.25
403.526	77.25
403.75	88.25
403.974	82.25
404.198	112.25
404.422	77.25
404.645	101.25
404.869	88.25
405.093	95.25
405.317	88.25
405.541	103.25
405.765	109.25
405.988	107.25
406.212	158.25
406.436	189.25
406.66	128.25
406.883	109.25
407.107	93.25
407.331	96.25
407.555	92.25
407.778	95.25
408.002	81.25
408.226	104.25
408.449	97.25
408.673	86.25
408.896	100.25
409.12	91.25
409.344	101.25
409.567	102.25
409.791	94.25
410.014	84.25
410.238	109.25
410.461	88.25
410.685	100.25
410.908	102.25
411.132	108.25
411.355	105.25
411.578	93.25
411.802	93.25
412.025	91.25
412.249	90.25
412.472	96.25
412.695	96.25
412.919	80.25
413.142	110.25
413.365	87.25
413.589	95.25
413.812	92.25
414.035	77.25
414.258	94.25
414.482	93.25
414.705	88.25
414.928	91.25
415.151	86.25
415.374	98.25
415.597	102.25
415.821	91.25
416.044	94.25
416.267	103.25
416.49	94.25
416.713	104.25
416.936	86.25
417.159	96.25
417.382	96.25
417.605	89.25
417.828	84.25
418.051	84.25
418.274	93.25
418.497	96.25
418.72	92.25
418.943	101.25
419.166	87.25
419.389	100.25
419.611	88.25
419.834	92.25
420.057	84.25
420.28	93.25
420.503	96.25
420.726	101.25
420.948	92.25
421.171	94.25
421.394	96.25
421.617	93.25
421.839	82.25
422.062	94.25
422.285	80.25
422.507	93.25
422.73	96.25
422.953	104.25
423.175	92.25
423.398	84.25
423.621	84.25
423.843	94.25
424.066	84.25
424.288	92.25
424.511	81.25
424.733	98.25
424.956	114.25
425.178	94.25
425.401	98.25
425.623	102.25
425.846	97.25
426.068	88.25
426.291	82.25
426.513	94.25
426.735	93.25
426.958	98.25
427.18	107.25
427.402	122.25
427.625	135.25
427.847	135.25
428.069	110.25
428.292	100.25
428.514	90.25
428.736	87.25
428.958	88.25
429.181	93.25
429.403	94.25
429.625	93.25
429.847	94.25
430.069	108.25
430.292	96.25
430.514	89.25
430.736	92.25
430.958	101.25
431.18	98.25
431.402	105.25
431.624	80.25
431.846	97.25
432.068	86.25
432.29	90.25
432.512	96.25
432.734	108.25
432.956	95.25
433.178	104.25
433.4	93.25
433.622	97.25
433.844	91.25
434.066	105.25
434.287	104.25
434.509	88.25
434.731	90.25
434.953	98.25
435.175	91.25
435.397	86.25
435.618	81.25
435.84	112.25
436.062	118.25
436.284	108.25
436.505	97.25
436.727	103.25
436.949	93.25
437.17	100.25
437.392	95.25
437.614	91.25
437.835	89.25
438.057	116.25
438.278	100.25
438.5	93.25
438.721	122.25
438.943	105.25
439.165	78.25
439.386	103.25
439.608	92.25
439.829	94.25
440.05	119.25
440.272	136.25
440.493	96.25
440.715	87.25
440.936	72.25
441.158	103.25
441.379	96.25
441.6	91.25
441.822	84.25
442.043	112.25
442.264	108.25
442.486	92.25
442.707	104.25
442.928	89.25
443.149	129.25
443.371	114.25
443.592	95.25
443.813	107.25
444.034	108.25
444.255	87.25
444.476	96.25
444.698	96.25
444.919	78.25
445.14	148.25
445.361	124.25
445.582	120.25
445.803	112.25
446.024	132.25
446.245	120.25
446.466	113.25
446.687	87.25
446.908	91.25
447.129	94.25
447.35	85.25
447.571	94.25
447.792	91.25
448.013	107.25
448.234	108.25
448.455	97.25
448.675	102.25
448.896	116.25
449.117	98.25
449.338	93.25
449.559	124.25
449.779	124.25
450	89.25
450.221	86.25
450.442	97.25
450.662	97.25
450.883	100.25
451.104	107.25
451.324	97.25
451.545	90.25
451.766	86.25
451.986	98.25
452.207	94.25
452.428	88.25
452.648	93.25
452.869	118.25
453.089	106.25
453.31	102.25
453.53	80.25
453.751	94.25
453.971	100.25
454.192	104.25
454.412	108.25
454.633	92.25
454.853	81.25
455.073	91.25
455.294	87.25
455.514	106.25
455.734	91.25
455.955	84.25
456.175	67.25
456.395	80.25
456.616	77.25
456.836	95.25
457.056	76.25
457.276	92.25
457.497	82.25
457.717	92.25
457.937	86.25
458.157	98.25
458.377	97.25
458.598	109.25
458.818	131.25
459.038	148.25
459.258	114.25
459.478	99.25
459.698	72.25
459.918	102.25
460.138	91.25
460.358	90.25
460.578	85.25
460.798	85.25
461.018	100.25
461.238	94.25
461.458	81.25
461.678	96.25
461.898	100.25
462.118	94.25
462.338	96.25
462.558	100.25
462.777	97.25
462.997	97.25
463.217	79.25
463.437	87.25
463.657	81.25
463.876	98.25
464.096	92.25
464.316	90.25
464.536	98.25
464.755	111.25
464.975	109.25
465.195	136.25
465.414	143.25
465.634	88.25
465.854	97.25
466.073	93.25
466.293	84.25
466.512	89.25
466.732	86.25
466.951	95.25
467.171	92.25
467.391	98.25
467.61	102.25
467.829	92.25
468.049	85.25
468.268	103.25
468.488	101.25
468.707	89.25
468.927	91.25
469.146	91.25
469.365	80.25
469.585	78.25
469.804	94.25
470.023	88.25
470.243	93.25
470.462	91.25
470.681	121.25
470.901	72.25
471.12	80.25
471.339	97.25
471.558	94.25
471.777	102.25
471.997	97.25
472.216	101.25
472.435	101.25
472.654	108.25
472.873	94.25
473.092	90.25
473.311	108.25
473.53	103.25
473.749	92.25
473.968	96.25
474.187	89.25
474.406	93.25
474.625	110.25
474.844	85.25
475.063	94.25
475.282	100.25
475.501	80.25
475.72	91.25
475.939	90.25
476.158	81.25
476.377	81.25
476.596	86.25
476.814	94.25
477.033	91.25
477.252	100.25
477.471	85.25
477.69	92.25
477.908	84.25
478.127	85.25
478.346	85.25
478.564	101.25
478.783	108.25
479.002	101.25
479.22	91.25
479.439	113.25
479.658	89.25
479.876	102.25
480.095	86.25
480.313	84.25
480.532	92.25
480.751	95.25
480.969	101.25
481.188	98.25
481.406	93.25
481.624	98.25
481.843	87.25
482.061	89.25
482.28	91.25
482.498	100.25
482.717	100.25
482.935	89.25
483.153	95.25
483.372	82.25
483.59	92.25
483.808	101.25
484.027	89.25
484.245	102.25
484.463	74.25
484.681	101.25
484.9	96.25
485.118	100.25
485.336	97.25
485.554	98.25
485.772	109.25
485.99	114.25
486.209	113.25
486.427	105.25
486.645	125.25
486.863	109.25
487.081	112.25
487.299	112.25
487.517	95.25
487.735	106.25
487.953	100.25
488.171	110.25
488.389	104.25
488.607	111.25
488.825	94.25
489.043	99.25
489.261	103.25
489.479	107.25
489.696	104.25
489.914	86.25
490.132	93.25
490.35	77.25
490.568	90.25
490.786	96.25
491.003	94.25
491.221	87.25
491.439	104.25
491.657	112.25
491.874	108.25
492.092	102.25
492.31	83.25
492.527	88.25
492.745	100.25
492.963	98.25
493.18	115.25
493.398	100.25
493.615	100.25
493.833	97.25
494.05	104.25
494.268	104.25
494.485	94.25
494.703	100.25
494.92	99.25
495.138	92.25
495.355	97.25
495.573	105.25
495.79	88.25
496.008	91.25
496.225	96.25
496.442	93.25
496.66	96.25
496.877	89.25
497.094	101.25
497.312	103.25
497.529	94.25
497.746	92.25
497.963	96.25
498.181	109.25
498.398	100.25
498.615	111.25
498.832	98.25
499.049	94.25
499.267	98.25
499.484	101.25
499.701	88.25
499.918	89.25
500.135	91.25
500.352	93.25
500.569	94.25
500.786	108.25
501.003	81.25
501.22	101.25
501.437	97.25
501.654	93.25
501.871	106.25
502.088	96.25
502.305	100.25
502.522	102.25
502.739	86.25
502.956	101.25
503.172	106.25
503.389	101.25
503.606	99.25
503.823	98.25
504.04	91.25
504.256	103.25
504.473	101.25
504.69	89.25
504.907	93.25
505.123	89.25
505.34	95.25
505.557	85.25
505.773	114.25
505.99	94.25
506.207	104.25
506.423	85.25
506.64	88.25
506.856	106.25
507.073	90.25
507.289	99.25
507.506	104.25
507.722	106.25
507.939	107.25
508.155	106.25
508.372	106.25
508.588	101.25
508.805	109.25
509.021	101.25
509.238	97.25
509.454	111.25
509.67	109.25
509.887	101.25
510.103	111.25
510.319	199.25
510.536	665.25
510.752	2047.25
510.968	578.25
511.184	140.25
511.401	108.25
511.617	104.25
511.833	97.25
512.049	93.25
512.265	95.25
512.481	94.25
512.698	85.25
512.914	103.25
513.13	89.25
513.346	105.25
513.562	99.25
513.778	108.25
513.994	95.25
514.21	94.25
