Data from Uncirc_1983_H10_HRD10591_00032.txt Node
Date: Wed Jan 03 12:25:38 EST 2024
User: Yrep
Spectrometer: HR+D1059
Trigger mode: 1
Integration Time (sec): 1.000000E-1
Scans to average: 1
Electric dark correction enabled: true
Nonlinearity correction enabled: false
Boxcar width: 0
XAxis mode: Wavelengths
Number of Pixels in Spectrum: 2048
>>>>>Begin Spectral Data<<<<<
223.165	-8
223.4	-8
223.635	-8
223.869	-18
224.104	-19
224.338	-21
224.573	-21
224.808	-12
225.042	3
225.277	-15
225.511	-3
225.746	16
225.98	8
226.215	-8
226.449	24
226.683	10
226.918	24
227.152	40
227.387	33
227.621	30
227.856	48
228.09	45
228.324	43
228.559	70
228.793	81
229.027	74
229.262	88
229.496	74
229.73	78
229.964	90
230.199	69
230.433	69
230.667	78
230.901	60
231.136	76
231.37	81
231.604	84
231.838	86
232.072	74
232.306	67
232.541	76
232.775	77
233.009	69
233.243	88
233.477	75
233.711	82
233.945	80
234.179	77
234.413	92
234.647	82
234.881	86
235.115	87
235.349	82
235.583	67
235.817	95
236.051	84
236.285	83
236.519	70
236.753	77
236.987	81
237.221	73
237.455	81
237.689	88
237.922	75
238.156	84
238.39	82
238.624	86
238.858	84
239.091	82
239.325	73
239.559	67
239.793	73
240.027	88
240.26	76
240.494	73
240.728	73
240.961	71
241.195	87
241.429	72
241.662	68
241.896	91
242.13	74
242.363	73
242.597	85
242.83	75
243.064	64
243.298	90
243.531	89
243.765	86
243.998	78
244.232	80
244.465	88
244.699	84
244.932	86
245.166	86
245.399	85
245.633	88
245.866	82
246.099	69
246.333	76
246.566	86
246.8	69
247.033	64
247.266	61
247.5	75
247.733	68
247.966	78
248.2	86
248.433	89
248.666	69
248.899	85
249.133	86
249.366	96
249.599	98
249.832	76
250.066	81
250.299	83
250.532	84
250.765	87
250.998	68
251.231	75
251.465	71
251.698	82
251.931	56
252.164	81
252.397	75
252.63	70
252.863	60
253.096	93
253.329	67
253.562	78
253.795	83
254.028	83
254.261	69
254.494	89
254.727	89
254.96	84
255.193	86
255.426	90
255.659	80
255.892	71
256.124	82
256.357	82
256.59	84
256.823	77
257.056	91
257.289	90
257.521	87
257.754	74
257.987	86
258.22	91
258.452	84
258.685	73
258.918	90
259.151	75
259.383	72
259.616	88
259.849	85
260.081	73
260.314	82
260.547	87
260.779	76
261.012	83
261.244	83
261.477	89
261.71	80
261.942	110
262.175	113
262.407	82
262.64	86
262.872	93
263.105	80
263.337	103
263.57	86
263.802	82
264.035	86
264.267	86
264.499	80
264.732	88
264.964	98
265.197	71
265.429	90
265.661	81
265.894	75
266.126	80
266.358	88
266.591	93
266.823	98
267.055	87
267.287	80
267.52	85
267.752	82
267.984	72
268.216	88
268.448	83
268.681	82
268.913	89
269.145	93
269.377	97
269.609	86
269.841	82
270.073	77
270.306	88
270.538	81
270.77	91
271.002	79
271.234	90
271.466	83
271.698	85
271.93	85
272.162	76
272.394	90
272.626	76
272.858	80
273.09	77
273.322	85
273.553	80
273.785	86
274.017	100
274.249	80
274.481	85
274.713	81
274.945	89
275.176	82
275.408	86
275.64	88
275.872	98
276.104	93
276.335	92
276.567	97
276.799	102
277.031	93
277.262	92
277.494	91
277.726	90
277.957	73
278.189	61
278.421	86
278.652	83
278.884	95
279.115	75
279.347	94
279.579	86
279.81	80
280.042	85
280.273	81
280.505	83
280.736	84
280.968	77
281.199	76
281.431	83
281.662	82
281.894	92
282.125	106
282.356	107
282.588	118
282.819	104
283.051	92
283.282	90
283.513	92
283.745	83
283.976	88
284.207	80
284.439	76
284.67	90
284.901	95
285.132	86
285.364	74
285.595	88
285.826	94
286.057	86
286.288	101
286.52	76
286.751	95
286.982	88
287.213	75
287.444	91
287.675	112
287.906	102
288.138	74
288.369	96
288.6	82
288.831	86
289.062	89
289.293	87
289.524	68
289.755	90
289.986	86
290.217	74
290.448	95
290.679	91
290.91	90
291.141	92
291.371	76
291.602	83
291.833	93
292.064	98
292.295	76
292.526	90
292.757	85
292.987	102
293.218	67
293.449	85
293.68	83
293.91	103
294.141	87
294.372	77
294.603	100
294.833	79
295.064	89
295.295	88
295.525	104
295.756	95
295.987	109
296.217	120
296.448	113
296.679	84
296.909	92
297.14	90
297.37	81
297.601	78
297.831	80
298.062	101
298.292	82
298.523	92
298.753	80
298.984	101
299.214	89
299.445	88
299.675	97
299.905	82
300.136	84
300.366	75
300.597	86
300.827	86
301.057	92
301.288	98
301.518	103
301.748	94
301.979	112
302.209	90
302.439	79
302.669	90
302.9	93
303.13	89
303.36	94
303.59	92
303.82	114
304.051	92
304.281	87
304.511	93
304.741	87
304.971	84
305.201	86
305.431	92
305.661	89
305.891	95
306.121	93
306.352	77
306.582	96
306.812	90
307.042	94
307.272	86
307.502	89
307.731	86
307.961	99
308.191	91
308.421	95
308.651	96
308.881	87
309.111	86
309.341	100
309.571	82
309.8	98
310.03	87
310.26	91
310.49	73
310.72	98
310.949	104
311.179	97
311.409	96
311.639	105
311.868	88
312.098	93
312.328	104
312.557	98
312.787	82
313.017	96
313.246	96
313.476	85
313.706	93
313.935	84
314.165	96
314.394	87
314.624	91
314.853	89
315.083	73
315.312	94
315.542	101
315.771	96
316.001	81
316.23	82
316.46	107
316.689	80
316.919	104
317.148	88
317.377	99
317.607	90
317.836	96
318.065	77
318.295	87
318.524	92
318.753	99
318.983	86
319.212	87
319.441	99
319.67	97
319.9	93
320.129	76
320.358	101
320.587	70
320.816	99
321.046	104
321.275	113
321.504	88
321.733	88
321.962	96
322.191	99
322.42	95
322.649	109
322.878	106
323.108	113
323.337	116
323.566	114
323.795	139
324.024	198
324.253	317
324.482	702
324.71	1374
324.939	1792
325.168	665
325.397	212
325.626	138
325.855	115
326.084	121
326.313	132
326.542	146
326.77	218
326.999	394
327.228	802
327.457	1416
327.686	1132
327.914	312
328.143	174
328.372	136
328.6	106
328.829	102
329.058	113
329.287	114
329.515	98
329.744	104
329.972	89
330.201	106
330.43	116
330.658	108
330.887	138
331.115	110
331.344	81
331.572	100
331.801	108
332.03	113
332.258	97
332.486	90
332.715	84
332.943	111
333.172	98
333.4	94
333.629	105
333.857	97
334.085	104
334.314	96
334.542	105
334.771	89
334.999	101
335.227	97
335.455	96
335.684	101
335.912	98
336.14	108
336.369	97
336.597	94
336.825	92
337.053	83
337.281	92
337.51	86
337.738	93
337.966	91
338.194	92
338.422	96
338.65	96
338.878	91
339.106	86
339.334	78
339.562	89
339.79	98
340.018	87
340.246	82
340.474	89
340.702	108
340.93	93
341.158	98
341.386	85
341.614	91
341.842	82
342.07	93
342.298	89
342.526	103
342.754	77
342.981	75
343.209	97
343.437	104
343.665	84
343.893	94
344.12	97
344.348	88
344.576	87
344.804	84
345.031	85
345.259	105
345.487	87
345.714	93
345.942	85
346.17	106
346.397	91
346.625	88
346.853	84
347.08	101
347.308	93
347.535	89
347.763	97
347.99	97
348.218	103
348.445	103
348.673	86
348.9	91
349.128	108
349.355	89
349.583	94
349.81	96
350.037	94
350.265	94
350.492	102
350.72	89
350.947	96
351.174	111
351.402	113
351.629	94
351.856	98
352.083	86
352.311	101
352.538	92
352.765	94
352.992	109
353.22	122
353.447	103
353.674	103
353.901	94
354.128	104
354.355	99
354.583	80
354.81	88
355.037	106
355.264	85
355.491	95
355.718	94
355.945	85
356.172	102
356.399	94
356.626	94
356.853	105
357.08	117
357.307	97
357.534	97
357.761	83
357.988	89
358.215	102
358.441	92
358.668	93
358.895	75
359.122	90
359.349	77
359.576	92
359.802	94
360.029	107
360.256	101
360.483	91
360.709	91
360.936	95
361.163	110
361.39	107
361.616	96
361.843	89
362.07	89
362.296	98
362.523	89
362.749	78
362.976	103
363.203	98
363.429	90
363.656	93
363.882	104
364.109	99
364.335	98
364.562	87
364.788	75
365.015	102
365.241	101
365.468	97
365.694	103
365.92	101
366.147	92
366.373	100
366.599	94
366.826	86
367.052	82
367.278	88
367.505	85
367.731	105
367.957	102
368.184	99
368.41	84
368.636	101
368.862	108
369.089	94
369.315	93
369.541	98
369.767	114
369.993	76
370.219	83
370.445	100
370.672	97
370.898	88
371.124	84
371.35	101
371.576	85
371.802	82
372.028	98
372.254	82
372.48	100
372.706	79
372.932	108
373.158	92
373.384	98
373.61	100
373.835	84
374.061	78
374.287	103
374.513	109
374.739	88
374.965	98
375.191	96
375.416	93
375.642	92
375.868	96
376.094	92
376.319	95
376.545	108
376.771	89
376.997	98
377.222	76
377.448	102
377.674	86
377.899	84
378.125	89
378.35	82
378.576	81
378.802	97
379.027	73
379.253	86
379.478	90
379.704	92
379.929	100
380.155	97
380.38	83
380.606	101
380.831	80
381.057	93
381.282	97
381.507	90
381.733	104
381.958	90
382.184	96
382.409	104
382.634	105
382.86	89
383.085	91
383.31	97
383.535	87
383.761	96
383.986	94
384.211	93
384.436	83
384.662	90
384.887	101
385.112	105
385.337	102
385.562	101
385.787	103
386.013	111
386.238	130
386.463	114
386.688	110
386.913	100
387.138	104
387.363	84
387.588	88
387.813	94
388.038	103
388.263	108
388.488	110
388.713	101
388.938	95
389.163	98
389.387	101
389.612	94
389.837	96
390.062	93
390.287	89
390.512	101
390.736	88
390.961	91
391.186	86
391.411	97
391.636	90
391.86	90
392.085	84
392.31	100
392.534	93
392.759	90
392.984	92
393.208	98
393.433	101
393.658	101
393.882	81
394.107	100
394.331	90
394.556	83
394.78	93
395.005	96
395.229	95
395.454	98
395.678	70
395.903	78
396.127	89
396.352	86
396.576	86
396.801	90
397.025	103
397.249	105
397.474	86
397.698	86
397.922	103
398.147	89
398.371	72
398.595	76
398.82	94
399.044	94
399.268	86
399.492	80
399.717	87
399.941	85
400.165	92
400.389	92
400.613	85
400.837	91
401.062	97
401.286	86
401.51	84
401.734	83
401.958	110
402.182	113
402.406	139
402.63	104
402.854	94
403.078	80
403.302	87
403.526	91
403.75	103
403.974	86
404.198	94
404.422	87
404.645	77
404.869	89
405.093	80
405.317	104
405.541	92
405.765	97
405.988	98
406.212	154
406.436	195
406.66	129
406.883	91
407.107	97
407.331	76
407.555	102
407.778	96
408.002	72
408.226	85
408.449	80
408.673	87
408.896	89
409.12	92
409.344	82
409.567	98
409.791	94
410.014	85
410.238	91
410.461	89
410.685	92
410.908	98
411.132	106
411.355	107
411.578	70
411.802	90
412.025	91
412.249	74
412.472	84
412.695	86
412.919	89
413.142	94
413.365	93
413.589	82
413.812	110
414.035	96
414.258	91
414.482	90
414.705	96
414.928	96
415.151	94
415.374	96
415.597	97
415.821	83
416.044	82
416.267	91
416.49	72
416.713	87
416.936	81
417.159	92
417.382	80
417.605	90
417.828	92
418.051	92
418.274	86
418.497	83
418.72	82
418.943	93
419.166	84
419.389	86
419.611	106
419.834	97
420.057	92
420.28	84
420.503	83
420.726	86
420.948	93
421.171	85
421.394	89
421.617	93
421.839	95
422.062	91
422.285	80
422.507	93
422.73	108
422.953	96
423.175	90
423.398	84
423.621	90
423.843	84
424.066	98
424.288	70
424.511	94
424.733	93
424.956	107
425.178	91
425.401	98
425.623	105
425.846	74
426.068	97
426.291	92
426.513	80
426.735	88
426.958	102
427.18	91
427.402	121
427.625	140
427.847	112
428.069	91
428.292	75
428.514	87
428.736	84
428.958	83
429.181	80
429.403	88
429.625	73
429.847	85
430.069	94
430.292	76
430.514	90
430.736	82
430.958	93
431.18	80
431.402	80
431.624	93
431.846	92
432.068	76
432.29	81
432.512	79
432.734	80
432.956	97
433.178	105
433.4	98
433.622	108
433.844	88
434.066	88
434.287	88
434.509	96
434.731	93
434.953	84
435.175	93
435.397	84
435.618	96
435.84	95
436.062	102
436.284	98
436.505	90
436.727	91
436.949	94
437.17	88
437.392	90
437.614	91
437.835	96
438.057	111
438.278	103
438.5	105
438.721	120
438.943	110
439.165	98
439.386	91
439.608	89
439.829	100
440.05	114
440.272	134
440.493	86
440.715	81
440.936	99
441.158	91
441.379	93
441.6	90
441.822	71
442.043	94
442.264	88
442.486	103
442.707	86
442.928	85
443.149	125
443.371	124
443.592	109
443.813	100
444.034	100
444.255	83
444.476	96
444.698	86
444.919	92
445.14	123
445.361	112
445.582	109
445.803	122
446.024	117
446.245	106
446.466	113
446.687	85
446.908	89
447.129	100
447.35	85
447.571	89
447.792	84
448.013	96
448.234	99
448.455	98
448.675	106
448.896	113
449.117	103
449.338	112
449.559	120
449.779	120
450	86
450.221	88
450.442	80
450.662	92
450.883	116
451.104	94
451.324	96
451.545	85
451.766	86
451.986	92
452.207	90
452.428	80
452.648	97
452.869	117
453.089	132
453.31	98
453.53	90
453.751	106
453.971	94
454.192	102
454.412	90
454.633	93
454.853	94
455.073	84
455.294	84
455.514	101
455.734	92
455.955	88
456.175	94
456.395	82
456.616	77
456.836	77
457.056	89
457.276	91
457.497	91
457.717	92
457.937	70
458.157	84
458.377	82
458.598	101
458.818	135
459.038	129
459.258	104
459.478	90
459.698	96
459.918	80
460.138	76
460.358	85
460.578	69
460.798	99
461.018	83
461.238	91
461.458	75
461.678	85
461.898	94
462.118	86
462.338	96
462.558	84
462.777	73
462.997	85
463.217	77
463.437	89
463.657	86
463.876	99
464.096	97
464.316	96
464.536	90
464.755	90
464.975	104
465.195	129
465.414	137
465.634	102
465.854	91
466.073	84
466.293	86
466.512	88
466.732	87
466.951	93
467.171	80
467.391	80
467.61	101
467.829	90
468.049	92
468.268	92
468.488	86
468.707	69
468.927	74
469.146	82
469.365	80
469.585	99
469.804	93
470.023	93
470.243	89
470.462	104
470.681	105
470.901	94
471.12	72
471.339	93
471.558	88
471.777	83
471.997	91
472.216	82
472.435	89
472.654	93
472.873	84
473.092	78
473.311	84
473.53	98
473.749	85
473.968	98
474.187	98
474.406	98
474.625	87
474.844	91
475.063	77
475.282	100
475.501	78
475.72	96
475.939	92
476.158	85
476.377	92
476.596	88
476.814	71
477.033	75
477.252	88
477.471	72
477.69	94
477.908	79
478.127	96
478.346	98
478.564	82
478.783	96
479.002	85
479.22	94
479.439	106
479.658	98
479.876	91
480.095	97
480.313	88
480.532	91
480.751	98
480.969	92
481.188	102
481.406	102
481.624	75
481.843	94
482.061	90
482.28	94
482.498	86
482.717	100
482.935	73
483.153	89
483.372	101
483.59	100
483.808	93
484.027	87
484.245	89
484.463	88
484.681	108
484.9	96
485.118	88
485.336	83
485.554	97
485.772	88
485.99	112
486.209	110
486.427	106
486.645	93
486.863	105
487.081	93
487.299	93
487.517	90
487.735	101
487.953	105
488.171	89
488.389	87
488.607	97
488.825	84
489.043	87
489.261	80
489.479	102
489.696	88
489.914	99
490.132	85
490.35	71
490.568	90
490.786	88
491.003	92
491.221	89
491.439	91
491.657	95
491.874	87
492.092	87
492.31	85
492.527	98
492.745	96
492.963	95
493.18	87
493.398	86
493.615	96
493.833	93
494.05	101
494.268	95
494.485	89
494.703	103
494.92	84
495.138	92
495.355	100
495.573	96
495.79	90
496.008	90
496.225	96
496.442	89
496.66	70
496.877	102
497.094	89
497.312	94
497.529	82
497.746	89
497.963	96
498.181	77
498.398	88
498.615	118
498.832	89
499.049	94
499.267	96
499.484	83
499.701	102
499.918	101
500.135	88
500.352	99
500.569	84
500.786	84
501.003	85
501.22	98
501.437	89
501.654	86
501.871	97
502.088	94
502.305	88
502.522	98
502.739	73
502.956	90
503.172	85
503.389	85
503.606	87
503.823	97
504.04	97
504.256	99
504.473	96
504.69	84
504.907	76
505.123	98
505.34	84
505.557	103
505.773	97
505.99	100
506.207	82
506.423	82
506.64	99
506.856	82
507.073	89
507.289	95
507.506	102
507.722	102
507.939	102
508.155	92
508.372	98
508.588	95
508.805	93
509.021	108
509.238	104
509.454	81
509.67	97
509.887	105
510.103	130
510.319	187
510.536	657
510.752	1932
510.968	552
511.184	134
511.401	109
511.617	93
511.833	102
512.049	84
512.265	92
512.481	87
512.698	80
512.914	83
513.13	98
513.346	82
513.562	97
513.778	88
513.994	92
514.21	94
514.426	105
514.642	109
514.858	108
515.074	153
515.29	381
515.506	1132
515.721	418
515.937	135
516.153	123
516.369	105
516.585	94
516.801	98
517.016	93
517.232	96
517.448	96
517.664	102
517.879	101
518.095	74
518.311	75
518.527	93
518.742	84
518.958	93
519.173	87
519.389	98
519.605	93
519.82	106
520.036	100
520.251	108
520.467	110
520.682	101
520.898	109
521.113	113
521.329	116
521.544	174
521.76	454
521.975	1902
522.19	1112
522.406	273
522.621	118
522.836	94
523.052	107
523.267	94
523.482	82
523.698	99
523.913	118
524.128	103
524.343	97
524.559	84
524.774	91
524.989	88
525.204	107
525.419	102
525.634	92
525.849	99
526.064	92
526.28	81
526.495	80
526.71	98
526.925	80
527.14	92
527.355	84
527.57	83
527.785	85
527.999	88
528.214	92
528.429	83
528.644	100
528.859	91
529.074	91
529.289	123
529.503	150
529.718	106
529.933	92
530.148	74
530.363	100
530.577	88
530.792	85
531.007	93
531.221	104
531.436	90
531.651	94
531.865	89
532.08	99
532.295	96
532.509	95
532.724	69
532.938	102
533.153	97
533.367	88
533.582	89
533.796	101
534.011	94
534.225	86
534.44	88
534.654	100
534.868	73
535.083	97
535.297	101
535.511	99
535.726	97
535.94	94
536.154	82
536.369	82
536.583	92
536.797	94
537.011	75
537.225	99
537.44	91
537.654	107
537.868	88
538.082	92
538.296	88
538.51	81
538.724	72
538.938	95
539.153	100
539.367	102
539.581	102
539.795	82
540.009	100
540.222	90
540.436	90
540.65	87
540.864	89
541.078	93
541.292	96
541.506	94
541.72	92
541.934	85
542.147	87
542.361	90
542.575	91
542.789	85
543.002	98
543.216	100
543.43	94
543.644	85
543.857	87
544.071	94
544.285	95
544.498	99
544.712	87
544.925	94
545.139	92
545.352	100
545.566	78
545.779	62
545.993	87
546.206	84
546.42	83
546.633	96
546.847	87
547.06	86
547.274	88
547.487	102
547.7	94
547.914	94
548.127	70
548.34	94
548.554	66
548.767	93
548.98	94
549.193	90
549.407	97
549.62	84
549.833	80
550.046	98
550.259	89
550.473	86
550.686	100
550.899	91
551.112	81
551.325	68
551.538	86
551.751	91
551.964	78
552.177	99
552.39	96
552.603	107
552.816	105
553.029	99
553.242	94
553.455	85
553.667	111
553.88	91
554.093	89
554.306	93
554.519	71
554.732	94
554.944	91
555.157	73
555.37	85
555.583	96
555.795	94
556.008	92
556.221	101
556.433	88
556.646	86
556.859	93
557.071	98
557.284	100
557.496	85
557.709	71
557.921	93
558.134	86
558.346	85
558.559	78
558.771	96
558.984	89
559.196	97
559.409	76
559.621	85
559.833	77
560.046	72
560.258	77
560.47	97
560.683	80
560.895	79
561.107	92
561.32	88
561.532	86
561.744	99
561.956	92
562.168	100
562.381	95
562.593	98
562.805	86
563.017	99
563.229	85
563.441	96
563.653	104
563.865	82
564.077	77
564.289	84
564.501	82
564.713	81
564.925	96
565.137	109
565.349	88
565.561	86
565.773	90
565.985	85
566.197	94
566.408	77
566.62	89
566.832	88
567.044	66
567.255	82
567.467	92
567.679	88
567.891	82
568.102	90
568.314	86
568.526	101
568.737	90
568.949	89
569.161	75
569.372	109
569.584	80
569.795	85
570.007	96
570.218	220
570.43	123
570.641	92
570.853	78
571.064	82
571.276	77
571.487	75
571.698	86
571.91	75
572.121	93
572.333	81
572.544	75
572.755	84
572.966	90
573.178	93
573.389	89
573.6	84
573.811	75
574.023	91
574.234	82
574.445	98
574.656	89
574.867	89
575.078	94
575.289	86
575.501	85
575.712	96
575.923	98
576.134	94
576.345	88
576.556	96
576.767	87
576.978	96
577.188	93
577.399	100
577.61	99
577.821	98
578.032	100
578.243	254
578.454	675
578.665	196
578.875	102
579.086	94
579.297	82
579.508	82
579.718	85
579.929	84
580.14	91
580.35	89
580.561	80
580.772	93
580.982	80
581.193	90
581.403	100
581.614	84
581.825	93
582.035	77
582.246	99
582.456	92
582.667	72
582.877	84
583.087	75
583.298	87
583.508	95
583.719	83
583.929	86
584.139	80
584.35	81
584.56	96
584.77	85
584.981	89
