Data from Uncirc_1983_H10_HRD10591_00081.txt Node
Date: Wed Jan 03 12:25:48 EST 2024
User: Yrep
Spectrometer: HR+D1059
Trigger mode: 1
Integration Time (sec): 1.000000E-1
Scans to average: 1
Electric dark correction enabled: true
Nonlinearity correction enabled: false
Boxcar width: 0
XAxis mode: Wavelengths
Number of Pixels in Spectrum: 2048
>>>>>Begin Spectral Data<<<<<
223.165	-17.31
223.4	-17.31
223.635	-17.31
223.869	-10.31
224.104	-7.31
224.338	-22.31
224.573	-20.31
224.808	-12.31
225.042	-5.31
225.277	-1.31
225.511	-3.31
225.746	0.69
225.98	10.69
226.215	2.69
226.449	13.69
226.683	12.69
226.918	24.69
227.152	34.69
227.387	30.69
227.621	37.69
227.856	40.69
228.09	43.69
228.324	43.69
228.559	59.69
228.793	69.69
229.027	79.69
229.262	70.69
229.496	70.69
229.73	89.69
229.964	76.69
230.199	91.69
230.433	85.69
230.667	83.69
230.901	75.69
231.136	77.69
231.37	83.69
231.604	79.69
231.838	72.69
232.072	77.69
232.306	87.69
232.541	89.69
232.775	77.69
233.009	80.69
233.243	87.69
233.477	85.69
233.711	73.69
233.945	77.69
234.179	73.69
234.413	86.69
234.647	78.69
234.881	87.69
235.115	78.69
235.349	89.69
235.583	86.69
235.817	83.69
236.051	95.69
236.285	80.69
236.519	75.69
236.753	97.69
236.987	85.69
237.221	91.69
237.455	92.69
237.689	69.69
237.922	68.69
238.156	62.69
238.39	89.69
238.624	77.69
238.858	85.69
239.091	81.69
239.325	81.69
239.559	92.69
239.793	88.69
240.027	91.69
240.26	87.69
240.494	89.69
240.728	71.69
240.961	76.69
241.195	75.69
241.429	79.69
241.662	78.69
241.896	76.69
242.13	86.69
242.363	87.69
242.597	85.69
242.83	84.69
243.064	72.69
243.298	99.69
243.531	88.69
243.765	89.69
243.998	66.69
244.232	87.69
244.465	75.69
244.699	93.69
244.932	74.69
245.166	74.69
245.399	78.69
245.633	91.69
245.866	78.69
246.099	83.69
246.333	88.69
246.566	88.69
246.8	81.69
247.033	73.69
247.266	64.69
247.5	85.69
247.733	70.69
247.966	87.69
248.2	93.69
248.433	89.69
248.666	76.69
248.899	90.69
249.133	78.69
249.366	94.69
249.599	85.69
249.832	77.69
250.066	86.69
250.299	87.69
250.532	88.69
250.765	72.69
250.998	88.69
251.231	61.69
251.465	74.69
251.698	81.69
251.931	95.69
252.164	87.69
252.397	81.69
252.63	86.69
252.863	92.69
253.096	90.69
253.329	70.69
253.562	75.69
253.795	85.69
254.028	73.69
254.261	88.69
254.494	72.69
254.727	89.69
254.96	75.69
255.193	93.69
255.426	82.69
255.659	71.69
255.892	88.69
256.124	86.69
256.357	79.69
256.59	86.69
256.823	88.69
257.056	73.69
257.289	89.69
257.521	95.69
257.754	76.69
257.987	75.69
258.22	94.69
258.452	90.69
258.685	90.69
258.918	90.69
259.151	86.69
259.383	76.69
259.616	76.69
259.849	82.69
260.081	77.69
260.314	67.69
260.547	82.69
260.779	76.69
261.012	81.69
261.244	87.69
261.477	72.69
261.71	107.69
261.942	122.69
262.175	106.69
262.407	72.69
262.64	82.69
262.872	90.69
263.105	81.69
263.337	91.69
263.57	83.69
263.802	82.69
264.035	74.69
264.267	81.69
264.499	93.69
264.732	94.69
264.964	91.69
265.197	94.69
265.429	77.69
265.661	83.69
265.894	78.69
266.126	86.69
266.358	82.69
266.591	81.69
266.823	94.69
267.055	74.69
267.287	89.69
267.52	77.69
267.752	84.69
267.984	67.69
268.216	81.69
268.448	77.69
268.681	78.69
268.913	84.69
269.145	76.69
269.377	85.69
269.609	85.69
269.841	91.69
270.073	95.69
270.306	86.69
270.538	103.69
270.77	76.69
271.002	107.69
271.234	75.69
271.466	97.69
271.698	85.69
271.93	88.69
272.162	89.69
272.394	96.69
272.626	84.69
272.858	99.69
273.09	95.69
273.322	100.69
273.553	87.69
273.785	78.69
274.017	86.69
274.249	89.69
274.481	92.69
274.713	94.69
274.945	89.69
275.176	83.69
275.408	104.69
275.64	91.69
275.872	86.69
276.104	69.69
276.335	92.69
276.567	97.69
276.799	111.69
277.031	105.69
277.262	99.69
277.494	79.69
277.726	89.69
277.957	81.69
278.189	88.69
278.421	83.69
278.652	86.69
278.884	90.69
279.115	87.69
279.347	84.69
279.579	94.69
279.81	96.69
280.042	95.69
280.273	104.69
280.505	79.69
280.736	98.69
280.968	83.69
281.199	89.69
281.431	92.69
281.662	89.69
281.894	94.69
282.125	103.69
282.356	115.69
282.588	137.69
282.819	109.69
283.051	87.69
283.282	90.69
283.513	88.69
283.745	101.69
283.976	101.69
284.207	95.69
284.439	99.69
284.67	95.69
284.901	97.69
285.132	90.69
285.364	74.69
285.595	90.69
285.826	87.69
286.057	98.69
286.288	85.69
286.52	92.69
286.751	77.69
286.982	88.69
287.213	97.69
287.444	89.69
287.675	87.69
287.906	85.69
288.138	93.69
288.369	105.69
288.6	94.69
288.831	86.69
289.062	92.69
289.293	103.69
289.524	92.69
289.755	82.69
289.986	93.69
290.217	104.69
290.448	83.69
290.679	85.69
290.91	92.69
291.141	95.69
291.371	98.69
291.602	83.69
291.833	95.69
292.064	95.69
292.295	86.69
292.526	104.69
292.757	89.69
292.987	85.69
293.218	96.69
293.449	90.69
293.68	99.69
293.91	87.69
294.141	99.69
294.372	85.69
294.603	91.69
294.833	96.69
295.064	100.69
295.295	93.69
295.525	92.69
295.756	78.69
295.987	129.69
296.217	129.69
296.448	124.69
296.679	103.69
296.909	96.69
297.14	82.69
297.37	90.69
297.601	98.69
297.831	90.69
298.062	93.69
298.292	93.69
298.523	91.69
298.753	97.69
298.984	94.69
299.214	104.69
299.445	95.69
299.675	93.69
299.905	91.69
300.136	86.69
300.366	94.69
300.597	86.69
300.827	92.69
301.057	96.69
301.288	97.69
301.518	86.69
301.748	93.69
301.979	108.69
302.209	96.69
302.439	100.69
302.669	96.69
302.9	115.69
303.13	94.69
303.36	101.69
303.59	106.69
303.82	98.69
304.051	94.69
304.281	85.69
304.511	100.69
304.741	107.69
304.971	100.69
305.201	89.69
305.431	100.69
305.661	79.69
305.891	89.69
306.121	98.69
306.352	106.69
306.582	130.69
306.812	88.69
307.042	92.69
307.272	92.69
307.502	89.69
307.731	101.69
307.961	93.69
308.191	94.69
308.421	78.69
308.651	92.69
308.881	99.69
309.111	97.69
309.341	104.69
309.571	91.69
309.8	97.69
310.03	96.69
310.26	102.69
310.49	90.69
310.72	116.69
310.949	103.69
311.179	101.69
311.409	84.69
311.639	97.69
311.868	88.69
312.098	105.69
312.328	101.69
312.557	106.69
312.787	113.69
313.017	102.69
313.246	99.69
313.476	93.69
313.706	87.69
313.935	90.69
314.165	94.69
314.394	99.69
314.624	99.69
314.853	100.69
315.083	99.69
315.312	93.69
315.542	84.69
315.771	87.69
316.001	100.69
316.23	84.69
316.46	99.69
316.689	101.69
316.919	100.69
317.148	91.69
317.377	90.69
317.607	103.69
317.836	81.69
318.065	92.69
318.295	91.69
318.524	89.69
318.753	102.69
318.983	88.69
319.212	93.69
319.441	96.69
319.67	94.69
319.9	99.69
320.129	93.69
320.358	108.69
320.587	105.69
320.816	90.69
321.046	96.69
321.275	102.69
321.504	97.69
321.733	91.69
321.962	93.69
322.191	91.69
322.42	101.69
322.649	115.69
322.878	100.69
323.108	121.69
323.337	122.69
323.566	130.69
323.795	149.69
324.024	205.69
324.253	384.69
324.482	726.69
324.71	1524.69
324.939	2020.69
325.168	746.69
325.397	243.69
325.626	140.69
325.855	125.69
326.084	125.69
326.313	125.69
326.542	155.69
326.77	226.69
326.999	419.69
327.228	858.69
327.457	1529.69
327.686	1222.69
327.914	351.69
328.143	179.69
328.372	161.69
328.6	133.69
328.829	117.69
329.058	118.69
329.287	130.69
329.515	115.69
329.744	103.69
329.972	117.69
330.201	134.69
330.43	141.69
330.658	138.69
330.887	145.69
331.115	130.69
331.344	109.69
331.572	100.69
331.801	107.69
332.03	93.69
332.258	98.69
332.486	95.69
332.715	82.69
332.943	95.69
333.172	95.69
333.4	97.69
333.629	111.69
333.857	117.69
334.085	121.69
334.314	127.69
334.542	162.69
334.771	154.69
334.999	111.69
335.227	121.69
335.455	89.69
335.684	109.69
335.912	93.69
336.14	105.69
336.369	93.69
336.597	104.69
336.825	89.69
337.053	97.69
337.281	93.69
337.51	89.69
337.738	101.69
337.966	98.69
338.194	92.69
338.422	106.69
338.65	106.69
338.878	81.69
339.106	90.69
339.334	75.69
339.562	84.69
339.79	101.69
340.018	78.69
340.246	103.69
340.474	94.69
340.702	91.69
340.93	101.69
341.158	102.69
341.386	116.69
341.614	90.69
341.842	99.69
342.07	97.69
342.298	103.69
342.526	89.69
342.754	94.69
342.981	91.69
343.209	96.69
343.437	87.69
343.665	94.69
343.893	87.69
344.12	107.69
344.348	93.69
344.576	97.69
344.804	94.69
345.031	92.69
345.259	102.69
345.487	99.69
345.714	100.69
345.942	100.69
346.17	99.69
346.397	98.69
346.625	104.69
346.853	94.69
347.08	93.69
347.308	96.69
347.535	92.69
347.763	101.69
347.99	102.69
348.218	99.69
348.445	104.69
348.673	98.69
348.9	106.69
349.128	94.69
349.355	99.69
349.583	102.69
349.81	103.69
350.037	90.69
350.265	91.69
350.492	98.69
350.72	87.69
350.947	108.69
351.174	81.69
351.402	98.69
351.629	106.69
351.856	107.69
352.083	111.69
352.311	110.69
352.538	102.69
352.765	125.69
352.992	123.69
353.22	112.69
353.447	89.69
353.674	110.69
353.901	102.69
354.128	88.69
354.355	99.69
354.583	103.69
354.81	94.69
355.037	90.69
355.264	87.69
355.491	103.69
355.718	88.69
355.945	85.69
356.172	106.69
356.399	98.69
356.626	93.69
356.853	91.69
357.08	114.69
357.307	91.69
357.534	83.69
357.761	106.69
357.988	90.69
358.215	98.69
358.441	102.69
358.668	90.69
358.895	90.69
359.122	94.69
359.349	100.69
359.576	81.69
359.802	101.69
360.029	113.69
360.256	119.69
360.483	101.69
360.709	85.69
360.936	87.69
361.163	101.69
361.39	99.69
361.616	107.69
361.843	109.69
362.07	81.69
362.296	84.69
362.523	100.69
362.749	104.69
362.976	101.69
363.203	98.69
363.429	80.69
363.656	77.69
363.882	106.69
364.109	92.69
364.335	98.69
364.562	89.69
364.788	99.69
365.015	90.69
365.241	103.69
365.468	99.69
365.694	107.69
365.92	98.69
366.147	93.69
366.373	89.69
366.599	91.69
366.826	86.69
367.052	90.69
367.278	108.69
367.505	97.69
367.731	93.69
367.957	110.69
368.184	86.69
368.41	93.69
368.636	119.69
368.862	136.69
369.089	96.69
369.315	102.69
369.541	98.69
369.767	89.69
369.993	90.69
370.219	100.69
370.445	82.69
370.672	85.69
370.898	102.69
371.124	82.69
371.35	94.69
371.576	85.69
371.802	87.69
372.028	90.69
372.254	103.69
372.48	97.69
372.706	98.69
372.932	94.69
373.158	81.69
373.384	87.69
373.61	92.69
373.835	91.69
374.061	96.69
374.287	98.69
374.513	85.69
374.739	83.69
374.965	85.69
375.191	104.69
375.416	86.69
375.642	96.69
375.868	76.69
376.094	95.69
376.319	99.69
376.545	101.69
376.771	98.69
376.997	94.69
377.222	89.69
377.448	95.69
377.674	97.69
377.899	93.69
378.125	89.69
378.35	78.69
378.576	85.69
378.802	101.69
379.027	92.69
379.253	107.69
379.478	96.69
379.704	93.69
379.929	84.69
380.155	86.69
380.38	87.69
380.606	86.69
380.831	101.69
381.057	103.69
381.282	100.69
381.507	98.69
381.733	100.69
381.958	85.69
382.184	99.69
382.409	120.69
382.634	103.69
382.86	90.69
383.085	118.69
383.31	89.69
383.535	99.69
383.761	104.69
383.986	93.69
384.211	87.69
384.436	108.69
384.662	89.69
384.887	94.69
385.112	95.69
385.337	97.69
385.562	93.69
385.787	113.69
386.013	109.69
386.238	116.69
386.463	91.69
386.688	110.69
386.913	92.69
387.138	101.69
387.363	93.69
387.588	107.69
387.813	106.69
388.038	117.69
388.263	113.69
388.488	113.69
388.713	101.69
388.938	106.69
389.163	106.69
389.387	90.69
389.612	103.69
389.837	87.69
390.062	97.69
390.287	89.69
390.512	100.69
390.736	94.69
390.961	87.69
391.186	100.69
391.411	93.69
391.636	96.69
391.86	83.69
392.085	91.69
392.31	91.69
392.534	98.69
392.759	89.69
392.984	82.69
393.208	98.69
393.433	93.69
393.658	91.69
393.882	81.69
394.107	84.69
394.331	93.69
394.556	91.69
394.78	79.69
395.005	77.69
395.229	89.69
395.454	89.69
395.678	95.69
395.903	85.69
396.127	89.69
396.352	65.69
396.576	86.69
396.801	89.69
397.025	87.69
397.249	88.69
397.474	87.69
397.698	84.69
397.922	71.69
398.147	89.69
398.371	103.69
398.595	73.69
398.82	84.69
399.044	81.69
399.268	102.69
399.492	87.69
399.717	106.69
399.941	91.69
400.165	93.69
400.389	100.69
400.613	95.69
400.837	89.69
401.062	84.69
401.286	95.69
401.51	86.69
401.734	89.69
401.958	110.69
402.182	134.69
402.406	153.69
402.63	100.69
402.854	81.69
403.078	87.69
403.302	66.69
403.526	85.69
403.75	83.69
403.974	86.69
404.198	75.69
404.422	93.69
404.645	83.69
404.869	101.69
405.093	100.69
405.317	99.69
405.541	103.69
405.765	100.69
405.988	112.69
406.212	165.69
406.436	214.69
406.66	140.69
406.883	97.69
407.107	91.69
407.331	103.69
407.555	94.69
407.778	102.69
408.002	77.69
408.226	103.69
408.449	79.69
408.673	92.69
408.896	91.69
409.12	81.69
409.344	76.69
409.567	87.69
409.791	101.69
410.014	91.69
410.238	98.69
410.461	94.69
410.685	90.69
410.908	102.69
411.132	122.69
411.355	85.69
411.578	82.69
411.802	96.69
412.025	92.69
412.249	104.69
412.472	96.69
412.695	103.69
412.919	91.69
413.142	106.69
413.365	95.69
413.589	85.69
413.812	89.69
414.035	87.69
414.258	100.69
414.482	89.69
414.705	95.69
414.928	92.69
415.151	97.69
415.374	94.69
415.597	97.69
415.821	85.69
416.044	99.69
416.267	108.69
416.49	86.69
416.713	88.69
416.936	87.69
417.159	81.69
417.382	86.69
417.605	86.69
417.828	105.69
418.051	91.69
418.274	85.69
418.497	95.69
418.72	81.69
418.943	85.69
419.166	96.69
419.389	90.69
419.611	89.69
419.834	101.69
420.057	89.69
420.28	83.69
420.503	93.69
420.726	89.69
420.948	92.69
421.171	95.69
421.394	88.69
421.617	107.69
421.839	85.69
422.062	110.69
422.285	102.69
422.507	122.69
422.73	103.69
422.953	102.69
423.175	84.69
423.398	93.69
423.621	101.69
423.843	90.69
424.066	94.69
424.288	90.69
424.511	89.69
424.733	94.69
424.956	114.69
425.178	101.69
425.401	108.69
425.623	101.69
425.846	87.69
426.068	110.69
426.291	92.69
426.513	98.69
426.735	97.69
426.958	93.69
427.18	108.69
427.402	131.69
427.625	151.69
427.847	133.69
428.069	113.69
428.292	90.69
428.514	103.69
428.736	86.69
428.958	84.69
429.181	100.69
429.403	95.69
429.625	81.69
429.847	97.69
430.069	95.69
430.292	92.69
430.514	92.69
430.736	95.69
430.958	94.69
431.18	70.69
431.402	85.69
431.624	85.69
431.846	94.69
432.068	94.69
432.29	85.69
432.512	89.69
432.734	93.69
432.956	86.69
433.178	104.69
433.4	99.69
433.622	89.69
433.844	105.69
434.066	103.69
434.287	93.69
434.509	78.69
434.731	85.69
434.953	82.69
435.175	97.69
435.397	93.69
435.618	99.69
435.84	95.69
436.062	121.69
436.284	110.69
436.505	110.69
436.727	103.69
436.949	90.69
437.17	103.69
437.392	92.69
437.614	108.69
437.835	104.69
438.057	123.69
438.278	111.69
438.5	100.69
438.721	108.69
438.943	107.69
439.165	95.69
439.386	98.69
439.608	101.69
439.829	117.69
440.05	122.69
440.272	147.69
440.493	106.69
440.715	100.69
440.936	89.69
441.158	94.69
441.379	91.69
441.6	104.69
441.822	101.69
442.043	90.69
442.264	93.69
442.486	107.69
442.707	91.69
442.928	103.69
443.149	126.69
443.371	107.69
443.592	111.69
443.813	95.69
444.034	86.69
444.255	96.69
444.476	88.69
444.698	98.69
444.919	97.69
445.14	137.69
445.361	105.69
445.582	122.69
445.803	132.69
446.024	134.69
446.245	134.69
446.466	119.69
446.687	85.69
446.908	94.69
447.129	94.69
447.35	85.69
447.571	92.69
447.792	96.69
448.013	91.69
448.234	113.69
448.455	98.69
448.675	103.69
448.896	113.69
449.117	103.69
449.338	102.69
449.559	122.69
449.779	118.69
450	97.69
450.221	110.69
450.442	86.69
450.662	100.69
450.883	90.69
451.104	117.69
451.324	98.69
451.545	100.69
451.766	86.69
451.986	91.69
452.207	94.69
452.428	86.69
452.648	104.69
452.869	108.69
453.089	98.69
453.31	117.69
453.53	94.69
453.751	95.69
453.971	116.69
454.192	119.69
454.412	109.69
454.633	93.69
454.853	87.69
455.073	98.69
455.294	95.69
455.514	87.69
455.734	82.69
455.955	95.69
456.175	90.69
456.395	91.69
456.616	100.69
456.836	78.69
457.056	83.69
457.276	91.69
457.497	97.69
457.717	86.69
457.937	101.69
458.157	90.69
458.377	99.69
458.598	114.69
458.818	135.69
459.038	154.69
459.258	128.69
459.478	83.69
459.698	95.69
459.918	86.69
460.138	79.69
460.358	85.69
460.578	100.69
460.798	93.69
461.018	91.69
461.238	86.69
461.458	104.69
461.678	87.69
461.898	99.69
462.118	89.69
462.338	96.69
462.558	102.69
462.777	107.69
462.997	92.69
463.217	81.69
463.437	93.69
463.657	90.69
463.876	91.69
464.096	106.69
464.316	94.69
464.536	97.69
464.755	101.69
464.975	100.69
465.195	145.69
465.414	145.69
465.634	103.69
465.854	87.69
466.073	95.69
466.293	90.69
466.512	85.69
466.732	91.69
466.951	98.69
467.171	108.69
467.391	91.69
467.61	101.69
467.829	91.69
468.049	89.69
468.268	119.69
468.488	75.69
468.707	91.69
468.927	96.69
469.146	97.69
469.365	102.69
469.585	96.69
469.804	95.69
470.023	104.69
470.243	83.69
470.462	103.69
470.681	105.69
470.901	95.69
471.12	91.69
471.339	93.69
471.558	90.69
471.777	75.69
471.997	91.69
472.216	126.69
472.435	175.69
472.654	106.69
472.873	92.69
473.092	92.69
473.311	91.69
473.53	78.69
473.749	82.69
473.968	103.69
474.187	97.69
474.406	103.69
474.625	95.69
474.844	91.69
475.063	91.69
475.282	78.69
475.501	83.69
475.72	92.69
475.939	92.69
476.158	84.69
476.377	81.69
476.596	88.69
476.814	83.69
477.033	94.69
477.252	91.69
477.471	95.69
477.69	85.69
477.908	92.69
478.127	91.69
478.346	85.69
478.564	90.69
478.783	98.69
479.002	86.69
479.22	98.69
479.439	99.69
479.658	103.69
479.876	106.69
480.095	106.69
480.313	99.69
480.532	97.69
480.751	94.69
480.969	120.69
481.188	260.69
481.406	168.69
481.624	112.69
481.843	81.69
482.061	84.69
482.28	88.69
482.498	86.69
482.717	82.69
482.935	92.69
483.153	109.69
483.372	109.69
483.59	99.69
483.808	83.69
484.027	106.69
484.245	104.69
484.463	101.69
484.681	94.69
484.9	73.69
485.118	105.69
485.336	90.69
485.554	94.69
485.772	98.69
485.99	117.69
486.209	95.69
486.427	119.69
486.645	121.69
486.863	103.69
487.081	102.69
487.299	103.69
487.517	105.69
487.735	105.69
487.953	105.69
488.171	96.69
488.389	98.69
488.607	93.69
488.825	92.69
489.043	97.69
489.261	81.69
489.479	91.69
489.696	94.69
489.914	102.69
490.132	90.69
490.35	89.69
490.568	97.69
490.786	107.69
491.003	91.69
491.221	94.69
491.439	88.69
491.657	98.69
491.874	102.69
492.092	109.69
492.31	81.69
492.527	100.69
492.745	94.69
492.963	89.69
493.18	92.69
493.398	93.69
493.615	101.69
493.833	83.69
494.05	89.69
494.268	87.69
494.485	100.69
494.703	89.69
494.92	93.69
495.138	91.69
495.355	97.69
495.573	99.69
495.79	79.69
496.008	105.69
496.225	88.69
496.442	102.69
496.66	99.69
496.877	86.69
497.094	111.69
497.312	85.69
497.529	99.69
497.746	105.69
497.963	84.69
498.181	106.69
498.398	99.69
498.615	120.69
498.832	113.69
499.049	100.69
499.267	96.69
499.484	90.69
499.701	100.69
499.918	100.69
500.135	98.69
500.352	83.69
500.569	99.69
500.786	99.69
501.003	102.69
501.22	108.69
501.437	84.69
501.654	113.69
501.871	112.69
502.088	93.69
502.305	91.69
502.522	99.69
502.739	100.69
502.956	93.69
503.172	100.69
503.389	109.69
503.606	105.69
503.823	101.69
504.04	86.69
504.256	100.69
504.473	97.69
504.69	92.69
504.907	105.69
505.123	110.69
505.34	92.69
505.557	86.69
505.773	90.69
505.99	93.69
506.207	97.69
506.423	86.69
506.64	87.69
506.856	110.69
507.073	90.69
507.289	100.69
507.506	89.69
507.722	106.69
507.939	111.69
508.155	90.69
508.372	87.69
508.588	106.69
508.805	105.69
509.021	94.69
509.238	100.69
509.454	106.69
509.67	108.69
509.887	105.69
510.103	121.69
510.319	222.69
510.536	800.69
510.752	2500.69
510.968	648.69
511.184	149.69
511.401	116.69
511.617	101.69
511.833	97.69
512.049	93.69
512.265	88.69
512.481	85.69
512.698	97.69
512.914	97.69
513.13	93.69
513.346	99.69
513.562	105.69
513.778	93.69
513.994	110.69
514.21	111.69
514.426	106.69
