Data from Uncirc_1983_H10_HRD10591_00087.txt Node
Date: Wed Jan 03 12:25:49 EST 2024
User: Yrep
Spectrometer: HR+D1059
Trigger mode: 1
Integration Time (sec): 1.000000E-1
Scans to average: 1
Electric dark correction enabled: true
Nonlinearity correction enabled: false
Boxcar width: 0
XAxis mode: Wavelengths
Number of Pixels in Spectrum: 2048
>>>>>Begin Spectral Data<<<<<
223.165	-13.94
223.4	-13.94
223.635	-13.94
223.869	-13.94
224.104	-14.94
224.338	-9.94
224.573	-15.94
224.808	-12.94
225.042	-6.94
225.277	-12.94
225.511	-7.94
225.746	9.06
225.98	7.06
226.215	14.06
226.449	21.06
226.683	17.06
226.918	23.06
227.152	18.06
227.387	32.06
227.621	40.06
227.856	48.06
228.09	47.06
228.324	50.06
228.559	54.06
228.793	57.06
229.027	62.06
229.262	77.06
229.496	70.06
229.73	111.06
229.964	79.06
230.199	68.06
230.433	82.06
230.667	81.06
230.901	68.06
231.136	63.06
231.37	87.06
231.604	87.06
231.838	74.06
232.072	73.06
232.306	81.06
232.541	88.06
232.775	90.06
233.009	90.06
233.243	79.06
233.477	93.06
233.711	89.06
233.945	73.06
234.179	71.06
234.413	93.06
234.647	85.06
234.881	90.06
235.115	81.06
235.349	70.06
235.583	81.06
235.817	76.06
236.051	75.06
236.285	69.06
236.519	62.06
236.753	67.06
236.987	69.06
237.221	84.06
237.455	75.06
237.689	87.06
237.922	71.06
238.156	78.06
238.39	85.06
238.624	91.06
238.858	79.06
239.091	76.06
239.325	69.06
239.559	89.06
239.793	83.06
240.027	74.06
240.26	77.06
240.494	79.06
240.728	81.06
240.961	82.06
241.195	85.06
241.429	96.06
241.662	105.06
241.896	81.06
242.13	77.06
242.363	87.06
242.597	71.06
242.83	81.06
243.064	65.06
243.298	89.06
243.531	75.06
243.765	76.06
243.998	86.06
244.232	78.06
244.465	94.06
244.699	86.06
244.932	71.06
245.166	76.06
245.399	79.06
245.633	81.06
245.866	77.06
246.099	77.06
246.333	85.06
246.566	86.06
246.8	70.06
247.033	82.06
247.266	85.06
247.5	66.06
247.733	78.06
247.966	75.06
248.2	75.06
248.433	79.06
248.666	69.06
248.899	70.06
249.133	88.06
249.366	91.06
249.599	98.06
249.832	73.06
250.066	83.06
250.299	74.06
250.532	72.06
250.765	82.06
250.998	76.06
251.231	81.06
251.465	58.06
251.698	88.06
251.931	72.06
252.164	75.06
252.397	76.06
252.63	81.06
252.863	72.06
253.096	79.06
253.329	88.06
253.562	77.06
253.795	81.06
254.028	89.06
254.261	81.06
254.494	86.06
254.727	88.06
254.96	93.06
255.193	74.06
255.426	85.06
255.659	75.06
255.892	73.06
256.124	77.06
256.357	86.06
256.59	81.06
256.823	87.06
257.056	63.06
257.289	91.06
257.521	82.06
257.754	59.06
257.987	77.06
258.22	71.06
258.452	78.06
258.685	78.06
258.918	89.06
259.151	70.06
259.383	87.06
259.616	91.06
259.849	83.06
260.081	88.06
260.314	86.06
260.547	99.06
260.779	98.06
261.012	99.06
261.244	76.06
261.477	99.06
261.71	93.06
261.942	101.06
262.175	104.06
262.407	91.06
262.64	96.06
262.872	88.06
263.105	80.06
263.337	98.06
263.57	85.06
263.802	83.06
264.035	82.06
264.267	90.06
264.499	74.06
264.732	91.06
264.964	76.06
265.197	83.06
265.429	94.06
265.661	83.06
265.894	105.06
266.126	96.06
266.358	90.06
266.591	99.06
266.823	105.06
267.055	90.06
267.287	84.06
267.52	87.06
267.752	83.06
267.984	86.06
268.216	74.06
268.448	81.06
268.681	88.06
268.913	81.06
269.145	92.06
269.377	96.06
269.609	91.06
269.841	85.06
270.073	76.06
270.306	86.06
270.538	85.06
270.77	86.06
271.002	91.06
271.234	89.06
271.466	84.06
271.698	85.06
271.93	88.06
272.162	96.06
272.394	98.06
272.626	90.06
272.858	102.06
273.09	81.06
273.322	89.06
273.553	84.06
273.785	81.06
274.017	110.06
274.249	99.06
274.481	88.06
274.713	84.06
274.945	90.06
275.176	92.06
275.408	84.06
275.64	101.06
275.872	77.06
276.104	78.06
276.335	85.06
276.567	85.06
276.799	117.06
277.031	100.06
277.262	92.06
277.494	88.06
277.726	83.06
277.957	83.06
278.189	66.06
278.421	97.06
278.652	77.06
278.884	92.06
279.115	76.06
279.347	87.06
279.579	98.06
279.81	76.06
280.042	73.06
280.273	87.06
280.505	77.06
280.736	86.06
280.968	102.06
281.199	88.06
281.431	90.06
281.662	87.06
281.894	98.06
282.125	100.06
282.356	110.06
282.588	134.06
282.819	123.06
283.051	83.06
283.282	83.06
283.513	87.06
283.745	87.06
283.976	90.06
284.207	71.06
284.439	92.06
284.67	85.06
284.901	90.06
285.132	83.06
285.364	77.06
285.595	106.06
285.826	77.06
286.057	83.06
286.288	93.06
286.52	100.06
286.751	90.06
286.982	96.06
287.213	74.06
287.444	83.06
287.675	81.06
287.906	91.06
288.138	102.06
288.369	86.06
288.6	91.06
288.831	73.06
289.062	81.06
289.293	97.06
289.524	102.06
289.755	86.06
289.986	96.06
290.217	85.06
290.448	94.06
290.679	81.06
290.91	85.06
291.141	82.06
291.371	94.06
291.602	93.06
291.833	84.06
292.064	104.06
292.295	72.06
292.526	89.06
292.757	85.06
292.987	88.06
293.218	102.06
293.449	101.06
293.68	83.06
293.91	87.06
294.141	91.06
294.372	86.06
294.603	97.06
294.833	97.06
295.064	95.06
295.295	103.06
295.525	90.06
295.756	103.06
295.987	119.06
296.217	130.06
296.448	119.06
296.679	91.06
296.909	93.06
297.14	94.06
297.37	87.06
297.601	106.06
297.831	91.06
298.062	94.06
298.292	77.06
298.523	99.06
298.753	87.06
298.984	82.06
299.214	96.06
299.445	90.06
299.675	104.06
299.905	104.06
300.136	101.06
300.366	89.06
300.597	93.06
300.827	87.06
301.057	87.06
301.288	86.06
301.518	94.06
301.748	99.06
301.979	111.06
302.209	93.06
302.439	83.06
302.669	80.06
302.9	89.06
303.13	90.06
303.36	103.06
303.59	98.06
303.82	95.06
304.051	90.06
304.281	89.06
304.511	97.06
304.741	83.06
304.971	103.06
305.201	84.06
305.431	100.06
305.661	96.06
305.891	83.06
306.121	106.06
306.352	97.06
306.582	119.06
306.812	94.06
307.042	97.06
307.272	102.06
307.502	104.06
307.731	95.06
307.961	90.06
308.191	82.06
308.421	72.06
308.651	89.06
308.881	98.06
309.111	93.06
309.341	106.06
309.571	96.06
309.8	91.06
310.03	100.06
310.26	95.06
310.49	91.06
310.72	90.06
310.949	109.06
311.179	103.06
311.409	92.06
311.639	108.06
311.868	96.06
312.098	100.06
312.328	93.06
312.557	100.06
312.787	109.06
313.017	96.06
313.246	89.06
313.476	99.06
313.706	106.06
313.935	103.06
314.165	99.06
314.394	95.06
314.624	92.06
314.853	101.06
315.083	93.06
315.312	92.06
315.542	96.06
315.771	99.06
316.001	98.06
316.23	94.06
316.46	100.06
316.689	91.06
316.919	96.06
317.148	83.06
317.377	98.06
317.607	91.06
317.836	85.06
318.065	91.06
318.295	93.06
318.524	92.06
318.753	110.06
318.983	102.06
319.212	100.06
319.441	119.06
319.67	113.06
319.9	106.06
320.129	96.06
320.358	97.06
320.587	95.06
320.816	96.06
321.046	99.06
321.275	95.06
321.504	94.06
321.733	99.06
321.962	96.06
322.191	84.06
322.42	108.06
322.649	102.06
322.878	98.06
323.108	104.06
323.337	116.06
323.566	126.06
323.795	141.06
324.024	197.06
324.253	344.06
324.482	706.06
324.71	1507.06
324.939	1918.06
325.168	693.06
325.397	221.06
325.626	133.06
325.855	117.06
326.084	129.06
326.313	121.06
326.542	147.06
326.77	221.06
326.999	402.06
327.228	851.06
327.457	1533.06
327.686	1217.06
327.914	341.06
328.143	193.06
328.372	153.06
328.6	135.06
328.829	115.06
329.058	100.06
329.287	106.06
329.515	103.06
329.744	108.06
329.972	109.06
330.201	119.06
330.43	134.06
330.658	133.06
330.887	136.06
331.115	119.06
331.344	116.06
331.572	111.06
331.801	94.06
332.03	98.06
332.258	111.06
332.486	79.06
332.715	105.06
332.943	99.06
333.172	90.06
333.4	113.06
333.629	100.06
333.857	102.06
334.085	110.06
334.314	135.06
334.542	146.06
334.771	140.06
334.999	111.06
335.227	93.06
335.455	85.06
335.684	123.06
335.912	90.06
336.14	90.06
336.369	109.06
336.597	99.06
336.825	79.06
337.053	103.06
337.281	97.06
337.51	102.06
337.738	95.06
337.966	94.06
338.194	106.06
338.422	93.06
338.65	90.06
338.878	103.06
339.106	102.06
339.334	89.06
339.562	86.06
339.79	85.06
340.018	89.06
340.246	94.06
340.474	100.06
340.702	97.06
340.93	100.06
341.158	86.06
341.386	97.06
341.614	87.06
341.842	103.06
342.07	92.06
342.298	81.06
342.526	82.06
342.754	92.06
342.981	98.06
343.209	76.06
343.437	93.06
343.665	93.06
343.893	75.06
344.12	97.06
344.348	101.06
344.576	86.06
344.804	86.06
345.031	97.06
345.259	107.06
345.487	94.06
345.714	109.06
345.942	99.06
346.17	97.06
346.397	89.06
346.625	91.06
346.853	100.06
347.08	87.06
347.308	103.06
347.535	102.06
347.763	103.06
347.99	101.06
348.218	95.06
348.445	110.06
348.673	105.06
348.9	90.06
349.128	88.06
349.355	94.06
349.583	83.06
349.81	94.06
350.037	91.06
350.265	106.06
350.492	113.06
350.72	95.06
350.947	96.06
351.174	103.06
351.402	95.06
351.629	109.06
351.856	101.06
352.083	99.06
352.311	102.06
352.538	98.06
352.765	90.06
352.992	109.06
353.22	98.06
353.447	114.06
353.674	113.06
353.901	96.06
354.128	101.06
354.355	102.06
354.583	93.06
354.81	95.06
355.037	100.06
355.264	100.06
355.491	95.06
355.718	109.06
355.945	97.06
356.172	92.06
356.399	91.06
356.626	96.06
356.853	89.06
357.08	101.06
357.307	93.06
357.534	87.06
357.761	94.06
357.988	102.06
358.215	91.06
358.441	91.06
358.668	87.06
358.895	98.06
359.122	107.06
359.349	94.06
359.576	96.06
359.802	98.06
360.029	102.06
360.256	86.06
360.483	103.06
360.709	92.06
360.936	99.06
361.163	85.06
361.39	91.06
361.616	97.06
361.843	89.06
362.07	98.06
362.296	98.06
362.523	77.06
362.749	96.06
362.976	103.06
363.203	84.06
363.429	84.06
363.656	98.06
363.882	77.06
364.109	89.06
364.335	94.06
364.562	78.06
364.788	97.06
365.015	87.06
365.241	93.06
365.468	103.06
365.694	98.06
365.92	103.06
366.147	100.06
366.373	86.06
366.599	78.06
366.826	87.06
367.052	101.06
367.278	85.06
367.505	90.06
367.731	91.06
367.957	90.06
368.184	86.06
368.41	82.06
368.636	116.06
368.862	110.06
369.089	109.06
369.315	90.06
369.541	101.06
369.767	85.06
369.993	87.06
370.219	78.06
370.445	83.06
370.672	95.06
370.898	91.06
371.124	96.06
371.35	100.06
371.576	75.06
371.802	85.06
372.028	81.06
372.254	85.06
372.48	93.06
372.706	104.06
372.932	90.06
373.158	74.06
373.384	77.06
373.61	91.06
373.835	97.06
374.061	95.06
374.287	101.06
374.513	90.06
374.739	81.06
374.965	93.06
375.191	91.06
375.416	99.06
375.642	90.06
375.868	101.06
376.094	85.06
376.319	103.06
376.545	95.06
376.771	93.06
376.997	83.06
377.222	100.06
377.448	86.06
377.674	100.06
377.899	106.06
378.125	86.06
378.35	89.06
378.576	93.06
378.802	93.06
379.027	86.06
379.253	77.06
379.478	84.06
379.704	89.06
379.929	94.06
380.155	86.06
380.38	78.06
380.606	90.06
380.831	84.06
381.057	102.06
381.282	100.06
381.507	85.06
381.733	108.06
381.958	90.06
382.184	98.06
382.409	96.06
382.634	98.06
382.86	97.06
383.085	97.06
383.31	105.06
383.535	96.06
383.761	86.06
383.986	98.06
384.211	102.06
384.436	95.06
384.662	90.06
384.887	102.06
385.112	91.06
385.337	96.06
385.562	98.06
385.787	106.06
386.013	112.06
386.238	113.06
386.463	103.06
386.688	113.06
386.913	81.06
387.138	98.06
387.363	93.06
387.588	92.06
387.813	103.06
388.038	100.06
388.263	110.06
388.488	105.06
388.713	101.06
388.938	92.06
389.163	103.06
389.387	99.06
389.612	83.06
389.837	98.06
390.062	113.06
390.287	101.06
390.512	83.06
390.736	97.06
390.961	68.06
391.186	82.06
391.411	97.06
391.636	98.06
391.86	98.06
392.085	78.06
392.31	86.06
392.534	84.06
392.759	82.06
392.984	90.06
393.208	89.06
393.433	88.06
393.658	91.06
393.882	83.06
394.107	79.06
394.331	78.06
394.556	87.06
394.78	99.06
395.005	83.06
395.229	97.06
395.454	83.06
395.678	81.06
395.903	95.06
396.127	73.06
396.352	81.06
396.576	78.06
396.801	91.06
397.025	85.06
397.249	85.06
397.474	73.06
397.698	92.06
397.922	78.06
398.147	92.06
398.371	88.06
398.595	101.06
398.82	83.06
399.044	83.06
399.268	79.06
399.492	91.06
399.717	78.06
399.941	71.06
400.165	89.06
400.389	91.06
400.613	98.06
400.837	84.06
401.062	91.06
401.286	95.06
401.51	86.06
401.734	94.06
401.958	108.06
402.182	123.06
402.406	142.06
402.63	92.06
402.854	98.06
403.078	99.06
403.302	90.06
403.526	91.06
403.75	83.06
403.974	93.06
404.198	87.06
404.422	94.06
404.645	86.06
404.869	100.06
405.093	93.06
405.317	103.06
405.541	91.06
405.765	96.06
405.988	97.06
406.212	174.06
406.436	195.06
406.66	135.06
406.883	106.06
407.107	87.06
407.331	89.06
407.555	108.06
407.778	108.06
408.002	98.06
408.226	100.06
408.449	93.06
408.673	97.06
408.896	85.06
409.12	93.06
409.344	91.06
409.567	98.06
409.791	96.06
410.014	95.06
410.238	94.06
410.461	99.06
410.685	103.06
410.908	106.06
411.132	105.06
411.355	94.06
411.578	84.06
411.802	88.06
412.025	91.06
412.249	95.06
412.472	93.06
412.695	101.06
412.919	84.06
413.142	92.06
413.365	92.06
413.589	97.06
413.812	95.06
414.035	93.06
414.258	97.06
414.482	83.06
414.705	90.06
414.928	95.06
415.151	111.06
415.374	87.06
415.597	93.06
415.821	97.06
416.044	90.06
416.267	91.06
416.49	67.06
416.713	93.06
416.936	89.06
417.159	85.06
417.382	97.06
417.605	83.06
417.828	98.06
418.051	93.06
418.274	107.06
418.497	102.06
418.72	93.06
418.943	83.06
419.166	95.06
419.389	97.06
419.611	88.06
419.834	105.06
420.057	91.06
420.28	84.06
420.503	103.06
420.726	89.06
420.948	91.06
421.171	104.06
421.394	91.06
421.617	82.06
421.839	83.06
422.062	86.06
422.285	89.06
422.507	99.06
422.73	103.06
422.953	103.06
423.175	91.06
423.398	89.06
423.621	106.06
423.843	97.06
424.066	89.06
424.288	89.06
424.511	70.06
424.733	93.06
424.956	102.06
425.178	99.06
425.401	111.06
425.623	111.06
425.846	96.06
426.068	85.06
426.291	87.06
426.513	83.06
426.735	96.06
426.958	96.06
427.18	103.06
427.402	126.06
427.625	151.06
427.847	113.06
428.069	103.06
428.292	88.06
428.514	87.06
428.736	90.06
428.958	97.06
429.181	93.06
429.403	87.06
429.625	87.06
429.847	88.06
430.069	89.06
430.292	81.06
430.514	79.06
430.736	87.06
430.958	103.06
431.18	81.06
431.402	100.06
431.624	75.06
431.846	85.06
432.068	103.06
432.29	90.06
432.512	99.06
432.734	97.06
432.956	82.06
433.178	86.06
433.4	95.06
433.622	100.06
433.844	87.06
434.066	92.06
434.287	80.06
434.509	90.06
434.731	96.06
434.953	106.06
435.175	92.06
435.397	97.06
435.618	97.06
435.84	92.06
436.062	116.06
436.284	106.06
436.505	94.06
436.727	94.06
436.949	104.06
437.17	103.06
437.392	90.06
437.614	88.06
437.835	104.06
438.057	116.06
438.278	103.06
438.5	97.06
438.721	115.06
438.943	92.06
439.165	92.06
439.386	90.06
439.608	84.06
439.829	110.06
440.05	122.06
440.272	133.06
440.493	102.06
440.715	94.06
440.936	95.06
441.158	80.06
441.379	90.06
441.6	91.06
441.822	86.06
442.043	84.06
442.264	102.06
442.486	103.06
442.707	95.06
442.928	99.06
443.149	117.06
443.371	137.06
443.592	104.06
443.813	105.06
444.034	114.06
444.255	98.06
444.476	87.06
444.698	92.06
444.919	102.06
445.14	121.06
445.361	117.06
445.582	122.06
445.803	117.06
446.024	121.06
446.245	124.06
446.466	114.06
446.687	93.06
446.908	83.06
447.129	91.06
447.35	99.06
447.571	94.06
447.792	91.06
448.013	99.06
448.234	105.06
448.455	91.06
448.675	102.06
448.896	116.06
449.117	82.06
449.338	103.06
449.559	110.06
449.779	117.06
450	89.06
450.221	89.06
450.442	73.06
450.662	98.06
450.883	87.06
451.104	115.06
451.324	111.06
451.545	97.06
451.766	85.06
451.986	88.06
452.207	92.06
452.428	90.06
452.648	114.06
452.869	109.06
453.089	107.06
453.31	119.06
453.53	84.06
453.751	98.06
453.971	91.06
454.192	108.06
454.412	95.06
454.633	88.06
454.853	83.06
455.073	84.06
455.294	75.06
455.514	102.06
455.734	87.06
455.955	75.06
456.175	82.06
456.395	85.06
456.616	84.06
456.836	87.06
457.056	91.06
457.276	79.06
457.497	79.06
457.717	97.06
457.937	95.06
458.157	76.06
458.377	90.06
458.598	99.06
458.818	157.06
459.038	138.06
459.258	103.06
459.478	93.06
459.698	85.06
459.918	91.06
460.138	93.06
460.358	92.06
460.578	86.06
460.798	92.06
461.018	89.06
461.238	71.06
461.458	83.06
461.678	85.06
461.898	85.06
462.118	98.06
462.338	85.06
462.558	75.06
462.777	82.06
462.997	91.06
463.217	94.06
463.437	82.06
463.657	92.06
463.876	92.06
464.096	90.06
464.316	91.06
464.536	106.06
464.755	109.06
464.975	107.06
465.195	134.06
465.414	139.06
465.634	103.06
465.854	82.06
466.073	86.06
466.293	94.06
466.512	85.06
466.732	75.06
466.951	89.06
467.171	83.06
467.391	98.06
467.61	97.06
467.829	97.06
468.049	121.06
468.268	110.06
468.488	86.06
468.707	82.06
468.927	100.06
469.146	87.06
469.365	96.06
469.585	92.06
469.804	92.06
470.023	93.06
470.243	106.06
470.462	86.06
470.681	94.06
470.901	90.06
471.12	103.06
471.339	106.06
471.558	98.06
471.777	87.06
471.997	89.06
472.216	111.06
472.435	165.06
472.654	106.06
472.873	75.06
473.092	79.06
473.311	67.06
473.53	95.06
473.749	95.06
473.968	103.06
474.187	114.06
474.406	90.06
474.625	83.06
474.844	75.06
475.063	83.06
475.282	89.06
475.501	90.06
475.72	90.06
475.939	75.06
476.158	100.06
476.377	108.06
476.596	94.06
476.814	85.06
477.033	90.06
477.252	98.06
477.471	93.06
477.69	82.06
477.908	83.06
478.127	91.06
478.346	92.06
478.564	92.06
478.783	90.06
479.002	103.06
479.22	91.06
479.439	99.06
479.658	95.06
479.876	86.06
480.095	100.06
480.313	91.06
480.532	87.06
480.751	89.06
480.969	118.06
481.188	265.06
481.406	192.06
481.624	93.06
481.843	93.06
482.061	86.06
482.28	97.06
482.498	102.06
482.717	97.06
482.935	95.06
483.153	79.06
483.372	78.06
483.59	87.06
483.808	89.06
484.027	81.06
484.245	103.06
484.463	95.06
484.681	93.06
484.9	64.06
485.118	92.06
485.336	92.06
485.554	111.06
485.772	100.06
485.99	86.06
486.209	94.06
486.427	107.06
486.645	115.06
486.863	93.06
487.081	101.06
487.299	89.06
487.517	110.06
487.735	102.06
487.953	101.06
488.171	95.06
488.389	100.06
488.607	117.06
488.825	98.06
489.043	82.06
489.261	96.06
489.479	85.06
489.696	106.06
489.914	91.06
490.132	85.06
490.35	92.06
490.568	68.06
490.786	90.06
491.003	83.06
491.221	91.06
491.439	89.06
491.657	102.06
491.874	102.06
492.092	98.06
492.31	94.06
492.527	95.06
492.745	80.06
492.963	97.06
493.18	85.06
493.398	99.06
493.615	97.06
493.833	97.06
494.05	87.06
494.268	68.06
494.485	89.06
494.703	83.06
494.92	102.06
495.138	98.06
495.355	99.06
495.573	76.06
495.79	99.06
496.008	111.06
496.225	107.06
496.442	91.06
496.66	94.06
496.877	89.06
497.094	109.06
497.312	100.06
497.529	93.06
497.746	94.06
497.963	100.06
498.181	73.06
498.398	107.06
498.615	110.06
498.832	102.06
499.049	102.06
499.267	98.06
499.484	90.06
499.701	91.06
499.918	90.06
500.135	102.06
500.352	100.06
500.569	102.06
500.786	102.06
501.003	90.06
501.22	97.06
501.437	107.06
501.654	102.06
501.871	81.06
502.088	110.06
502.305	78.06
502.522	74.06
502.739	97.06
502.956	92.06
503.172	86.06
503.389	94.06
503.606	95.06
503.823	94.06
504.04	87.06
504.256	91.06
504.473	104.06
504.69	91.06
504.907	94.06
505.123	96.06
505.34	118.06
505.557	99.06
505.773	98.06
505.99	86.06
506.207	92.06
506.423	76.06
506.64	94.06
506.856	90.06
507.073	91.06
507.289	83.06
507.506	94.06
507.722	106.06
507.939	100.06
508.155	105.06
508.372	86.06
508.588	108.06
508.805	102.06
509.021	94.06
509.238	91.06
509.454	94.06
509.67	91.06
509.887	116.06
510.103	124.06
510.319	202.06
510.536	683.06
510.752	2114.06
510.968	563.06
511.184	131.06
511.401	103.06
511.617	93.06
511.833	86.06
512.049	93.06
512.265	107.06
512.481	89.06
512.698	97.06
512.914	89.06
513.13	94.06
513.346	99.06
513.562	112.06
513.778	98.06
513.994	85.06
514.21	111.06
514.426	123.06
514.642	126.06
514.858	123.06
515.074	151.06
