Data from Uncirc_1983_H10_HRD10591_00048.txt Node
Date: Wed Jan 03 12:25:41 EST 2024
User: Yrep
Spectrometer: HR+D1059
Trigger mode: 1
Integration Time (sec): 1.000000E-1
Scans to average: 1
Electric dark correction enabled: true
Nonlinearity correction enabled: false
Boxcar width: 0
XAxis mode: Wavelengths
Number of Pixels in Spectrum: 2048
>>>>>Begin Spectral Data<<<<<
223.165	-10
223.4	-10
223.635	-10
223.869	-27
224.104	-18
224.338	-21
224.573	-20
224.808	-11
225.042	0
225.277	-7
225.511	14
225.746	4
225.98	3
226.215	11
226.449	12
226.683	13
226.918	31
227.152	26
227.387	39
227.621	40
227.856	52
228.09	50
228.324	47
228.559	58
228.793	68
229.027	64
229.262	65
229.496	60
229.73	93
229.964	74
230.199	80
230.433	75
230.667	87
230.901	68
231.136	79
231.37	74
231.604	95
231.838	81
232.072	70
232.306	75
232.541	81
232.775	78
233.009	83
233.243	89
233.477	76
233.711	80
233.945	86
234.179	93
234.413	67
234.647	84
234.881	84
235.115	78
235.349	80
235.583	73
235.817	64
236.051	82
236.285	71
236.519	73
236.753	74
236.987	67
237.221	77
237.455	88
237.689	80
237.922	76
238.156	62
238.39	61
238.624	68
238.858	73
239.091	84
239.325	60
239.559	84
239.793	77
240.027	68
240.26	82
240.494	72
240.728	66
240.961	89
241.195	84
241.429	84
241.662	89
241.896	74
242.13	72
242.363	88
242.597	81
242.83	91
243.064	86
243.298	86
243.531	77
243.765	70
243.998	68
244.232	86
244.465	94
244.699	88
244.932	65
245.166	88
245.399	68
245.633	74
245.866	92
246.099	71
246.333	94
246.566	87
246.8	86
247.033	75
247.266	70
247.5	97
247.733	74
247.966	72
248.2	91
248.433	79
248.666	95
248.899	85
249.133	72
249.366	104
249.599	103
249.832	85
250.066	85
250.299	94
250.532	75
250.765	66
250.998	87
251.231	82
251.465	80
251.698	74
251.931	85
252.164	74
252.397	71
252.63	97
252.863	88
253.096	82
253.329	87
253.562	55
253.795	82
254.028	82
254.261	87
254.494	79
254.727	92
254.96	78
255.193	89
255.426	84
255.659	84
255.892	84
256.124	73
256.357	78
256.59	86
256.823	71
257.056	82
257.289	87
257.521	83
257.754	83
257.987	70
258.22	76
258.452	86
258.685	84
258.918	72
259.151	77
259.383	82
259.616	84
259.849	76
260.081	76
260.314	84
260.547	93
260.779	84
261.012	91
261.244	65
261.477	85
261.71	92
261.942	113
262.175	120
262.407	99
262.64	75
262.872	77
263.105	74
263.337	81
263.57	70
263.802	86
264.035	80
264.267	75
264.499	74
264.732	83
264.964	77
265.197	90
265.429	97
265.661	77
265.894	87
266.126	68
266.358	74
266.591	76
266.823	84
267.055	82
267.287	86
267.52	86
267.752	73
267.984	86
268.216	79
268.448	97
268.681	89
268.913	85
269.145	97
269.377	93
269.609	88
269.841	68
270.073	73
270.306	78
270.538	81
270.77	80
271.002	102
271.234	84
271.466	90
271.698	86
271.93	82
272.162	91
272.394	84
272.626	90
272.858	86
273.09	73
273.322	84
273.553	76
273.785	87
274.017	85
274.249	90
274.481	88
274.713	86
274.945	75
275.176	92
275.408	84
275.64	83
275.872	78
276.104	75
276.335	98
276.567	96
276.799	99
277.031	99
277.262	90
277.494	75
277.726	93
277.957	84
278.189	89
278.421	90
278.652	88
278.884	77
279.115	72
279.347	96
279.579	78
279.81	80
280.042	90
280.273	64
280.505	80
280.736	91
280.968	85
281.199	98
281.431	94
281.662	83
281.894	96
282.125	102
282.356	118
282.588	135
282.819	112
283.051	105
283.282	85
283.513	90
283.745	92
283.976	91
284.207	85
284.439	73
284.67	77
284.901	78
285.132	82
285.364	84
285.595	84
285.826	90
286.057	86
286.288	97
286.52	92
286.751	86
286.982	106
287.213	81
287.444	64
287.675	85
287.906	88
288.138	86
288.369	96
288.6	91
288.831	93
289.062	93
289.293	85
289.524	77
289.755	86
289.986	84
290.217	97
290.448	86
290.679	77
290.91	82
291.141	88
291.371	83
291.602	80
291.833	93
292.064	93
292.295	84
292.526	90
292.757	94
292.987	96
293.218	84
293.449	93
293.68	86
293.91	85
294.141	84
294.372	95
294.603	89
294.833	89
295.064	91
295.295	80
295.525	98
295.756	102
295.987	110
296.217	125
296.448	116
296.679	105
296.909	89
297.14	98
297.37	96
297.601	87
297.831	86
298.062	97
298.292	88
298.523	90
298.753	87
298.984	95
299.214	91
299.445	90
299.675	94
299.905	85
300.136	96
300.366	73
300.597	88
300.827	85
301.057	113
301.288	100
301.518	94
301.748	93
301.979	109
302.209	96
302.439	91
302.669	70
302.9	96
303.13	82
303.36	74
303.59	96
303.82	123
304.051	96
304.281	90
304.511	82
304.741	81
304.971	89
305.201	89
305.431	87
305.661	84
305.891	92
306.121	102
306.352	88
306.582	97
306.812	84
307.042	86
307.272	75
307.502	84
307.731	76
307.961	94
308.191	80
308.421	80
308.651	100
308.881	102
309.111	96
309.341	86
309.571	76
309.8	84
310.03	95
310.26	92
310.49	97
310.72	96
310.949	93
311.179	85
311.409	99
311.639	100
311.868	104
312.098	98
312.328	89
312.557	101
312.787	91
313.017	103
313.246	107
313.476	89
313.706	95
313.935	79
314.165	91
314.394	92
314.624	99
314.853	103
315.083	102
315.312	103
315.542	95
315.771	99
316.001	82
316.23	81
316.46	95
316.689	70
316.919	78
317.148	87
317.377	98
317.607	104
317.836	96
318.065	87
318.295	90
318.524	93
318.753	89
318.983	92
319.212	109
319.441	105
319.67	104
319.9	89
320.129	94
320.358	93
320.587	96
320.816	98
321.046	101
321.275	87
321.504	91
321.733	100
321.962	96
322.191	100
322.42	100
322.649	106
322.878	109
323.108	113
323.337	119
323.566	132
323.795	137
324.024	205
324.253	395
324.482	845
324.71	1691
324.939	2290
325.168	808
325.397	252
325.626	142
325.855	124
326.084	136
326.313	123
326.542	164
326.77	233
326.999	455
327.228	942
327.457	1763
327.686	1406
327.914	389
328.143	197
328.372	155
328.6	120
328.829	111
329.058	130
329.287	116
329.515	116
329.744	104
329.972	104
330.201	118
330.43	114
330.658	114
330.887	147
331.115	121
331.344	100
331.572	102
331.801	89
332.03	90
332.258	118
332.486	96
332.715	101
332.943	100
333.172	75
333.4	96
333.629	104
333.857	120
334.085	100
334.314	102
334.542	112
334.771	97
334.999	96
335.227	103
335.455	91
335.684	97
335.912	101
336.14	108
336.369	104
336.597	102
336.825	94
337.053	73
337.281	91
337.51	100
337.738	106
337.966	99
338.194	104
338.422	108
338.65	86
338.878	101
339.106	105
339.334	92
339.562	84
339.79	93
340.018	93
340.246	91
340.474	97
340.702	104
340.93	99
341.158	92
341.386	104
341.614	94
341.842	100
342.07	94
342.298	80
342.526	85
342.754	87
342.981	78
343.209	92
343.437	111
343.665	97
343.893	85
344.12	92
344.348	87
344.576	93
344.804	97
345.031	97
345.259	84
345.487	88
345.714	82
345.942	97
346.17	81
346.397	101
346.625	93
346.853	103
347.08	90
347.308	82
347.535	86
347.763	94
347.99	99
348.218	102
348.445	110
348.673	100
348.9	101
349.128	99
349.355	96
349.583	99
349.81	89
350.037	82
350.265	96
350.492	98
350.72	86
350.947	77
351.174	110
351.402	109
351.629	91
351.856	100
352.083	98
352.311	101
352.538	105
352.765	93
352.992	118
353.22	114
353.447	92
353.674	92
353.901	106
354.128	85
354.355	88
354.583	91
354.81	101
355.037	101
355.264	102
355.491	101
355.718	92
355.945	75
356.172	95
356.399	94
356.626	92
356.853	79
357.08	90
357.307	89
357.534	72
357.761	106
357.988	102
358.215	105
358.441	101
358.668	107
358.895	93
359.122	91
359.349	98
359.576	82
359.802	90
360.029	108
360.256	109
360.483	83
360.709	65
360.936	91
361.163	106
361.39	103
361.616	89
361.843	91
362.07	103
362.296	107
362.523	89
362.749	99
362.976	82
363.203	101
363.429	98
363.656	99
363.882	86
364.109	93
364.335	107
364.562	84
364.788	96
365.015	88
365.241	93
365.468	114
365.694	97
365.92	102
366.147	96
366.373	91
366.599	91
366.826	97
367.052	88
367.278	88
367.505	87
367.731	100
367.957	97
368.184	97
368.41	104
368.636	101
368.862	122
369.089	98
369.315	85
369.541	98
369.767	88
369.993	108
370.219	87
370.445	91
370.672	88
370.898	94
371.124	93
371.35	86
371.576	87
371.802	98
372.028	84
372.254	96
372.48	84
372.706	93
372.932	94
373.158	88
373.384	109
373.61	89
373.835	94
374.061	89
374.287	87
374.513	89
374.739	92
374.965	102
375.191	93
375.416	82
375.642	84
375.868	96
376.094	96
376.319	101
376.545	95
376.771	95
376.997	97
377.222	96
377.448	87
377.674	81
377.899	98
378.125	99
378.35	106
378.576	83
378.802	88
379.027	100
379.253	82
379.478	91
379.704	88
379.929	99
380.155	105
380.38	89
380.606	109
380.831	90
381.057	116
381.282	92
381.507	106
381.733	97
381.958	91
382.184	100
382.409	106
382.634	105
382.86	90
383.085	112
383.31	101
383.535	79
383.761	93
383.986	96
384.211	99
384.436	88
384.662	100
384.887	101
385.112	92
385.337	92
385.562	98
385.787	108
386.013	109
386.238	104
386.463	99
386.688	111
386.913	100
387.138	112
387.363	100
387.588	108
387.813	97
388.038	100
388.263	97
388.488	97
388.713	101
388.938	89
389.163	106
389.387	93
389.612	87
389.837	98
390.062	109
390.287	87
390.512	84
390.736	103
390.961	105
391.186	91
391.411	108
391.636	109
391.86	84
392.085	91
392.31	85
392.534	77
392.759	84
392.984	97
393.208	95
393.433	102
393.658	97
393.882	97
394.107	98
394.331	78
394.556	76
394.78	84
395.005	69
395.229	70
395.454	95
395.678	85
395.903	94
396.127	99
396.352	78
396.576	84
396.801	101
397.025	81
397.249	93
397.474	89
397.698	74
397.922	98
398.147	86
398.371	92
398.595	75
398.82	84
399.044	85
399.268	91
399.492	102
399.717	99
399.941	101
400.165	101
400.389	103
400.613	88
400.837	85
401.062	83
401.286	94
401.51	99
401.734	87
401.958	99
402.182	125
402.406	150
402.63	112
402.854	80
403.078	89
403.302	91
403.526	104
403.75	86
403.974	106
404.198	101
404.422	82
404.645	83
404.869	95
405.093	106
405.317	105
405.541	96
405.765	93
405.988	116
406.212	163
406.436	226
406.66	146
406.883	104
407.107	105
407.331	86
407.555	107
407.778	101
408.002	94
408.226	89
408.449	94
408.673	86
408.896	89
409.12	101
409.344	98
409.567	84
409.791	90
410.014	94
410.238	87
410.461	63
410.685	92
410.908	104
411.132	91
411.355	90
411.578	97
411.802	103
412.025	90
412.249	100
412.472	96
412.695	92
412.919	83
413.142	92
413.365	97
413.589	91
413.812	101
414.035	94
414.258	92
414.482	111
414.705	95
414.928	101
415.151	98
415.374	102
415.597	84
415.821	81
416.044	85
416.267	77
416.49	103
416.713	82
416.936	93
417.159	77
417.382	84
417.605	96
417.828	100
418.051	111
418.274	80
418.497	71
418.72	85
418.943	94
419.166	98
419.389	101
419.611	86
419.834	99
420.057	93
420.28	73
420.503	98
420.726	87
420.948	82
421.171	95
421.394	84
421.617	96
421.839	95
422.062	107
422.285	91
422.507	98
422.73	96
422.953	96
423.175	89
423.398	92
423.621	92
423.843	88
424.066	104
424.288	78
424.511	80
424.733	106
424.956	99
425.178	98
425.401	104
425.623	102
425.846	89
426.068	94
426.291	82
426.513	82
426.735	93
426.958	87
427.18	101
427.402	136
427.625	160
427.847	131
428.069	100
428.292	92
428.514	85
428.736	102
428.958	96
429.181	86
429.403	90
429.625	81
429.847	84
430.069	91
430.292	91
430.514	94
430.736	86
430.958	77
431.18	92
431.402	99
431.624	94
431.846	80
432.068	82
432.29	87
432.512	93
432.734	89
432.956	107
433.178	106
433.4	110
433.622	94
433.844	92
434.066	83
434.287	83
434.509	83
434.731	94
434.953	104
435.175	91
435.397	94
435.618	90
435.84	89
436.062	122
436.284	111
436.505	114
436.727	113
436.949	107
437.17	91
437.392	80
437.614	106
437.835	108
438.057	116
438.278	120
438.5	115
438.721	126
438.943	104
439.165	98
439.386	87
439.608	100
439.829	96
440.05	130
440.272	150
440.493	94
440.715	85
440.936	96
441.158	80
441.379	92
441.6	96
441.822	90
442.043	88
442.264	106
442.486	91
442.707	95
442.928	106
443.149	128
443.371	130
443.592	113
443.813	106
444.034	116
444.255	102
444.476	83
444.698	85
444.919	88
445.14	147
445.361	128
445.582	115
445.803	124
446.024	143
446.245	139
446.466	104
446.687	84
446.908	78
447.129	90
447.35	100
447.571	99
447.792	89
448.013	105
448.234	118
448.455	108
448.675	107
448.896	117
449.117	101
449.338	100
449.559	143
449.779	134
450	104
450.221	93
450.442	88
450.662	101
450.883	104
451.104	101
451.324	93
451.545	88
451.766	90
451.986	84
452.207	91
452.428	97
452.648	99
452.869	104
453.089	109
453.31	96
453.53	89
453.751	88
453.971	118
454.192	118
454.412	96
454.633	92
454.853	82
455.073	93
455.294	92
455.514	118
455.734	84
455.955	81
456.175	87
456.395	76
456.616	96
456.836	84
457.056	85
457.276	74
457.497	77
457.717	103
457.937	94
458.157	90
458.377	94
458.598	96
458.818	148
459.038	146
459.258	107
459.478	89
459.698	90
459.918	82
460.138	95
460.358	94
460.578	114
460.798	97
461.018	95
461.238	81
461.458	92
461.678	73
461.898	95
462.118	97
462.338	86
462.558	88
462.777	80
462.997	97
463.217	82
463.437	100
463.657	89
463.876	71
464.096	102
464.316	88
464.536	107
464.755	103
464.975	125
465.195	147
465.414	160
465.634	96
465.854	92
466.073	70
466.293	92
466.512	84
466.732	88
466.951	93
467.171	90
467.391	86
467.61	115
467.829	98
468.049	90
468.268	97
468.488	105
468.707	95
468.927	101
469.146	73
469.365	75
469.585	92
469.804	91
470.023	96
470.243	96
470.462	105
470.681	105
470.901	96
471.12	93
471.339	100
471.558	95
471.777	96
471.997	92
472.216	104
472.435	122
472.654	96
472.873	100
473.092	83
473.311	78
473.53	93
473.749	80
473.968	97
474.187	116
474.406	96
474.625	100
474.844	81
475.063	89
475.282	83
475.501	86
475.72	89
475.939	96
476.158	86
476.377	92
476.596	86
476.814	98
477.033	105
477.252	92
477.471	85
477.69	83
477.908	91
478.127	102
478.346	89
478.564	98
478.783	94
479.002	113
479.22	96
479.439	96
479.658	100
479.876	86
480.095	98
480.313	86
480.532	106
480.751	108
480.969	105
481.188	147
481.406	118
481.624	96
481.843	88
482.061	78
482.28	86
482.498	95
482.717	85
482.935	89
483.153	105
483.372	91
483.59	92
483.808	96
484.027	90
484.245	94
484.463	97
484.681	108
484.9	92
485.118	95
485.336	82
485.554	102
485.772	109
485.99	110
486.209	105
486.427	116
486.645	121
486.863	110
487.081	116
487.299	97
487.517	104
487.735	99
487.953	107
488.171	97
488.389	88
488.607	96
488.825	105
489.043	97
489.261	81
489.479	97
489.696	91
489.914	96
490.132	89
490.35	76
490.568	82
490.786	90
491.003	86
491.221	100
491.439	101
491.657	107
491.874	76
492.092	77
492.31	96
492.527	86
492.745	98
492.963	98
493.18	98
493.398	105
493.615	98
493.833	91
494.05	101
494.268	88
494.485	92
494.703	84
494.92	101
495.138	88
495.355	82
495.573	97
495.79	92
496.008	103
496.225	83
496.442	90
496.66	91
496.877	89
497.094	92
497.312	90
497.529	87
497.746	94
497.963	91
498.181	98
498.398	107
498.615	106
498.832	100
499.049	87
499.267	85
499.484	89
499.701	88
499.918	85
500.135	78
500.352	95
500.569	104
500.786	95
501.003	105
501.22	83
501.437	93
501.654	94
501.871	102
502.088	98
502.305	94
502.522	111
502.739	99
502.956	99
503.172	91
503.389	97
503.606	93
503.823	100
504.04	100
504.256	97
504.473	88
504.69	82
504.907	97
505.123	88
505.34	89
505.557	89
505.773	89
505.99	86
506.207	96
506.423	98
506.64	94
506.856	103
507.073	91
507.289	92
507.506	98
507.722	104
507.939	105
508.155	98
508.372	100
508.588	101
508.805	102
509.021	96
509.238	100
509.454	88
509.67	101
509.887	105
510.103	141
510.319	219
510.536	791
510.752	2442
510.968	669
511.184	171
511.401	109
511.617	96
511.833	99
512.049	88
512.265	107
512.481	105
512.698	96
512.914	94
513.13	109
513.346	98
513.562	81
513.778	96
513.994	104
514.21	114
514.426	128
514.642	130
514.858	127
515.074	167
515.29	470
515.506	1508
515.721	536
515.937	154
516.153	125
516.369	95
516.585	95
516.801	101
517.016	93
517.232	90
517.448	109
517.664	98
517.879	93
518.095	84
518.311	112
518.527	98
518.742	93
518.958	96
519.173	98
519.389	95
519.605	98
519.82	100
520.036	110
520.251	125
520.467	116
520.682	107
520.898	106
521.113	113
521.329	144
521.544	199
521.76	570
521.975	2476
522.19	1452
522.406	318
522.621	131
522.836	109
523.052	94
523.267	87
523.482	109
523.698	104
523.913	127
524.128	116
524.343	103
524.559	100
524.774	108
524.989	106
525.204	99
525.419	125
525.634	84
525.849	95
526.064	88
526.28	98
526.495	75
526.71	94
526.925	90
527.14	82
527.355	93
527.57	83
527.785	94
527.999	88
528.214	95
528.429	90
528.644	97
528.859	114
529.074	101
529.289	121
529.503	178
529.718	104
529.933	100
530.148	89
530.363	102
530.577	85
530.792	108
531.007	99
531.221	91
531.436	95
531.651	86
531.865	85
532.08	85
532.295	101
532.509	100
532.724	97
532.938	101
533.153	109
533.367	94
533.582	104
533.796	102
534.011	72
534.225	78
534.44	79
534.654	96
534.868	96
535.083	84
535.297	101
535.511	105
535.726	106
535.94	95
536.154	109
536.369	96
536.583	84
536.797	105
537.011	100
537.225	85
537.44	89
537.654	83
537.868	102
538.082	89
538.296	85
538.51	88
538.724	91
538.938	91
539.153	98
539.367	111
539.581	104
539.795	97
540.009	90
540.222	82
540.436	84
540.65	92
540.864	99
541.078	88
541.292	85
541.506	93
541.72	76
541.934	92
542.147	93
542.361	88
542.575	76
542.789	94
543.002	90
543.216	102
543.43	97
543.644	92
543.857	86
544.071	83
544.285	81
544.498	85
544.712	90
544.925	87
545.139	94
545.352	84
545.566	82
545.779	92
545.993	92
546.206	85
546.42	96
546.633	77
546.847	93
547.06	88
547.274	91
547.487	91
547.7	93
547.914	97
548.127	84
548.34	88
548.554	102
548.767	88
548.98	93
549.193	88
549.407	98
549.62	91
549.833	84
550.046	89
550.259	86
550.473	87
550.686	97
550.899	96
551.112	72
551.325	86
551.538	85
551.751	91
551.964	92
552.177	96
552.39	91
552.603	88
552.816	85
553.029	93
553.242	77
553.455	104
553.667	126
553.88	94
554.093	86
554.306	85
554.519	89
554.732	105
554.944	81
555.157	80
555.37	85
555.583	86
555.795	89
556.008	91
556.221	99
556.433	94
556.646	98
556.859	97
557.071	91
557.284	102
557.496	82
557.709	93
557.921	104
558.134	89
558.346	79
558.559	104
558.771	93
558.984	86
559.196	80
559.409	77
559.621	85
559.833	85
560.046	99
560.258	89
560.47	99
560.683	80
560.895	91
561.107	90
561.32	79
561.532	98
561.744	86
561.956	99
562.168	107
562.381	94
562.593	96
562.805	100
563.017	105
563.229	83
563.441	90
563.653	102
563.865	87
564.077	86
564.289	95
564.501	76
564.713	80
564.925	108
565.137	117
565.349	74
565.561	83
565.773	89
565.985	81
566.197	101
566.408	81
566.62	80
566.832	87
567.044	97
567.255	87
567.467	87
567.679	98
567.891	98
568.102	88
568.314	97
568.526	92
568.737	92
568.949	101
569.161	88
569.372	89
569.584	103
569.795	90
570.007	135
570.218	256
570.43	131
570.641	107
570.853	88
571.064	80
571.276	97
571.487	87
571.698	78
571.91	93
572.121	86
572.333	90
572.544	81
572.755	92
572.966	96
573.178	84
573.389	107
573.6	71
573.811	84
574.023	93
574.234	90
574.445	93
574.656	98
574.867	88
575.078	86
575.289	89
575.501	88
575.712	74
575.923	90
576.134	68
576.345	91
576.556	87
576.767	100
576.978	77
577.188	89
577.399	80
577.61	96
577.821	99
578.032	119
578.243	277
578.454	796
578.665	219
578.875	114
579.086	94
579.297	97
579.508	90
579.718	80
579.929	82
580.14	92
580.35	72
580.561	82
580.772	93
580.982	80
581.193	88
581.403	100
581.614	87
581.825	97
582.035	77
582.246	83
582.456	86
582.667	86
582.877	94
583.087	89
