Data from Uncirc_1983_H10_HRD10591_00093.txt Node
Date: Wed Jan 03 12:25:50 EST 2024
User: Yrep
Spectrometer: HR+D1059
Trigger mode: 1
Integration Time (sec): 1.000000E-1
Scans to average: 1
Electric dark correction enabled: true
Nonlinearity correction enabled: false
Boxcar width: 0
XAxis mode: Wavelengths
Number of Pixels in Spectrum: 2048
>>>>>Begin Spectral Data<<<<<
223.165	-15.94
223.4	-15.94
223.635	-15.94
223.869	-13.94
224.104	-25.94
224.338	-30.94
224.573	-19.94
224.808	-1.94
225.042	-18.94
225.277	5.06
225.511	9.06
225.746	2.06
225.98	9.06
226.215	6.06
226.449	11.06
226.683	31.06
226.918	26.06
227.152	28.06
227.387	27.06
227.621	39.06
227.856	40.06
228.09	48.06
228.324	64.06
228.559	60.06
228.793	74.06
229.027	54.06
229.262	73.06
229.496	68.06
229.73	72.06
229.964	76.06
230.199	64.06
230.433	72.06
230.667	82.06
230.901	82.06
231.136	80.06
231.37	75.06
231.604	82.06
231.838	84.06
232.072	80.06
232.306	67.06
232.541	88.06
232.775	84.06
233.009	77.06
233.243	75.06
233.477	81.06
233.711	75.06
233.945	88.06
234.179	78.06
234.413	68.06
234.647	86.06
234.881	81.06
235.115	97.06
235.349	75.06
235.583	72.06
235.817	65.06
236.051	82.06
236.285	89.06
236.519	81.06
236.753	87.06
236.987	84.06
237.221	91.06
237.455	80.06
237.689	71.06
237.922	79.06
238.156	79.06
238.39	87.06
238.624	82.06
238.858	82.06
239.091	80.06
239.325	81.06
239.559	65.06
239.793	84.06
240.027	78.06
240.26	82.06
240.494	75.06
240.728	72.06
240.961	72.06
241.195	74.06
241.429	68.06
241.662	86.06
241.896	80.06
242.13	74.06
242.363	84.06
242.597	81.06
242.83	91.06
243.064	67.06
243.298	80.06
243.531	89.06
243.765	66.06
243.998	65.06
244.232	73.06
244.465	88.06
244.699	74.06
244.932	82.06
245.166	73.06
245.399	75.06
245.633	87.06
245.866	80.06
246.099	84.06
246.333	81.06
246.566	78.06
246.8	65.06
247.033	71.06
247.266	74.06
247.5	92.06
247.733	85.06
247.966	78.06
248.2	71.06
248.433	64.06
248.666	78.06
248.899	75.06
249.133	74.06
249.366	93.06
249.599	92.06
249.832	86.06
250.066	90.06
250.299	80.06
250.532	77.06
250.765	81.06
250.998	71.06
251.231	69.06
251.465	70.06
251.698	78.06
251.931	78.06
252.164	86.06
252.397	82.06
252.63	91.06
252.863	79.06
253.096	75.06
253.329	84.06
253.562	93.06
253.795	90.06
254.028	82.06
254.261	81.06
254.494	67.06
254.727	78.06
254.96	81.06
255.193	69.06
255.426	71.06
255.659	75.06
255.892	73.06
256.124	91.06
256.357	79.06
256.59	80.06
256.823	79.06
257.056	88.06
257.289	84.06
257.521	79.06
257.754	87.06
257.987	75.06
258.22	87.06
258.452	76.06
258.685	87.06
258.918	82.06
259.151	82.06
259.383	84.06
259.616	88.06
259.849	73.06
260.081	94.06
260.314	87.06
260.547	85.06
260.779	94.06
261.012	57.06
261.244	70.06
261.477	90.06
261.71	81.06
261.942	93.06
262.175	97.06
262.407	86.06
262.64	75.06
262.872	86.06
263.105	80.06
263.337	94.06
263.57	87.06
263.802	82.06
264.035	67.06
264.267	90.06
264.499	80.06
264.732	82.06
264.964	82.06
265.197	86.06
265.429	89.06
265.661	96.06
265.894	80.06
266.126	86.06
266.358	104.06
266.591	79.06
266.823	84.06
267.055	84.06
267.287	79.06
267.52	84.06
267.752	74.06
267.984	88.06
268.216	101.06
268.448	82.06
268.681	84.06
268.913	92.06
269.145	90.06
269.377	82.06
269.609	79.06
269.841	78.06
270.073	96.06
270.306	87.06
270.538	91.06
270.77	79.06
271.002	73.06
271.234	91.06
271.466	88.06
271.698	82.06
271.93	71.06
272.162	98.06
272.394	73.06
272.626	84.06
272.858	82.06
273.09	81.06
273.322	71.06
273.553	98.06
273.785	90.06
274.017	90.06
274.249	93.06
274.481	98.06
274.713	82.06
274.945	94.06
275.176	78.06
275.408	86.06
275.64	84.06
275.872	82.06
276.104	83.06
276.335	92.06
276.567	93.06
276.799	99.06
277.031	113.06
277.262	80.06
277.494	90.06
277.726	84.06
277.957	80.06
278.189	71.06
278.421	85.06
278.652	87.06
278.884	88.06
279.115	73.06
279.347	78.06
279.579	75.06
279.81	88.06
280.042	86.06
280.273	81.06
280.505	91.06
280.736	86.06
280.968	79.06
281.199	97.06
281.431	89.06
281.662	93.06
281.894	86.06
282.125	85.06
282.356	116.06
282.588	131.06
282.819	119.06
283.051	94.06
283.282	84.06
283.513	86.06
283.745	84.06
283.976	100.06
284.207	94.06
284.439	86.06
284.67	87.06
284.901	88.06
285.132	84.06
285.364	92.06
285.595	92.06
285.826	81.06
286.057	104.06
286.288	81.06
286.52	80.06
286.751	87.06
286.982	85.06
287.213	81.06
287.444	102.06
287.675	81.06
287.906	88.06
288.138	99.06
288.369	96.06
288.6	96.06
288.831	88.06
289.062	91.06
289.293	84.06
289.524	78.06
289.755	84.06
289.986	84.06
290.217	76.06
290.448	95.06
290.679	76.06
290.91	86.06
291.141	87.06
291.371	82.06
291.602	88.06
291.833	84.06
292.064	88.06
292.295	100.06
292.526	94.06
292.757	90.06
292.987	99.06
293.218	90.06
293.449	90.06
293.68	79.06
293.91	90.06
294.141	87.06
294.372	71.06
294.603	86.06
294.833	83.06
295.064	79.06
295.295	78.06
295.525	83.06
295.756	82.06
295.987	114.06
296.217	121.06
296.448	113.06
296.679	102.06
296.909	96.06
297.14	76.06
297.37	85.06
297.601	84.06
297.831	88.06
298.062	84.06
298.292	81.06
298.523	88.06
298.753	89.06
298.984	96.06
299.214	86.06
299.445	102.06
299.675	92.06
299.905	90.06
300.136	88.06
300.366	72.06
300.597	78.06
300.827	86.06
301.057	96.06
301.288	97.06
301.518	90.06
301.748	91.06
301.979	90.06
302.209	95.06
302.439	95.06
302.669	83.06
302.9	91.06
303.13	83.06
303.36	91.06
303.59	91.06
303.82	105.06
304.051	89.06
304.281	87.06
304.511	83.06
304.741	98.06
304.971	105.06
305.201	96.06
305.431	104.06
305.661	85.06
305.891	106.06
306.121	86.06
306.352	103.06
306.582	96.06
306.812	102.06
307.042	94.06
307.272	91.06
307.502	84.06
307.731	95.06
307.961	78.06
308.191	90.06
308.421	91.06
308.651	99.06
308.881	94.06
309.111	103.06
309.341	84.06
309.571	102.06
309.8	87.06
310.03	87.06
310.26	107.06
310.49	93.06
310.72	103.06
310.949	96.06
311.179	80.06
311.409	86.06
311.639	77.06
311.868	88.06
312.098	104.06
312.328	85.06
312.557	96.06
312.787	98.06
313.017	100.06
313.246	93.06
313.476	92.06
313.706	94.06
313.935	95.06
314.165	110.06
314.394	96.06
314.624	92.06
314.853	94.06
315.083	84.06
315.312	88.06
315.542	74.06
315.771	88.06
316.001	87.06
316.23	93.06
316.46	90.06
316.689	94.06
316.919	99.06
317.148	93.06
317.377	90.06
317.607	90.06
317.836	98.06
318.065	73.06
318.295	91.06
318.524	86.06
318.753	81.06
318.983	99.06
319.212	106.06
319.441	97.06
319.67	101.06
319.9	92.06
320.129	88.06
320.358	99.06
320.587	88.06
320.816	94.06
321.046	105.06
321.275	101.06
321.504	87.06
321.733	95.06
321.962	100.06
322.191	109.06
322.42	107.06
322.649	115.06
322.878	108.06
323.108	119.06
323.337	115.06
323.566	130.06
323.795	137.06
324.024	202.06
324.253	390.06
324.482	804.06
324.71	1648.06
324.939	2112.06
325.168	764.06
325.397	235.06
325.626	142.06
325.855	120.06
326.084	126.06
326.313	131.06
326.542	146.06
326.77	216.06
326.999	452.06
327.228	886.06
327.457	1594.06
327.686	1334.06
327.914	361.06
328.143	192.06
328.372	148.06
328.6	122.06
328.829	120.06
329.058	130.06
329.287	114.06
329.515	113.06
329.744	108.06
329.972	122.06
330.201	124.06
330.43	139.06
330.658	136.06
330.887	127.06
331.115	107.06
331.344	96.06
331.572	92.06
331.801	97.06
332.03	97.06
332.258	107.06
332.486	93.06
332.715	98.06
332.943	104.06
333.172	106.06
333.4	95.06
333.629	104.06
333.857	113.06
334.085	115.06
334.314	122.06
334.542	159.06
334.771	151.06
334.999	91.06
335.227	110.06
335.455	93.06
335.684	108.06
335.912	90.06
336.14	106.06
336.369	105.06
336.597	112.06
336.825	106.06
337.053	93.06
337.281	92.06
337.51	90.06
337.738	86.06
337.966	90.06
338.194	89.06
338.422	87.06
338.65	94.06
338.878	106.06
339.106	101.06
339.334	84.06
339.562	101.06
339.79	83.06
340.018	94.06
340.246	74.06
340.474	79.06
340.702	90.06
340.93	91.06
341.158	90.06
341.386	92.06
341.614	104.06
341.842	83.06
342.07	86.06
342.298	97.06
342.526	84.06
342.754	82.06
342.981	90.06
343.209	99.06
343.437	95.06
343.665	81.06
343.893	98.06
344.12	97.06
344.348	80.06
344.576	86.06
344.804	84.06
345.031	91.06
345.259	79.06
345.487	98.06
345.714	112.06
345.942	104.06
346.17	89.06
346.397	86.06
346.625	78.06
346.853	74.06
347.08	94.06
347.308	107.06
347.535	108.06
347.763	91.06
347.99	98.06
348.218	90.06
348.445	103.06
348.673	99.06
348.9	114.06
349.128	91.06
349.355	95.06
349.583	96.06
349.81	91.06
350.037	109.06
350.265	99.06
350.492	91.06
350.72	82.06
350.947	103.06
351.174	109.06
351.402	107.06
351.629	108.06
351.856	103.06
352.083	105.06
352.311	109.06
352.538	93.06
352.765	98.06
352.992	113.06
353.22	94.06
353.447	102.06
353.674	114.06
353.901	91.06
354.128	101.06
354.355	96.06
354.583	84.06
354.81	95.06
355.037	92.06
355.264	84.06
355.491	98.06
355.718	85.06
355.945	80.06
356.172	80.06
356.399	93.06
356.626	86.06
356.853	79.06
357.08	97.06
357.307	95.06
357.534	86.06
357.761	84.06
357.988	95.06
358.215	89.06
358.441	85.06
358.668	91.06
358.895	95.06
359.122	93.06
359.349	96.06
359.576	91.06
359.802	98.06
360.029	90.06
360.256	95.06
360.483	90.06
360.709	97.06
360.936	96.06
361.163	91.06
361.39	89.06
361.616	91.06
361.843	83.06
362.07	85.06
362.296	90.06
362.523	83.06
362.749	85.06
362.976	84.06
363.203	93.06
363.429	88.06
363.656	89.06
363.882	99.06
364.109	95.06
364.335	89.06
364.562	95.06
364.788	93.06
365.015	98.06
365.241	97.06
365.468	106.06
365.694	108.06
365.92	94.06
366.147	91.06
366.373	73.06
366.599	90.06
366.826	86.06
367.052	88.06
367.278	99.06
367.505	94.06
367.731	83.06
367.957	82.06
368.184	84.06
368.41	97.06
368.636	100.06
368.862	112.06
369.089	92.06
369.315	99.06
369.541	80.06
369.767	91.06
369.993	83.06
370.219	73.06
370.445	84.06
370.672	94.06
370.898	87.06
371.124	82.06
371.35	93.06
371.576	103.06
371.802	91.06
372.028	86.06
372.254	89.06
372.48	84.06
372.706	88.06
372.932	91.06
373.158	92.06
373.384	99.06
373.61	82.06
373.835	91.06
374.061	78.06
374.287	92.06
374.513	82.06
374.739	86.06
374.965	102.06
375.191	81.06
375.416	82.06
375.642	91.06
375.868	81.06
376.094	93.06
376.319	86.06
376.545	90.06
376.771	90.06
376.997	72.06
377.222	86.06
377.448	90.06
377.674	96.06
377.899	70.06
378.125	94.06
378.35	98.06
378.576	99.06
378.802	86.06
379.027	95.06
379.253	99.06
379.478	79.06
379.704	100.06
379.929	93.06
380.155	87.06
380.38	96.06
380.606	92.06
380.831	101.06
381.057	106.06
381.282	93.06
381.507	83.06
381.733	110.06
381.958	74.06
382.184	90.06
382.409	95.06
382.634	99.06
382.86	107.06
383.085	89.06
383.31	78.06
383.535	102.06
383.761	90.06
383.986	90.06
384.211	90.06
384.436	87.06
384.662	89.06
384.887	97.06
385.112	107.06
385.337	87.06
385.562	102.06
385.787	96.06
386.013	114.06
386.238	102.06
386.463	100.06
386.688	116.06
386.913	91.06
387.138	89.06
387.363	93.06
387.588	104.06
387.813	98.06
388.038	99.06
388.263	106.06
388.488	106.06
388.713	92.06
388.938	89.06
389.163	97.06
389.387	109.06
389.612	95.06
389.837	100.06
390.062	87.06
390.287	82.06
390.512	99.06
390.736	108.06
390.961	98.06
391.186	89.06
391.411	69.06
391.636	92.06
391.86	86.06
392.085	86.06
392.31	88.06
392.534	91.06
392.759	90.06
392.984	87.06
393.208	85.06
393.433	83.06
393.658	87.06
393.882	94.06
394.107	81.06
394.331	92.06
394.556	84.06
394.78	97.06
395.005	102.06
395.229	97.06
395.454	88.06
395.678	88.06
395.903	91.06
396.127	93.06
396.352	103.06
396.576	93.06
396.801	80.06
397.025	86.06
397.249	91.06
397.474	82.06
397.698	82.06
397.922	97.06
398.147	86.06
398.371	74.06
398.595	97.06
398.82	92.06
399.044	83.06
399.268	81.06
399.492	73.06
399.717	85.06
399.941	78.06
400.165	86.06
400.389	83.06
400.613	84.06
400.837	85.06
401.062	88.06
401.286	76.06
401.51	98.06
401.734	89.06
401.958	104.06
402.182	119.06
402.406	129.06
402.63	106.06
402.854	95.06
403.078	75.06
403.302	90.06
403.526	91.06
403.75	73.06
403.974	89.06
404.198	79.06
404.422	80.06
404.645	88.06
404.869	98.06
405.093	92.06
405.317	100.06
405.541	110.06
405.765	86.06
405.988	113.06
406.212	167.06
406.436	220.06
406.66	126.06
406.883	96.06
407.107	102.06
407.331	88.06
407.555	98.06
407.778	79.06
408.002	91.06
408.226	89.06
408.449	89.06
408.673	96.06
408.896	96.06
409.12	92.06
409.344	93.06
409.567	89.06
409.791	87.06
410.014	79.06
410.238	88.06
410.461	91.06
410.685	91.06
410.908	99.06
411.132	94.06
411.355	91.06
411.578	85.06
411.802	85.06
412.025	89.06
412.249	100.06
412.472	102.06
412.695	116.06
412.919	86.06
413.142	90.06
413.365	91.06
413.589	87.06
413.812	78.06
414.035	96.06
414.258	82.06
414.482	80.06
414.705	78.06
414.928	80.06
415.151	84.06
415.374	101.06
415.597	75.06
415.821	76.06
416.044	82.06
416.267	88.06
416.49	76.06
416.713	72.06
416.936	92.06
417.159	92.06
417.382	87.06
417.605	88.06
417.828	88.06
418.051	99.06
418.274	78.06
418.497	100.06
418.72	88.06
418.943	75.06
419.166	85.06
419.389	74.06
419.611	92.06
419.834	87.06
420.057	102.06
420.28	95.06
420.503	96.06
420.726	89.06
420.948	86.06
421.171	85.06
421.394	86.06
421.617	90.06
421.839	69.06
422.062	94.06
422.285	96.06
422.507	94.06
422.73	82.06
422.953	93.06
423.175	94.06
423.398	79.06
423.621	94.06
423.843	97.06
424.066	79.06
424.288	71.06
424.511	91.06
424.733	94.06
424.956	101.06
425.178	88.06
425.401	86.06
425.623	97.06
425.846	108.06
426.068	101.06
426.291	91.06
426.513	82.06
426.735	75.06
426.958	99.06
427.18	86.06
427.402	115.06
427.625	150.06
427.847	120.06
428.069	108.06
428.292	97.06
428.514	74.06
428.736	67.06
428.958	70.06
429.181	92.06
429.403	91.06
429.625	81.06
429.847	87.06
430.069	101.06
430.292	87.06
430.514	86.06
430.736	79.06
430.958	87.06
431.18	76.06
431.402	84.06
431.624	88.06
431.846	83.06
432.068	82.06
432.29	94.06
432.512	98.06
432.734	87.06
432.956	82.06
433.178	96.06
433.4	87.06
433.622	84.06
433.844	92.06
434.066	95.06
434.287	87.06
434.509	89.06
434.731	78.06
434.953	79.06
435.175	90.06
435.397	88.06
435.618	92.06
435.84	113.06
436.062	112.06
436.284	114.06
436.505	94.06
436.727	93.06
436.949	87.06
437.17	85.06
437.392	92.06
437.614	89.06
437.835	110.06
438.057	109.06
438.278	95.06
438.5	104.06
438.721	88.06
438.943	107.06
439.165	91.06
439.386	89.06
439.608	71.06
439.829	91.06
440.05	120.06
440.272	121.06
440.493	114.06
440.715	96.06
440.936	82.06
441.158	87.06
441.379	86.06
441.6	88.06
441.822	95.06
442.043	82.06
442.264	109.06
442.486	98.06
442.707	96.06
442.928	81.06
443.149	115.06
443.371	108.06
443.592	108.06
443.813	106.06
444.034	94.06
444.255	78.06
444.476	85.06
444.698	95.06
444.919	84.06
445.14	118.06
445.361	116.06
445.582	121.06
445.803	118.06
446.024	132.06
446.245	120.06
446.466	97.06
446.687	86.06
446.908	91.06
447.129	82.06
447.35	89.06
447.571	97.06
447.792	83.06
448.013	86.06
448.234	97.06
448.455	103.06
448.675	112.06
448.896	130.06
449.117	94.06
449.338	103.06
449.559	123.06
449.779	124.06
450	91.06
450.221	79.06
450.442	76.06
450.662	99.06
450.883	104.06
451.104	104.06
451.324	90.06
451.545	99.06
451.766	89.06
451.986	91.06
452.207	88.06
452.428	87.06
452.648	97.06
452.869	101.06
453.089	119.06
453.31	113.06
453.53	85.06
453.751	82.06
453.971	116.06
454.192	105.06
454.412	87.06
454.633	76.06
454.853	78.06
455.073	82.06
455.294	91.06
455.514	103.06
455.734	76.06
455.955	86.06
456.175	101.06
456.395	90.06
456.616	88.06
456.836	84.06
457.056	87.06
457.276	80.06
457.497	90.06
457.717	90.06
457.937	82.06
458.157	94.06
458.377	98.06
458.598	109.06
458.818	130.06
459.038	130.06
459.258	113.06
459.478	97.06
459.698	88.06
459.918	72.06
460.138	84.06
460.358	87.06
460.578	91.06
460.798	92.06
461.018	78.06
461.238	82.06
461.458	83.06
461.678	89.06
461.898	89.06
462.118	84.06
462.338	83.06
462.558	104.06
462.777	81.06
462.997	98.06
463.217	87.06
463.437	97.06
463.657	75.06
463.876	100.06
464.096	89.06
464.316	95.06
464.536	94.06
464.755	98.06
464.975	106.06
465.195	137.06
465.414	149.06
465.634	86.06
465.854	82.06
466.073	95.06
466.293	90.06
466.512	93.06
466.732	82.06
466.951	76.06
467.171	79.06
467.391	98.06
467.61	113.06
467.829	95.06
468.049	99.06
468.268	94.06
468.488	74.06
468.707	90.06
468.927	93.06
469.146	92.06
469.365	90.06
469.585	95.06
469.804	84.06
470.023	84.06
470.243	93.06
470.462	105.06
470.681	101.06
470.901	87.06
471.12	87.06
471.339	89.06
471.558	87.06
471.777	77.06
471.997	105.06
472.216	121.06
472.435	173.06
472.654	105.06
472.873	89.06
473.092	103.06
473.311	83.06
473.53	96.06
473.749	89.06
473.968	102.06
474.187	101.06
474.406	82.06
474.625	82.06
474.844	73.06
475.063	80.06
475.282	82.06
475.501	89.06
475.72	87.06
475.939	98.06
476.158	88.06
476.377	88.06
476.596	90.06
476.814	90.06
477.033	87.06
477.252	85.06
477.471	83.06
477.69	100.06
477.908	85.06
478.127	70.06
478.346	85.06
478.564	91.06
478.783	91.06
479.002	73.06
479.22	88.06
479.439	89.06
479.658	98.06
479.876	89.06
480.095	74.06
480.313	102.06
480.532	102.06
480.751	105.06
480.969	122.06
481.188	271.06
481.406	187.06
481.624	103.06
481.843	82.06
482.061	80.06
482.28	99.06
482.498	80.06
482.717	88.06
482.935	78.06
483.153	92.06
483.372	94.06
483.59	75.06
483.808	94.06
484.027	97.06
484.245	111.06
484.463	92.06
484.681	94.06
484.9	95.06
485.118	85.06
485.336	105.06
485.554	87.06
485.772	99.06
485.99	92.06
486.209	101.06
486.427	99.06
486.645	102.06
486.863	97.06
487.081	100.06
487.299	85.06
487.517	83.06
487.735	81.06
487.953	94.06
488.171	83.06
488.389	97.06
488.607	94.06
488.825	92.06
489.043	86.06
489.261	103.06
489.479	76.06
489.696	83.06
489.914	90.06
490.132	91.06
490.35	83.06
490.568	82.06
490.786	86.06
491.003	90.06
491.221	83.06
491.439	82.06
491.657	95.06
491.874	84.06
492.092	82.06
492.31	84.06
492.527	83.06
492.745	82.06
492.963	82.06
493.18	94.06
493.398	91.06
493.615	97.06
493.833	94.06
494.05	105.06
494.268	81.06
494.485	106.06
494.703	92.06
494.92	86.06
495.138	95.06
495.355	80.06
495.573	87.06
495.79	89.06
496.008	87.06
496.225	89.06
496.442	103.06
496.66	86.06
496.877	86.06
497.094	85.06
497.312	96.06
497.529	82.06
497.746	95.06
497.963	95.06
498.181	101.06
498.398	103.06
498.615	114.06
498.832	108.06
499.049	83.06
499.267	96.06
499.484	87.06
499.701	85.06
499.918	81.06
500.135	81.06
500.352	92.06
500.569	86.06
500.786	77.06
501.003	97.06
501.22	94.06
501.437	84.06
501.654	88.06
501.871	101.06
502.088	90.06
502.305	99.06
502.522	87.06
502.739	91.06
502.956	95.06
503.172	94.06
503.389	99.06
503.606	104.06
503.823	102.06
504.04	95.06
504.256	85.06
504.473	92.06
504.69	87.06
504.907	88.06
505.123	95.06
505.34	99.06
505.557	98.06
505.773	100.06
505.99	96.06
506.207	97.06
506.423	89.06
506.64	86.06
506.856	86.06
507.073	92.06
507.289	94.06
507.506	88.06
507.722	106.06
507.939	108.06
508.155	96.06
508.372	86.06
508.588	81.06
508.805	89.06
509.021	90.06
509.238	84.06
509.454	102.06
509.67	99.06
509.887	121.06
510.103	129.06
510.319	208.06
510.536	713.06
510.752	2325.06
510.968	623.06
511.184	154.06
511.401	93.06
511.617	100.06
511.833	97.06
512.049	99.06
512.265	92.06
512.481	70.06
512.698	101.06
512.914	82.06
513.13	98.06
513.346	96.06
513.562	88.06
513.778	89.06
513.994	100.06
514.21	103.06
514.426	112.06
514.642	123.06
514.858	120.06
515.074	168.06
515.29	450.06
515.506	1410.06
515.721	518.06
515.937	159.06
516.153	107.06
516.369	93.06
