Data from Uncirc_1983_H10_HRD10591_00004.txt Node
Date: Wed Jan 03 12:25:32 EST 2024
User: Yrep
Spectrometer: HR+D1059
Trigger mode: 1
Integration Time (sec): 1.000000E-1
Scans to average: 1
Electric dark correction enabled: true
Nonlinearity correction enabled: false
Boxcar width: 0
XAxis mode: Wavelengths
Number of Pixels in Spectrum: 2048
>>>>>Begin Spectral Data<<<<<
223.165	-5.81
223.4	-5.81
223.635	-5.81
223.869	-16.81
224.104	-11.81
224.338	-8.81
224.573	-11.81
224.808	-14.81
225.042	-9.81
225.277	-8.81
225.511	0.19
225.746	0.19
225.98	5.19
226.215	5.19
226.449	2.19
226.683	23.19
226.918	11.19
227.152	41.19
227.387	29.19
227.621	33.19
227.856	55.19
228.09	35.19
228.324	52.19
228.559	51.19
228.793	61.19
229.027	71.19
229.262	67.19
229.496	72.19
229.73	89.19
229.964	84.19
230.199	71.19
230.433	76.19
230.667	83.19
230.901	76.19
231.136	69.19
231.37	75.19
231.604	72.19
231.838	64.19
232.072	83.19
232.306	84.19
232.541	80.19
232.775	82.19
233.009	85.19
233.243	85.19
233.477	85.19
233.711	88.19
233.945	84.19
234.179	96.19
234.413	79.19
234.647	71.19
234.881	75.19
235.115	96.19
235.349	89.19
235.583	84.19
235.817	83.19
236.051	76.19
236.285	73.19
236.519	72.19
236.753	84.19
236.987	59.19
237.221	85.19
237.455	82.19
237.689	68.19
237.922	72.19
238.156	87.19
238.39	73.19
238.624	73.19
238.858	74.19
239.091	85.19
239.325	70.19
239.559	67.19
239.793	81.19
240.027	89.19
240.26	81.19
240.494	71.19
240.728	69.19
240.961	82.19
241.195	82.19
241.429	68.19
241.662	74.19
241.896	85.19
242.13	87.19
242.363	81.19
242.597	73.19
242.83	76.19
243.064	83.19
243.298	60.19
243.531	76.19
243.765	56.19
243.998	75.19
244.232	81.19
244.465	81.19
244.699	78.19
244.932	85.19
245.166	81.19
245.399	75.19
245.633	83.19
245.866	70.19
246.099	76.19
246.333	71.19
246.566	73.19
246.8	81.19
247.033	84.19
247.266	64.19
247.5	67.19
247.733	72.19
247.966	75.19
248.2	73.19
248.433	67.19
248.666	87.19
248.899	88.19
249.133	92.19
249.366	104.19
249.599	99.19
249.832	71.19
250.066	83.19
250.299	64.19
250.532	76.19
250.765	76.19
250.998	80.19
251.231	98.19
251.465	74.19
251.698	59.19
251.931	74.19
252.164	74.19
252.397	101.19
252.63	82.19
252.863	89.19
253.096	63.19
253.329	82.19
253.562	71.19
253.795	70.19
254.028	84.19
254.261	81.19
254.494	84.19
254.727	83.19
254.96	86.19
255.193	73.19
255.426	88.19
255.659	71.19
255.892	90.19
256.124	75.19
256.357	75.19
256.59	89.19
256.823	75.19
257.056	90.19
257.289	90.19
257.521	73.19
257.754	85.19
257.987	85.19
258.22	96.19
258.452	84.19
258.685	73.19
258.918	84.19
259.151	85.19
259.383	77.19
259.616	81.19
259.849	80.19
260.081	92.19
260.314	88.19
260.547	74.19
260.779	73.19
261.012	90.19
261.244	83.19
261.477	84.19
261.71	89.19
261.942	101.19
262.175	99.19
262.407	95.19
262.64	87.19
262.872	86.19
263.105	91.19
263.337	100.19
263.57	79.19
263.802	89.19
264.035	93.19
264.267	88.19
264.499	92.19
264.732	87.19
264.964	86.19
265.197	63.19
265.429	83.19
265.661	87.19
265.894	84.19
266.126	90.19
266.358	83.19
266.591	72.19
266.823	91.19
267.055	85.19
267.287	87.19
267.52	92.19
267.752	81.19
267.984	88.19
268.216	88.19
268.448	87.19
268.681	74.19
268.913	72.19
269.145	87.19
269.377	99.19
269.609	81.19
269.841	83.19
270.073	81.19
270.306	99.19
270.538	77.19
270.77	89.19
271.002	83.19
271.234	92.19
271.466	95.19
271.698	94.19
271.93	87.19
272.162	100.19
272.394	99.19
272.626	87.19
272.858	98.19
273.09	91.19
273.322	90.19
273.553	84.19
273.785	80.19
274.017	91.19
274.249	83.19
274.481	92.19
274.713	88.19
274.945	100.19
275.176	97.19
275.408	93.19
275.64	87.19
275.872	83.19
276.104	95.19
276.335	94.19
276.567	97.19
276.799	118.19
277.031	99.19
277.262	79.19
277.494	98.19
277.726	86.19
277.957	86.19
278.189	97.19
278.421	83.19
278.652	87.19
278.884	80.19
279.115	83.19
279.347	80.19
279.579	86.19
279.81	83.19
280.042	98.19
280.273	91.19
280.505	69.19
280.736	91.19
280.968	93.19
281.199	97.19
281.431	89.19
281.662	89.19
281.894	79.19
282.125	94.19
282.356	101.19
282.588	123.19
282.819	109.19
283.051	101.19
283.282	79.19
283.513	91.19
283.745	73.19
283.976	82.19
284.207	72.19
284.439	98.19
284.67	85.19
284.901	67.19
285.132	87.19
285.364	84.19
285.595	84.19
285.826	100.19
286.057	91.19
286.288	88.19
286.52	87.19
286.751	71.19
286.982	90.19
287.213	91.19
287.444	85.19
287.675	84.19
287.906	93.19
288.138	78.19
288.369	97.19
288.6	89.19
288.831	87.19
289.062	66.19
289.293	89.19
289.524	83.19
289.755	76.19
289.986	93.19
290.217	100.19
290.448	75.19
290.679	75.19
290.91	93.19
291.141	85.19
291.371	91.19
291.602	76.19
291.833	85.19
292.064	97.19
292.295	100.19
292.526	79.19
292.757	87.19
292.987	77.19
293.218	90.19
293.449	91.19
293.68	93.19
293.91	93.19
294.141	95.19
294.372	80.19
294.603	77.19
294.833	90.19
295.064	83.19
295.295	90.19
295.525	88.19
295.756	99.19
295.987	99.19
296.217	124.19
296.448	108.19
296.679	69.19
296.909	86.19
297.14	86.19
297.37	98.19
297.601	91.19
297.831	88.19
298.062	95.19
298.292	87.19
298.523	94.19
298.753	82.19
298.984	83.19
299.214	88.19
299.445	91.19
299.675	86.19
299.905	95.19
300.136	93.19
300.366	96.19
300.597	85.19
300.827	95.19
301.057	93.19
301.288	104.19
301.518	95.19
301.748	85.19
301.979	103.19
302.209	96.19
302.439	87.19
302.669	80.19
302.9	81.19
303.13	90.19
303.36	100.19
303.59	88.19
303.82	114.19
304.051	87.19
304.281	81.19
304.511	81.19
304.741	93.19
304.971	88.19
305.201	105.19
305.431	72.19
305.661	79.19
305.891	83.19
306.121	97.19
306.352	107.19
306.582	100.19
306.812	91.19
307.042	84.19
307.272	79.19
307.502	93.19
307.731	97.19
307.961	93.19
308.191	87.19
308.421	95.19
308.651	85.19
308.881	91.19
309.111	88.19
309.341	85.19
309.571	95.19
309.8	98.19
310.03	108.19
310.26	91.19
310.49	92.19
310.72	89.19
310.949	102.19
311.179	107.19
311.409	97.19
311.639	84.19
311.868	99.19
312.098	90.19
312.328	92.19
312.557	91.19
312.787	95.19
313.017	92.19
313.246	95.19
313.476	81.19
313.706	103.19
313.935	96.19
314.165	98.19
314.394	85.19
314.624	92.19
314.853	108.19
315.083	88.19
315.312	96.19
315.542	89.19
315.771	88.19
316.001	97.19
316.23	101.19
316.46	86.19
316.689	94.19
316.919	81.19
317.148	109.19
317.377	100.19
317.607	81.19
317.836	93.19
318.065	79.19
318.295	95.19
318.524	91.19
318.753	80.19
318.983	90.19
319.212	100.19
319.441	105.19
319.67	109.19
319.9	104.19
320.129	101.19
320.358	81.19
320.587	100.19
320.816	84.19
321.046	86.19
321.275	85.19
321.504	89.19
321.733	100.19
321.962	87.19
322.191	87.19
322.42	104.19
322.649	104.19
322.878	106.19
323.108	102.19
323.337	115.19
323.566	119.19
323.795	133.19
324.024	175.19
324.253	321.19
324.482	696.19
324.71	1355.19
324.939	1849.19
325.168	680.19
325.397	218.19
325.626	131.19
325.855	116.19
326.084	111.19
326.313	133.19
326.542	139.19
326.77	195.19
326.999	383.19
327.228	821.19
327.457	1442.19
327.686	1146.19
327.914	307.19
328.143	177.19
328.372	149.19
328.6	116.19
328.829	111.19
329.058	98.19
329.287	122.19
329.515	94.19
329.744	97.19
329.972	98.19
330.201	93.19
330.43	106.19
330.658	97.19
330.887	116.19
331.115	105.19
331.344	112.19
331.572	92.19
331.801	112.19
332.03	92.19
332.258	89.19
332.486	97.19
332.715	92.19
332.943	86.19
333.172	101.19
333.4	92.19
333.629	104.19
333.857	105.19
334.085	108.19
334.314	102.19
334.542	105.19
334.771	94.19
334.999	95.19
335.227	86.19
335.455	93.19
335.684	93.19
335.912	90.19
336.14	104.19
336.369	91.19
336.597	85.19
336.825	88.19
337.053	91.19
337.281	98.19
337.51	101.19
337.738	106.19
337.966	93.19
338.194	90.19
338.422	93.19
338.65	94.19
338.878	79.19
339.106	68.19
339.334	87.19
339.562	89.19
339.79	99.19
340.018	96.19
340.246	80.19
340.474	94.19
340.702	87.19
340.93	85.19
341.158	101.19
341.386	93.19
341.614	91.19
341.842	83.19
342.07	84.19
342.298	100.19
342.526	92.19
342.754	89.19
342.981	101.19
343.209	104.19
343.437	97.19
343.665	88.19
343.893	81.19
344.12	96.19
344.348	87.19
344.576	92.19
344.804	95.19
345.031	96.19
345.259	83.19
345.487	88.19
345.714	95.19
345.942	104.19
346.17	88.19
346.397	108.19
346.625	84.19
346.853	88.19
347.08	97.19
347.308	74.19
347.535	85.19
347.763	99.19
347.99	92.19
348.218	114.19
348.445	115.19
348.673	106.19
348.9	88.19
349.128	89.19
349.355	98.19
349.583	95.19
349.81	104.19
350.037	91.19
350.265	95.19
350.492	90.19
350.72	99.19
350.947	115.19
351.174	107.19
351.402	109.19
351.629	98.19
351.856	103.19
352.083	93.19
352.311	102.19
352.538	101.19
352.765	112.19
352.992	106.19
353.22	102.19
353.447	100.19
353.674	97.19
353.901	108.19
354.128	107.19
354.355	98.19
354.583	102.19
354.81	96.19
355.037	87.19
355.264	95.19
355.491	82.19
355.718	88.19
355.945	95.19
356.172	91.19
356.399	102.19
356.626	105.19
356.853	101.19
357.08	97.19
357.307	109.19
357.534	83.19
357.761	91.19
357.988	91.19
358.215	108.19
358.441	108.19
358.668	91.19
358.895	93.19
359.122	87.19
359.349	84.19
359.576	92.19
359.802	95.19
360.029	99.19
360.256	108.19
360.483	88.19
360.709	85.19
360.936	98.19
361.163	95.19
361.39	108.19
361.616	92.19
361.843	102.19
362.07	80.19
362.296	82.19
362.523	102.19
362.749	90.19
362.976	93.19
363.203	92.19
363.429	96.19
363.656	92.19
363.882	91.19
364.109	99.19
364.335	87.19
364.562	87.19
364.788	90.19
365.015	99.19
365.241	97.19
365.468	97.19
365.694	85.19
365.92	91.19
366.147	84.19
366.373	87.19
366.599	98.19
366.826	101.19
367.052	84.19
367.278	89.19
367.505	81.19
367.731	93.19
367.957	79.19
368.184	98.19
368.41	95.19
368.636	105.19
368.862	112.19
369.089	99.19
369.315	96.19
369.541	93.19
369.767	92.19
369.993	88.19
370.219	82.19
370.445	104.19
370.672	95.19
370.898	93.19
371.124	93.19
371.35	87.19
371.576	86.19
371.802	98.19
372.028	91.19
372.254	99.19
372.48	81.19
372.706	93.19
372.932	88.19
373.158	80.19
373.384	83.19
373.61	85.19
373.835	94.19
374.061	93.19
374.287	92.19
374.513	83.19
374.739	91.19
374.965	81.19
375.191	80.19
375.416	93.19
375.642	88.19
375.868	98.19
376.094	91.19
376.319	91.19
376.545	88.19
376.771	105.19
376.997	88.19
377.222	82.19
377.448	91.19
377.674	89.19
377.899	108.19
378.125	101.19
378.35	100.19
378.576	88.19
378.802	104.19
379.027	93.19
379.253	94.19
379.478	91.19
379.704	102.19
379.929	106.19
380.155	98.19
380.38	97.19
380.606	113.19
380.831	98.19
381.057	104.19
381.282	109.19
381.507	103.19
381.733	116.19
381.958	103.19
382.184	97.19
382.409	107.19
382.634	112.19
382.86	112.19
383.085	114.19
383.31	108.19
383.535	120.19
383.761	100.19
383.986	106.19
384.211	108.19
384.436	102.19
384.662	112.19
384.887	125.19
385.112	124.19
385.337	105.19
385.562	122.19
385.787	103.19
386.013	118.19
386.238	135.19
386.463	110.19
386.688	119.19
386.913	117.19
387.138	120.19
387.363	110.19
387.588	114.19
387.813	109.19
388.038	111.19
388.263	115.19
388.488	112.19
388.713	95.19
388.938	107.19
389.163	101.19
389.387	98.19
389.612	95.19
389.837	85.19
390.062	82.19
390.287	83.19
390.512	91.19
390.736	86.19
390.961	95.19
391.186	96.19
391.411	108.19
391.636	88.19
391.86	83.19
392.085	68.19
392.31	79.19
392.534	90.19
392.759	75.19
392.984	101.19
393.208	106.19
393.433	114.19
393.658	89.19
393.882	91.19
394.107	87.19
394.331	94.19
394.556	76.19
394.78	93.19
395.005	88.19
395.229	87.19
395.454	89.19
395.678	85.19
395.903	89.19
396.127	95.19
396.352	102.19
396.576	95.19
396.801	92.19
397.025	120.19
397.249	103.19
397.474	86.19
397.698	98.19
397.922	89.19
398.147	87.19
398.371	83.19
398.595	98.19
398.82	97.19
399.044	91.19
399.268	90.19
399.492	81.19
399.717	92.19
399.941	94.19
400.165	77.19
400.389	94.19
400.613	83.19
400.837	90.19
401.062	102.19
401.286	85.19
401.51	79.19
401.734	93.19
401.958	94.19
402.182	106.19
402.406	129.19
402.63	111.19
402.854	74.19
403.078	80.19
403.302	76.19
403.526	96.19
403.75	81.19
403.974	99.19
404.198	87.19
404.422	83.19
404.645	74.19
404.869	96.19
405.093	74.19
405.317	87.19
405.541	97.19
405.765	104.19
405.988	99.19
406.212	133.19
406.436	165.19
406.66	125.19
406.883	86.19
407.107	79.19
407.331	102.19
407.555	96.19
407.778	87.19
408.002	91.19
408.226	92.19
408.449	90.19
408.673	99.19
408.896	95.19
409.12	98.19
409.344	89.19
409.567	84.19
409.791	97.19
410.014	88.19
410.238	100.19
410.461	99.19
410.685	99.19
410.908	100.19
411.132	88.19
411.355	103.19
411.578	98.19
411.802	94.19
412.025	99.19
412.249	99.19
412.472	81.19
412.695	91.19
412.919	73.19
413.142	97.19
413.365	92.19
413.589	109.19
413.812	84.19
414.035	99.19
414.258	86.19
414.482	84.19
414.705	94.19
414.928	87.19
415.151	85.19
415.374	97.19
415.597	98.19
415.821	83.19
416.044	85.19
416.267	97.19
416.49	86.19
416.713	83.19
416.936	87.19
417.159	92.19
417.382	95.19
417.605	95.19
417.828	101.19
418.051	85.19
418.274	106.19
418.497	89.19
418.72	89.19
418.943	91.19
419.166	83.19
419.389	90.19
419.611	89.19
419.834	82.19
420.057	101.19
420.28	85.19
420.503	89.19
420.726	88.19
420.948	81.19
421.171	97.19
421.394	84.19
421.617	92.19
421.839	96.19
422.062	84.19
422.285	84.19
422.507	96.19
422.73	96.19
422.953	107.19
423.175	102.19
423.398	102.19
423.621	92.19
423.843	82.19
424.066	85.19
424.288	89.19
424.511	87.19
424.733	93.19
424.956	92.19
425.178	95.19
425.401	90.19
425.623	107.19
425.846	92.19
426.068	85.19
426.291	99.19
426.513	92.19
426.735	79.19
426.958	95.19
427.18	93.19
427.402	131.19
427.625	138.19
427.847	119.19
428.069	104.19
428.292	91.19
428.514	79.19
428.736	85.19
428.958	85.19
429.181	88.19
429.403	81.19
429.625	84.19
429.847	80.19
430.069	95.19
430.292	91.19
430.514	67.19
430.736	90.19
430.958	79.19
431.18	85.19
431.402	79.19
431.624	91.19
431.846	91.19
432.068	89.19
432.29	89.19
432.512	87.19
432.734	86.19
432.956	99.19
433.178	112.19
433.4	87.19
433.622	87.19
433.844	88.19
434.066	84.19
434.287	83.19
434.509	89.19
434.731	87.19
434.953	90.19
435.175	81.19
435.397	100.19
435.618	93.19
435.84	102.19
436.062	105.19
436.284	112.19
436.505	89.19
436.727	95.19
436.949	93.19
437.17	84.19
437.392	93.19
437.614	89.19
437.835	104.19
438.057	96.19
438.278	104.19
438.5	88.19
438.721	117.19
438.943	89.19
439.165	87.19
439.386	81.19
439.608	100.19
439.829	91.19
440.05	109.19
440.272	128.19
440.493	101.19
440.715	94.19
440.936	91.19
441.158	92.19
441.379	92.19
441.6	92.19
441.822	87.19
442.043	92.19
442.264	112.19
442.486	92.19
442.707	109.19
442.928	111.19
443.149	117.19
443.371	123.19
443.592	105.19
443.813	99.19
444.034	87.19
444.255	85.19
444.476	96.19
444.698	94.19
444.919	79.19
445.14	127.19
445.361	124.19
445.582	120.19
445.803	120.19
446.024	117.19
446.245	122.19
446.466	106.19
446.687	104.19
446.908	83.19
447.129	100.19
447.35	89.19
447.571	91.19
447.792	81.19
448.013	99.19
448.234	98.19
448.455	105.19
448.675	99.19
448.896	114.19
449.117	93.19
449.338	89.19
449.559	122.19
449.779	117.19
450	83.19
450.221	95.19
450.442	83.19
450.662	92.19
450.883	97.19
451.104	95.19
451.324	80.19
451.545	90.19
451.766	88.19
451.986	84.19
452.207	101.19
452.428	82.19
452.648	101.19
452.869	103.19
453.089	111.19
453.31	107.19
453.53	99.19
453.751	88.19
453.971	92.19
454.192	87.19
454.412	91.19
454.633	93.19
454.853	73.19
455.073	91.19
455.294	91.19
455.514	90.19
455.734	76.19
455.955	81.19
456.175	103.19
456.395	89.19
456.616	71.19
456.836	81.19
457.056	91.19
457.276	88.19
457.497	102.19
457.717	91.19
457.937	90.19
458.157	89.19
458.377	99.19
458.598	96.19
458.818	124.19
459.038	139.19
459.258	103.19
459.478	88.19
459.698	89.19
459.918	86.19
460.138	83.19
460.358	85.19
460.578	81.19
460.798	81.19
461.018	91.19
461.238	94.19
461.458	88.19
461.678	84.19
461.898	73.19
462.118	81.19
462.338	96.19
462.558	91.19
462.777	75.19
462.997	101.19
463.217	79.19
463.437	83.19
463.657	86.19
463.876	90.19
464.096	87.19
464.316	89.19
464.536	92.19
464.755	81.19
464.975	110.19
465.195	127.19
465.414	97.19
465.634	83.19
465.854	91.19
466.073	72.19
466.293	93.19
466.512	89.19
466.732	79.19
466.951	103.19
467.171	87.19
467.391	93.19
467.61	96.19
467.829	68.19
468.049	93.19
468.268	79.19
468.488	73.19
468.707	79.19
468.927	90.19
469.146	87.19
469.365	97.19
469.585	89.19
469.804	96.19
470.023	83.19
470.243	82.19
470.462	96.19
470.681	98.19
470.901	96.19
471.12	89.19
471.339	81.19
471.558	93.19
471.777	98.19
471.997	83.19
472.216	92.19
472.435	103.19
472.654	84.19
472.873	95.19
473.092	81.19
473.311	90.19
473.53	99.19
473.749	82.19
473.968	95.19
474.187	99.19
474.406	87.19
474.625	97.19
474.844	80.19
475.063	94.19
475.282	97.19
475.501	76.19
475.72	95.19
475.939	97.19
476.158	93.19
476.377	91.19
476.596	88.19
476.814	96.19
477.033	89.19
477.252	104.19
477.471	98.19
477.69	99.19
477.908	72.19
478.127	82.19
478.346	96.19
478.564	83.19
478.783	89.19
479.002	95.19
479.22	90.19
479.439	87.19
479.658	80.19
479.876	93.19
480.095	87.19
480.313	92.19
480.532	98.19
480.751	83.19
480.969	98.19
481.188	83.19
481.406	88.19
481.624	93.19
481.843	92.19
482.061	83.19
482.28	91.19
482.498	92.19
482.717	81.19
482.935	87.19
483.153	92.19
483.372	70.19
483.59	87.19
483.808	76.19
484.027	91.19
484.245	92.19
484.463	87.19
484.681	109.19
484.9	103.19
485.118	105.19
485.336	107.19
485.554	98.19
485.772	97.19
485.99	94.19
486.209	117.19
486.427	118.19
486.645	121.19
486.863	105.19
487.081	85.19
487.299	104.19
487.517	97.19
487.735	91.19
487.953	96.19
488.171	91.19
488.389	89.19
488.607	100.19
488.825	95.19
489.043	87.19
489.261	90.19
489.479	91.19
489.696	94.19
489.914	84.19
490.132	101.19
490.35	95.19
490.568	94.19
490.786	103.19
491.003	104.19
491.221	88.19
491.439	86.19
491.657	77.19
491.874	101.19
492.092	99.19
492.31	89.19
492.527	80.19
492.745	87.19
492.963	88.19
493.18	84.19
493.398	80.19
493.615	89.19
493.833	93.19
494.05	87.19
494.268	109.19
494.485	95.19
494.703	81.19
494.92	99.19
495.138	88.19
495.355	80.19
495.573	90.19
495.79	80.19
496.008	104.19
496.225	96.19
496.442	83.19
496.66	95.19
496.877	93.19
497.094	96.19
497.312	90.19
497.529	95.19
497.746	96.19
497.963	91.19
498.181	76.19
498.398	97.19
498.615	122.19
498.832	100.19
499.049	98.19
499.267	100.19
499.484	84.19
499.701	86.19
499.918	99.19
500.135	89.19
500.352	92.19
500.569	98.19
500.786	73.19
501.003	84.19
501.22	94.19
501.437	97.19
501.654	72.19
501.871	91.19
502.088	90.19
502.305	87.19
502.522	81.19
502.739	96.19
502.956	94.19
503.172	98.19
503.389	95.19
503.606	104.19
503.823	95.19
504.04	85.19
504.256	102.19
504.473	87.19
504.69	94.19
504.907	105.19
505.123	64.19
505.34	99.19
505.557	97.19
505.773	89.19
505.99	89.19
506.207	97.19
506.423	81.19
506.64	102.19
506.856	96.19
507.073	91.19
507.289	111.19
507.506	101.19
507.722	88.19
507.939	113.19
508.155	90.19
508.372	92.19
508.588	107.19
508.805	91.19
509.021	97.19
509.238	98.19
509.454	94.19
509.67	100.19
509.887	97.19
510.103	121.19
510.319	181.19
510.536	576.19
510.752	1664.19
510.968	474.19
511.184	134.19
511.401	93.19
511.617	92.19
511.833	86.19
512.049	87.19
512.265	98.19
512.481	97.19
512.698	90.19
512.914	104.19
513.13	88.19
513.346	103.19
513.562	73.19
513.778	90.19
513.994	89.19
514.21	103.19
514.426	106.19
514.642	118.19
514.858	105.19
515.074	127.19
515.29	320.19
515.506	975.19
515.721	360.19
515.937	113.19
516.153	98.19
