Data from Uncirc_1983_H10_HRD10591_00065.txt Node
Date: Wed Jan 03 12:25:45 EST 2024
User: Yrep
Spectrometer: HR+D1059
Trigger mode: 1
Integration Time (sec): 1.000000E-1
Scans to average: 1
Electric dark correction enabled: true
Nonlinearity correction enabled: false
Boxcar width: 0
XAxis mode: Wavelengths
Number of Pixels in Spectrum: 2048
>>>>>Begin Spectral Data<<<<<
223.165	-19.44
223.4	-19.44
223.635	-19.44
223.869	-21.44
224.104	-27.44
224.338	-22.44
224.573	-17.44
224.808	-10.44
225.042	-4.44
225.277	11.56
225.511	-4.44
225.746	5.56
225.98	6.56
226.215	16.56
226.449	14.56
226.683	23.56
226.918	16.56
227.152	32.56
227.387	29.56
227.621	32.56
227.856	49.56
228.09	54.56
228.324	64.56
228.559	49.56
228.793	63.56
229.027	71.56
229.262	76.56
229.496	84.56
229.73	78.56
229.964	85.56
230.199	77.56
230.433	91.56
230.667	78.56
230.901	69.56
231.136	87.56
231.37	77.56
231.604	71.56
231.838	89.56
232.072	81.56
232.306	75.56
232.541	88.56
232.775	88.56
233.009	81.56
233.243	77.56
233.477	97.56
233.711	94.56
233.945	92.56
234.179	82.56
234.413	84.56
234.647	85.56
234.881	73.56
235.115	80.56
235.349	61.56
235.583	78.56
235.817	84.56
236.051	72.56
236.285	68.56
236.519	68.56
236.753	90.56
236.987	88.56
237.221	64.56
237.455	68.56
237.689	71.56
237.922	89.56
238.156	79.56
238.39	74.56
238.624	90.56
238.858	76.56
239.091	85.56
239.325	68.56
239.559	68.56
239.793	67.56
240.027	92.56
240.26	77.56
240.494	78.56
240.728	72.56
240.961	101.56
241.195	86.56
241.429	80.56
241.662	60.56
241.896	86.56
242.13	75.56
242.363	80.56
242.597	73.56
242.83	75.56
243.064	82.56
243.298	87.56
243.531	81.56
243.765	73.56
243.998	76.56
244.232	76.56
244.465	77.56
244.699	72.56
244.932	69.56
245.166	68.56
245.399	69.56
245.633	90.56
245.866	85.56
246.099	85.56
246.333	71.56
246.566	86.56
246.8	64.56
247.033	84.56
247.266	82.56
247.5	88.56
247.733	65.56
247.966	92.56
248.2	80.56
248.433	80.56
248.666	81.56
248.899	80.56
249.133	89.56
249.366	97.56
249.599	82.56
249.832	81.56
250.066	77.56
250.299	84.56
250.532	76.56
250.765	69.56
250.998	73.56
251.231	80.56
251.465	89.56
251.698	80.56
251.931	78.56
252.164	82.56
252.397	94.56
252.63	85.56
252.863	81.56
253.096	82.56
253.329	73.56
253.562	93.56
253.795	84.56
254.028	79.56
254.261	75.56
254.494	76.56
254.727	88.56
254.96	88.56
255.193	92.56
255.426	81.56
255.659	84.56
255.892	86.56
256.124	80.56
256.357	68.56
256.59	85.56
256.823	86.56
257.056	88.56
257.289	73.56
257.521	78.56
257.754	73.56
257.987	85.56
258.22	75.56
258.452	84.56
258.685	90.56
258.918	90.56
259.151	74.56
259.383	70.56
259.616	85.56
259.849	81.56
260.081	73.56
260.314	80.56
260.547	72.56
260.779	86.56
261.012	88.56
261.244	89.56
261.477	80.56
261.71	83.56
261.942	102.56
262.175	102.56
262.407	85.56
262.64	93.56
262.872	94.56
263.105	96.56
263.337	95.56
263.57	95.56
263.802	92.56
264.035	73.56
264.267	88.56
264.499	89.56
264.732	89.56
264.964	88.56
265.197	85.56
265.429	85.56
265.661	83.56
265.894	91.56
266.126	86.56
266.358	72.56
266.591	72.56
266.823	83.56
267.055	78.56
267.287	90.56
267.52	92.56
267.752	76.56
267.984	92.56
268.216	83.56
268.448	81.56
268.681	83.56
268.913	76.56
269.145	88.56
269.377	80.56
269.609	89.56
269.841	99.56
270.073	79.56
270.306	85.56
270.538	84.56
270.77	84.56
271.002	85.56
271.234	83.56
271.466	83.56
271.698	77.56
271.93	101.56
272.162	92.56
272.394	93.56
272.626	86.56
272.858	82.56
273.09	87.56
273.322	85.56
273.553	86.56
273.785	85.56
274.017	86.56
274.249	83.56
274.481	68.56
274.713	96.56
274.945	86.56
275.176	80.56
275.408	101.56
275.64	92.56
275.872	92.56
276.104	88.56
276.335	84.56
276.567	93.56
276.799	98.56
277.031	101.56
277.262	85.56
277.494	98.56
277.726	72.56
277.957	74.56
278.189	83.56
278.421	85.56
278.652	85.56
278.884	86.56
279.115	100.56
279.347	96.56
279.579	89.56
279.81	85.56
280.042	90.56
280.273	83.56
280.505	86.56
280.736	79.56
280.968	81.56
281.199	100.56
281.431	86.56
281.662	85.56
281.894	83.56
282.125	97.56
282.356	110.56
282.588	129.56
282.819	103.56
283.051	82.56
283.282	100.56
283.513	97.56
283.745	83.56
283.976	98.56
284.207	83.56
284.439	70.56
284.67	90.56
284.901	86.56
285.132	88.56
285.364	82.56
285.595	94.56
285.826	87.56
286.057	96.56
286.288	87.56
286.52	81.56
286.751	77.56
286.982	93.56
287.213	76.56
287.444	90.56
287.675	94.56
287.906	76.56
288.138	87.56
288.369	102.56
288.6	105.56
288.831	78.56
289.062	89.56
289.293	88.56
289.524	94.56
289.755	95.56
289.986	88.56
290.217	83.56
290.448	75.56
290.679	87.56
290.91	79.56
291.141	73.56
291.371	80.56
291.602	93.56
291.833	87.56
292.064	75.56
292.295	85.56
292.526	88.56
292.757	91.56
292.987	87.56
293.218	91.56
293.449	74.56
293.68	105.56
293.91	89.56
294.141	83.56
294.372	75.56
294.603	93.56
294.833	78.56
295.064	72.56
295.295	85.56
295.525	86.56
295.756	101.56
295.987	111.56
296.217	124.56
296.448	111.56
296.679	105.56
296.909	91.56
297.14	84.56
297.37	86.56
297.601	96.56
297.831	85.56
298.062	87.56
298.292	84.56
298.523	92.56
298.753	103.56
298.984	88.56
299.214	92.56
299.445	85.56
299.675	99.56
299.905	92.56
300.136	89.56
300.366	85.56
300.597	90.56
300.827	96.56
301.057	100.56
301.288	104.56
301.518	102.56
301.748	99.56
301.979	100.56
302.209	96.56
302.439	94.56
302.669	96.56
302.9	99.56
303.13	96.56
303.36	92.56
303.59	101.56
303.82	98.56
304.051	97.56
304.281	88.56
304.511	102.56
304.741	89.56
304.971	82.56
305.201	92.56
305.431	94.56
305.661	80.56
305.891	92.56
306.121	104.56
306.352	109.56
306.582	110.56
306.812	78.56
307.042	95.56
307.272	92.56
307.502	99.56
307.731	96.56
307.961	87.56
308.191	88.56
308.421	94.56
308.651	87.56
308.881	96.56
309.111	103.56
309.341	98.56
309.571	93.56
309.8	106.56
310.03	94.56
310.26	90.56
310.49	97.56
310.72	98.56
310.949	98.56
311.179	108.56
311.409	93.56
311.639	106.56
311.868	93.56
312.098	101.56
312.328	92.56
312.557	110.56
312.787	115.56
313.017	90.56
313.246	86.56
313.476	89.56
313.706	106.56
313.935	101.56
314.165	108.56
314.394	106.56
314.624	99.56
314.853	99.56
315.083	92.56
315.312	101.56
315.542	91.56
315.771	85.56
316.001	100.56
316.23	94.56
316.46	83.56
316.689	84.56
316.919	96.56
317.148	92.56
317.377	84.56
317.607	96.56
317.836	93.56
318.065	83.56
318.295	97.56
318.524	94.56
318.753	103.56
318.983	90.56
319.212	74.56
319.441	103.56
319.67	100.56
319.9	88.56
320.129	84.56
320.358	101.56
320.587	106.56
320.816	94.56
321.046	92.56
321.275	104.56
321.504	88.56
321.733	77.56
321.962	96.56
322.191	99.56
322.42	108.56
322.649	105.56
322.878	101.56
323.108	113.56
323.337	119.56
323.566	132.56
323.795	133.56
324.024	182.56
324.253	356.56
324.482	735.56
324.71	1475.56
324.939	1928.56
325.168	709.56
325.397	221.56
325.626	146.56
325.855	131.56
326.084	115.56
326.313	127.56
326.542	138.56
326.77	212.56
326.999	390.56
327.228	820.56
327.457	1501.56
327.686	1200.56
327.914	329.56
328.143	160.56
328.372	122.56
328.6	125.56
328.829	114.56
329.058	104.56
329.287	125.56
329.515	98.56
329.744	99.56
329.972	102.56
330.201	114.56
330.43	117.56
330.658	124.56
330.887	126.56
331.115	105.56
331.344	100.56
331.572	114.56
331.801	89.56
332.03	105.56
332.258	103.56
332.486	105.56
332.715	100.56
332.943	82.56
333.172	90.56
333.4	96.56
333.629	108.56
333.857	118.56
334.085	97.56
334.314	114.56
334.542	125.56
334.771	108.56
334.999	97.56
335.227	90.56
335.455	91.56
335.684	89.56
335.912	91.56
336.14	88.56
336.369	93.56
336.597	104.56
336.825	84.56
337.053	99.56
337.281	73.56
337.51	81.56
337.738	91.56
337.966	84.56
338.194	98.56
338.422	108.56
338.65	96.56
338.878	81.56
339.106	90.56
339.334	98.56
339.562	100.56
339.79	100.56
340.018	86.56
340.246	83.56
340.474	81.56
340.702	91.56
340.93	76.56
341.158	99.56
341.386	90.56
341.614	90.56
341.842	96.56
342.07	101.56
342.298	93.56
342.526	95.56
342.754	82.56
342.981	100.56
343.209	80.56
343.437	91.56
343.665	87.56
343.893	94.56
344.12	94.56
344.348	81.56
344.576	86.56
344.804	95.56
345.031	108.56
345.259	90.56
345.487	94.56
345.714	86.56
345.942	101.56
346.17	98.56
346.397	99.56
346.625	97.56
346.853	82.56
347.08	88.56
347.308	104.56
347.535	96.56
347.763	106.56
347.99	94.56
348.218	93.56
348.445	117.56
348.673	77.56
348.9	97.56
349.128	91.56
349.355	89.56
349.583	95.56
349.81	89.56
350.037	95.56
350.265	101.56
350.492	93.56
350.72	89.56
350.947	92.56
351.174	94.56
351.402	100.56
351.629	95.56
351.856	106.56
352.083	102.56
352.311	97.56
352.538	106.56
352.765	103.56
352.992	104.56
353.22	110.56
353.447	97.56
353.674	111.56
353.901	100.56
354.128	100.56
354.355	105.56
354.583	93.56
354.81	89.56
355.037	98.56
355.264	90.56
355.491	108.56
355.718	77.56
355.945	104.56
356.172	97.56
356.399	94.56
356.626	101.56
356.853	90.56
357.08	102.56
357.307	88.56
357.534	86.56
357.761	105.56
357.988	93.56
358.215	102.56
358.441	92.56
358.668	90.56
358.895	76.56
359.122	84.56
359.349	76.56
359.576	96.56
359.802	103.56
360.029	91.56
360.256	93.56
360.483	100.56
360.709	88.56
360.936	100.56
361.163	96.56
361.39	85.56
361.616	90.56
361.843	78.56
362.07	93.56
362.296	102.56
362.523	84.56
362.749	90.56
362.976	99.56
363.203	100.56
363.429	90.56
363.656	96.56
363.882	105.56
364.109	108.56
364.335	77.56
364.562	87.56
364.788	101.56
365.015	88.56
365.241	87.56
365.468	100.56
365.694	100.56
365.92	88.56
366.147	92.56
366.373	91.56
366.599	84.56
366.826	87.56
367.052	90.56
367.278	88.56
367.505	100.56
367.731	98.56
367.957	107.56
368.184	89.56
368.41	87.56
368.636	107.56
368.862	113.56
369.089	104.56
369.315	94.56
369.541	82.56
369.767	89.56
369.993	85.56
370.219	96.56
370.445	100.56
370.672	92.56
370.898	87.56
371.124	93.56
371.35	78.56
371.576	77.56
371.802	92.56
372.028	80.56
372.254	78.56
372.48	106.56
372.706	83.56
372.932	90.56
373.158	91.56
373.384	87.56
373.61	90.56
373.835	77.56
374.061	88.56
374.287	104.56
374.513	82.56
374.739	96.56
374.965	84.56
375.191	96.56
375.416	81.56
375.642	86.56
375.868	89.56
376.094	97.56
376.319	92.56
376.545	103.56
376.771	112.56
376.997	76.56
377.222	94.56
377.448	95.56
377.674	93.56
377.899	90.56
378.125	94.56
378.35	90.56
378.576	88.56
378.802	86.56
379.027	101.56
379.253	87.56
379.478	90.56
379.704	87.56
379.929	74.56
380.155	94.56
380.38	93.56
380.606	106.56
380.831	91.56
381.057	103.56
381.282	93.56
381.507	94.56
381.733	93.56
381.958	90.56
382.184	99.56
382.409	91.56
382.634	94.56
382.86	92.56
383.085	97.56
383.31	91.56
383.535	88.56
383.761	99.56
383.986	101.56
384.211	97.56
384.436	96.56
384.662	100.56
384.887	106.56
385.112	91.56
385.337	90.56
385.562	105.56
385.787	101.56
386.013	113.56
386.238	107.56
386.463	98.56
386.688	98.56
386.913	97.56
387.138	97.56
387.363	91.56
387.588	110.56
387.813	117.56
388.038	88.56
388.263	88.56
388.488	96.56
388.713	95.56
388.938	88.56
389.163	104.56
389.387	75.56
389.612	89.56
389.837	106.56
390.062	83.56
390.287	98.56
390.512	101.56
390.736	104.56
390.961	86.56
391.186	92.56
391.411	85.56
391.636	80.56
391.86	83.56
392.085	97.56
392.31	88.56
392.534	72.56
392.759	77.56
392.984	87.56
393.208	102.56
393.433	104.56
393.658	104.56
393.882	76.56
394.107	101.56
394.331	96.56
394.556	73.56
394.78	106.56
395.005	104.56
395.229	88.56
395.454	93.56
395.678	85.56
395.903	90.56
396.127	88.56
396.352	73.56
396.576	91.56
396.801	98.56
397.025	96.56
397.249	79.56
397.474	100.56
397.698	75.56
397.922	90.56
398.147	84.56
398.371	98.56
398.595	84.56
398.82	89.56
399.044	84.56
399.268	86.56
399.492	92.56
399.717	94.56
399.941	84.56
400.165	98.56
400.389	94.56
400.613	94.56
400.837	86.56
401.062	89.56
401.286	98.56
401.51	88.56
401.734	81.56
401.958	92.56
402.182	121.56
402.406	137.56
402.63	129.56
402.854	88.56
403.078	79.56
403.302	82.56
403.526	86.56
403.75	85.56
403.974	78.56
404.198	71.56
404.422	88.56
404.645	100.56
404.869	88.56
405.093	94.56
405.317	105.56
405.541	101.56
405.765	96.56
405.988	101.56
406.212	157.56
406.436	195.56
406.66	152.56
406.883	106.56
407.107	86.56
407.331	88.56
407.555	102.56
407.778	91.56
408.002	75.56
408.226	92.56
408.449	86.56
408.673	86.56
408.896	101.56
409.12	95.56
409.344	99.56
409.567	96.56
409.791	93.56
410.014	87.56
410.238	95.56
410.461	92.56
410.685	100.56
410.908	95.56
411.132	107.56
411.355	92.56
411.578	106.56
411.802	96.56
412.025	73.56
412.249	84.56
412.472	77.56
412.695	92.56
412.919	96.56
413.142	84.56
413.365	101.56
413.589	85.56
413.812	84.56
414.035	83.56
414.258	98.56
414.482	100.56
414.705	85.56
414.928	86.56
415.151	92.56
415.374	100.56
415.597	93.56
415.821	95.56
416.044	84.56
416.267	106.56
416.49	90.56
416.713	88.56
416.936	83.56
417.159	91.56
417.382	90.56
417.605	95.56
417.828	91.56
418.051	93.56
418.274	100.56
418.497	76.56
418.72	90.56
418.943	80.56
419.166	91.56
419.389	93.56
419.611	94.56
419.834	87.56
420.057	82.56
420.28	80.56
420.503	90.56
420.726	83.56
420.948	102.56
421.171	95.56
421.394	105.56
421.617	100.56
421.839	86.56
422.062	93.56
422.285	85.56
422.507	105.56
422.73	110.56
422.953	98.56
423.175	90.56
423.398	98.56
423.621	95.56
423.843	80.56
424.066	91.56
424.288	86.56
424.511	100.56
424.733	93.56
424.956	106.56
425.178	89.56
425.401	108.56
425.623	90.56
425.846	87.56
426.068	88.56
426.291	73.56
426.513	102.56
426.735	92.56
426.958	93.56
427.18	97.56
427.402	117.56
427.625	155.56
427.847	128.56
428.069	114.56
428.292	90.56
428.514	93.56
428.736	95.56
428.958	93.56
429.181	84.56
429.403	88.56
429.625	83.56
429.847	85.56
430.069	99.56
430.292	86.56
430.514	84.56
430.736	80.56
430.958	89.56
431.18	88.56
431.402	89.56
431.624	85.56
431.846	98.56
432.068	83.56
432.29	85.56
432.512	85.56
432.734	92.56
432.956	93.56
433.178	103.56
433.4	103.56
433.622	99.56
433.844	91.56
434.066	93.56
434.287	96.56
434.509	86.56
434.731	94.56
434.953	107.56
435.175	81.56
435.397	77.56
435.618	79.56
435.84	106.56
436.062	114.56
436.284	132.56
436.505	99.56
436.727	114.56
436.949	94.56
437.17	109.56
437.392	77.56
437.614	106.56
437.835	104.56
438.057	96.56
438.278	90.56
438.5	97.56
438.721	99.56
438.943	100.56
439.165	80.56
439.386	69.56
439.608	85.56
439.829	102.56
440.05	119.56
440.272	118.56
440.493	88.56
440.715	90.56
440.936	69.56
441.158	82.56
441.379	89.56
441.6	83.56
441.822	80.56
442.043	87.56
442.264	87.56
442.486	90.56
442.707	100.56
442.928	100.56
443.149	137.56
443.371	115.56
443.592	109.56
443.813	131.56
444.034	108.56
444.255	101.56
444.476	87.56
444.698	90.56
444.919	90.56
445.14	132.56
445.361	124.56
445.582	96.56
445.803	116.56
446.024	140.56
446.245	122.56
446.466	105.56
446.687	90.56
446.908	79.56
447.129	92.56
447.35	107.56
447.571	93.56
447.792	95.56
448.013	89.56
448.234	109.56
448.455	99.56
448.675	129.56
448.896	113.56
449.117	98.56
449.338	92.56
449.559	120.56
449.779	110.56
450	97.56
450.221	90.56
450.442	98.56
450.662	100.56
450.883	91.56
451.104	106.56
451.324	93.56
451.545	109.56
451.766	76.56
451.986	84.56
452.207	98.56
452.428	77.56
452.648	88.56
452.869	100.56
453.089	94.56
453.31	114.56
453.53	88.56
453.751	97.56
453.971	97.56
454.192	100.56
454.412	96.56
454.633	77.56
454.853	85.56
455.073	86.56
455.294	103.56
455.514	106.56
455.734	90.56
455.955	84.56
456.175	98.56
456.395	85.56
456.616	89.56
456.836	91.56
457.056	84.56
457.276	85.56
457.497	89.56
457.717	92.56
457.937	85.56
458.157	88.56
458.377	91.56
458.598	112.56
458.818	132.56
459.038	153.56
459.258	105.56
459.478	83.56
459.698	72.56
459.918	87.56
460.138	98.56
460.358	89.56
460.578	70.56
460.798	98.56
461.018	85.56
461.238	92.56
461.458	83.56
461.678	94.56
461.898	89.56
462.118	78.56
462.338	104.56
462.558	71.56
462.777	84.56
462.997	76.56
463.217	80.56
463.437	110.56
463.657	78.56
463.876	90.56
464.096	87.56
464.316	100.56
464.536	98.56
464.755	103.56
464.975	96.56
465.195	135.56
465.414	134.56
465.634	87.56
465.854	96.56
466.073	101.56
466.293	86.56
466.512	89.56
466.732	86.56
466.951	94.56
467.171	92.56
467.391	102.56
467.61	92.56
467.829	85.56
468.049	101.56
468.268	106.56
468.488	89.56
468.707	86.56
468.927	89.56
469.146	92.56
469.365	94.56
469.585	91.56
469.804	102.56
470.023	90.56
470.243	90.56
470.462	88.56
470.681	117.56
470.901	81.56
471.12	88.56
471.339	91.56
471.558	77.56
471.777	94.56
471.997	96.56
472.216	117.56
472.435	122.56
472.654	95.56
472.873	86.56
473.092	69.56
473.311	80.56
473.53	74.56
473.749	80.56
473.968	82.56
474.187	99.56
474.406	106.56
474.625	100.56
474.844	90.56
475.063	90.56
475.282	89.56
475.501	70.56
475.72	96.56
475.939	85.56
476.158	73.56
476.377	84.56
476.596	76.56
476.814	97.56
477.033	92.56
477.252	90.56
477.471	96.56
477.69	86.56
477.908	93.56
478.127	98.56
478.346	102.56
478.564	89.56
478.783	107.56
479.002	95.56
479.22	82.56
479.439	88.56
479.658	101.56
479.876	96.56
480.095	92.56
480.313	98.56
480.532	88.56
480.751	104.56
480.969	108.56
481.188	189.56
481.406	141.56
481.624	117.56
481.843	69.56
482.061	89.56
482.28	80.56
482.498	86.56
482.717	100.56
482.935	73.56
483.153	98.56
483.372	102.56
483.59	93.56
483.808	85.56
484.027	105.56
484.245	86.56
484.463	86.56
484.681	90.56
484.9	74.56
485.118	96.56
485.336	95.56
485.554	101.56
485.772	100.56
485.99	101.56
486.209	118.56
486.427	105.56
486.645	100.56
486.863	106.56
487.081	100.56
487.299	99.56
487.517	90.56
487.735	91.56
487.953	90.56
488.171	97.56
488.389	102.56
488.607	91.56
488.825	91.56
489.043	90.56
489.261	84.56
489.479	97.56
489.696	95.56
489.914	92.56
490.132	90.56
490.35	75.56
490.568	93.56
490.786	101.56
491.003	87.56
491.221	91.56
491.439	73.56
491.657	93.56
491.874	91.56
492.092	100.56
492.31	90.56
492.527	109.56
492.745	88.56
492.963	81.56
493.18	94.56
493.398	84.56
493.615	99.56
493.833	90.56
494.05	92.56
494.268	91.56
494.485	96.56
494.703	77.56
494.92	86.56
495.138	86.56
495.355	87.56
495.573	95.56
495.79	88.56
496.008	96.56
496.225	101.56
496.442	84.56
496.66	84.56
496.877	104.56
497.094	112.56
497.312	91.56
497.529	86.56
497.746	92.56
497.963	95.56
498.181	92.56
498.398	80.56
498.615	106.56
498.832	95.56
499.049	89.56
499.267	78.56
499.484	78.56
499.701	89.56
499.918	90.56
500.135	93.56
500.352	85.56
500.569	90.56
500.786	95.56
501.003	78.56
501.22	80.56
501.437	100.56
501.654	98.56
501.871	111.56
502.088	87.56
502.305	76.56
502.522	90.56
502.739	88.56
502.956	87.56
503.172	92.56
503.389	94.56
503.606	109.56
503.823	83.56
504.04	104.56
504.256	89.56
504.473	87.56
504.69	85.56
504.907	88.56
505.123	97.56
505.34	102.56
505.557	100.56
505.773	99.56
505.99	75.56
506.207	89.56
506.423	90.56
506.64	90.56
506.856	83.56
507.073	88.56
507.289	88.56
507.506	97.56
507.722	118.56
507.939	96.56
508.155	91.56
508.372	87.56
508.588	87.56
508.805	99.56
509.021	99.56
509.238	84.56
509.454	93.56
509.67	108.56
509.887	99.56
510.103	131.56
510.319	212.56
510.536	706.56
510.752	2141.56
510.968	564.56
511.184	132.56
511.401	103.56
511.617	99.56
511.833	96.56
512.049	96.56
512.265	85.56
512.481	93.56
512.698	91.56
512.914	98.56
513.13	90.56
513.346	97.56
513.562	94.56
513.778	96.56
513.994	110.56
514.21	96.56
514.426	114.56
514.642	114.56
514.858	116.56
515.074	141.56
515.29	389.56
515.506	1236.56
