Data from Uncirc_1983_H10_HRD10591_00039.txt Node
Date: Wed Jan 03 12:25:39 EST 2024
User: Yrep
Spectrometer: HR+D1059
Trigger mode: 1
Integration Time (sec): 1.000000E-1
Scans to average: 1
Electric dark correction enabled: true
Nonlinearity correction enabled: false
Boxcar width: 0
XAxis mode: Wavelengths
Number of Pixels in Spectrum: 2048
>>>>>Begin Spectral Data<<<<<
223.165	-20.25
223.4	-20.25
223.635	-20.25
223.869	-20.25
224.104	-9.25
224.338	-33.25
224.573	-19.25
224.808	-8.25
225.042	-3.25
225.277	-1.25
225.511	-2.25
225.746	3.75
225.98	4.75
226.215	17.75
226.449	16.75
226.683	22.75
226.918	20.75
227.152	30.75
227.387	30.75
227.621	37.75
227.856	47.75
228.09	37.75
228.324	49.75
228.559	68.75
228.793	55.75
229.027	62.75
229.262	73.75
229.496	76.75
229.73	75.75
229.964	70.75
230.199	71.75
230.433	89.75
230.667	73.75
230.901	77.75
231.136	81.75
231.37	77.75
231.604	73.75
231.838	93.75
232.072	81.75
232.306	71.75
232.541	88.75
232.775	73.75
233.009	91.75
233.243	59.75
233.477	86.75
233.711	83.75
233.945	85.75
234.179	71.75
234.413	81.75
234.647	76.75
234.881	60.75
235.115	90.75
235.349	79.75
235.583	86.75
235.817	81.75
236.051	79.75
236.285	63.75
236.519	78.75
236.753	82.75
236.987	81.75
237.221	79.75
237.455	83.75
237.689	69.75
237.922	63.75
238.156	66.75
238.39	83.75
238.624	81.75
238.858	82.75
239.091	85.75
239.325	56.75
239.559	74.75
239.793	93.75
240.027	85.75
240.26	87.75
240.494	73.75
240.728	83.75
240.961	85.75
241.195	70.75
241.429	66.75
241.662	91.75
241.896	83.75
242.13	78.75
242.363	83.75
242.597	75.75
242.83	80.75
243.064	77.75
243.298	88.75
243.531	74.75
243.765	86.75
243.998	82.75
244.232	85.75
244.465	95.75
244.699	76.75
244.932	76.75
245.166	68.75
245.399	70.75
245.633	86.75
245.866	65.75
246.099	65.75
246.333	62.75
246.566	71.75
246.8	75.75
247.033	73.75
247.266	70.75
247.5	83.75
247.733	92.75
247.966	70.75
248.2	91.75
248.433	78.75
248.666	79.75
248.899	82.75
249.133	86.75
249.366	98.75
249.599	96.75
249.832	67.75
250.066	79.75
250.299	88.75
250.532	85.75
250.765	65.75
250.998	85.75
251.231	76.75
251.465	77.75
251.698	74.75
251.931	74.75
252.164	79.75
252.397	75.75
252.63	86.75
252.863	78.75
253.096	81.75
253.329	68.75
253.562	83.75
253.795	76.75
254.028	77.75
254.261	81.75
254.494	87.75
254.727	85.75
254.96	77.75
255.193	79.75
255.426	77.75
255.659	94.75
255.892	85.75
256.124	74.75
256.357	89.75
256.59	94.75
256.823	87.75
257.056	84.75
257.289	90.75
257.521	85.75
257.754	81.75
257.987	78.75
258.22	81.75
258.452	80.75
258.685	77.75
258.918	87.75
259.151	87.75
259.383	98.75
259.616	78.75
259.849	53.75
260.081	72.75
260.314	89.75
260.547	110.75
260.779	97.75
261.012	87.75
261.244	83.75
261.477	92.75
261.71	77.75
261.942	104.75
262.175	103.75
262.407	77.75
262.64	73.75
262.872	78.75
263.105	83.75
263.337	88.75
263.57	72.75
263.802	86.75
264.035	68.75
264.267	75.75
264.499	94.75
264.732	69.75
264.964	72.75
265.197	83.75
265.429	89.75
265.661	72.75
265.894	85.75
266.126	75.75
266.358	78.75
266.591	90.75
266.823	76.75
267.055	88.75
267.287	75.75
267.52	98.75
267.752	96.75
267.984	84.75
268.216	94.75
268.448	74.75
268.681	81.75
268.913	89.75
269.145	82.75
269.377	90.75
269.609	74.75
269.841	85.75
270.073	74.75
270.306	89.75
270.538	95.75
270.77	62.75
271.002	68.75
271.234	77.75
271.466	78.75
271.698	78.75
271.93	99.75
272.162	85.75
272.394	79.75
272.626	95.75
272.858	89.75
273.09	87.75
273.322	77.75
273.553	78.75
273.785	67.75
274.017	75.75
274.249	94.75
274.481	87.75
274.713	82.75
274.945	99.75
275.176	85.75
275.408	86.75
275.64	90.75
275.872	85.75
276.104	88.75
276.335	84.75
276.567	94.75
276.799	101.75
277.031	93.75
277.262	84.75
277.494	76.75
277.726	80.75
277.957	89.75
278.189	71.75
278.421	85.75
278.652	103.75
278.884	99.75
279.115	94.75
279.347	81.75
279.579	76.75
279.81	87.75
280.042	89.75
280.273	85.75
280.505	96.75
280.736	78.75
280.968	77.75
281.199	87.75
281.431	84.75
281.662	79.75
281.894	86.75
282.125	102.75
282.356	118.75
282.588	125.75
282.819	103.75
283.051	85.75
283.282	82.75
283.513	97.75
283.745	78.75
283.976	85.75
284.207	91.75
284.439	97.75
284.67	94.75
284.901	102.75
285.132	81.75
285.364	90.75
285.595	103.75
285.826	95.75
286.057	83.75
286.288	92.75
286.52	99.75
286.751	81.75
286.982	89.75
287.213	86.75
287.444	87.75
287.675	92.75
287.906	87.75
288.138	91.75
288.369	91.75
288.6	88.75
288.831	94.75
289.062	84.75
289.293	95.75
289.524	96.75
289.755	84.75
289.986	91.75
290.217	88.75
290.448	94.75
290.679	87.75
290.91	98.75
291.141	87.75
291.371	89.75
291.602	90.75
291.833	89.75
292.064	86.75
292.295	93.75
292.526	92.75
292.757	89.75
292.987	96.75
293.218	99.75
293.449	77.75
293.68	87.75
293.91	88.75
294.141	94.75
294.372	88.75
294.603	84.75
294.833	85.75
295.064	84.75
295.295	98.75
295.525	98.75
295.756	99.75
295.987	108.75
296.217	122.75
296.448	117.75
296.679	100.75
296.909	78.75
297.14	101.75
297.37	101.75
297.601	82.75
297.831	91.75
298.062	105.75
298.292	92.75
298.523	95.75
298.753	101.75
298.984	81.75
299.214	99.75
299.445	94.75
299.675	113.75
299.905	89.75
300.136	98.75
300.366	84.75
300.597	85.75
300.827	100.75
301.057	98.75
301.288	99.75
301.518	88.75
301.748	84.75
301.979	90.75
302.209	93.75
302.439	93.75
302.669	78.75
302.9	97.75
303.13	87.75
303.36	100.75
303.59	106.75
303.82	111.75
304.051	101.75
304.281	104.75
304.511	93.75
304.741	91.75
304.971	89.75
305.201	94.75
305.431	86.75
305.661	85.75
305.891	76.75
306.121	95.75
306.352	117.75
306.582	97.75
306.812	98.75
307.042	111.75
307.272	101.75
307.502	98.75
307.731	83.75
307.961	88.75
308.191	93.75
308.421	90.75
308.651	87.75
308.881	90.75
309.111	92.75
309.341	87.75
309.571	106.75
309.8	96.75
310.03	97.75
310.26	92.75
310.49	104.75
310.72	102.75
310.949	90.75
311.179	92.75
311.409	88.75
311.639	88.75
311.868	82.75
312.098	93.75
312.328	93.75
312.557	95.75
312.787	100.75
313.017	95.75
313.246	99.75
313.476	83.75
313.706	105.75
313.935	91.75
314.165	89.75
314.394	104.75
314.624	97.75
314.853	105.75
315.083	103.75
315.312	95.75
315.542	101.75
315.771	101.75
316.001	86.75
316.23	90.75
316.46	76.75
316.689	90.75
316.919	81.75
317.148	104.75
317.377	93.75
317.607	90.75
317.836	106.75
318.065	89.75
318.295	83.75
318.524	98.75
318.753	91.75
318.983	97.75
319.212	102.75
319.441	103.75
319.67	102.75
319.9	92.75
320.129	109.75
320.358	107.75
320.587	95.75
320.816	96.75
321.046	99.75
321.275	101.75
321.504	100.75
321.733	99.75
321.962	92.75
322.191	109.75
322.42	116.75
322.649	100.75
322.878	101.75
323.108	121.75
323.337	116.75
323.566	134.75
323.795	145.75
324.024	171.75
324.253	334.75
324.482	691.75
324.71	1419.75
324.939	1833.75
325.168	685.75
325.397	216.75
325.626	119.75
325.855	119.75
326.084	116.75
326.313	136.75
326.542	142.75
326.77	213.75
326.999	387.75
327.228	779.75
327.457	1429.75
327.686	1135.75
327.914	322.75
328.143	193.75
328.372	136.75
328.6	118.75
328.829	121.75
329.058	116.75
329.287	123.75
329.515	115.75
329.744	105.75
329.972	100.75
330.201	117.75
330.43	114.75
330.658	108.75
330.887	117.75
331.115	100.75
331.344	114.75
331.572	110.75
331.801	102.75
332.03	91.75
332.258	90.75
332.486	86.75
332.715	105.75
332.943	100.75
333.172	82.75
333.4	101.75
333.629	92.75
333.857	97.75
334.085	106.75
334.314	100.75
334.542	110.75
334.771	98.75
334.999	105.75
335.227	99.75
335.455	97.75
335.684	88.75
335.912	100.75
336.14	106.75
336.369	99.75
336.597	89.75
336.825	86.75
337.053	89.75
337.281	81.75
337.51	91.75
337.738	85.75
337.966	91.75
338.194	90.75
338.422	99.75
338.65	94.75
338.878	89.75
339.106	95.75
339.334	93.75
339.562	87.75
339.79	90.75
340.018	84.75
340.246	104.75
340.474	90.75
340.702	95.75
340.93	92.75
341.158	70.75
341.386	94.75
341.614	112.75
341.842	109.75
342.07	96.75
342.298	76.75
342.526	104.75
342.754	93.75
342.981	98.75
343.209	91.75
343.437	109.75
343.665	101.75
343.893	95.75
344.12	97.75
344.348	96.75
344.576	89.75
344.804	104.75
345.031	97.75
345.259	116.75
345.487	109.75
345.714	98.75
345.942	94.75
346.17	103.75
346.397	91.75
346.625	103.75
346.853	85.75
347.08	77.75
347.308	89.75
347.535	89.75
347.763	93.75
347.99	100.75
348.218	98.75
348.445	93.75
348.673	101.75
348.9	103.75
349.128	98.75
349.355	91.75
349.583	107.75
349.81	99.75
350.037	107.75
350.265	106.75
350.492	99.75
350.72	86.75
350.947	98.75
351.174	119.75
351.402	103.75
351.629	103.75
351.856	99.75
352.083	95.75
352.311	102.75
352.538	96.75
352.765	110.75
352.992	105.75
353.22	124.75
353.447	115.75
353.674	123.75
353.901	101.75
354.128	103.75
354.355	108.75
354.583	88.75
354.81	93.75
355.037	92.75
355.264	97.75
355.491	89.75
355.718	108.75
355.945	85.75
356.172	115.75
356.399	97.75
356.626	107.75
356.853	100.75
357.08	100.75
357.307	100.75
357.534	86.75
357.761	89.75
357.988	119.75
358.215	102.75
358.441	102.75
358.668	100.75
358.895	98.75
359.122	101.75
359.349	113.75
359.576	93.75
359.802	106.75
360.029	93.75
360.256	105.75
360.483	92.75
360.709	108.75
360.936	109.75
361.163	115.75
361.39	96.75
361.616	104.75
361.843	102.75
362.07	99.75
362.296	91.75
362.523	92.75
362.749	94.75
362.976	105.75
363.203	86.75
363.429	91.75
363.656	81.75
363.882	99.75
364.109	90.75
364.335	87.75
364.562	100.75
364.788	94.75
365.015	84.75
365.241	107.75
365.468	103.75
365.694	95.75
365.92	99.75
366.147	86.75
366.373	75.75
366.599	81.75
366.826	83.75
367.052	81.75
367.278	93.75
367.505	91.75
367.731	88.75
367.957	89.75
368.184	99.75
368.41	106.75
368.636	117.75
368.862	117.75
369.089	110.75
369.315	99.75
369.541	87.75
369.767	91.75
369.993	98.75
370.219	103.75
370.445	92.75
370.672	85.75
370.898	92.75
371.124	103.75
371.35	92.75
371.576	95.75
371.802	106.75
372.028	95.75
372.254	92.75
372.48	85.75
372.706	87.75
372.932	89.75
373.158	89.75
373.384	95.75
373.61	92.75
373.835	75.75
374.061	93.75
374.287	96.75
374.513	73.75
374.739	101.75
374.965	93.75
375.191	84.75
375.416	90.75
375.642	109.75
375.868	91.75
376.094	89.75
376.319	72.75
376.545	97.75
376.771	95.75
376.997	93.75
377.222	84.75
377.448	82.75
377.674	92.75
377.899	108.75
378.125	92.75
378.35	90.75
378.576	79.75
378.802	90.75
379.027	92.75
379.253	85.75
379.478	81.75
379.704	99.75
379.929	104.75
380.155	105.75
380.38	95.75
380.606	98.75
380.831	104.75
381.057	93.75
381.282	102.75
381.507	101.75
381.733	105.75
381.958	99.75
382.184	84.75
382.409	95.75
382.634	117.75
382.86	100.75
383.085	101.75
383.31	100.75
383.535	93.75
383.761	103.75
383.986	97.75
384.211	109.75
384.436	97.75
384.662	86.75
384.887	111.75
385.112	110.75
385.337	104.75
385.562	106.75
385.787	115.75
386.013	108.75
386.238	111.75
386.463	94.75
386.688	103.75
386.913	94.75
387.138	106.75
387.363	106.75
387.588	111.75
387.813	85.75
388.038	112.75
388.263	109.75
388.488	113.75
388.713	82.75
388.938	93.75
389.163	104.75
389.387	105.75
389.612	109.75
389.837	110.75
390.062	91.75
390.287	94.75
390.512	79.75
390.736	90.75
390.961	82.75
391.186	84.75
391.411	94.75
391.636	91.75
391.86	84.75
392.085	93.75
392.31	92.75
392.534	91.75
392.759	87.75
392.984	98.75
393.208	97.75
393.433	87.75
393.658	98.75
393.882	101.75
394.107	85.75
394.331	87.75
394.556	84.75
394.78	91.75
395.005	95.75
395.229	86.75
395.454	103.75
395.678	85.75
395.903	88.75
396.127	100.75
396.352	84.75
396.576	81.75
396.801	89.75
397.025	87.75
397.249	89.75
397.474	94.75
397.698	91.75
397.922	86.75
398.147	90.75
398.371	90.75
398.595	92.75
398.82	76.75
399.044	91.75
399.268	81.75
399.492	84.75
399.717	74.75
399.941	101.75
400.165	94.75
400.389	75.75
400.613	81.75
400.837	99.75
401.062	83.75
401.286	101.75
401.51	98.75
401.734	92.75
401.958	93.75
402.182	107.75
402.406	149.75
402.63	117.75
402.854	94.75
403.078	88.75
403.302	78.75
403.526	79.75
403.75	90.75
403.974	84.75
404.198	76.75
404.422	79.75
404.645	87.75
404.869	99.75
405.093	93.75
405.317	101.75
405.541	94.75
405.765	105.75
405.988	104.75
406.212	153.75
406.436	196.75
406.66	123.75
406.883	80.75
407.107	93.75
407.331	107.75
407.555	101.75
407.778	94.75
408.002	91.75
408.226	90.75
408.449	95.75
408.673	78.75
408.896	84.75
409.12	97.75
409.344	85.75
409.567	84.75
409.791	95.75
410.014	93.75
410.238	85.75
410.461	92.75
410.685	103.75
410.908	102.75
411.132	97.75
411.355	102.75
411.578	90.75
411.802	98.75
412.025	84.75
412.249	88.75
412.472	105.75
412.695	95.75
412.919	84.75
413.142	86.75
413.365	88.75
413.589	89.75
413.812	102.75
414.035	106.75
414.258	100.75
414.482	96.75
414.705	72.75
414.928	100.75
415.151	102.75
415.374	84.75
415.597	88.75
415.821	97.75
416.044	90.75
416.267	87.75
416.49	82.75
416.713	97.75
416.936	98.75
417.159	82.75
417.382	83.75
417.605	94.75
417.828	94.75
418.051	106.75
418.274	91.75
418.497	85.75
418.72	85.75
418.943	84.75
419.166	90.75
419.389	86.75
419.611	99.75
419.834	92.75
420.057	80.75
420.28	87.75
420.503	66.75
420.726	93.75
420.948	67.75
421.171	110.75
421.394	99.75
421.617	93.75
421.839	86.75
422.062	69.75
422.285	81.75
422.507	98.75
422.73	99.75
422.953	103.75
423.175	97.75
423.398	94.75
423.621	85.75
423.843	88.75
424.066	83.75
424.288	94.75
424.511	91.75
424.733	99.75
424.956	97.75
425.178	113.75
425.401	85.75
425.623	98.75
425.846	95.75
426.068	88.75
426.291	85.75
426.513	89.75
426.735	110.75
426.958	110.75
427.18	107.75
427.402	109.75
427.625	153.75
427.847	118.75
428.069	96.75
428.292	103.75
428.514	80.75
428.736	83.75
428.958	80.75
429.181	103.75
429.403	87.75
429.625	82.75
429.847	95.75
430.069	113.75
430.292	97.75
430.514	111.75
430.736	107.75
430.958	86.75
431.18	75.75
431.402	104.75
431.624	101.75
431.846	86.75
432.068	96.75
432.29	91.75
432.512	94.75
432.734	105.75
432.956	84.75
433.178	98.75
433.4	103.75
433.622	92.75
433.844	92.75
434.066	90.75
434.287	88.75
434.509	93.75
434.731	100.75
434.953	89.75
435.175	88.75
435.397	93.75
435.618	93.75
435.84	95.75
436.062	118.75
436.284	101.75
436.505	103.75
436.727	104.75
436.949	91.75
437.17	93.75
437.392	97.75
437.614	99.75
437.835	100.75
438.057	114.75
438.278	111.75
438.5	118.75
438.721	110.75
438.943	99.75
439.165	96.75
439.386	96.75
439.608	93.75
439.829	87.75
440.05	105.75
440.272	124.75
440.493	109.75
440.715	98.75
440.936	91.75
441.158	78.75
441.379	83.75
441.6	83.75
441.822	91.75
442.043	98.75
442.264	99.75
442.486	105.75
442.707	86.75
442.928	95.75
443.149	126.75
443.371	117.75
443.592	86.75
443.813	93.75
444.034	99.75
444.255	92.75
444.476	105.75
444.698	98.75
444.919	94.75
445.14	138.75
445.361	122.75
445.582	100.75
445.803	113.75
446.024	119.75
446.245	124.75
446.466	105.75
446.687	73.75
446.908	73.75
447.129	91.75
447.35	95.75
447.571	86.75
447.792	99.75
448.013	86.75
448.234	105.75
448.455	94.75
448.675	102.75
448.896	125.75
449.117	109.75
449.338	102.75
449.559	111.75
449.779	118.75
450	90.75
450.221	87.75
450.442	110.75
450.662	100.75
450.883	94.75
451.104	95.75
451.324	100.75
451.545	85.75
451.766	81.75
451.986	82.75
452.207	90.75
452.428	96.75
452.648	92.75
452.869	102.75
453.089	101.75
453.31	121.75
453.53	77.75
453.751	101.75
453.971	96.75
454.192	115.75
454.412	91.75
454.633	97.75
454.853	85.75
455.073	81.75
455.294	103.75
455.514	97.75
455.734	85.75
455.955	90.75
456.175	92.75
456.395	86.75
456.616	84.75
456.836	85.75
457.056	98.75
457.276	83.75
457.497	101.75
457.717	88.75
457.937	100.75
458.157	81.75
458.377	90.75
458.598	99.75
458.818	145.75
459.038	152.75
459.258	107.75
459.478	87.75
459.698	74.75
459.918	85.75
460.138	76.75
460.358	72.75
460.578	79.75
460.798	96.75
461.018	93.75
461.238	97.75
461.458	98.75
461.678	98.75
461.898	84.75
462.118	85.75
462.338	69.75
462.558	96.75
462.777	88.75
462.997	71.75
463.217	88.75
463.437	72.75
463.657	83.75
463.876	100.75
464.096	100.75
464.316	98.75
464.536	82.75
464.755	75.75
464.975	102.75
465.195	156.75
465.414	140.75
465.634	93.75
465.854	99.75
466.073	83.75
466.293	78.75
466.512	94.75
466.732	85.75
466.951	85.75
467.171	77.75
467.391	95.75
467.61	95.75
467.829	103.75
468.049	92.75
468.268	89.75
468.488	91.75
468.707	78.75
468.927	88.75
469.146	87.75
469.365	84.75
469.585	86.75
469.804	104.75
470.023	101.75
470.243	91.75
470.462	108.75
470.681	102.75
470.901	89.75
471.12	94.75
471.339	99.75
471.558	89.75
471.777	87.75
471.997	92.75
472.216	87.75
472.435	108.75
472.654	87.75
472.873	101.75
473.092	89.75
473.311	84.75
473.53	85.75
473.749	85.75
473.968	93.75
474.187	111.75
474.406	86.75
474.625	79.75
474.844	83.75
475.063	79.75
475.282	87.75
475.501	83.75
475.72	91.75
475.939	88.75
476.158	87.75
476.377	92.75
476.596	82.75
476.814	107.75
477.033	92.75
477.252	86.75
477.471	101.75
477.69	87.75
477.908	93.75
478.127	83.75
478.346	73.75
478.564	88.75
478.783	85.75
479.002	94.75
479.22	92.75
479.439	106.75
479.658	98.75
479.876	88.75
480.095	87.75
480.313	93.75
480.532	83.75
480.751	77.75
480.969	94.75
481.188	108.75
481.406	109.75
481.624	87.75
481.843	90.75
482.061	97.75
482.28	84.75
482.498	93.75
482.717	82.75
482.935	113.75
483.153	90.75
483.372	96.75
483.59	90.75
483.808	90.75
484.027	93.75
484.245	90.75
484.463	94.75
484.681	85.75
484.9	95.75
485.118	93.75
485.336	102.75
485.554	83.75
485.772	107.75
485.99	111.75
486.209	101.75
486.427	108.75
486.645	103.75
486.863	118.75
487.081	99.75
487.299	94.75
487.517	113.75
487.735	97.75
487.953	103.75
488.171	111.75
488.389	93.75
488.607	99.75
488.825	98.75
489.043	80.75
489.261	99.75
489.479	93.75
489.696	92.75
489.914	92.75
490.132	82.75
490.35	85.75
490.568	92.75
490.786	102.75
491.003	107.75
491.221	92.75
491.439	95.75
491.657	86.75
491.874	105.75
492.092	89.75
492.31	108.75
492.527	93.75
492.745	90.75
492.963	90.75
493.18	102.75
493.398	83.75
493.615	105.75
493.833	99.75
494.05	85.75
494.268	92.75
494.485	82.75
494.703	77.75
494.92	84.75
495.138	103.75
495.355	89.75
495.573	82.75
495.79	81.75
496.008	102.75
496.225	85.75
496.442	84.75
496.66	96.75
496.877	95.75
497.094	101.75
497.312	80.75
497.529	97.75
497.746	84.75
497.963	93.75
498.181	92.75
498.398	106.75
498.615	97.75
498.832	96.75
499.049	106.75
499.267	108.75
499.484	86.75
499.701	83.75
499.918	101.75
500.135	92.75
500.352	98.75
500.569	89.75
500.786	105.75
501.003	95.75
501.22	98.75
501.437	81.75
501.654	86.75
501.871	103.75
502.088	91.75
502.305	102.75
502.522	80.75
502.739	92.75
502.956	93.75
503.172	77.75
503.389	88.75
503.606	97.75
503.823	87.75
504.04	102.75
504.256	105.75
504.473	94.75
504.69	93.75
504.907	108.75
505.123	90.75
505.34	81.75
505.557	93.75
505.773	86.75
505.99	88.75
506.207	97.75
506.423	90.75
506.64	81.75
506.856	74.75
507.073	93.75
507.289	97.75
507.506	92.75
507.722	108.75
507.939	105.75
508.155	92.75
508.372	85.75
508.588	87.75
508.805	103.75
509.021	107.75
509.238	85.75
509.454	114.75
509.67	99.75
509.887	101.75
510.103	138.75
510.319	230.75
510.536	650.75
510.752	2109.75
510.968	583.75
511.184	161.75
511.401	103.75
511.617	91.75
511.833	99.75
512.049	85.75
512.265	96.75
512.481	94.75
512.698	97.75
512.914	105.75
513.13	93.75
513.346	87.75
513.562	85.75
513.778	85.75
513.994	98.75
514.21	90.75
514.426	92.75
514.642	118.75
514.858	112.75
515.074	159.75
