Data from Uncirc_1983_H10_HRD10591_00083.txt Node
Date: Wed Jan 03 12:25:48 EST 2024
User: Yrep
Spectrometer: HR+D1059
Trigger mode: 1
Integration Time (sec): 1.000000E-1
Scans to average: 1
Electric dark correction enabled: true
Nonlinearity correction enabled: false
Boxcar width: 0
XAxis mode: Wavelengths
Number of Pixels in Spectrum: 2048
>>>>>Begin Spectral Data<<<<<
223.165	-21.94
223.4	-21.94
223.635	-21.94
223.869	-17.94
224.104	3.06
224.338	-17.94
224.573	-16.94
224.808	-28.94
225.042	-23.94
225.277	-5.94
225.511	-1.94
225.746	-2.94
225.98	8.06
226.215	10.06
226.449	10.06
226.683	39.06
226.918	22.06
227.152	46.06
227.387	39.06
227.621	44.06
227.856	61.06
228.09	42.06
228.324	55.06
228.559	48.06
228.793	58.06
229.027	58.06
229.262	58.06
229.496	72.06
229.73	74.06
229.964	77.06
230.199	72.06
230.433	68.06
230.667	71.06
230.901	61.06
231.136	78.06
231.37	70.06
231.604	84.06
231.838	72.06
232.072	74.06
232.306	80.06
232.541	82.06
232.775	65.06
233.009	81.06
233.243	58.06
233.477	74.06
233.711	80.06
233.945	70.06
234.179	76.06
234.413	91.06
234.647	86.06
234.881	70.06
235.115	84.06
235.349	81.06
235.583	76.06
235.817	67.06
236.051	86.06
236.285	76.06
236.519	82.06
236.753	97.06
236.987	76.06
237.221	85.06
237.455	88.06
237.689	73.06
237.922	68.06
238.156	65.06
238.39	63.06
238.624	65.06
238.858	70.06
239.091	77.06
239.325	78.06
239.559	85.06
239.793	78.06
240.027	84.06
240.26	70.06
240.494	82.06
240.728	73.06
240.961	80.06
241.195	87.06
241.429	63.06
241.662	78.06
241.896	60.06
242.13	80.06
242.363	73.06
242.597	70.06
242.83	79.06
243.064	66.06
243.298	68.06
243.531	75.06
243.765	73.06
243.998	90.06
244.232	87.06
244.465	75.06
244.699	72.06
244.932	69.06
245.166	77.06
245.399	78.06
245.633	89.06
245.866	84.06
246.099	78.06
246.333	80.06
246.566	66.06
246.8	71.06
247.033	80.06
247.266	94.06
247.5	83.06
247.733	79.06
247.966	68.06
248.2	80.06
248.433	76.06
248.666	78.06
248.899	82.06
249.133	85.06
249.366	87.06
249.599	80.06
249.832	65.06
250.066	90.06
250.299	84.06
250.532	87.06
250.765	74.06
250.998	69.06
251.231	69.06
251.465	78.06
251.698	78.06
251.931	67.06
252.164	73.06
252.397	64.06
252.63	73.06
252.863	76.06
253.096	70.06
253.329	69.06
253.562	67.06
253.795	84.06
254.028	66.06
254.261	95.06
254.494	62.06
254.727	68.06
254.96	72.06
255.193	95.06
255.426	85.06
255.659	78.06
255.892	79.06
256.124	84.06
256.357	80.06
256.59	73.06
256.823	68.06
257.056	72.06
257.289	68.06
257.521	61.06
257.754	84.06
257.987	57.06
258.22	80.06
258.452	80.06
258.685	93.06
258.918	76.06
259.151	84.06
259.383	76.06
259.616	85.06
259.849	62.06
260.081	69.06
260.314	72.06
260.547	79.06
260.779	80.06
261.012	72.06
261.244	83.06
261.477	100.06
261.71	77.06
261.942	105.06
262.175	114.06
262.407	89.06
262.64	67.06
262.872	84.06
263.105	82.06
263.337	98.06
263.57	75.06
263.802	80.06
264.035	82.06
264.267	73.06
264.499	72.06
264.732	85.06
264.964	82.06
265.197	88.06
265.429	87.06
265.661	91.06
265.894	71.06
266.126	79.06
266.358	76.06
266.591	89.06
266.823	80.06
267.055	78.06
267.287	87.06
267.52	80.06
267.752	77.06
267.984	78.06
268.216	82.06
268.448	80.06
268.681	78.06
268.913	81.06
269.145	72.06
269.377	79.06
269.609	71.06
269.841	87.06
270.073	68.06
270.306	73.06
270.538	95.06
270.77	81.06
271.002	82.06
271.234	77.06
271.466	88.06
271.698	87.06
271.93	85.06
272.162	80.06
272.394	84.06
272.626	92.06
272.858	78.06
273.09	77.06
273.322	78.06
273.553	82.06
273.785	67.06
274.017	81.06
274.249	86.06
274.481	85.06
274.713	87.06
274.945	86.06
275.176	91.06
275.408	79.06
275.64	95.06
275.872	93.06
276.104	91.06
276.335	84.06
276.567	92.06
276.799	95.06
277.031	99.06
277.262	90.06
277.494	65.06
277.726	82.06
277.957	74.06
278.189	77.06
278.421	87.06
278.652	80.06
278.884	89.06
279.115	81.06
279.347	75.06
279.579	83.06
279.81	81.06
280.042	69.06
280.273	92.06
280.505	79.06
280.736	86.06
280.968	77.06
281.199	88.06
281.431	86.06
281.662	89.06
281.894	89.06
282.125	98.06
282.356	125.06
282.588	131.06
282.819	107.06
283.051	86.06
283.282	84.06
283.513	92.06
283.745	81.06
283.976	80.06
284.207	73.06
284.439	80.06
284.67	89.06
284.901	89.06
285.132	81.06
285.364	100.06
285.595	73.06
285.826	88.06
286.057	82.06
286.288	87.06
286.52	97.06
286.751	76.06
286.982	74.06
287.213	78.06
287.444	82.06
287.675	89.06
287.906	68.06
288.138	94.06
288.369	87.06
288.6	94.06
288.831	85.06
289.062	92.06
289.293	98.06
289.524	98.06
289.755	90.06
289.986	84.06
290.217	87.06
290.448	86.06
290.679	78.06
290.91	78.06
291.141	82.06
291.371	77.06
291.602	88.06
291.833	72.06
292.064	81.06
292.295	80.06
292.526	84.06
292.757	86.06
292.987	84.06
293.218	74.06
293.449	73.06
293.68	114.06
293.91	80.06
294.141	86.06
294.372	91.06
294.603	80.06
294.833	82.06
295.064	99.06
295.295	88.06
295.525	80.06
295.756	106.06
295.987	109.06
296.217	133.06
296.448	128.06
296.679	88.06
296.909	82.06
297.14	93.06
297.37	76.06
297.601	84.06
297.831	79.06
298.062	79.06
298.292	89.06
298.523	97.06
298.753	80.06
298.984	87.06
299.214	95.06
299.445	85.06
299.675	103.06
299.905	90.06
300.136	88.06
300.366	85.06
300.597	89.06
300.827	80.06
301.057	90.06
301.288	110.06
301.518	90.06
301.748	93.06
301.979	102.06
302.209	85.06
302.439	86.06
302.669	89.06
302.9	86.06
303.13	90.06
303.36	85.06
303.59	97.06
303.82	109.06
304.051	93.06
304.281	94.06
304.511	92.06
304.741	94.06
304.971	96.06
305.201	87.06
305.431	99.06
305.661	98.06
305.891	85.06
306.121	83.06
306.352	85.06
306.582	104.06
306.812	78.06
307.042	85.06
307.272	103.06
307.502	93.06
307.731	89.06
307.961	84.06
308.191	76.06
308.421	79.06
308.651	70.06
308.881	85.06
309.111	92.06
309.341	85.06
309.571	95.06
309.8	87.06
310.03	104.06
310.26	93.06
310.49	104.06
310.72	93.06
310.949	84.06
311.179	91.06
311.409	85.06
311.639	96.06
311.868	86.06
312.098	86.06
312.328	89.06
312.557	102.06
312.787	94.06
313.017	100.06
313.246	117.06
313.476	94.06
313.706	77.06
313.935	102.06
314.165	97.06
314.394	96.06
314.624	88.06
314.853	87.06
315.083	85.06
315.312	86.06
315.542	88.06
315.771	90.06
316.001	92.06
316.23	96.06
316.46	89.06
316.689	94.06
316.919	90.06
317.148	93.06
317.377	80.06
317.607	91.06
317.836	87.06
318.065	69.06
318.295	76.06
318.524	69.06
318.753	87.06
318.983	83.06
319.212	89.06
319.441	101.06
319.67	102.06
319.9	96.06
320.129	100.06
320.358	101.06
320.587	88.06
320.816	97.06
321.046	96.06
321.275	100.06
321.504	97.06
321.733	101.06
321.962	81.06
322.191	88.06
322.42	104.06
322.649	101.06
322.878	104.06
323.108	113.06
323.337	122.06
323.566	114.06
323.795	145.06
324.024	176.06
324.253	336.06
324.482	740.06
324.71	1527.06
324.939	1968.06
325.168	722.06
325.397	223.06
325.626	132.06
325.855	114.06
326.084	106.06
326.313	121.06
326.542	136.06
326.77	207.06
326.999	422.06
327.228	821.06
327.457	1567.06
327.686	1230.06
327.914	332.06
328.143	178.06
328.372	144.06
328.6	125.06
328.829	108.06
329.058	97.06
329.287	122.06
329.515	108.06
329.744	101.06
329.972	104.06
330.201	115.06
330.43	142.06
330.658	126.06
330.887	136.06
331.115	115.06
331.344	93.06
331.572	98.06
331.801	97.06
332.03	90.06
332.258	84.06
332.486	85.06
332.715	94.06
332.943	81.06
333.172	99.06
333.4	84.06
333.629	106.06
333.857	104.06
334.085	116.06
334.314	129.06
334.542	149.06
334.771	150.06
334.999	96.06
335.227	79.06
335.455	95.06
335.684	98.06
335.912	99.06
336.14	93.06
336.369	89.06
336.597	85.06
336.825	89.06
337.053	91.06
337.281	80.06
337.51	80.06
337.738	85.06
337.966	100.06
338.194	89.06
338.422	93.06
338.65	80.06
338.878	98.06
339.106	94.06
339.334	85.06
339.562	82.06
339.79	86.06
340.018	87.06
340.246	86.06
340.474	89.06
340.702	82.06
340.93	102.06
341.158	91.06
341.386	86.06
341.614	73.06
341.842	99.06
342.07	92.06
342.298	92.06
342.526	93.06
342.754	86.06
342.981	94.06
343.209	97.06
343.437	103.06
343.665	89.06
343.893	89.06
344.12	95.06
344.348	87.06
344.576	96.06
344.804	89.06
345.031	84.06
345.259	71.06
345.487	92.06
345.714	99.06
345.942	90.06
346.17	90.06
346.397	98.06
346.625	82.06
346.853	97.06
347.08	90.06
347.308	85.06
347.535	92.06
347.763	94.06
347.99	102.06
348.218	81.06
348.445	102.06
348.673	96.06
348.9	84.06
349.128	86.06
349.355	71.06
349.583	91.06
349.81	88.06
350.037	77.06
350.265	80.06
350.492	80.06
350.72	96.06
350.947	96.06
351.174	104.06
351.402	84.06
351.629	83.06
351.856	87.06
352.083	88.06
352.311	109.06
352.538	102.06
352.765	97.06
352.992	98.06
353.22	101.06
353.447	92.06
353.674	114.06
353.901	111.06
354.128	96.06
354.355	83.06
354.583	89.06
354.81	82.06
355.037	89.06
355.264	72.06
355.491	73.06
355.718	92.06
355.945	83.06
356.172	78.06
356.399	76.06
356.626	95.06
356.853	90.06
357.08	90.06
357.307	95.06
357.534	94.06
357.761	93.06
357.988	82.06
358.215	98.06
358.441	86.06
358.668	88.06
358.895	78.06
359.122	100.06
359.349	95.06
359.576	85.06
359.802	103.06
360.029	105.06
360.256	97.06
360.483	101.06
360.709	78.06
360.936	100.06
361.163	89.06
361.39	86.06
361.616	107.06
361.843	98.06
362.07	96.06
362.296	90.06
362.523	86.06
362.749	77.06
362.976	90.06
363.203	72.06
363.429	78.06
363.656	88.06
363.882	97.06
364.109	86.06
364.335	92.06
364.562	100.06
364.788	96.06
365.015	86.06
365.241	98.06
365.468	101.06
365.694	96.06
365.92	88.06
366.147	81.06
366.373	87.06
366.599	96.06
366.826	77.06
367.052	89.06
367.278	90.06
367.505	87.06
367.731	89.06
367.957	99.06
368.184	97.06
368.41	98.06
368.636	113.06
368.862	124.06
369.089	96.06
369.315	89.06
369.541	89.06
369.767	84.06
369.993	87.06
370.219	84.06
370.445	81.06
370.672	88.06
370.898	76.06
371.124	73.06
371.35	89.06
371.576	94.06
371.802	83.06
372.028	84.06
372.254	96.06
372.48	89.06
372.706	88.06
372.932	90.06
373.158	92.06
373.384	97.06
373.61	85.06
373.835	86.06
374.061	84.06
374.287	87.06
374.513	89.06
374.739	84.06
374.965	73.06
375.191	92.06
375.416	84.06
375.642	94.06
375.868	96.06
376.094	104.06
376.319	92.06
376.545	90.06
376.771	63.06
376.997	78.06
377.222	85.06
377.448	89.06
377.674	76.06
377.899	85.06
378.125	85.06
378.35	84.06
378.576	85.06
378.802	88.06
379.027	82.06
379.253	89.06
379.478	88.06
379.704	89.06
379.929	98.06
380.155	100.06
380.38	89.06
380.606	84.06
380.831	97.06
381.057	89.06
381.282	93.06
381.507	74.06
381.733	97.06
381.958	83.06
382.184	75.06
382.409	99.06
382.634	85.06
382.86	101.06
383.085	97.06
383.31	102.06
383.535	101.06
383.761	94.06
383.986	91.06
384.211	80.06
384.436	101.06
384.662	94.06
384.887	89.06
385.112	107.06
385.337	101.06
385.562	94.06
385.787	84.06
386.013	93.06
386.238	104.06
386.463	88.06
386.688	110.06
386.913	73.06
387.138	118.06
387.363	99.06
387.588	76.06
387.813	101.06
388.038	94.06
388.263	88.06
388.488	100.06
388.713	84.06
388.938	95.06
389.163	78.06
389.387	81.06
389.612	105.06
389.837	86.06
390.062	79.06
390.287	100.06
390.512	78.06
390.736	103.06
390.961	100.06
391.186	84.06
391.411	89.06
391.636	90.06
391.86	82.06
392.085	78.06
392.31	74.06
392.534	96.06
392.759	71.06
392.984	94.06
393.208	80.06
393.433	88.06
393.658	90.06
393.882	79.06
394.107	67.06
394.331	83.06
394.556	82.06
394.78	89.06
395.005	95.06
395.229	90.06
395.454	85.06
395.678	94.06
395.903	89.06
396.127	95.06
396.352	79.06
396.576	84.06
396.801	83.06
397.025	76.06
397.249	87.06
397.474	90.06
397.698	95.06
397.922	70.06
398.147	81.06
398.371	82.06
398.595	66.06
398.82	86.06
399.044	98.06
399.268	85.06
399.492	82.06
399.717	74.06
399.941	85.06
400.165	90.06
400.389	91.06
400.613	88.06
400.837	89.06
401.062	72.06
401.286	92.06
401.51	83.06
401.734	82.06
401.958	82.06
402.182	118.06
402.406	144.06
402.63	108.06
402.854	96.06
403.078	86.06
403.302	92.06
403.526	94.06
403.75	85.06
403.974	78.06
404.198	85.06
404.422	88.06
404.645	92.06
404.869	73.06
405.093	92.06
405.317	81.06
405.541	103.06
405.765	94.06
405.988	116.06
406.212	148.06
406.436	192.06
406.66	135.06
406.883	98.06
407.107	90.06
407.331	78.06
407.555	108.06
407.778	100.06
408.002	97.06
408.226	94.06
408.449	73.06
408.673	86.06
408.896	102.06
409.12	93.06
409.344	80.06
409.567	93.06
409.791	86.06
410.014	92.06
410.238	93.06
410.461	79.06
410.685	85.06
410.908	88.06
411.132	96.06
411.355	93.06
411.578	88.06
411.802	82.06
412.025	80.06
412.249	76.06
412.472	89.06
412.695	80.06
412.919	102.06
413.142	84.06
413.365	64.06
413.589	83.06
413.812	78.06
414.035	100.06
414.258	84.06
414.482	76.06
414.705	77.06
414.928	83.06
415.151	85.06
415.374	82.06
415.597	84.06
415.821	84.06
416.044	77.06
416.267	70.06
416.49	85.06
416.713	85.06
416.936	80.06
417.159	89.06
417.382	88.06
417.605	84.06
417.828	94.06
418.051	78.06
418.274	84.06
418.497	82.06
418.72	81.06
418.943	105.06
419.166	82.06
419.389	80.06
419.611	92.06
419.834	90.06
420.057	86.06
420.28	79.06
420.503	73.06
420.726	70.06
420.948	93.06
421.171	77.06
421.394	90.06
421.617	88.06
421.839	81.06
422.062	99.06
422.285	80.06
422.507	80.06
422.73	97.06
422.953	100.06
423.175	93.06
423.398	90.06
423.621	88.06
423.843	78.06
424.066	76.06
424.288	87.06
424.511	93.06
424.733	103.06
424.956	108.06
425.178	96.06
425.401	85.06
425.623	100.06
425.846	82.06
426.068	86.06
426.291	76.06
426.513	105.06
426.735	103.06
426.958	90.06
427.18	93.06
427.402	121.06
427.625	154.06
427.847	111.06
428.069	88.06
428.292	79.06
428.514	84.06
428.736	82.06
428.958	67.06
429.181	89.06
429.403	79.06
429.625	78.06
429.847	70.06
430.069	94.06
430.292	97.06
430.514	81.06
430.736	84.06
430.958	89.06
431.18	81.06
431.402	77.06
431.624	85.06
431.846	86.06
432.068	69.06
432.29	62.06
432.512	84.06
432.734	84.06
432.956	94.06
433.178	83.06
433.4	100.06
433.622	95.06
433.844	95.06
434.066	82.06
434.287	84.06
434.509	80.06
434.731	89.06
434.953	76.06
435.175	92.06
435.397	81.06
435.618	97.06
435.84	95.06
436.062	108.06
436.284	96.06
436.505	90.06
436.727	86.06
436.949	88.06
437.17	90.06
437.392	84.06
437.614	95.06
437.835	95.06
438.057	104.06
438.278	106.06
438.5	100.06
438.721	120.06
438.943	105.06
439.165	93.06
439.386	82.06
439.608	92.06
439.829	94.06
440.05	116.06
440.272	126.06
440.493	95.06
440.715	86.06
440.936	71.06
441.158	83.06
441.379	89.06
441.6	92.06
441.822	96.06
442.043	79.06
442.264	92.06
442.486	112.06
442.707	81.06
442.928	101.06
443.149	105.06
443.371	125.06
443.592	104.06
443.813	99.06
444.034	97.06
444.255	116.06
444.476	82.06
444.698	84.06
444.919	87.06
445.14	123.06
445.361	105.06
445.582	102.06
445.803	113.06
446.024	125.06
446.245	120.06
446.466	89.06
446.687	87.06
446.908	92.06
447.129	97.06
447.35	76.06
447.571	82.06
447.792	90.06
448.013	100.06
448.234	111.06
448.455	85.06
448.675	106.06
448.896	113.06
449.117	102.06
449.338	96.06
449.559	112.06
449.779	119.06
450	73.06
450.221	76.06
450.442	97.06
450.662	101.06
450.883	109.06
451.104	107.06
451.324	88.06
451.545	87.06
451.766	88.06
451.986	79.06
452.207	84.06
452.428	85.06
452.648	82.06
452.869	115.06
453.089	96.06
453.31	101.06
453.53	88.06
453.751	83.06
453.971	95.06
454.192	90.06
454.412	84.06
454.633	90.06
454.853	79.06
455.073	90.06
455.294	88.06
455.514	95.06
455.734	92.06
455.955	91.06
456.175	88.06
456.395	78.06
456.616	86.06
456.836	79.06
457.056	70.06
457.276	87.06
457.497	83.06
457.717	99.06
457.937	84.06
458.157	91.06
458.377	78.06
458.598	105.06
458.818	131.06
459.038	144.06
459.258	112.06
459.478	85.06
459.698	71.06
459.918	72.06
460.138	82.06
460.358	82.06
460.578	67.06
460.798	79.06
461.018	87.06
461.238	84.06
461.458	78.06
461.678	79.06
461.898	92.06
462.118	103.06
462.338	82.06
462.558	81.06
462.777	74.06
462.997	76.06
463.217	81.06
463.437	68.06
463.657	90.06
463.876	69.06
464.096	90.06
464.316	86.06
464.536	90.06
464.755	81.06
464.975	96.06
465.195	133.06
465.414	156.06
465.634	96.06
465.854	93.06
466.073	85.06
466.293	79.06
466.512	81.06
466.732	88.06
466.951	95.06
467.171	83.06
467.391	87.06
467.61	107.06
467.829	113.06
468.049	104.06
468.268	112.06
468.488	86.06
468.707	76.06
468.927	88.06
469.146	74.06
469.365	83.06
469.585	86.06
469.804	80.06
470.023	86.06
470.243	85.06
470.462	89.06
470.681	85.06
470.901	79.06
471.12	89.06
471.339	81.06
471.558	69.06
471.777	94.06
471.997	88.06
472.216	122.06
472.435	162.06
472.654	92.06
472.873	92.06
473.092	90.06
473.311	85.06
473.53	92.06
473.749	78.06
473.968	88.06
474.187	109.06
474.406	94.06
474.625	89.06
474.844	80.06
475.063	76.06
475.282	84.06
475.501	87.06
475.72	86.06
475.939	89.06
476.158	80.06
476.377	84.06
476.596	89.06
476.814	98.06
477.033	94.06
477.252	96.06
477.471	72.06
477.69	83.06
477.908	84.06
478.127	78.06
478.346	98.06
478.564	84.06
478.783	89.06
479.002	91.06
479.22	92.06
479.439	82.06
479.658	99.06
479.876	92.06
480.095	87.06
480.313	93.06
480.532	98.06
480.751	93.06
480.969	117.06
481.188	246.06
481.406	169.06
481.624	85.06
481.843	86.06
482.061	77.06
482.28	80.06
482.498	82.06
482.717	73.06
482.935	91.06
483.153	92.06
483.372	96.06
483.59	96.06
483.808	87.06
484.027	88.06
484.245	87.06
484.463	83.06
484.681	90.06
484.9	96.06
485.118	94.06
485.336	80.06
485.554	90.06
485.772	89.06
485.99	99.06
486.209	107.06
486.427	100.06
486.645	99.06
486.863	101.06
487.081	112.06
487.299	84.06
487.517	77.06
487.735	83.06
487.953	96.06
488.171	84.06
488.389	85.06
488.607	92.06
488.825	89.06
489.043	82.06
489.261	98.06
489.479	86.06
489.696	87.06
489.914	76.06
490.132	84.06
490.35	96.06
490.568	97.06
490.786	78.06
491.003	90.06
491.221	86.06
491.439	79.06
491.657	86.06
491.874	90.06
492.092	77.06
492.31	81.06
492.527	91.06
492.745	87.06
492.963	70.06
493.18	89.06
493.398	94.06
493.615	84.06
493.833	83.06
494.05	88.06
494.268	84.06
494.485	89.06
494.703	84.06
494.92	77.06
495.138	94.06
495.355	93.06
495.573	90.06
495.79	93.06
496.008	78.06
496.225	87.06
496.442	89.06
496.66	81.06
496.877	91.06
497.094	95.06
497.312	92.06
497.529	81.06
497.746	103.06
497.963	78.06
498.181	96.06
498.398	98.06
498.615	98.06
498.832	89.06
499.049	92.06
499.267	84.06
499.484	90.06
499.701	84.06
499.918	93.06
500.135	88.06
500.352	78.06
500.569	88.06
500.786	98.06
501.003	85.06
501.22	87.06
501.437	84.06
501.654	84.06
501.871	93.06
502.088	82.06
502.305	95.06
502.522	94.06
502.739	97.06
502.956	90.06
503.172	73.06
503.389	89.06
503.606	100.06
503.823	98.06
504.04	86.06
504.256	88.06
504.473	68.06
504.69	94.06
504.907	96.06
505.123	85.06
505.34	76.06
505.557	90.06
505.773	79.06
505.99	82.06
506.207	77.06
506.423	87.06
506.64	88.06
506.856	98.06
507.073	104.06
507.289	95.06
507.506	96.06
507.722	91.06
507.939	106.06
508.155	103.06
508.372	90.06
508.588	80.06
508.805	87.06
509.021	93.06
509.238	77.06
509.454	102.06
509.67	95.06
509.887	107.06
510.103	132.06
510.319	213.06
510.536	735.06
510.752	2314.06
510.968	634.06
511.184	146.06
511.401	103.06
511.617	100.06
511.833	89.06
512.049	90.06
512.265	105.06
512.481	94.06
512.698	102.06
512.914	88.06
513.13	80.06
513.346	88.06
513.562	80.06
513.778	99.06
513.994	97.06
514.21	109.06
514.426	117.06
514.642	130.06
514.858	122.06
515.074	146.06
515.29	432.06
515.506	1389.06
515.721	494.06
515.937	132.06
516.153	105.06
516.369	95.06
516.585	92.06
516.801	90.06
517.016	84.06
