Data from Uncirc_1983_H10_HRD10591_00084.txt Node
Date: Wed Jan 03 12:25:48 EST 2024
User: Yrep
Spectrometer: HR+D1059
Trigger mode: 1
Integration Time (sec): 1.000000E-1
Scans to average: 1
Electric dark correction enabled: true
Nonlinearity correction enabled: false
Boxcar width: 0
XAxis mode: Wavelengths
Number of Pixels in Spectrum: 2048
>>>>>Begin Spectral Data<<<<<
223.165	-13.25
223.4	-13.25
223.635	-13.25
223.869	-9.25
224.104	-31.25
224.338	-11.25
224.573	-19.25
224.808	-31.25
225.042	-2.25
225.277	-6.25
225.511	-6.25
225.746	8.75
225.98	-1.25
226.215	15.75
226.449	17.75
226.683	21.75
226.918	32.75
227.152	34.75
227.387	35.75
227.621	25.75
227.856	30.75
228.09	46.75
228.324	42.75
228.559	67.75
228.793	60.75
229.027	56.75
229.262	62.75
229.496	85.75
229.73	86.75
229.964	76.75
230.199	60.75
230.433	71.75
230.667	77.75
230.901	76.75
231.136	71.75
231.37	72.75
231.604	78.75
231.838	72.75
232.072	64.75
232.306	74.75
232.541	74.75
232.775	88.75
233.009	73.75
233.243	66.75
233.477	71.75
233.711	86.75
233.945	86.75
234.179	69.75
234.413	67.75
234.647	80.75
234.881	88.75
235.115	71.75
235.349	78.75
235.583	84.75
235.817	84.75
236.051	70.75
236.285	73.75
236.519	88.75
236.753	86.75
236.987	83.75
237.221	74.75
237.455	83.75
237.689	78.75
237.922	91.75
238.156	68.75
238.39	82.75
238.624	75.75
238.858	78.75
239.091	76.75
239.325	86.75
239.559	67.75
239.793	78.75
240.027	78.75
240.26	71.75
240.494	88.75
240.728	82.75
240.961	76.75
241.195	73.75
241.429	82.75
241.662	74.75
241.896	79.75
242.13	82.75
242.363	83.75
242.597	82.75
242.83	70.75
243.064	74.75
243.298	75.75
243.531	81.75
243.765	67.75
243.998	84.75
244.232	72.75
244.465	90.75
244.699	65.75
244.932	79.75
245.166	91.75
245.399	70.75
245.633	88.75
245.866	89.75
246.099	63.75
246.333	97.75
246.566	84.75
246.8	74.75
247.033	70.75
247.266	68.75
247.5	79.75
247.733	76.75
247.966	70.75
248.2	78.75
248.433	83.75
248.666	84.75
248.899	63.75
249.133	83.75
249.366	102.75
249.599	92.75
249.832	81.75
250.066	85.75
250.299	82.75
250.532	74.75
250.765	86.75
250.998	75.75
251.231	82.75
251.465	70.75
251.698	79.75
251.931	89.75
252.164	75.75
252.397	87.75
252.63	75.75
252.863	85.75
253.096	88.75
253.329	93.75
253.562	79.75
253.795	66.75
254.028	74.75
254.261	82.75
254.494	83.75
254.727	83.75
254.96	84.75
255.193	95.75
255.426	72.75
255.659	95.75
255.892	80.75
256.124	73.75
256.357	92.75
256.59	92.75
256.823	72.75
257.056	87.75
257.289	84.75
257.521	89.75
257.754	78.75
257.987	88.75
258.22	79.75
258.452	82.75
258.685	96.75
258.918	89.75
259.151	80.75
259.383	90.75
259.616	72.75
259.849	83.75
260.081	82.75
260.314	65.75
260.547	82.75
260.779	80.75
261.012	75.75
261.244	86.75
261.477	88.75
261.71	93.75
261.942	95.75
262.175	113.75
262.407	74.75
262.64	105.75
262.872	78.75
263.105	70.75
263.337	74.75
263.57	73.75
263.802	88.75
264.035	71.75
264.267	87.75
264.499	79.75
264.732	72.75
264.964	97.75
265.197	80.75
265.429	84.75
265.661	94.75
265.894	81.75
266.126	84.75
266.358	90.75
266.591	79.75
266.823	94.75
267.055	78.75
267.287	85.75
267.52	88.75
267.752	75.75
267.984	78.75
268.216	88.75
268.448	88.75
268.681	70.75
268.913	84.75
269.145	74.75
269.377	86.75
269.609	90.75
269.841	96.75
270.073	86.75
270.306	82.75
270.538	98.75
270.77	94.75
271.002	81.75
271.234	85.75
271.466	96.75
271.698	85.75
271.93	89.75
272.162	73.75
272.394	94.75
272.626	83.75
272.858	94.75
273.09	86.75
273.322	88.75
273.553	83.75
273.785	82.75
274.017	85.75
274.249	78.75
274.481	91.75
274.713	86.75
274.945	82.75
275.176	82.75
275.408	78.75
275.64	83.75
275.872	88.75
276.104	85.75
276.335	86.75
276.567	94.75
276.799	90.75
277.031	94.75
277.262	88.75
277.494	75.75
277.726	83.75
277.957	78.75
278.189	91.75
278.421	80.75
278.652	91.75
278.884	78.75
279.115	98.75
279.347	95.75
279.579	86.75
279.81	72.75
280.042	93.75
280.273	86.75
280.505	76.75
280.736	77.75
280.968	99.75
281.199	92.75
281.431	89.75
281.662	90.75
281.894	85.75
282.125	102.75
282.356	119.75
282.588	121.75
282.819	104.75
283.051	94.75
283.282	86.75
283.513	92.75
283.745	88.75
283.976	75.75
284.207	78.75
284.439	86.75
284.67	80.75
284.901	96.75
285.132	73.75
285.364	84.75
285.595	82.75
285.826	103.75
286.057	96.75
286.288	95.75
286.52	94.75
286.751	84.75
286.982	105.75
287.213	84.75
287.444	88.75
287.675	94.75
287.906	86.75
288.138	82.75
288.369	93.75
288.6	91.75
288.831	88.75
289.062	83.75
289.293	83.75
289.524	79.75
289.755	83.75
289.986	92.75
290.217	97.75
290.448	98.75
290.679	91.75
290.91	81.75
291.141	91.75
291.371	86.75
291.602	91.75
291.833	73.75
292.064	81.75
292.295	87.75
292.526	87.75
292.757	90.75
292.987	84.75
293.218	84.75
293.449	91.75
293.68	98.75
293.91	86.75
294.141	85.75
294.372	87.75
294.603	83.75
294.833	72.75
295.064	84.75
295.295	98.75
295.525	81.75
295.756	111.75
295.987	96.75
296.217	131.75
296.448	114.75
296.679	90.75
296.909	101.75
297.14	88.75
297.37	90.75
297.601	98.75
297.831	84.75
298.062	98.75
298.292	70.75
298.523	98.75
298.753	90.75
298.984	86.75
299.214	95.75
299.445	83.75
299.675	84.75
299.905	94.75
300.136	93.75
300.366	101.75
300.597	103.75
300.827	103.75
301.057	85.75
301.288	92.75
301.518	90.75
301.748	94.75
301.979	103.75
302.209	82.75
302.439	74.75
302.669	79.75
302.9	86.75
303.13	87.75
303.36	99.75
303.59	101.75
303.82	88.75
304.051	88.75
304.281	83.75
304.511	73.75
304.741	88.75
304.971	90.75
305.201	101.75
305.431	90.75
305.661	93.75
305.891	75.75
306.121	84.75
306.352	94.75
306.582	101.75
306.812	103.75
307.042	96.75
307.272	100.75
307.502	89.75
307.731	104.75
307.961	77.75
308.191	92.75
308.421	89.75
308.651	96.75
308.881	102.75
309.111	76.75
309.341	88.75
309.571	83.75
309.8	91.75
310.03	98.75
310.26	80.75
310.49	78.75
310.72	103.75
310.949	83.75
311.179	107.75
311.409	104.75
311.639	88.75
311.868	78.75
312.098	86.75
312.328	102.75
312.557	97.75
312.787	103.75
313.017	95.75
313.246	97.75
313.476	106.75
313.706	94.75
313.935	85.75
314.165	97.75
314.394	90.75
314.624	96.75
314.853	102.75
315.083	80.75
315.312	72.75
315.542	92.75
315.771	95.75
316.001	83.75
316.23	88.75
316.46	88.75
316.689	95.75
316.919	102.75
317.148	102.75
317.377	103.75
317.607	79.75
317.836	105.75
318.065	79.75
318.295	96.75
318.524	82.75
318.753	103.75
318.983	85.75
319.212	104.75
319.441	108.75
319.67	105.75
319.9	101.75
320.129	86.75
320.358	104.75
320.587	105.75
320.816	83.75
321.046	91.75
321.275	83.75
321.504	101.75
321.733	91.75
321.962	91.75
322.191	100.75
322.42	100.75
322.649	92.75
322.878	93.75
323.108	94.75
323.337	122.75
323.566	120.75
323.795	137.75
324.024	188.75
324.253	344.75
324.482	709.75
324.71	1403.75
324.939	1840.75
325.168	704.75
325.397	208.75
325.626	131.75
325.855	118.75
326.084	116.75
326.313	122.75
326.542	132.75
326.77	192.75
326.999	401.75
327.228	825.75
327.457	1445.75
327.686	1163.75
327.914	336.75
328.143	192.75
328.372	145.75
328.6	135.75
328.829	113.75
329.058	120.75
329.287	121.75
329.515	112.75
329.744	94.75
329.972	103.75
330.201	109.75
330.43	135.75
330.658	112.75
330.887	119.75
331.115	113.75
331.344	93.75
331.572	87.75
331.801	88.75
332.03	92.75
332.258	90.75
332.486	100.75
332.715	91.75
332.943	95.75
333.172	90.75
333.4	91.75
333.629	117.75
333.857	111.75
334.085	111.75
334.314	109.75
334.542	132.75
334.771	139.75
334.999	108.75
335.227	88.75
335.455	89.75
335.684	90.75
335.912	98.75
336.14	101.75
336.369	99.75
336.597	113.75
336.825	92.75
337.053	80.75
337.281	91.75
337.51	89.75
337.738	87.75
337.966	86.75
338.194	94.75
338.422	92.75
338.65	84.75
338.878	97.75
339.106	95.75
339.334	81.75
339.562	86.75
339.79	97.75
340.018	74.75
340.246	80.75
340.474	96.75
340.702	100.75
340.93	90.75
341.158	92.75
341.386	92.75
341.614	88.75
341.842	96.75
342.07	91.75
342.298	88.75
342.526	80.75
342.754	85.75
342.981	102.75
343.209	100.75
343.437	106.75
343.665	100.75
343.893	90.75
344.12	98.75
344.348	99.75
344.576	113.75
344.804	100.75
345.031	95.75
345.259	91.75
345.487	95.75
345.714	85.75
345.942	90.75
346.17	91.75
346.397	94.75
346.625	88.75
346.853	94.75
347.08	83.75
347.308	100.75
347.535	97.75
347.763	104.75
347.99	101.75
348.218	94.75
348.445	85.75
348.673	88.75
348.9	95.75
349.128	96.75
349.355	97.75
349.583	83.75
349.81	89.75
350.037	98.75
350.265	87.75
350.492	98.75
350.72	107.75
350.947	97.75
351.174	110.75
351.402	105.75
351.629	91.75
351.856	84.75
352.083	107.75
352.311	106.75
352.538	108.75
352.765	99.75
352.992	106.75
353.22	103.75
353.447	106.75
353.674	106.75
353.901	106.75
354.128	91.75
354.355	103.75
354.583	91.75
354.81	101.75
355.037	100.75
355.264	92.75
355.491	81.75
355.718	83.75
355.945	93.75
356.172	98.75
356.399	103.75
356.626	86.75
356.853	94.75
357.08	91.75
357.307	82.75
357.534	79.75
357.761	88.75
357.988	102.75
358.215	84.75
358.441	90.75
358.668	104.75
358.895	94.75
359.122	99.75
359.349	93.75
359.576	92.75
359.802	94.75
360.029	103.75
360.256	98.75
360.483	96.75
360.709	96.75
360.936	97.75
361.163	89.75
361.39	107.75
361.616	100.75
361.843	105.75
362.07	96.75
362.296	86.75
362.523	103.75
362.749	96.75
362.976	89.75
363.203	91.75
363.429	82.75
363.656	96.75
363.882	91.75
364.109	96.75
364.335	79.75
364.562	90.75
364.788	88.75
365.015	89.75
365.241	90.75
365.468	99.75
365.694	105.75
365.92	92.75
366.147	90.75
366.373	92.75
366.599	84.75
366.826	98.75
367.052	73.75
367.278	86.75
367.505	88.75
367.731	91.75
367.957	96.75
368.184	84.75
368.41	87.75
368.636	108.75
368.862	118.75
369.089	92.75
369.315	94.75
369.541	88.75
369.767	90.75
369.993	90.75
370.219	106.75
370.445	84.75
370.672	81.75
370.898	90.75
371.124	97.75
371.35	79.75
371.576	70.75
371.802	83.75
372.028	87.75
372.254	82.75
372.48	83.75
372.706	99.75
372.932	97.75
373.158	83.75
373.384	79.75
373.61	87.75
373.835	90.75
374.061	88.75
374.287	96.75
374.513	95.75
374.739	80.75
374.965	90.75
375.191	81.75
375.416	85.75
375.642	82.75
375.868	87.75
376.094	79.75
376.319	85.75
376.545	106.75
376.771	94.75
376.997	89.75
377.222	92.75
377.448	90.75
377.674	98.75
377.899	84.75
378.125	94.75
378.35	105.75
378.576	88.75
378.802	96.75
379.027	83.75
379.253	80.75
379.478	99.75
379.704	76.75
379.929	101.75
380.155	90.75
380.38	92.75
380.606	90.75
380.831	92.75
381.057	85.75
381.282	104.75
381.507	88.75
381.733	83.75
381.958	96.75
382.184	88.75
382.409	83.75
382.634	95.75
382.86	96.75
383.085	102.75
383.31	97.75
383.535	87.75
383.761	86.75
383.986	97.75
384.211	87.75
384.436	89.75
384.662	87.75
384.887	94.75
385.112	81.75
385.337	86.75
385.562	82.75
385.787	107.75
386.013	114.75
386.238	107.75
386.463	87.75
386.688	117.75
386.913	101.75
387.138	99.75
387.363	100.75
387.588	94.75
387.813	99.75
388.038	99.75
388.263	107.75
388.488	92.75
388.713	87.75
388.938	88.75
389.163	90.75
389.387	106.75
389.612	96.75
389.837	98.75
390.062	93.75
390.287	87.75
390.512	97.75
390.736	82.75
390.961	102.75
391.186	92.75
391.411	88.75
391.636	86.75
391.86	74.75
392.085	87.75
392.31	89.75
392.534	80.75
392.759	94.75
392.984	83.75
393.208	96.75
393.433	100.75
393.658	91.75
393.882	74.75
394.107	90.75
394.331	78.75
394.556	81.75
394.78	74.75
395.005	92.75
395.229	70.75
395.454	84.75
395.678	84.75
395.903	78.75
396.127	70.75
396.352	78.75
396.576	91.75
396.801	82.75
397.025	91.75
397.249	82.75
397.474	83.75
397.698	95.75
397.922	85.75
398.147	87.75
398.371	89.75
398.595	80.75
398.82	80.75
399.044	88.75
399.268	77.75
399.492	86.75
399.717	86.75
399.941	99.75
400.165	82.75
400.389	89.75
400.613	85.75
400.837	86.75
401.062	94.75
401.286	84.75
401.51	78.75
401.734	86.75
401.958	107.75
402.182	119.75
402.406	140.75
402.63	94.75
402.854	79.75
403.078	76.75
403.302	80.75
403.526	78.75
403.75	91.75
403.974	94.75
404.198	73.75
404.422	80.75
404.645	75.75
404.869	88.75
405.093	87.75
405.317	90.75
405.541	83.75
405.765	81.75
405.988	111.75
406.212	151.75
406.436	199.75
406.66	129.75
406.883	94.75
407.107	89.75
407.331	75.75
407.555	88.75
407.778	75.75
408.002	84.75
408.226	80.75
408.449	87.75
408.673	101.75
408.896	80.75
409.12	101.75
409.344	93.75
409.567	69.75
409.791	80.75
410.014	97.75
410.238	91.75
410.461	94.75
410.685	87.75
410.908	83.75
411.132	102.75
411.355	98.75
411.578	87.75
411.802	64.75
412.025	89.75
412.249	89.75
412.472	91.75
412.695	95.75
412.919	91.75
413.142	86.75
413.365	96.75
413.589	87.75
413.812	85.75
414.035	87.75
414.258	94.75
414.482	66.75
414.705	77.75
414.928	78.75
415.151	88.75
415.374	88.75
415.597	71.75
415.821	81.75
416.044	82.75
416.267	80.75
416.49	83.75
416.713	81.75
416.936	80.75
417.159	82.75
417.382	73.75
417.605	91.75
417.828	81.75
418.051	95.75
418.274	91.75
418.497	81.75
418.72	86.75
418.943	90.75
419.166	91.75
419.389	89.75
419.611	84.75
419.834	87.75
420.057	86.75
420.28	83.75
420.503	80.75
420.726	78.75
420.948	73.75
421.171	92.75
421.394	82.75
421.617	99.75
421.839	70.75
422.062	90.75
422.285	90.75
422.507	99.75
422.73	87.75
422.953	80.75
423.175	90.75
423.398	94.75
423.621	91.75
423.843	106.75
424.066	96.75
424.288	98.75
424.511	90.75
424.733	90.75
424.956	99.75
425.178	104.75
425.401	100.75
425.623	98.75
425.846	94.75
426.068	89.75
426.291	94.75
426.513	90.75
426.735	84.75
426.958	96.75
427.18	97.75
427.402	129.75
427.625	146.75
427.847	131.75
428.069	106.75
428.292	80.75
428.514	73.75
428.736	74.75
428.958	85.75
429.181	81.75
429.403	74.75
429.625	74.75
429.847	92.75
430.069	95.75
430.292	82.75
430.514	82.75
430.736	90.75
430.958	90.75
431.18	80.75
431.402	96.75
431.624	90.75
431.846	83.75
432.068	97.75
432.29	81.75
432.512	78.75
432.734	85.75
432.956	82.75
433.178	89.75
433.4	87.75
433.622	95.75
433.844	88.75
434.066	87.75
434.287	92.75
434.509	89.75
434.731	95.75
434.953	78.75
435.175	81.75
435.397	94.75
435.618	89.75
435.84	101.75
436.062	109.75
436.284	102.75
436.505	95.75
436.727	105.75
436.949	84.75
437.17	93.75
437.392	83.75
437.614	85.75
437.835	105.75
438.057	105.75
438.278	99.75
438.5	94.75
438.721	109.75
438.943	98.75
439.165	80.75
439.386	90.75
439.608	97.75
439.829	95.75
440.05	106.75
440.272	125.75
440.493	92.75
440.715	82.75
440.936	82.75
441.158	84.75
441.379	91.75
441.6	96.75
441.822	80.75
442.043	85.75
442.264	107.75
442.486	98.75
442.707	87.75
442.928	101.75
443.149	104.75
443.371	107.75
443.592	113.75
443.813	110.75
444.034	97.75
444.255	89.75
444.476	95.75
444.698	86.75
444.919	73.75
445.14	126.75
445.361	118.75
445.582	109.75
445.803	132.75
446.024	118.75
446.245	120.75
446.466	94.75
446.687	91.75
446.908	87.75
447.129	81.75
447.35	99.75
447.571	84.75
447.792	89.75
448.013	90.75
448.234	71.75
448.455	89.75
448.675	90.75
448.896	110.75
449.117	110.75
449.338	103.75
449.559	125.75
449.779	121.75
450	92.75
450.221	73.75
450.442	83.75
450.662	95.75
450.883	101.75
451.104	105.75
451.324	82.75
451.545	90.75
451.766	84.75
451.986	87.75
452.207	99.75
452.428	93.75
452.648	98.75
452.869	100.75
453.089	99.75
453.31	107.75
453.53	86.75
453.751	84.75
453.971	86.75
454.192	106.75
454.412	85.75
454.633	92.75
454.853	90.75
455.073	94.75
455.294	92.75
455.514	97.75
455.734	76.75
455.955	80.75
456.175	74.75
456.395	74.75
456.616	80.75
456.836	91.75
457.056	85.75
457.276	79.75
457.497	98.75
457.717	85.75
457.937	87.75
458.157	84.75
458.377	86.75
458.598	94.75
458.818	129.75
459.038	138.75
459.258	105.75
459.478	80.75
459.698	73.75
459.918	94.75
460.138	78.75
460.358	85.75
460.578	78.75
460.798	75.75
461.018	82.75
461.238	88.75
461.458	79.75
461.678	89.75
461.898	96.75
462.118	88.75
462.338	75.75
462.558	86.75
462.777	86.75
462.997	86.75
463.217	69.75
463.437	75.75
463.657	82.75
463.876	86.75
464.096	86.75
464.316	75.75
464.536	93.75
464.755	90.75
464.975	99.75
465.195	140.75
465.414	143.75
465.634	95.75
465.854	105.75
466.073	92.75
466.293	101.75
466.512	86.75
466.732	99.75
466.951	86.75
467.171	104.75
467.391	87.75
467.61	98.75
467.829	97.75
468.049	115.75
468.268	111.75
468.488	95.75
468.707	86.75
468.927	86.75
469.146	76.75
469.365	78.75
469.585	90.75
469.804	87.75
470.023	99.75
470.243	71.75
470.462	103.75
470.681	94.75
470.901	78.75
471.12	84.75
471.339	83.75
471.558	92.75
471.777	71.75
471.997	83.75
472.216	114.75
472.435	156.75
472.654	122.75
472.873	103.75
473.092	94.75
473.311	91.75
473.53	87.75
473.749	82.75
473.968	91.75
474.187	100.75
474.406	99.75
474.625	88.75
474.844	82.75
475.063	80.75
475.282	94.75
475.501	73.75
475.72	91.75
475.939	83.75
476.158	65.75
476.377	96.75
476.596	94.75
476.814	88.75
477.033	86.75
477.252	91.75
477.471	82.75
477.69	76.75
477.908	80.75
478.127	82.75
478.346	87.75
478.564	82.75
478.783	86.75
479.002	87.75
479.22	80.75
479.439	92.75
479.658	90.75
479.876	95.75
480.095	101.75
480.313	92.75
480.532	94.75
480.751	86.75
480.969	121.75
481.188	235.75
481.406	164.75
481.624	95.75
481.843	74.75
482.061	80.75
482.28	88.75
482.498	97.75
482.717	82.75
482.935	97.75
483.153	84.75
483.372	90.75
483.59	96.75
483.808	97.75
484.027	97.75
484.245	95.75
484.463	95.75
484.681	100.75
484.9	89.75
485.118	86.75
485.336	90.75
485.554	106.75
485.772	100.75
485.99	84.75
486.209	98.75
486.427	100.75
486.645	102.75
486.863	111.75
487.081	104.75
487.299	89.75
487.517	93.75
487.735	85.75
487.953	73.75
488.171	104.75
488.389	94.75
488.607	87.75
488.825	88.75
489.043	77.75
489.261	97.75
489.479	89.75
489.696	91.75
489.914	86.75
490.132	92.75
490.35	85.75
490.568	95.75
490.786	90.75
491.003	84.75
491.221	88.75
491.439	86.75
491.657	96.75
491.874	100.75
492.092	91.75
492.31	94.75
492.527	89.75
492.745	80.75
492.963	90.75
493.18	87.75
493.398	95.75
493.615	99.75
493.833	105.75
494.05	92.75
494.268	87.75
494.485	96.75
494.703	94.75
494.92	89.75
495.138	87.75
495.355	90.75
495.573	96.75
495.79	95.75
496.008	83.75
496.225	94.75
496.442	82.75
496.66	84.75
496.877	94.75
497.094	92.75
497.312	84.75
497.529	83.75
497.746	87.75
497.963	87.75
498.181	90.75
498.398	92.75
498.615	115.75
498.832	94.75
499.049	94.75
499.267	100.75
499.484	98.75
499.701	100.75
499.918	94.75
500.135	79.75
500.352	97.75
500.569	86.75
500.786	88.75
501.003	107.75
501.22	102.75
501.437	79.75
501.654	94.75
501.871	97.75
502.088	96.75
502.305	95.75
502.522	89.75
502.739	98.75
502.956	79.75
503.172	84.75
503.389	92.75
503.606	99.75
503.823	95.75
504.04	95.75
504.256	85.75
504.473	85.75
504.69	103.75
504.907	89.75
505.123	89.75
505.34	94.75
505.557	96.75
505.773	88.75
505.99	78.75
506.207	80.75
506.423	73.75
506.64	88.75
506.856	101.75
507.073	94.75
507.289	92.75
507.506	96.75
507.722	114.75
507.939	106.75
508.155	98.75
508.372	79.75
508.588	90.75
508.805	93.75
509.021	101.75
509.238	100.75
509.454	86.75
509.67	87.75
509.887	108.75
510.103	111.75
510.319	181.75
510.536	706.75
510.752	2074.75
510.968	580.75
511.184	151.75
511.401	105.75
511.617	95.75
511.833	84.75
512.049	96.75
512.265	95.75
512.481	94.75
512.698	102.75
512.914	80.75
513.13	94.75
513.346	92.75
513.562	93.75
513.778	90.75
513.994	96.75
514.21	106.75
514.426	112.75
514.642	136.75
514.858	108.75
515.074	148.75
515.29	378.75
515.506	1225.75
515.721	462.75
515.937	142.75
516.153	114.75
516.369	88.75
516.585	94.75
