Data from Uncirc_1983_H10_HRD10591_00071.txt Node
Date: Wed Jan 03 12:25:46 EST 2024
User: Yrep
Spectrometer: HR+D1059
Trigger mode: 1
Integration Time (sec): 1.000000E-1
Scans to average: 1
Electric dark correction enabled: true
Nonlinearity correction enabled: false
Boxcar width: 0
XAxis mode: Wavelengths
Number of Pixels in Spectrum: 2048
>>>>>Begin Spectral Data<<<<<
223.165	-33.38
223.4	-33.38
223.635	-33.38
223.869	-28.38
224.104	-15.38
224.338	-16.38
224.573	-14.38
224.808	-5.38
225.042	-6.38
225.277	1.62
225.511	-0.38
225.746	-10.38
225.98	8.62
226.215	28.62
226.449	8.62
226.683	27.62
226.918	20.62
227.152	34.62
227.387	35.62
227.621	39.62
227.856	30.62
228.09	40.62
228.324	47.62
228.559	59.62
228.793	154.62
229.027	433.62
229.262	490.62
229.496	576.62
229.73	790.62
229.964	787.62
230.199	536.62
230.433	478.62
230.667	479.62
230.901	452.62
231.136	460.62
231.37	436.62
231.604	428.62
231.838	437.62
232.072	444.62
232.306	477.62
232.541	468.62
232.775	479.62
233.009	478.62
233.243	481.62
233.477	484.62
233.711	522.62
233.945	497.62
234.179	518.62
234.413	504.62
234.647	502.62
234.881	527.62
235.115	549.62
235.349	563.62
235.583	552.62
235.817	603.62
236.051	623.62
236.285	609.62
236.519	628.62
236.753	700.62
236.987	881.62
237.221	1367.62
237.455	1486.62
237.689	908.62
237.922	726.62
238.156	718.62
238.39	690.62
238.624	640.62
238.858	647.62
239.091	652.62
239.325	666.62
239.559	702.62
239.793	697.62
240.027	763.62
240.26	915.62
240.494	980.62
240.728	962.62
240.961	920.62
241.195	813.62
241.429	827.62
241.662	744.62
241.896	784.62
242.13	779.62
242.363	765.62
242.597	798.62
242.83	810.62
243.064	826.62
243.298	812.62
243.531	833.62
243.765	821.62
243.998	839.62
244.232	863.62
244.465	892.62
244.699	906.62
244.932	935.62
245.166	885.62
245.399	930.62
245.633	917.62
245.866	911.62
246.099	972.62
246.333	917.62
246.566	976.62
246.8	971.62
247.033	998.62
247.266	1097.62
247.5	1110.62
247.733	1140.62
247.966	1148.62
248.2	1120.62
248.433	1151.62
248.666	1217.62
248.899	1364.62
249.133	1425.62
249.366	1452.62
249.599	1312.62
249.832	1234.62
250.066	1264.62
250.299	1305.62
250.532	1483.62
250.765	1637.62
250.998	1783.62
251.231	1700.62
251.465	1480.62
251.698	1412.62
251.931	1394.62
252.164	1422.62
252.397	1450.62
252.63	1470.62
252.863	1556.62
253.096	1731.62
253.329	1728.62
253.562	1608.62
253.795	1601.62
254.028	1577.62
254.261	1664.62
254.494	1816.62
254.727	2216.62
254.96	2224.62
255.193	1954.62
255.426	1772.62
255.659	1694.62
255.892	1754.62
256.124	1872.62
256.357	1774.62
256.59	1657.62
256.823	1567.62
257.056	1596.62
257.289	1603.62
257.521	1577.62
257.754	1610.62
257.987	1539.62
258.22	1570.62
258.452	1555.62
258.685	1589.62
258.918	1590.62
259.151	1633.62
259.383	1698.62
259.616	1742.62
259.849	1800.62
260.081	1961.62
260.314	2151.62
260.547	2011.62
260.779	1872.62
261.012	1768.62
261.244	1749.62
261.477	1688.62
261.71	1699.62
261.942	1779.62
262.175	1791.62
262.407	1732.62
262.64	1671.62
262.872	1664.62
263.105	1670.62
263.337	1642.62
263.57	1659.62
263.802	1659.62
264.035	1643.62
264.267	1688.62
264.499	1678.62
264.732	1697.62
264.964	1707.62
265.197	1766.62
265.429	1739.62
265.661	1725.62
265.894	1745.62
266.126	1766.62
266.358	1760.62
266.591	1797.62
266.823	1923.62
267.055	1897.62
267.287	1878.62
267.52	1870.62
267.752	1854.62
267.984	1898.62
268.216	1917.62
268.448	1960.62
268.681	2028.62
268.913	2159.62
269.145	2351.62
269.377	2380.62
269.609	2266.62
269.841	2271.62
270.073	2372.62
270.306	2675.62
270.538	2839.62
270.77	2631.62
271.002	2474.62
271.234	2484.62
271.466	2587.62
271.698	2700.62
271.93	2735.62
272.162	2763.62
272.394	2618.62
272.626	2538.62
272.858	2409.62
273.09	2333.62
273.322	2263.62
273.553	2188.62
273.785	2235.62
274.017	2250.62
274.249	2298.62
274.481	2260.62
274.713	2282.62
274.945	2288.62
275.176	2302.62
275.408	2291.62
275.64	2270.62
275.872	2279.62
276.104	2302.62
276.335	2323.62
276.567	2418.62
276.799	2569.62
277.031	2828.62
277.262	2890.62
277.494	2763.62
277.726	2592.62
277.957	2547.62
278.189	2451.62
278.421	2447.62
278.652	2419.62
278.884	2416.62
279.115	2381.62
279.347	2397.62
279.579	2400.62
279.81	2382.62
280.042	2385.62
280.273	2425.62
280.505	2436.62
280.736	2470.62
280.968	2418.62
281.199	2438.62
281.431	2435.62
281.662	2472.62
281.894	2494.62
282.125	2559.62
282.356	2662.62
282.588	2844.62
282.819	2699.62
283.051	2602.62
283.282	2516.62
283.513	2595.62
283.745	2602.62
283.976	2672.62
284.207	2685.62
284.439	2652.62
284.67	2613.62
284.901	2658.62
285.132	2612.62
285.364	2643.62
285.595	2686.62
285.826	2648.62
286.057	2695.62
286.288	2704.62
286.52	2726.62
286.751	2728.62
286.982	2786.62
287.213	2755.62
287.444	2771.62
287.675	2814.62
287.906	2894.62
288.138	2946.62
288.369	2953.62
288.6	2922.62
288.831	2865.62
289.062	2826.62
289.293	2878.62
289.524	2828.62
289.755	2850.62
289.986	2846.62
290.217	2839.62
290.448	2809.62
290.679	2830.62
290.91	2784.62
291.141	2833.62
291.371	2832.62
291.602	2866.62
291.833	2846.62
292.064	2839.62
292.295	2890.62
292.526	2889.62
292.757	2835.62
292.987	2876.62
293.218	2810.62
293.449	2855.62
293.68	2860.62
293.91	2884.62
294.141	2809.62
294.372	2852.62
294.603	2852.62
294.833	2909.62
295.064	2889.62
295.295	2936.62
295.525	2896.62
295.756	2948.62
295.987	3070.62
296.217	3214.62
296.448	3079.62
296.679	2987.62
296.909	2977.62
297.14	2988.62
297.37	3029.62
297.601	3092.62
297.831	3055.62
298.062	3056.62
298.292	3100.62
298.523	3147.62
298.753	3180.62
298.984	3103.62
299.214	3134.62
299.445	3124.62
299.675	3164.62
299.905	3185.62
300.136	3163.62
300.366	3185.62
300.597	3178.62
300.827	3318.62
301.057	3328.62
301.288	3422.62
301.518	3386.62
301.748	3286.62
301.979	3422.62
302.209	3483.62
302.439	3393.62
302.669	3323.62
302.9	3310.62
303.13	3342.62
303.36	3387.62
303.59	3373.62
303.82	3512.62
304.051	3435.62
304.281	3363.62
304.511	3266.62
304.741	3368.62
304.971	3357.62
305.201	3201.62
305.431	3271.62
305.661	3284.62
305.891	3267.62
306.121	3318.62
306.352	3335.62
306.582	3351.62
306.812	3284.62
307.042	3280.62
307.272	3361.62
307.502	3268.62
307.731	3354.62
307.961	3336.62
308.191	3292.62
308.421	3315.62
308.651	3338.62
308.881	3305.62
309.111	3377.62
309.341	3328.62
309.571	3482.62
309.8	3505.62
310.03	3586.62
310.26	3593.62
310.49	3558.62
310.72	3744.62
310.949	3742.62
311.179	3762.62
311.409	3626.62
311.639	3645.62
311.868	3655.62
312.098	3650.62
312.328	3803.62
312.557	3929.62
312.787	4056.62
313.017	3917.62
313.246	3752.62
313.476	3715.62
313.706	3824.62
313.935	3843.62
314.165	3900.62
314.394	3950.62
314.624	3866.62
314.853	3833.62
315.083	3729.62
315.312	3777.62
315.542	3716.62
315.771	3652.62
316.001	3667.62
316.23	3704.62
316.46	3714.62
316.689	3772.62
316.919	3827.62
317.148	3824.62
317.377	3837.62
317.607	3775.62
317.836	3777.62
318.065	3691.62
318.295	3744.62
318.524	3626.62
318.753	3699.62
318.983	3723.62
319.212	3675.62
319.441	3734.62
319.67	3791.62
319.9	3726.62
320.129	3697.62
320.358	3710.62
320.587	3746.62
320.816	3839.62
321.046	3857.62
321.275	3880.62
321.504	3831.62
321.733	3873.62
321.962	3910.62
322.191	4059.62
322.42	4133.62
322.649	4165.62
322.878	4225.62
323.108	4341.62
323.337	4499.62
323.566	4674.62
323.795	4940.62
324.024	5538.62
324.253	7164.62
324.482	10609.62
324.71	15067.62
324.939	15628.62
325.168	12812.62
325.397	6519.62
325.626	5170.62
325.855	4853.62
326.084	4781.62
326.313	4778.62
326.542	4885.62
326.77	5491.62
326.999	6902.62
327.228	10065.62
327.457	14198.62
327.686	13576.62
327.914	7287.62
328.143	5851.62
328.372	5527.62
328.6	5290.62
328.829	5328.62
329.058	5406.62
329.287	5330.62
329.515	5054.62
329.744	4874.62
329.972	5082.62
330.201	5251.62
330.43	5559.62
330.658	5626.62
330.887	5858.62
331.115	5382.62
331.344	5036.62
331.572	4904.62
331.801	5046.62
332.03	5137.62
332.258	4991.62
332.486	4996.62
332.715	5109.62
332.943	5298.62
333.172	5432.62
333.4	5576.62
333.629	5712.62
333.857	5930.62
334.085	5906.62
334.314	6016.62
334.542	6337.62
334.771	6078.62
334.999	5707.62
335.227	5354.62
335.455	5274.62
335.684	5153.62
335.912	5080.62
336.14	5063.62
336.369	4990.62
336.597	5073.62
336.825	4998.62
337.053	4944.62
337.281	4816.62
337.51	4745.62
337.738	4705.62
337.966	4787.62
338.194	4714.62
338.422	4628.62
338.65	4620.62
338.878	4517.62
339.106	4514.62
339.334	4613.62
339.562	4532.62
339.79	4470.62
340.018	4427.62
340.246	4451.62
340.474	4537.62
340.702	4438.62
340.93	4461.62
341.158	4438.62
341.386	4465.62
341.614	4459.62
341.842	4421.62
342.07	4411.62
342.298	4386.62
342.526	4294.62
342.754	4354.62
342.981	4349.62
343.209	4486.62
343.437	4731.62
343.665	4992.62
343.893	5178.62
344.12	5238.62
344.348	5014.62
344.576	4809.62
344.804	4720.62
345.031	4710.62
345.259	4611.62
345.487	4456.62
345.714	4401.62
345.942	4226.62
346.17	4165.62
346.397	4207.62
346.625	4267.62
346.853	4150.62
347.08	4184.62
347.308	4269.62
347.535	4326.62
347.763	4322.62
347.99	4262.62
348.218	4312.62
348.445	4328.62
348.673	4310.62
348.9	4191.62
349.128	4134.62
349.355	4148.62
349.583	4097.62
349.81	4077.62
350.037	4056.62
350.265	4034.62
350.492	4095.62
350.72	4069.62
350.947	4108.62
351.174	4203.62
351.402	4183.62
351.629	4159.62
351.856	4201.62
352.083	4282.62
352.311	4303.62
352.538	4231.62
352.765	4242.62
352.992	4168.62
353.22	4146.62
353.447	4137.62
353.674	4054.62
353.901	3978.62
354.128	3967.62
354.355	3965.62
354.583	4008.62
354.81	4004.62
355.037	4022.62
355.264	3922.62
355.491	3961.62
355.718	4003.62
355.945	4014.62
356.172	4002.62
356.399	4018.62
356.626	4037.62
356.853	3998.62
357.08	3966.62
357.307	3936.62
357.534	3976.62
357.761	3959.62
357.988	4028.62
358.215	3983.62
358.441	4019.62
358.668	4052.62
358.895	4103.62
359.122	4044.62
359.349	4141.62
359.576	4308.62
359.802	4473.62
360.029	4630.62
360.256	4598.62
360.483	4489.62
360.709	4198.62
360.936	4200.62
361.163	4162.62
361.39	4193.62
361.616	4243.62
361.843	4206.62
362.07	4209.62
362.296	4159.62
362.523	4203.62
362.749	4205.62
362.976	4196.62
363.203	4112.62
363.429	4090.62
363.656	4076.62
363.882	4058.62
364.109	4041.62
364.335	3989.62
364.562	4070.62
364.788	4096.62
365.015	4089.62
365.241	4062.62
365.468	4121.62
365.694	4165.62
365.92	4110.62
366.147	4117.62
366.373	4032.62
366.599	4004.62
366.826	4031.62
367.052	4039.62
367.278	4063.62
367.505	4075.62
367.731	4150.62
367.957	4108.62
368.184	4167.62
368.41	4220.62
368.636	4251.62
368.862	4245.62
369.089	4234.62
369.315	4149.62
369.541	4186.62
369.767	4142.62
369.993	4201.62
370.219	4174.62
370.445	4272.62
370.672	4257.62
370.898	4235.62
371.124	4281.62
371.35	4407.62
371.576	4324.62
371.802	4314.62
372.028	4348.62
372.254	4362.62
372.48	4344.62
372.706	4487.62
372.932	4483.62
373.158	4393.62
373.384	4361.62
373.61	4377.62
373.835	4327.62
374.061	4393.62
374.287	4498.62
374.513	4568.62
374.739	4725.62
374.965	4754.62
375.191	4740.62
375.416	4727.62
375.642	4620.62
375.868	4582.62
376.094	4522.62
376.319	4406.62
376.545	4448.62
376.771	4328.62
376.997	4350.62
377.222	4313.62
377.448	4323.62
377.674	4372.62
377.899	4258.62
378.125	4345.62
378.35	4308.62
378.576	4312.62
378.802	4248.62
379.027	4281.62
379.253	4321.62
379.478	4291.62
379.704	4272.62
379.929	4355.62
380.155	4387.62
380.38	4370.62
380.606	4451.62
380.831	4359.62
381.057	4378.62
381.282	4408.62
381.507	4344.62
381.733	4520.62
381.958	4408.62
382.184	4473.62
382.409	4514.62
382.634	4597.62
382.86	4602.62
383.085	4687.62
383.31	4718.62
383.535	4766.62
383.761	4872.62
383.986	4899.62
384.211	4980.62
384.436	5032.62
384.662	5086.62
384.887	5221.62
385.112	5156.62
385.337	5291.62
385.562	5224.62
385.787	5303.62
386.013	5364.62
386.238	5379.62
386.463	5338.62
386.688	5283.62
386.913	5168.62
387.138	5170.62
387.363	5241.62
387.588	5114.62
387.813	5193.62
388.038	5157.62
388.263	5183.62
388.488	5262.62
388.713	5220.62
388.938	5157.62
389.163	5127.62
389.387	5169.62
389.612	5121.62
389.837	5164.62
390.062	5123.62
390.287	5131.62
390.512	5055.62
390.736	5205.62
390.961	5321.62
391.186	5348.62
391.411	5599.62
391.636	5619.62
391.86	5840.62
392.085	5967.62
392.31	5735.62
392.534	5615.62
392.759	5614.62
392.984	5439.62
393.208	5452.62
393.433	5406.62
393.658	5407.62
393.882	5313.62
394.107	5386.62
394.331	5475.62
394.556	5438.62
394.78	5574.62
395.005	5573.62
395.229	5671.62
395.454	5741.62
395.678	5863.62
395.903	5793.62
396.127	5935.62
396.352	5800.62
396.576	5552.62
396.801	5518.62
397.025	5616.62
397.249	5752.62
397.474	5904.62
397.698	5876.62
397.922	6000.62
398.147	6150.62
398.371	6206.62
398.595	6350.62
398.82	6654.62
399.044	7220.62
399.268	8050.62
399.492	9139.62
399.717	9818.62
399.941	9500.62
400.165	8830.62
400.389	8190.62
400.613	7356.62
400.837	6855.62
401.062	6786.62
401.286	6614.62
401.51	6549.62
401.734	6537.62
401.958	6690.62
402.182	6825.62
402.406	6958.62
402.63	7024.62
402.854	7118.62
403.078	7235.62
403.302	7342.62
403.526	7420.62
403.75	7461.62
403.974	7568.62
404.198	7518.62
404.422	7596.62
404.645	7591.62
404.869	7538.62
405.093	7792.62
405.317	8146.62
405.541	8082.62
405.765	7555.62
405.988	7471.62
406.212	7556.62
406.436	7662.62
406.66	7872.62
406.883	7832.62
407.107	8478.62
407.331	8967.62
407.555	9515.62
407.778	9102.62
408.002	8408.62
408.226	7978.62
408.449	7917.62
408.673	7764.62
408.896	7877.62
409.12	8018.62
409.344	7689.62
409.567	7247.62
409.791	7194.62
410.014	7065.62
410.238	7036.62
410.461	6993.62
410.685	7183.62
410.908	7278.62
411.132	7440.62
411.355	7503.62
411.578	7104.62
411.802	6844.62
412.025	6885.62
412.249	7143.62
412.472	7294.62
412.695	7409.62
412.919	7037.62
413.142	6750.62
413.365	6613.62
413.589	6569.62
413.812	6495.62
414.035	6491.62
414.258	6460.62
414.482	6498.62
414.705	6537.62
414.928	6441.62
415.151	6460.62
415.374	6535.62
415.597	6427.62
415.821	6403.62
416.044	6364.62
416.267	6364.62
416.49	6387.62
416.713	6284.62
416.936	6371.62
417.159	6365.62
417.382	6409.62
417.605	6427.62
417.828	6606.62
418.051	6673.62
418.274	6615.62
418.497	6496.62
418.72	6648.62
418.943	6595.62
419.166	7007.62
419.389	7459.62
419.611	7278.62
419.834	7010.62
420.057	6923.62
420.28	6881.62
420.503	6612.62
420.726	6643.62
420.948	6773.62
421.171	7224.62
421.394	7131.62
421.617	6681.62
421.839	6586.62
422.062	6656.62
422.285	6856.62
422.507	7586.62
422.73	8063.62
422.953	7381.62
423.175	7062.62
423.398	7157.62
423.621	7080.62
423.843	7417.62
424.066	7223.62
424.288	7234.62
424.511	7346.62
424.733	7804.62
424.956	8289.62
425.178	7850.62
425.401	7982.62
425.623	7834.62
425.846	6803.62
426.068	6709.62
426.291	6601.62
426.513	6608.62
426.735	6672.62
426.958	7227.62
427.18	7958.62
427.402	9176.62
427.625	9224.62
427.847	7829.62
428.069	7101.62
428.292	6591.62
428.514	6207.62
428.736	6074.62
428.958	6044.62
429.181	5792.62
429.403	5851.62
429.625	5998.62
429.847	6433.62
430.069	6942.62
430.292	6426.62
430.514	5878.62
430.736	5890.62
430.958	5803.62
431.18	5750.62
431.402	5732.62
431.624	5675.62
431.846	5810.62
432.068	5857.62
432.29	5876.62
432.512	5825.62
432.734	5924.62
432.956	5830.62
433.178	5839.62
433.4	5900.62
433.622	5831.62
433.844	5814.62
434.066	5930.62
434.287	5971.62
434.509	6191.62
434.731	6443.62
434.953	6580.62
435.175	6728.62
435.397	6735.62
435.618	6694.62
435.84	7088.62
436.062	7902.62
436.284	7744.62
436.505	6567.62
436.727	6328.62
436.949	6054.62
437.17	5977.62
437.392	5843.62
437.614	6008.62
437.835	6425.62
438.057	7490.62
438.278	8051.62
438.5	7950.62
438.721	8806.62
438.943	7723.62
439.165	6430.62
439.386	6326.62
439.608	6317.62
439.829	6445.62
440.05	6776.62
440.272	7149.62
440.493	6457.62
440.715	6315.62
440.936	6126.62
441.158	6138.62
441.379	6291.62
441.6	6676.62
441.822	6951.62
442.043	7338.62
442.264	8091.62
442.486	7765.62
442.707	6945.62
442.928	6866.62
443.149	7072.62
443.371	7187.62
443.592	7738.62
443.813	8781.62
444.034	8694.62
444.255	7571.62
444.476	7453.62
444.698	7557.62
444.919	7691.62
445.14	7503.62
445.361	7354.62
445.582	7516.62
445.803	8134.62
446.024	8638.62
446.245	8337.62
446.466	7444.62
446.687	6579.62
446.908	6203.62
447.129	5815.62
447.35	5775.62
447.571	5775.62
447.792	5592.62
448.013	5693.62
448.234	5949.62
448.455	6670.62
448.675	7769.62
448.896	8187.62
449.117	6746.62
449.338	7046.62
449.559	8204.62
449.779	8540.62
450	6496.62
450.221	5848.62
450.442	5666.62
450.662	5563.62
450.883	5593.62
451.104	5669.62
451.324	5476.62
451.545	5383.62
451.766	5218.62
451.986	5188.62
452.207	5108.62
452.428	5093.62
452.648	5129.62
452.869	5145.62
453.089	5228.62
453.31	5315.62
453.53	5152.62
453.751	5086.62
453.971	5157.62
454.192	5261.62
454.412	4949.62
454.633	4913.62
454.853	4967.62
455.073	4993.62
455.294	5388.62
455.514	5983.62
455.734	5391.62
455.955	4841.62
456.175	4738.62
456.395	4721.62
456.616	4696.62
456.836	4705.62
457.056	4672.62
457.276	4615.62
457.497	4791.62
457.717	4730.62
457.937	4819.62
458.157	4951.62
458.377	4967.62
458.598	5375.62
458.818	5987.62
459.038	6787.62
459.258	6710.62
459.478	6060.62
459.698	5854.62
459.918	6025.62
460.138	6134.62
460.358	6336.62
460.578	6269.62
460.798	6448.62
461.018	6538.62
461.238	6276.62
461.458	6312.62
461.678	6248.62
461.898	6508.62
462.118	6457.62
462.338	6832.62
462.558	6964.62
462.777	7241.62
462.997	7772.62
463.217	8338.62
463.437	8048.62
463.657	7522.62
463.876	7248.62
464.096	7267.62
464.316	7251.62
464.536	7309.62
464.755	7076.62
464.975	6868.62
465.195	7155.62
465.414	7100.62
465.634	6209.62
465.854	5970.62
466.073	5680.62
466.293	5577.62
466.512	5403.62
466.732	5249.62
466.951	5304.62
467.171	5282.62
467.391	5376.62
467.61	5408.62
467.829	5476.62
468.049	5328.62
468.268	5160.62
468.488	5164.62
468.707	5048.62
468.927	5053.62
469.146	5010.62
469.365	5099.62
469.585	5089.62
469.804	5291.62
470.023	5478.62
470.243	5526.62
470.462	5511.62
470.681	5645.62
470.901	5543.62
471.12	5462.62
471.339	5376.62
471.558	5266.62
471.777	5302.62
471.997	5189.62
472.216	5266.62
472.435	5533.62
472.654	5303.62
472.873	5062.62
473.092	5112.62
473.311	5029.62
473.53	5149.62
473.749	5206.62
473.968	5751.62
474.187	6738.62
474.406	6264.62
474.625	5322.62
474.844	5138.62
475.063	5067.62
475.282	5091.62
475.501	5156.62
475.72	5125.62
475.939	5147.62
476.158	5198.62
476.377	5253.62
476.596	5284.62
476.814	5416.62
477.033	5390.62
477.252	5479.62
477.471	5572.62
477.69	5716.62
477.908	5798.62
478.127	5944.62
478.346	5969.62
478.564	6103.62
478.783	6202.62
479.002	6443.62
479.22	6415.62
479.439	6395.62
479.658	6616.62
479.876	6614.62
480.095	6817.62
480.313	7300.62
480.532	7119.62
480.751	6983.62
480.969	7076.62
481.188	7510.62
481.406	7280.62
481.624	6615.62
481.843	6382.62
482.061	6227.62
482.28	6105.62
482.498	5989.62
482.717	5934.62
482.935	5974.62
483.153	5926.62
483.372	5927.62
483.59	5935.62
483.808	5962.62
484.027	5990.62
484.245	6048.62
484.463	6104.62
484.681	6146.62
484.9	6159.62
485.118	6178.62
485.336	6214.62
485.554	6317.62
485.772	6431.62
485.99	6314.62
486.209	6426.62
486.427	6325.62
486.645	6496.62
486.863	6536.62
487.081	6489.62
487.299	6442.62
487.517	6429.62
487.735	6265.62
487.953	6318.62
