Data from Uncirc_1983_H10_HRD10591_00036.txt Node
Date: Wed Jan 03 12:25:39 EST 2024
User: Yrep
Spectrometer: HR+D1059
Trigger mode: 1
Integration Time (sec): 1.000000E-1
Scans to average: 1
Electric dark correction enabled: true
Nonlinearity correction enabled: false
Boxcar width: 0
XAxis mode: Wavelengths
Number of Pixels in Spectrum: 2048
>>>>>Begin Spectral Data<<<<<
223.165	-23.69
223.4	-23.69
223.635	-23.69
223.869	-16.69
224.104	-14.69
224.338	0.31
224.573	-9.69
224.808	-19.69
225.042	-18.69
225.277	-1.69
225.511	-2.69
225.746	10.31
225.98	10.31
226.215	5.31
226.449	14.31
226.683	24.31
226.918	24.31
227.152	18.31
227.387	25.31
227.621	36.31
227.856	46.31
228.09	41.31
228.324	50.31
228.559	62.31
228.793	64.31
229.027	59.31
229.262	62.31
229.496	79.31
229.73	80.31
229.964	80.31
230.199	69.31
230.433	72.31
230.667	73.31
230.901	70.31
231.136	81.31
231.37	77.31
231.604	84.31
231.838	87.31
232.072	83.31
232.306	64.31
232.541	84.31
232.775	74.31
233.009	69.31
233.243	83.31
233.477	79.31
233.711	70.31
233.945	76.31
234.179	86.31
234.413	74.31
234.647	66.31
234.881	66.31
235.115	65.31
235.349	66.31
235.583	60.31
235.817	80.31
236.051	74.31
236.285	83.31
236.519	73.31
236.753	67.31
236.987	71.31
237.221	79.31
237.455	71.31
237.689	86.31
237.922	63.31
238.156	64.31
238.39	78.31
238.624	80.31
238.858	79.31
239.091	79.31
239.325	82.31
239.559	64.31
239.793	67.31
240.027	59.31
240.26	74.31
240.494	83.31
240.728	78.31
240.961	84.31
241.195	78.31
241.429	73.31
241.662	73.31
241.896	71.31
242.13	89.31
242.363	70.31
242.597	78.31
242.83	71.31
243.064	69.31
243.298	73.31
243.531	84.31
243.765	84.31
243.998	65.31
244.232	68.31
244.465	73.31
244.699	84.31
244.932	88.31
245.166	65.31
245.399	78.31
245.633	64.31
245.866	74.31
246.099	74.31
246.333	89.31
246.566	62.31
246.8	64.31
247.033	76.31
247.266	84.31
247.5	82.31
247.733	86.31
247.966	73.31
248.2	80.31
248.433	72.31
248.666	72.31
248.899	77.31
249.133	76.31
249.366	89.31
249.599	98.31
249.832	80.31
250.066	72.31
250.299	85.31
250.532	85.31
250.765	81.31
250.998	70.31
251.231	76.31
251.465	79.31
251.698	64.31
251.931	69.31
252.164	82.31
252.397	80.31
252.63	82.31
252.863	82.31
253.096	72.31
253.329	76.31
253.562	62.31
253.795	69.31
254.028	85.31
254.261	76.31
254.494	80.31
254.727	66.31
254.96	72.31
255.193	77.31
255.426	83.31
255.659	79.31
255.892	70.31
256.124	81.31
256.357	73.31
256.59	68.31
256.823	66.31
257.056	66.31
257.289	70.31
257.521	85.31
257.754	73.31
257.987	62.31
258.22	88.31
258.452	87.31
258.685	84.31
258.918	76.31
259.151	64.31
259.383	60.31
259.616	93.31
259.849	79.31
260.081	66.31
260.314	91.31
260.547	71.31
260.779	77.31
261.012	72.31
261.244	78.31
261.477	94.31
261.71	92.31
261.942	103.31
262.175	111.31
262.407	99.31
262.64	93.31
262.872	81.31
263.105	88.31
263.337	86.31
263.57	92.31
263.802	83.31
264.035	84.31
264.267	73.31
264.499	80.31
264.732	77.31
264.964	70.31
265.197	87.31
265.429	73.31
265.661	85.31
265.894	89.31
266.126	83.31
266.358	89.31
266.591	82.31
266.823	88.31
267.055	79.31
267.287	80.31
267.52	67.31
267.752	60.31
267.984	78.31
268.216	90.31
268.448	80.31
268.681	77.31
268.913	71.31
269.145	72.31
269.377	80.31
269.609	79.31
269.841	84.31
270.073	73.31
270.306	76.31
270.538	72.31
270.77	78.31
271.002	90.31
271.234	78.31
271.466	87.31
271.698	86.31
271.93	84.31
272.162	96.31
272.394	94.31
272.626	84.31
272.858	79.31
273.09	81.31
273.322	84.31
273.553	68.31
273.785	88.31
274.017	76.31
274.249	82.31
274.481	83.31
274.713	88.31
274.945	83.31
275.176	100.31
275.408	94.31
275.64	77.31
275.872	77.31
276.104	99.31
276.335	90.31
276.567	98.31
276.799	97.31
277.031	106.31
277.262	81.31
277.494	84.31
277.726	77.31
277.957	73.31
278.189	74.31
278.421	89.31
278.652	81.31
278.884	72.31
279.115	78.31
279.347	85.31
279.579	83.31
279.81	88.31
280.042	84.31
280.273	81.31
280.505	86.31
280.736	92.31
280.968	80.31
281.199	84.31
281.431	83.31
281.662	72.31
281.894	83.31
282.125	93.31
282.356	117.31
282.588	124.31
282.819	112.31
283.051	99.31
283.282	84.31
283.513	98.31
283.745	81.31
283.976	82.31
284.207	89.31
284.439	74.31
284.67	82.31
284.901	86.31
285.132	77.31
285.364	92.31
285.595	87.31
285.826	83.31
286.057	86.31
286.288	83.31
286.52	85.31
286.751	94.31
286.982	88.31
287.213	91.31
287.444	80.31
287.675	90.31
287.906	84.31
288.138	81.31
288.369	85.31
288.6	90.31
288.831	73.31
289.062	84.31
289.293	84.31
289.524	92.31
289.755	86.31
289.986	74.31
290.217	85.31
290.448	87.31
290.679	88.31
290.91	92.31
291.141	81.31
291.371	84.31
291.602	82.31
291.833	77.31
292.064	87.31
292.295	78.31
292.526	86.31
292.757	83.31
292.987	78.31
293.218	85.31
293.449	76.31
293.68	86.31
293.91	82.31
294.141	80.31
294.372	81.31
294.603	84.31
294.833	97.31
295.064	101.31
295.295	81.31
295.525	88.31
295.756	68.31
295.987	98.31
296.217	94.31
296.448	104.31
296.679	85.31
296.909	86.31
297.14	83.31
297.37	71.31
297.601	81.31
297.831	80.31
298.062	79.31
298.292	80.31
298.523	86.31
298.753	85.31
298.984	71.31
299.214	85.31
299.445	92.31
299.675	89.31
299.905	79.31
300.136	99.31
300.366	82.31
300.597	86.31
300.827	88.31
301.057	97.31
301.288	94.31
301.518	79.31
301.748	79.31
301.979	84.31
302.209	93.31
302.439	82.31
302.669	87.31
302.9	68.31
303.13	88.31
303.36	91.31
303.59	89.31
303.82	86.31
304.051	88.31
304.281	88.31
304.511	84.31
304.741	76.31
304.971	81.31
305.201	84.31
305.431	86.31
305.661	85.31
305.891	90.31
306.121	96.31
306.352	93.31
306.582	93.31
306.812	95.31
307.042	94.31
307.272	101.31
307.502	87.31
307.731	75.31
307.961	86.31
308.191	67.31
308.421	79.31
308.651	100.31
308.881	82.31
309.111	95.31
309.341	104.31
309.571	81.31
309.8	92.31
310.03	83.31
310.26	92.31
310.49	94.31
310.72	87.31
310.949	98.31
311.179	96.31
311.409	86.31
311.639	99.31
311.868	80.31
312.098	107.31
312.328	96.31
312.557	85.31
312.787	109.31
313.017	108.31
313.246	92.31
313.476	95.31
313.706	90.31
313.935	89.31
314.165	83.31
314.394	80.31
314.624	89.31
314.853	89.31
315.083	77.31
315.312	89.31
315.542	86.31
315.771	89.31
316.001	93.31
316.23	95.31
316.46	87.31
316.689	86.31
316.919	93.31
317.148	92.31
317.377	85.31
317.607	80.31
317.836	92.31
318.065	84.31
318.295	94.31
318.524	89.31
318.753	79.31
318.983	79.31
319.212	96.31
319.441	95.31
319.67	108.31
319.9	96.31
320.129	86.31
320.358	89.31
320.587	80.31
320.816	102.31
321.046	86.31
321.275	91.31
321.504	81.31
321.733	95.31
321.962	96.31
322.191	78.31
322.42	93.31
322.649	90.31
322.878	97.31
323.108	103.31
323.337	124.31
323.566	109.31
323.795	123.31
324.024	186.31
324.253	332.31
324.482	693.31
324.71	1441.31
324.939	1866.31
325.168	692.31
325.397	235.31
325.626	130.31
325.855	122.31
326.084	113.31
326.313	115.31
326.542	131.31
326.77	206.31
326.999	398.31
327.228	800.31
327.457	1487.31
327.686	1170.31
327.914	329.31
328.143	167.31
328.372	118.31
328.6	118.31
328.829	109.31
329.058	104.31
329.287	130.31
329.515	105.31
329.744	102.31
329.972	99.31
330.201	92.31
330.43	103.31
330.658	104.31
330.887	120.31
331.115	109.31
331.344	96.31
331.572	100.31
331.801	105.31
332.03	90.31
332.258	97.31
332.486	84.31
332.715	86.31
332.943	82.31
333.172	96.31
333.4	94.31
333.629	98.31
333.857	100.31
334.085	98.31
334.314	92.31
334.542	92.31
334.771	115.31
334.999	86.31
335.227	83.31
335.455	95.31
335.684	109.31
335.912	90.31
336.14	67.31
336.369	96.31
336.597	87.31
336.825	90.31
337.053	84.31
337.281	88.31
337.51	72.31
337.738	98.31
337.966	86.31
338.194	80.31
338.422	95.31
338.65	105.31
338.878	96.31
339.106	85.31
339.334	83.31
339.562	94.31
339.79	93.31
340.018	90.31
340.246	77.31
340.474	85.31
340.702	97.31
340.93	72.31
341.158	88.31
341.386	84.31
341.614	79.31
341.842	92.31
342.07	89.31
342.298	96.31
342.526	92.31
342.754	78.31
342.981	86.31
343.209	85.31
343.437	91.31
343.665	85.31
343.893	76.31
344.12	102.31
344.348	79.31
344.576	92.31
344.804	88.31
345.031	93.31
345.259	96.31
345.487	95.31
345.714	96.31
345.942	88.31
346.17	83.31
346.397	89.31
346.625	90.31
346.853	91.31
347.08	78.31
347.308	93.31
347.535	103.31
347.763	101.31
347.99	95.31
348.218	96.31
348.445	93.31
348.673	80.31
348.9	90.31
349.128	81.31
349.355	103.31
349.583	99.31
349.81	89.31
350.037	81.31
350.265	83.31
350.492	78.31
350.72	94.31
350.947	85.31
351.174	103.31
351.402	106.31
351.629	94.31
351.856	97.31
352.083	103.31
352.311	97.31
352.538	93.31
352.765	95.31
352.992	106.31
353.22	106.31
353.447	106.31
353.674	100.31
353.901	114.31
354.128	91.31
354.355	96.31
354.583	93.31
354.81	92.31
355.037	99.31
355.264	104.31
355.491	94.31
355.718	81.31
355.945	86.31
356.172	100.31
356.399	94.31
356.626	81.31
356.853	88.31
357.08	89.31
357.307	87.31
357.534	87.31
357.761	94.31
357.988	87.31
358.215	80.31
358.441	78.31
358.668	86.31
358.895	88.31
359.122	93.31
359.349	91.31
359.576	78.31
359.802	96.31
360.029	87.31
360.256	79.31
360.483	95.31
360.709	89.31
360.936	85.31
361.163	82.31
361.39	84.31
361.616	81.31
361.843	90.31
362.07	77.31
362.296	80.31
362.523	88.31
362.749	86.31
362.976	84.31
363.203	79.31
363.429	88.31
363.656	102.31
363.882	91.31
364.109	79.31
364.335	97.31
364.562	88.31
364.788	78.31
365.015	73.31
365.241	89.31
365.468	101.31
365.694	109.31
365.92	94.31
366.147	99.31
366.373	83.31
366.599	85.31
366.826	85.31
367.052	74.31
367.278	90.31
367.505	85.31
367.731	77.31
367.957	84.31
368.184	87.31
368.41	93.31
368.636	101.31
368.862	114.31
369.089	92.31
369.315	82.31
369.541	101.31
369.767	78.31
369.993	76.31
370.219	95.31
370.445	87.31
370.672	86.31
370.898	82.31
371.124	99.31
371.35	84.31
371.576	81.31
371.802	80.31
372.028	80.31
372.254	86.31
372.48	99.31
372.706	76.31
372.932	78.31
373.158	85.31
373.384	74.31
373.61	93.31
373.835	87.31
374.061	85.31
374.287	78.31
374.513	81.31
374.739	85.31
374.965	90.31
375.191	91.31
375.416	77.31
375.642	88.31
375.868	84.31
376.094	80.31
376.319	82.31
376.545	80.31
376.771	94.31
376.997	93.31
377.222	86.31
377.448	91.31
377.674	82.31
377.899	90.31
378.125	85.31
378.35	94.31
378.576	89.31
378.802	84.31
379.027	91.31
379.253	84.31
379.478	92.31
379.704	76.31
379.929	92.31
380.155	93.31
380.38	101.31
380.606	82.31
380.831	118.31
381.057	97.31
381.282	81.31
381.507	82.31
381.733	102.31
381.958	95.31
382.184	80.31
382.409	88.31
382.634	108.31
382.86	90.31
383.085	99.31
383.31	98.31
383.535	95.31
383.761	98.31
383.986	97.31
384.211	96.31
384.436	83.31
384.662	92.31
384.887	111.31
385.112	111.31
385.337	120.31
385.562	102.31
385.787	96.31
386.013	102.31
386.238	103.31
386.463	93.31
386.688	112.31
386.913	96.31
387.138	93.31
387.363	103.31
387.588	98.31
387.813	102.31
388.038	97.31
388.263	109.31
388.488	100.31
388.713	84.31
388.938	104.31
389.163	90.31
389.387	107.31
389.612	92.31
389.837	77.31
390.062	112.31
390.287	94.31
390.512	85.31
390.736	81.31
390.961	90.31
391.186	95.31
391.411	88.31
391.636	94.31
391.86	90.31
392.085	69.31
392.31	95.31
392.534	82.31
392.759	85.31
392.984	96.31
393.208	100.31
393.433	90.31
393.658	93.31
393.882	74.31
394.107	77.31
394.331	80.31
394.556	93.31
394.78	91.31
395.005	93.31
395.229	74.31
395.454	86.31
395.678	90.31
395.903	73.31
396.127	82.31
396.352	75.31
396.576	81.31
396.801	83.31
397.025	104.31
397.249	86.31
397.474	96.31
397.698	90.31
397.922	82.31
398.147	104.31
398.371	86.31
398.595	82.31
398.82	82.31
399.044	82.31
399.268	78.31
399.492	77.31
399.717	78.31
399.941	89.31
400.165	85.31
400.389	102.31
400.613	94.31
400.837	98.31
401.062	92.31
401.286	89.31
401.51	81.31
401.734	74.31
401.958	91.31
402.182	102.31
402.406	142.31
402.63	102.31
402.854	100.31
403.078	88.31
403.302	90.31
403.526	78.31
403.75	86.31
403.974	82.31
404.198	83.31
404.422	77.31
404.645	78.31
404.869	83.31
405.093	78.31
405.317	91.31
405.541	82.31
405.765	88.31
405.988	106.31
406.212	140.31
406.436	197.31
406.66	128.31
406.883	95.31
407.107	98.31
407.331	77.31
407.555	100.31
407.778	100.31
408.002	85.31
408.226	88.31
408.449	86.31
408.673	92.31
408.896	99.31
409.12	98.31
409.344	85.31
409.567	74.31
409.791	88.31
410.014	97.31
410.238	80.31
410.461	81.31
410.685	87.31
410.908	89.31
411.132	99.31
411.355	99.31
411.578	76.31
411.802	86.31
412.025	86.31
412.249	93.31
412.472	88.31
412.695	92.31
412.919	94.31
413.142	94.31
413.365	79.31
413.589	84.31
413.812	85.31
414.035	92.31
414.258	95.31
414.482	91.31
414.705	90.31
414.928	81.31
415.151	79.31
415.374	96.31
415.597	62.31
415.821	85.31
416.044	87.31
416.267	85.31
416.49	85.31
416.713	101.31
416.936	88.31
417.159	99.31
417.382	86.31
417.605	92.31
417.828	97.31
418.051	78.31
418.274	82.31
418.497	81.31
418.72	97.31
418.943	103.31
419.166	90.31
419.389	91.31
419.611	73.31
419.834	88.31
420.057	101.31
420.28	82.31
420.503	85.31
420.726	74.31
420.948	81.31
421.171	79.31
421.394	92.31
421.617	76.31
421.839	83.31
422.062	97.31
422.285	85.31
422.507	104.31
422.73	100.31
422.953	104.31
423.175	74.31
423.398	88.31
423.621	88.31
423.843	88.31
424.066	83.31
424.288	94.31
424.511	78.31
424.733	93.31
424.956	103.31
425.178	84.31
425.401	95.31
425.623	76.31
425.846	82.31
426.068	96.31
426.291	72.31
426.513	78.31
426.735	88.31
426.958	100.31
427.18	106.31
427.402	128.31
427.625	119.31
427.847	105.31
428.069	95.31
428.292	75.31
428.514	83.31
428.736	85.31
428.958	90.31
429.181	90.31
429.403	86.31
429.625	73.31
429.847	80.31
430.069	109.31
430.292	95.31
430.514	78.31
430.736	76.31
430.958	77.31
431.18	84.31
431.402	79.31
431.624	79.31
431.846	85.31
432.068	81.31
432.29	74.31
432.512	93.31
432.734	84.31
432.956	103.31
433.178	109.31
433.4	98.31
433.622	83.31
433.844	73.31
434.066	90.31
434.287	88.31
434.509	96.31
434.731	81.31
434.953	85.31
435.175	87.31
435.397	90.31
435.618	93.31
435.84	86.31
436.062	110.31
436.284	95.31
436.505	92.31
436.727	83.31
436.949	83.31
437.17	88.31
437.392	88.31
437.614	79.31
437.835	99.31
438.057	105.31
438.278	102.31
438.5	85.31
438.721	96.31
438.943	93.31
439.165	87.31
439.386	91.31
439.608	92.31
439.829	113.31
440.05	101.31
440.272	112.31
440.493	90.31
440.715	89.31
440.936	78.31
441.158	76.31
441.379	83.31
441.6	71.31
441.822	90.31
442.043	92.31
442.264	94.31
442.486	97.31
442.707	89.31
442.928	92.31
443.149	102.31
443.371	102.31
443.592	92.31
443.813	104.31
444.034	98.31
444.255	83.31
444.476	84.31
444.698	79.31
444.919	80.31
445.14	130.31
445.361	122.31
445.582	118.31
445.803	124.31
446.024	100.31
446.245	116.31
446.466	104.31
446.687	84.31
446.908	86.31
447.129	79.31
447.35	98.31
447.571	78.31
447.792	89.31
448.013	98.31
448.234	103.31
448.455	88.31
448.675	105.31
448.896	120.31
449.117	79.31
449.338	88.31
449.559	103.31
449.779	111.31
450	106.31
450.221	100.31
450.442	74.31
450.662	95.31
450.883	100.31
451.104	94.31
451.324	100.31
451.545	98.31
451.766	71.31
451.986	78.31
452.207	85.31
452.428	89.31
452.648	83.31
452.869	94.31
453.089	91.31
453.31	109.31
453.53	76.31
453.751	82.31
453.971	94.31
454.192	105.31
454.412	91.31
454.633	82.31
454.853	92.31
455.073	77.31
455.294	92.31
455.514	99.31
455.734	97.31
455.955	88.31
456.175	83.31
456.395	82.31
456.616	90.31
456.836	82.31
457.056	87.31
457.276	83.31
457.497	85.31
457.717	85.31
457.937	72.31
458.157	87.31
458.377	80.31
458.598	96.31
458.818	112.31
459.038	134.31
459.258	110.31
459.478	95.31
459.698	86.31
459.918	92.31
460.138	78.31
460.358	90.31
460.578	77.31
460.798	82.31
461.018	93.31
461.238	93.31
461.458	71.31
461.678	80.31
461.898	80.31
462.118	94.31
462.338	78.31
462.558	72.31
462.777	80.31
462.997	82.31
463.217	85.31
463.437	92.31
463.657	83.31
463.876	76.31
464.096	85.31
464.316	85.31
464.536	90.31
464.755	80.31
464.975	108.31
465.195	143.31
465.414	130.31
465.634	90.31
465.854	90.31
466.073	91.31
466.293	76.31
466.512	70.31
466.732	69.31
466.951	90.31
467.171	82.31
467.391	85.31
467.61	93.31
467.829	92.31
468.049	103.31
468.268	67.31
468.488	94.31
468.707	75.31
468.927	85.31
469.146	73.31
469.365	85.31
469.585	83.31
469.804	92.31
470.023	91.31
470.243	84.31
470.462	85.31
470.681	79.31
470.901	80.31
471.12	84.31
471.339	98.31
471.558	93.31
471.777	87.31
471.997	86.31
472.216	85.31
472.435	98.31
472.654	83.31
472.873	104.31
473.092	73.31
473.311	89.31
473.53	86.31
473.749	82.31
473.968	84.31
474.187	89.31
474.406	86.31
474.625	92.31
474.844	77.31
475.063	89.31
475.282	95.31
475.501	83.31
475.72	80.31
475.939	92.31
476.158	87.31
476.377	60.31
476.596	73.31
476.814	90.31
477.033	88.31
477.252	92.31
477.471	78.31
477.69	85.31
477.908	88.31
478.127	95.31
478.346	90.31
478.564	96.31
478.783	108.31
479.002	98.31
479.22	86.31
479.439	95.31
479.658	97.31
479.876	81.31
480.095	80.31
480.313	87.31
480.532	96.31
480.751	85.31
480.969	86.31
481.188	115.31
481.406	105.31
481.624	91.31
481.843	91.31
482.061	84.31
482.28	93.31
482.498	80.31
482.717	81.31
482.935	78.31
483.153	72.31
483.372	98.31
483.59	92.31
483.808	77.31
484.027	95.31
484.245	94.31
484.463	86.31
484.681	90.31
484.9	96.31
485.118	85.31
485.336	94.31
485.554	101.31
485.772	101.31
485.99	95.31
486.209	87.31
486.427	86.31
486.645	97.31
486.863	101.31
487.081	88.31
487.299	88.31
487.517	82.31
487.735	76.31
487.953	92.31
488.171	93.31
488.389	93.31
488.607	92.31
488.825	100.31
489.043	79.31
489.261	80.31
489.479	85.31
489.696	76.31
489.914	87.31
490.132	80.31
490.35	86.31
490.568	96.31
490.786	83.31
491.003	94.31
491.221	77.31
491.439	86.31
491.657	100.31
491.874	102.31
492.092	89.31
492.31	85.31
492.527	90.31
492.745	91.31
492.963	79.31
493.18	92.31
493.398	94.31
493.615	101.31
493.833	90.31
494.05	81.31
494.268	92.31
494.485	85.31
494.703	97.31
494.92	89.31
495.138	85.31
495.355	96.31
495.573	91.31
495.79	83.31
496.008	80.31
496.225	83.31
496.442	79.31
496.66	93.31
496.877	87.31
497.094	85.31
497.312	84.31
497.529	79.31
497.746	101.31
497.963	87.31
498.181	82.31
498.398	101.31
498.615	118.31
498.832	103.31
499.049	97.31
499.267	85.31
499.484	84.31
499.701	85.31
499.918	93.31
500.135	76.31
500.352	88.31
500.569	73.31
500.786	74.31
501.003	84.31
501.22	97.31
501.437	93.31
501.654	92.31
501.871	87.31
502.088	86.31
502.305	85.31
502.522	70.31
502.739	91.31
502.956	91.31
503.172	83.31
503.389	100.31
503.606	95.31
503.823	100.31
504.04	84.31
504.256	88.31
504.473	94.31
504.69	84.31
504.907	74.31
505.123	78.31
505.34	80.31
505.557	96.31
505.773	89.31
505.99	96.31
506.207	84.31
506.423	83.31
506.64	97.31
506.856	76.31
507.073	74.31
507.289	94.31
507.506	109.31
507.722	101.31
507.939	112.31
508.155	97.31
508.372	96.31
508.588	84.31
508.805	101.31
509.021	91.31
509.238	89.31
509.454	92.31
509.67	99.31
509.887	98.31
510.103	124.31
510.319	199.31
510.536	670.31
510.752	2048.31
510.968	574.31
511.184	144.31
511.401	96.31
511.617	90.31
511.833	95.31
512.049	98.31
512.265	99.31
512.481	85.31
512.698	94.31
512.914	70.31
513.13	92.31
513.346	96.31
513.562	106.31
513.778	91.31
513.994	90.31
514.21	92.31
514.426	115.31
514.642	133.31
514.858	117.31
515.074	140.31
515.29	384.31
515.506	1190.31
515.721	419.31
515.937	158.31
516.153	110.31
516.369	96.31
516.585	94.31
516.801	89.31
517.016	73.31
517.232	92.31
