Data from Uncirc_1983_H10_HRD10591_00015.txt Node
Date: Wed Jan 03 12:25:35 EST 2024
User: Yrep
Spectrometer: HR+D1059
Trigger mode: 1
Integration Time (sec): 1.000000E-1
Scans to average: 1
Electric dark correction enabled: true
Nonlinearity correction enabled: false
Boxcar width: 0
XAxis mode: Wavelengths
Number of Pixels in Spectrum: 2048
>>>>>Begin Spectral Data<<<<<
223.165	-33.19
223.4	-33.19
223.635	-33.19
223.869	-26.19
224.104	-30.19
224.338	-23.19
224.573	1.81
224.808	-6.19
225.042	-7.19
225.277	-5.19
225.511	-17.19
225.746	9.81
225.98	13.81
226.215	5.81
226.449	15.81
226.683	20.81
226.918	28.81
227.152	51.81
227.387	32.81
227.621	35.81
227.856	42.81
228.09	62.81
228.324	55.81
228.559	53.81
228.793	54.81
229.027	68.81
229.262	48.81
229.496	74.81
229.73	82.81
229.964	79.81
230.199	76.81
230.433	83.81
230.667	76.81
230.901	73.81
231.136	85.81
231.37	77.81
231.604	90.81
231.838	93.81
232.072	75.81
232.306	72.81
232.541	83.81
232.775	88.81
233.009	84.81
233.243	92.81
233.477	99.81
233.711	62.81
233.945	76.81
234.179	89.81
234.413	86.81
234.647	92.81
234.881	91.81
235.115	83.81
235.349	84.81
235.583	88.81
235.817	81.81
236.051	86.81
236.285	84.81
236.519	82.81
236.753	84.81
236.987	84.81
237.221	82.81
237.455	88.81
237.689	73.81
237.922	76.81
238.156	77.81
238.39	81.81
238.624	63.81
238.858	91.81
239.091	73.81
239.325	84.81
239.559	65.81
239.793	73.81
240.027	81.81
240.26	86.81
240.494	70.81
240.728	67.81
240.961	76.81
241.195	88.81
241.429	78.81
241.662	74.81
241.896	85.81
242.13	84.81
242.363	66.81
242.597	74.81
242.83	73.81
243.064	76.81
243.298	75.81
243.531	76.81
243.765	81.81
243.998	81.81
244.232	62.81
244.465	78.81
244.699	84.81
244.932	82.81
245.166	92.81
245.399	84.81
245.633	97.81
245.866	77.81
246.099	71.81
246.333	67.81
246.566	73.81
246.8	82.81
247.033	78.81
247.266	75.81
247.5	100.81
247.733	77.81
247.966	82.81
248.2	82.81
248.433	70.81
248.666	84.81
248.899	68.81
249.133	95.81
249.366	96.81
249.599	80.81
249.832	76.81
250.066	74.81
250.299	96.81
250.532	81.81
250.765	94.81
250.998	92.81
251.231	68.81
251.465	76.81
251.698	67.81
251.931	79.81
252.164	73.81
252.397	83.81
252.63	73.81
252.863	65.81
253.096	86.81
253.329	85.81
253.562	72.81
253.795	75.81
254.028	90.81
254.261	82.81
254.494	88.81
254.727	86.81
254.96	92.81
255.193	88.81
255.426	100.81
255.659	76.81
255.892	82.81
256.124	77.81
256.357	60.81
256.59	91.81
256.823	83.81
257.056	77.81
257.289	72.81
257.521	90.81
257.754	88.81
257.987	82.81
258.22	93.81
258.452	79.81
258.685	86.81
258.918	77.81
259.151	82.81
259.383	84.81
259.616	67.81
259.849	83.81
260.081	68.81
260.314	70.81
260.547	86.81
260.779	72.81
261.012	75.81
261.244	84.81
261.477	86.81
261.71	93.81
261.942	104.81
262.175	118.81
262.407	96.81
262.64	80.81
262.872	84.81
263.105	88.81
263.337	88.81
263.57	78.81
263.802	75.81
264.035	83.81
264.267	100.81
264.499	77.81
264.732	89.81
264.964	88.81
265.197	84.81
265.429	74.81
265.661	100.81
265.894	80.81
266.126	76.81
266.358	70.81
266.591	76.81
266.823	82.81
267.055	80.81
267.287	86.81
267.52	84.81
267.752	93.81
267.984	94.81
268.216	84.81
268.448	81.81
268.681	74.81
268.913	88.81
269.145	76.81
269.377	76.81
269.609	82.81
269.841	86.81
270.073	78.81
270.306	72.81
270.538	89.81
270.77	80.81
271.002	68.81
271.234	90.81
271.466	85.81
271.698	85.81
271.93	77.81
272.162	98.81
272.394	82.81
272.626	94.81
272.858	85.81
273.09	82.81
273.322	89.81
273.553	101.81
273.785	85.81
274.017	72.81
274.249	82.81
274.481	85.81
274.713	81.81
274.945	77.81
275.176	82.81
275.408	80.81
275.64	87.81
275.872	106.81
276.104	82.81
276.335	85.81
276.567	98.81
276.799	96.81
277.031	97.81
277.262	86.81
277.494	73.81
277.726	97.81
277.957	95.81
278.189	88.81
278.421	87.81
278.652	93.81
278.884	71.81
279.115	90.81
279.347	88.81
279.579	90.81
279.81	91.81
280.042	95.81
280.273	88.81
280.505	92.81
280.736	101.81
280.968	83.81
281.199	94.81
281.431	82.81
281.662	85.81
281.894	91.81
282.125	93.81
282.356	106.81
282.588	118.81
282.819	101.81
283.051	97.81
283.282	85.81
283.513	89.81
283.745	72.81
283.976	66.81
284.207	77.81
284.439	99.81
284.67	104.81
284.901	91.81
285.132	89.81
285.364	84.81
285.595	94.81
285.826	93.81
286.057	95.81
286.288	92.81
286.52	77.81
286.751	92.81
286.982	89.81
287.213	81.81
287.444	79.81
287.675	96.81
287.906	92.81
288.138	77.81
288.369	94.81
288.6	82.81
288.831	92.81
289.062	89.81
289.293	105.81
289.524	81.81
289.755	76.81
289.986	92.81
290.217	90.81
290.448	85.81
290.679	78.81
290.91	82.81
291.141	96.81
291.371	88.81
291.602	85.81
291.833	88.81
292.064	77.81
292.295	81.81
292.526	104.81
292.757	92.81
292.987	81.81
293.218	86.81
293.449	96.81
293.68	87.81
293.91	85.81
294.141	94.81
294.372	99.81
294.603	77.81
294.833	87.81
295.064	90.81
295.295	102.81
295.525	87.81
295.756	104.81
295.987	110.81
296.217	129.81
296.448	112.81
296.679	99.81
296.909	89.81
297.14	92.81
297.37	97.81
297.601	95.81
297.831	102.81
298.062	82.81
298.292	97.81
298.523	96.81
298.753	91.81
298.984	90.81
299.214	93.81
299.445	103.81
299.675	83.81
299.905	108.81
300.136	87.81
300.366	89.81
300.597	89.81
300.827	99.81
301.057	98.81
301.288	73.81
301.518	107.81
301.748	86.81
301.979	121.81
302.209	96.81
302.439	84.81
302.669	85.81
302.9	71.81
303.13	74.81
303.36	97.81
303.59	100.81
303.82	104.81
304.051	103.81
304.281	92.81
304.511	94.81
304.741	102.81
304.971	78.81
305.201	85.81
305.431	88.81
305.661	89.81
305.891	96.81
306.121	97.81
306.352	88.81
306.582	82.81
306.812	74.81
307.042	88.81
307.272	109.81
307.502	95.81
307.731	88.81
307.961	90.81
308.191	98.81
308.421	86.81
308.651	92.81
308.881	91.81
309.111	76.81
309.341	92.81
309.571	104.81
309.8	96.81
310.03	103.81
310.26	87.81
310.49	108.81
310.72	98.81
310.949	97.81
311.179	85.81
311.409	97.81
311.639	78.81
311.868	87.81
312.098	89.81
312.328	81.81
312.557	101.81
312.787	92.81
313.017	93.81
313.246	82.81
313.476	88.81
313.706	103.81
313.935	93.81
314.165	99.81
314.394	110.81
314.624	96.81
314.853	103.81
315.083	100.81
315.312	83.81
315.542	87.81
315.771	87.81
316.001	105.81
316.23	86.81
316.46	86.81
316.689	88.81
316.919	89.81
317.148	106.81
317.377	97.81
317.607	88.81
317.836	99.81
318.065	80.81
318.295	84.81
318.524	91.81
318.753	93.81
318.983	96.81
319.212	101.81
319.441	87.81
319.67	103.81
319.9	94.81
320.129	95.81
320.358	86.81
320.587	92.81
320.816	101.81
321.046	102.81
321.275	91.81
321.504	101.81
321.733	91.81
321.962	86.81
322.191	90.81
322.42	97.81
322.649	116.81
322.878	114.81
323.108	99.81
323.337	114.81
323.566	102.81
323.795	133.81
324.024	181.81
324.253	347.81
324.482	704.81
324.71	1480.81
324.939	1990.81
325.168	713.81
325.397	212.81
325.626	160.81
325.855	122.81
326.084	128.81
326.313	125.81
326.542	137.81
326.77	207.81
326.999	418.81
327.228	854.81
327.457	1521.81
327.686	1217.81
327.914	326.81
328.143	171.81
328.372	139.81
328.6	113.81
328.829	108.81
329.058	109.81
329.287	117.81
329.515	95.81
329.744	105.81
329.972	96.81
330.201	88.81
330.43	105.81
330.658	103.81
330.887	128.81
331.115	106.81
331.344	89.81
331.572	88.81
331.801	101.81
332.03	110.81
332.258	93.81
332.486	88.81
332.715	98.81
332.943	102.81
333.172	107.81
333.4	100.81
333.629	108.81
333.857	97.81
334.085	108.81
334.314	113.81
334.542	98.81
334.771	90.81
334.999	102.81
335.227	90.81
335.455	93.81
335.684	95.81
335.912	110.81
336.14	93.81
336.369	92.81
336.597	100.81
336.825	98.81
337.053	87.81
337.281	90.81
337.51	91.81
337.738	96.81
337.966	100.81
338.194	91.81
338.422	100.81
338.65	102.81
338.878	83.81
339.106	85.81
339.334	97.81
339.562	88.81
339.79	85.81
340.018	80.81
340.246	97.81
340.474	86.81
340.702	103.81
340.93	90.81
341.158	84.81
341.386	104.81
341.614	85.81
341.842	80.81
342.07	83.81
342.298	102.81
342.526	96.81
342.754	99.81
342.981	97.81
343.209	95.81
343.437	93.81
343.665	83.81
343.893	86.81
344.12	101.81
344.348	95.81
344.576	97.81
344.804	106.81
345.031	102.81
345.259	103.81
345.487	105.81
345.714	92.81
345.942	96.81
346.17	84.81
346.397	90.81
346.625	97.81
346.853	98.81
347.08	92.81
347.308	88.81
347.535	96.81
347.763	102.81
347.99	104.81
348.218	100.81
348.445	105.81
348.673	86.81
348.9	104.81
349.128	88.81
349.355	84.81
349.583	90.81
349.81	90.81
350.037	100.81
350.265	103.81
350.492	88.81
350.72	89.81
350.947	86.81
351.174	108.81
351.402	109.81
351.629	101.81
351.856	96.81
352.083	94.81
352.311	107.81
352.538	105.81
352.765	105.81
352.992	106.81
353.22	111.81
353.447	104.81
353.674	103.81
353.901	93.81
354.128	93.81
354.355	89.81
354.583	121.81
354.81	103.81
355.037	106.81
355.264	99.81
355.491	89.81
355.718	101.81
355.945	84.81
356.172	75.81
356.399	80.81
356.626	74.81
356.853	90.81
357.08	96.81
357.307	100.81
357.534	93.81
357.761	85.81
357.988	91.81
358.215	91.81
358.441	104.81
358.668	96.81
358.895	92.81
359.122	89.81
359.349	86.81
359.576	87.81
359.802	90.81
360.029	108.81
360.256	110.81
360.483	107.81
360.709	96.81
360.936	100.81
361.163	103.81
361.39	109.81
361.616	75.81
361.843	100.81
362.07	96.81
362.296	91.81
362.523	100.81
362.749	104.81
362.976	99.81
363.203	84.81
363.429	101.81
363.656	89.81
363.882	82.81
364.109	88.81
364.335	78.81
364.562	96.81
364.788	85.81
365.015	100.81
365.241	88.81
365.468	107.81
365.694	110.81
365.92	96.81
366.147	83.81
366.373	74.81
366.599	87.81
366.826	91.81
367.052	82.81
367.278	100.81
367.505	82.81
367.731	86.81
367.957	94.81
368.184	99.81
368.41	100.81
368.636	108.81
368.862	122.81
369.089	92.81
369.315	89.81
369.541	99.81
369.767	86.81
369.993	94.81
370.219	86.81
370.445	90.81
370.672	94.81
370.898	81.81
371.124	90.81
371.35	107.81
371.576	91.81
371.802	72.81
372.028	78.81
372.254	81.81
372.48	93.81
372.706	91.81
372.932	84.81
373.158	72.81
373.384	90.81
373.61	99.81
373.835	86.81
374.061	103.81
374.287	93.81
374.513	84.81
374.739	86.81
374.965	94.81
375.191	88.81
375.416	84.81
375.642	86.81
375.868	101.81
376.094	91.81
376.319	86.81
376.545	91.81
376.771	97.81
376.997	89.81
377.222	97.81
377.448	82.81
377.674	76.81
377.899	96.81
378.125	92.81
378.35	86.81
378.576	104.81
378.802	77.81
379.027	88.81
379.253	102.81
379.478	95.81
379.704	108.81
379.929	83.81
380.155	90.81
380.38	86.81
380.606	110.81
380.831	99.81
381.057	94.81
381.282	88.81
381.507	89.81
381.733	120.81
381.958	100.81
382.184	92.81
382.409	108.81
382.634	113.81
382.86	94.81
383.085	103.81
383.31	103.81
383.535	116.81
383.761	99.81
383.986	106.81
384.211	100.81
384.436	89.81
384.662	98.81
384.887	110.81
385.112	103.81
385.337	106.81
385.562	108.81
385.787	109.81
386.013	115.81
386.238	114.81
386.463	115.81
386.688	117.81
386.913	110.81
387.138	109.81
387.363	102.81
387.588	93.81
387.813	93.81
388.038	117.81
388.263	113.81
388.488	118.81
388.713	89.81
388.938	91.81
389.163	107.81
389.387	98.81
389.612	103.81
389.837	93.81
390.062	104.81
390.287	98.81
390.512	92.81
390.736	92.81
390.961	99.81
391.186	93.81
391.411	96.81
391.636	96.81
391.86	96.81
392.085	76.81
392.31	84.81
392.534	77.81
392.759	105.81
392.984	100.81
393.208	104.81
393.433	111.81
393.658	104.81
393.882	84.81
394.107	85.81
394.331	66.81
394.556	74.81
394.78	82.81
395.005	88.81
395.229	90.81
395.454	99.81
395.678	93.81
395.903	77.81
396.127	105.81
396.352	85.81
396.576	91.81
396.801	102.81
397.025	94.81
397.249	86.81
397.474	101.81
397.698	102.81
397.922	84.81
398.147	82.81
398.371	94.81
398.595	88.81
398.82	96.81
399.044	79.81
399.268	90.81
399.492	84.81
399.717	82.81
399.941	89.81
400.165	85.81
400.389	85.81
400.613	80.81
400.837	92.81
401.062	73.81
401.286	86.81
401.51	97.81
401.734	102.81
401.958	91.81
402.182	118.81
402.406	141.81
402.63	115.81
402.854	89.81
403.078	88.81
403.302	73.81
403.526	84.81
403.75	98.81
403.974	78.81
404.198	90.81
404.422	93.81
404.645	88.81
404.869	86.81
405.093	89.81
405.317	84.81
405.541	87.81
405.765	99.81
405.988	112.81
406.212	149.81
406.436	210.81
406.66	132.81
406.883	106.81
407.107	95.81
407.331	94.81
407.555	114.81
407.778	89.81
408.002	105.81
408.226	89.81
408.449	92.81
408.673	88.81
408.896	85.81
409.12	97.81
409.344	94.81
409.567	76.81
409.791	100.81
410.014	91.81
410.238	104.81
410.461	97.81
410.685	100.81
410.908	93.81
411.132	96.81
411.355	88.81
411.578	87.81
411.802	88.81
412.025	89.81
412.249	88.81
412.472	84.81
412.695	88.81
412.919	91.81
413.142	89.81
413.365	93.81
413.589	83.81
413.812	80.81
414.035	85.81
414.258	82.81
414.482	91.81
414.705	84.81
414.928	96.81
415.151	97.81
415.374	85.81
415.597	105.81
415.821	94.81
416.044	98.81
416.267	94.81
416.49	82.81
416.713	89.81
416.936	91.81
417.159	103.81
417.382	82.81
417.605	98.81
417.828	101.81
418.051	90.81
418.274	93.81
418.497	88.81
418.72	92.81
418.943	76.81
419.166	85.81
419.389	82.81
419.611	81.81
419.834	114.81
420.057	80.81
420.28	94.81
420.503	93.81
420.726	78.81
420.948	82.81
421.171	100.81
421.394	90.81
421.617	82.81
421.839	97.81
422.062	82.81
422.285	91.81
422.507	107.81
422.73	111.81
422.953	94.81
423.175	100.81
423.398	81.81
423.621	93.81
423.843	88.81
424.066	99.81
424.288	88.81
424.511	83.81
424.733	80.81
424.956	101.81
425.178	100.81
425.401	90.81
425.623	90.81
425.846	77.81
426.068	93.81
426.291	89.81
426.513	102.81
426.735	85.81
426.958	96.81
427.18	114.81
427.402	124.81
427.625	141.81
427.847	95.81
428.069	100.81
428.292	102.81
428.514	80.81
428.736	71.81
428.958	73.81
429.181	77.81
429.403	77.81
429.625	76.81
429.847	85.81
430.069	102.81
430.292	97.81
430.514	75.81
430.736	76.81
430.958	84.81
431.18	81.81
431.402	90.81
431.624	89.81
431.846	92.81
432.068	92.81
432.29	88.81
432.512	83.81
432.734	84.81
432.956	81.81
433.178	101.81
433.4	85.81
433.622	73.81
433.844	108.81
434.066	88.81
434.287	87.81
434.509	76.81
434.731	98.81
434.953	82.81
435.175	98.81
435.397	93.81
435.618	82.81
435.84	107.81
436.062	119.81
436.284	122.81
436.505	99.81
436.727	102.81
436.949	93.81
437.17	94.81
437.392	97.81
437.614	97.81
437.835	113.81
438.057	96.81
438.278	98.81
438.5	105.81
438.721	121.81
438.943	103.81
439.165	84.81
439.386	83.81
439.608	95.81
439.829	99.81
440.05	113.81
440.272	118.81
440.493	101.81
440.715	97.81
440.936	95.81
441.158	83.81
441.379	81.81
441.6	97.81
441.822	97.81
442.043	101.81
442.264	104.81
442.486	90.81
442.707	97.81
442.928	104.81
443.149	117.81
443.371	107.81
443.592	88.81
443.813	102.81
444.034	82.81
444.255	87.81
444.476	85.81
444.698	90.81
444.919	72.81
445.14	132.81
445.361	123.81
445.582	106.81
445.803	114.81
446.024	124.81
446.245	106.81
446.466	92.81
446.687	116.81
446.908	96.81
447.129	86.81
447.35	110.81
447.571	104.81
447.792	81.81
448.013	86.81
448.234	86.81
448.455	118.81
448.675	115.81
448.896	108.81
449.117	102.81
449.338	93.81
449.559	122.81
449.779	123.81
450	96.81
450.221	81.81
450.442	79.81
450.662	98.81
450.883	104.81
451.104	101.81
451.324	104.81
451.545	87.81
451.766	83.81
451.986	82.81
452.207	100.81
452.428	92.81
452.648	96.81
452.869	118.81
453.089	104.81
453.31	108.81
453.53	86.81
453.751	91.81
453.971	109.81
454.192	112.81
454.412	94.81
454.633	97.81
454.853	78.81
455.073	101.81
455.294	85.81
455.514	97.81
455.734	94.81
455.955	80.81
456.175	73.81
456.395	97.81
456.616	75.81
456.836	88.81
457.056	98.81
457.276	75.81
457.497	82.81
457.717	81.81
457.937	84.81
458.157	84.81
458.377	83.81
458.598	97.81
458.818	139.81
459.038	144.81
459.258	105.81
459.478	91.81
459.698	78.81
459.918	86.81
460.138	95.81
460.358	84.81
460.578	84.81
460.798	89.81
461.018	96.81
461.238	91.81
461.458	80.81
461.678	98.81
461.898	82.81
462.118	87.81
462.338	85.81
462.558	75.81
462.777	82.81
462.997	73.81
463.217	78.81
463.437	90.81
463.657	86.81
463.876	86.81
464.096	81.81
464.316	90.81
464.536	95.81
464.755	92.81
464.975	90.81
465.195	135.81
465.414	129.81
465.634	105.81
465.854	81.81
466.073	86.81
466.293	75.81
466.512	85.81
466.732	90.81
466.951	85.81
467.171	98.81
467.391	72.81
467.61	100.81
467.829	82.81
468.049	94.81
468.268	92.81
468.488	96.81
468.707	86.81
468.927	77.81
469.146	68.81
469.365	78.81
469.585	82.81
469.804	97.81
470.023	95.81
470.243	91.81
470.462	84.81
470.681	96.81
470.901	87.81
471.12	92.81
471.339	84.81
471.558	92.81
471.777	88.81
471.997	102.81
472.216	90.81
472.435	100.81
472.654	97.81
472.873	91.81
473.092	97.81
473.311	77.81
473.53	83.81
473.749	87.81
473.968	94.81
474.187	89.81
474.406	108.81
474.625	68.81
474.844	92.81
475.063	103.81
475.282	74.81
475.501	97.81
475.72	92.81
475.939	87.81
476.158	85.81
476.377	86.81
476.596	91.81
476.814	89.81
477.033	86.81
477.252	87.81
477.471	88.81
477.69	87.81
477.908	82.81
478.127	99.81
478.346	84.81
478.564	101.81
478.783	100.81
479.002	85.81
479.22	91.81
479.439	102.81
479.658	94.81
479.876	85.81
480.095	82.81
480.313	82.81
480.532	86.81
480.751	81.81
480.969	96.81
481.188	80.81
481.406	94.81
481.624	83.81
481.843	89.81
482.061	90.81
482.28	74.81
482.498	76.81
482.717	92.81
482.935	89.81
483.153	83.81
483.372	93.81
483.59	102.81
483.808	79.81
484.027	92.81
484.245	90.81
484.463	98.81
484.681	84.81
484.9	94.81
485.118	88.81
485.336	101.81
485.554	97.81
485.772	105.81
485.99	99.81
486.209	106.81
486.427	100.81
486.645	99.81
486.863	106.81
487.081	95.81
487.299	97.81
487.517	96.81
487.735	90.81
487.953	88.81
488.171	104.81
488.389	103.81
488.607	89.81
488.825	76.81
489.043	63.81
489.261	89.81
489.479	92.81
489.696	94.81
489.914	93.81
490.132	85.81
490.35	66.81
490.568	85.81
490.786	104.81
491.003	87.81
491.221	88.81
491.439	92.81
491.657	92.81
491.874	89.81
492.092	80.81
492.31	97.81
492.527	97.81
492.745	85.81
492.963	81.81
493.18	100.81
493.398	82.81
493.615	107.81
493.833	112.81
494.05	99.81
494.268	92.81
494.485	93.81
494.703	104.81
494.92	96.81
495.138	81.81
495.355	93.81
495.573	115.81
495.79	96.81
496.008	90.81
496.225	91.81
496.442	77.81
496.66	96.81
496.877	83.81
497.094	93.81
497.312	94.81
497.529	81.81
497.746	101.81
497.963	100.81
498.181	88.81
498.398	77.81
498.615	107.81
498.832	83.81
499.049	94.81
499.267	97.81
499.484	101.81
499.701	91.81
499.918	98.81
500.135	87.81
500.352	89.81
500.569	92.81
500.786	92.81
501.003	99.81
501.22	82.81
501.437	90.81
501.654	93.81
501.871	101.81
502.088	81.81
502.305	99.81
502.522	91.81
502.739	89.81
502.956	93.81
503.172	84.81
503.389	93.81
503.606	91.81
503.823	87.81
504.04	113.81
504.256	96.81
504.473	91.81
504.69	89.81
504.907	104.81
505.123	87.81
505.34	93.81
505.557	82.81
505.773	97.81
505.99	98.81
506.207	93.81
506.423	89.81
506.64	88.81
506.856	78.81
507.073	88.81
507.289	87.81
507.506	92.81
507.722	112.81
507.939	92.81
508.155	110.81
508.372	99.81
508.588	84.81
508.805	86.81
509.021	72.81
509.238	84.81
509.454	96.81
509.67	97.81
509.887	117.81
510.103	121.81
510.319	193.81
510.536	670.81
510.752	1936.81
510.968	544.81
511.184	138.81
511.401	124.81
511.617	74.81
511.833	84.81
512.049	90.81
512.265	100.81
512.481	94.81
512.698	75.81
512.914	86.81
513.13	92.81
513.346	83.81
513.562	102.81
513.778	95.81
513.994	93.81
514.21	101.81
514.426	118.81
514.642	113.81
514.858	125.81
515.074	149.81
515.29	361.81
515.506	1169.81
