Data from Uncirc_1983_H10_HRD10591_00042.txt Node
Date: Wed Jan 03 12:25:40 EST 2024
User: Yrep
Spectrometer: HR+D1059
Trigger mode: 1
Integration Time (sec): 1.000000E-1
Scans to average: 1
Electric dark correction enabled: true
Nonlinearity correction enabled: false
Boxcar width: 0
XAxis mode: Wavelengths
Number of Pixels in Spectrum: 2048
>>>>>Begin Spectral Data<<<<<
223.165	-12.75
223.4	-12.75
223.635	-12.75
223.869	-23.75
224.104	-12.75
224.338	-9.75
224.573	-10.75
224.808	-5.75
225.042	-12.75
225.277	-5.75
225.511	-18.75
225.746	6.25
225.98	10.25
226.215	8.25
226.449	17.25
226.683	17.25
226.918	30.25
227.152	23.25
227.387	27.25
227.621	28.25
227.856	29.25
228.09	28.25
228.324	48.25
228.559	46.25
228.793	62.25
229.027	65.25
229.262	51.25
229.496	70.25
229.73	79.25
229.964	61.25
230.199	75.25
230.433	67.25
230.667	67.25
230.901	76.25
231.136	85.25
231.37	71.25
231.604	69.25
231.838	83.25
232.072	75.25
232.306	71.25
232.541	80.25
232.775	73.25
233.009	79.25
233.243	85.25
233.477	86.25
233.711	78.25
233.945	87.25
234.179	81.25
234.413	81.25
234.647	78.25
234.881	72.25
235.115	77.25
235.349	69.25
235.583	74.25
235.817	75.25
236.051	74.25
236.285	82.25
236.519	79.25
236.753	85.25
236.987	63.25
237.221	72.25
237.455	85.25
237.689	58.25
237.922	65.25
238.156	83.25
238.39	58.25
238.624	77.25
238.858	63.25
239.091	73.25
239.325	73.25
239.559	58.25
239.793	70.25
240.027	83.25
240.26	77.25
240.494	61.25
240.728	78.25
240.961	59.25
241.195	85.25
241.429	69.25
241.662	68.25
241.896	80.25
242.13	66.25
242.363	69.25
242.597	75.25
242.83	82.25
243.064	78.25
243.298	94.25
243.531	64.25
243.765	70.25
243.998	81.25
244.232	87.25
244.465	74.25
244.699	85.25
244.932	87.25
245.166	93.25
245.399	86.25
245.633	74.25
245.866	77.25
246.099	64.25
246.333	70.25
246.566	68.25
246.8	79.25
247.033	72.25
247.266	77.25
247.5	86.25
247.733	79.25
247.966	82.25
248.2	77.25
248.433	88.25
248.666	86.25
248.899	74.25
249.133	86.25
249.366	96.25
249.599	102.25
249.832	82.25
250.066	88.25
250.299	86.25
250.532	68.25
250.765	68.25
250.998	80.25
251.231	70.25
251.465	59.25
251.698	74.25
251.931	86.25
252.164	68.25
252.397	94.25
252.63	63.25
252.863	71.25
253.096	71.25
253.329	70.25
253.562	88.25
253.795	69.25
254.028	83.25
254.261	77.25
254.494	79.25
254.727	79.25
254.96	81.25
255.193	74.25
255.426	63.25
255.659	86.25
255.892	80.25
256.124	83.25
256.357	79.25
256.59	71.25
256.823	84.25
257.056	81.25
257.289	74.25
257.521	70.25
257.754	79.25
257.987	83.25
258.22	85.25
258.452	70.25
258.685	83.25
258.918	68.25
259.151	77.25
259.383	83.25
259.616	80.25
259.849	94.25
260.081	70.25
260.314	75.25
260.547	92.25
260.779	84.25
261.012	66.25
261.244	77.25
261.477	81.25
261.71	94.25
261.942	102.25
262.175	109.25
262.407	93.25
262.64	79.25
262.872	94.25
263.105	74.25
263.337	81.25
263.57	81.25
263.802	70.25
264.035	85.25
264.267	74.25
264.499	66.25
264.732	63.25
264.964	82.25
265.197	67.25
265.429	93.25
265.661	82.25
265.894	72.25
266.126	68.25
266.358	81.25
266.591	77.25
266.823	71.25
267.055	79.25
267.287	87.25
267.52	94.25
267.752	74.25
267.984	88.25
268.216	87.25
268.448	81.25
268.681	71.25
268.913	72.25
269.145	89.25
269.377	88.25
269.609	82.25
269.841	85.25
270.073	75.25
270.306	86.25
270.538	74.25
270.77	88.25
271.002	93.25
271.234	86.25
271.466	90.25
271.698	79.25
271.93	76.25
272.162	85.25
272.394	78.25
272.626	81.25
272.858	85.25
273.09	73.25
273.322	95.25
273.553	85.25
273.785	73.25
274.017	83.25
274.249	85.25
274.481	82.25
274.713	98.25
274.945	96.25
275.176	75.25
275.408	83.25
275.64	82.25
275.872	61.25
276.104	90.25
276.335	84.25
276.567	97.25
276.799	111.25
277.031	100.25
277.262	96.25
277.494	83.25
277.726	83.25
277.957	91.25
278.189	93.25
278.421	76.25
278.652	103.25
278.884	79.25
279.115	71.25
279.347	72.25
279.579	88.25
279.81	70.25
280.042	85.25
280.273	75.25
280.505	81.25
280.736	94.25
280.968	91.25
281.199	93.25
281.431	93.25
281.662	86.25
281.894	86.25
282.125	83.25
282.356	112.25
282.588	116.25
282.819	111.25
283.051	95.25
283.282	81.25
283.513	85.25
283.745	82.25
283.976	86.25
284.207	77.25
284.439	91.25
284.67	68.25
284.901	85.25
285.132	74.25
285.364	95.25
285.595	75.25
285.826	73.25
286.057	81.25
286.288	99.25
286.52	78.25
286.751	85.25
286.982	90.25
287.213	83.25
287.444	81.25
287.675	74.25
287.906	101.25
288.138	79.25
288.369	78.25
288.6	78.25
288.831	87.25
289.062	72.25
289.293	84.25
289.524	92.25
289.755	78.25
289.986	85.25
290.217	93.25
290.448	77.25
290.679	94.25
290.91	84.25
291.141	74.25
291.371	83.25
291.602	102.25
291.833	80.25
292.064	100.25
292.295	94.25
292.526	78.25
292.757	83.25
292.987	86.25
293.218	98.25
293.449	73.25
293.68	102.25
293.91	90.25
294.141	84.25
294.372	84.25
294.603	97.25
294.833	89.25
295.064	96.25
295.295	83.25
295.525	86.25
295.756	97.25
295.987	107.25
296.217	125.25
296.448	111.25
296.679	97.25
296.909	91.25
297.14	77.25
297.37	72.25
297.601	81.25
297.831	78.25
298.062	86.25
298.292	85.25
298.523	73.25
298.753	78.25
298.984	86.25
299.214	82.25
299.445	78.25
299.675	102.25
299.905	81.25
300.136	100.25
300.366	74.25
300.597	98.25
300.827	93.25
301.057	99.25
301.288	108.25
301.518	78.25
301.748	81.25
301.979	91.25
302.209	97.25
302.439	82.25
302.669	104.25
302.9	81.25
303.13	71.25
303.36	93.25
303.59	102.25
303.82	93.25
304.051	101.25
304.281	79.25
304.511	84.25
304.741	86.25
304.971	97.25
305.201	90.25
305.431	84.25
305.661	93.25
305.891	67.25
306.121	84.25
306.352	101.25
306.582	105.25
306.812	81.25
307.042	95.25
307.272	97.25
307.502	98.25
307.731	87.25
307.961	86.25
308.191	79.25
308.421	82.25
308.651	87.25
308.881	99.25
309.111	72.25
309.341	99.25
309.571	86.25
309.8	87.25
310.03	94.25
310.26	90.25
310.49	93.25
310.72	103.25
310.949	100.25
311.179	90.25
311.409	96.25
311.639	96.25
311.868	83.25
312.098	89.25
312.328	91.25
312.557	92.25
312.787	88.25
313.017	93.25
313.246	98.25
313.476	93.25
313.706	92.25
313.935	94.25
314.165	89.25
314.394	82.25
314.624	107.25
314.853	110.25
315.083	87.25
315.312	96.25
315.542	106.25
315.771	84.25
316.001	78.25
316.23	100.25
316.46	97.25
316.689	82.25
316.919	96.25
317.148	98.25
317.377	102.25
317.607	89.25
317.836	85.25
318.065	94.25
318.295	87.25
318.524	92.25
318.753	89.25
318.983	98.25
319.212	103.25
319.441	113.25
319.67	107.25
319.9	96.25
320.129	92.25
320.358	79.25
320.587	86.25
320.816	109.25
321.046	106.25
321.275	89.25
321.504	95.25
321.733	97.25
321.962	103.25
322.191	105.25
322.42	107.25
322.649	97.25
322.878	106.25
323.108	115.25
323.337	109.25
323.566	129.25
323.795	141.25
324.024	179.25
324.253	338.25
324.482	703.25
324.71	1412.25
324.939	1864.25
325.168	677.25
325.397	221.25
325.626	122.25
325.855	130.25
326.084	123.25
326.313	121.25
326.542	144.25
326.77	219.25
326.999	410.25
327.228	785.25
327.457	1442.25
327.686	1136.25
327.914	301.25
328.143	165.25
328.372	133.25
328.6	117.25
328.829	109.25
329.058	125.25
329.287	115.25
329.515	97.25
329.744	95.25
329.972	81.25
330.201	89.25
330.43	101.25
330.658	123.25
330.887	121.25
331.115	114.25
331.344	96.25
331.572	98.25
331.801	85.25
332.03	89.25
332.258	95.25
332.486	79.25
332.715	91.25
332.943	100.25
333.172	86.25
333.4	79.25
333.629	86.25
333.857	105.25
334.085	91.25
334.314	94.25
334.542	102.25
334.771	94.25
334.999	99.25
335.227	96.25
335.455	87.25
335.684	104.25
335.912	88.25
336.14	100.25
336.369	93.25
336.597	100.25
336.825	92.25
337.053	94.25
337.281	87.25
337.51	80.25
337.738	104.25
337.966	93.25
338.194	90.25
338.422	94.25
338.65	87.25
338.878	77.25
339.106	77.25
339.334	85.25
339.562	104.25
339.79	94.25
340.018	96.25
340.246	82.25
340.474	100.25
340.702	82.25
340.93	71.25
341.158	91.25
341.386	83.25
341.614	95.25
341.842	85.25
342.07	77.25
342.298	91.25
342.526	84.25
342.754	89.25
342.981	85.25
343.209	75.25
343.437	88.25
343.665	99.25
343.893	86.25
344.12	87.25
344.348	79.25
344.576	81.25
344.804	93.25
345.031	98.25
345.259	87.25
345.487	103.25
345.714	91.25
345.942	98.25
346.17	94.25
346.397	82.25
346.625	86.25
346.853	93.25
347.08	84.25
347.308	90.25
347.535	81.25
347.763	90.25
347.99	100.25
348.218	95.25
348.445	103.25
348.673	105.25
348.9	81.25
349.128	73.25
349.355	83.25
349.583	85.25
349.81	82.25
350.037	81.25
350.265	95.25
350.492	68.25
350.72	83.25
350.947	97.25
351.174	97.25
351.402	100.25
351.629	90.25
351.856	100.25
352.083	93.25
352.311	77.25
352.538	87.25
352.765	101.25
352.992	107.25
353.22	97.25
353.447	92.25
353.674	103.25
353.901	101.25
354.128	89.25
354.355	93.25
354.583	103.25
354.81	102.25
355.037	98.25
355.264	95.25
355.491	89.25
355.718	87.25
355.945	81.25
356.172	86.25
356.399	76.25
356.626	86.25
356.853	92.25
357.08	97.25
357.307	94.25
357.534	90.25
357.761	91.25
357.988	100.25
358.215	95.25
358.441	94.25
358.668	91.25
358.895	87.25
359.122	97.25
359.349	95.25
359.576	99.25
359.802	106.25
360.029	105.25
360.256	90.25
360.483	83.25
360.709	85.25
360.936	96.25
361.163	93.25
361.39	88.25
361.616	95.25
361.843	102.25
362.07	77.25
362.296	81.25
362.523	80.25
362.749	88.25
362.976	97.25
363.203	90.25
363.429	80.25
363.656	93.25
363.882	84.25
364.109	73.25
364.335	84.25
364.562	83.25
364.788	73.25
365.015	86.25
365.241	94.25
365.468	102.25
365.694	89.25
365.92	98.25
366.147	95.25
366.373	85.25
366.599	89.25
366.826	76.25
367.052	89.25
367.278	78.25
367.505	92.25
367.731	102.25
367.957	96.25
368.184	92.25
368.41	99.25
368.636	103.25
368.862	102.25
369.089	107.25
369.315	93.25
369.541	79.25
369.767	81.25
369.993	80.25
370.219	74.25
370.445	80.25
370.672	85.25
370.898	91.25
371.124	90.25
371.35	69.25
371.576	87.25
371.802	90.25
372.028	90.25
372.254	87.25
372.48	87.25
372.706	79.25
372.932	80.25
373.158	93.25
373.384	83.25
373.61	78.25
373.835	87.25
374.061	89.25
374.287	82.25
374.513	87.25
374.739	86.25
374.965	87.25
375.191	101.25
375.416	79.25
375.642	79.25
375.868	82.25
376.094	85.25
376.319	87.25
376.545	91.25
376.771	80.25
376.997	90.25
377.222	90.25
377.448	87.25
377.674	87.25
377.899	82.25
378.125	86.25
378.35	85.25
378.576	93.25
378.802	79.25
379.027	83.25
379.253	90.25
379.478	91.25
379.704	89.25
379.929	92.25
380.155	105.25
380.38	94.25
380.606	99.25
380.831	106.25
381.057	94.25
381.282	77.25
381.507	104.25
381.733	93.25
381.958	87.25
382.184	94.25
382.409	97.25
382.634	96.25
382.86	78.25
383.085	91.25
383.31	85.25
383.535	85.25
383.761	91.25
383.986	97.25
384.211	96.25
384.436	96.25
384.662	88.25
384.887	100.25
385.112	113.25
385.337	101.25
385.562	101.25
385.787	95.25
386.013	96.25
386.238	120.25
386.463	107.25
386.688	93.25
386.913	97.25
387.138	101.25
387.363	98.25
387.588	92.25
387.813	92.25
388.038	104.25
388.263	104.25
388.488	98.25
388.713	96.25
388.938	98.25
389.163	104.25
389.387	85.25
389.612	81.25
389.837	73.25
390.062	86.25
390.287	88.25
390.512	83.25
390.736	97.25
390.961	85.25
391.186	81.25
391.411	91.25
391.636	87.25
391.86	86.25
392.085	84.25
392.31	67.25
392.534	77.25
392.759	75.25
392.984	75.25
393.208	101.25
393.433	84.25
393.658	88.25
393.882	88.25
394.107	81.25
394.331	94.25
394.556	69.25
394.78	98.25
395.005	73.25
395.229	90.25
395.454	97.25
395.678	92.25
395.903	101.25
396.127	98.25
396.352	87.25
396.576	69.25
396.801	78.25
397.025	90.25
397.249	91.25
397.474	78.25
397.698	81.25
397.922	89.25
398.147	97.25
398.371	79.25
398.595	70.25
398.82	85.25
399.044	81.25
399.268	85.25
399.492	81.25
399.717	91.25
399.941	97.25
400.165	90.25
400.389	87.25
400.613	98.25
400.837	85.25
401.062	74.25
401.286	106.25
401.51	90.25
401.734	74.25
401.958	107.25
402.182	112.25
402.406	129.25
402.63	120.25
402.854	106.25
403.078	82.25
403.302	93.25
403.526	90.25
403.75	101.25
403.974	77.25
404.198	87.25
404.422	81.25
404.645	68.25
404.869	79.25
405.093	97.25
405.317	98.25
405.541	98.25
405.765	88.25
405.988	89.25
406.212	141.25
406.436	201.25
406.66	130.25
406.883	93.25
407.107	99.25
407.331	97.25
407.555	82.25
407.778	88.25
408.002	91.25
408.226	90.25
408.449	85.25
408.673	109.25
408.896	89.25
409.12	81.25
409.344	88.25
409.567	98.25
409.791	89.25
410.014	83.25
410.238	79.25
410.461	100.25
410.685	105.25
410.908	99.25
411.132	111.25
411.355	109.25
411.578	101.25
411.802	71.25
412.025	83.25
412.249	83.25
412.472	99.25
412.695	94.25
412.919	85.25
413.142	96.25
413.365	82.25
413.589	84.25
413.812	97.25
414.035	91.25
414.258	99.25
414.482	102.25
414.705	75.25
414.928	93.25
415.151	99.25
415.374	101.25
415.597	85.25
415.821	80.25
416.044	79.25
416.267	77.25
416.49	80.25
416.713	91.25
416.936	83.25
417.159	82.25
417.382	101.25
417.605	93.25
417.828	96.25
418.051	73.25
418.274	90.25
418.497	95.25
418.72	88.25
418.943	82.25
419.166	78.25
419.389	102.25
419.611	86.25
419.834	82.25
420.057	96.25
420.28	91.25
420.503	93.25
420.726	90.25
420.948	89.25
421.171	96.25
421.394	88.25
421.617	88.25
421.839	90.25
422.062	72.25
422.285	83.25
422.507	91.25
422.73	81.25
422.953	93.25
423.175	81.25
423.398	87.25
423.621	102.25
423.843	86.25
424.066	82.25
424.288	93.25
424.511	89.25
424.733	102.25
424.956	108.25
425.178	103.25
425.401	81.25
425.623	93.25
425.846	86.25
426.068	97.25
426.291	88.25
426.513	74.25
426.735	89.25
426.958	83.25
427.18	94.25
427.402	111.25
427.625	151.25
427.847	101.25
428.069	87.25
428.292	85.25
428.514	91.25
428.736	84.25
428.958	83.25
429.181	82.25
429.403	88.25
429.625	89.25
429.847	101.25
430.069	105.25
430.292	78.25
430.514	91.25
430.736	81.25
430.958	84.25
431.18	86.25
431.402	75.25
431.624	82.25
431.846	83.25
432.068	93.25
432.29	87.25
432.512	94.25
432.734	90.25
432.956	86.25
433.178	86.25
433.4	95.25
433.622	112.25
433.844	83.25
434.066	104.25
434.287	90.25
434.509	92.25
434.731	91.25
434.953	92.25
435.175	89.25
435.397	89.25
435.618	91.25
435.84	104.25
436.062	103.25
436.284	97.25
436.505	99.25
436.727	97.25
436.949	78.25
437.17	83.25
437.392	77.25
437.614	93.25
437.835	94.25
438.057	106.25
438.278	98.25
438.5	104.25
438.721	112.25
438.943	110.25
439.165	81.25
439.386	68.25
439.608	99.25
439.829	99.25
440.05	117.25
440.272	128.25
440.493	101.25
440.715	87.25
440.936	89.25
441.158	95.25
441.379	80.25
441.6	84.25
441.822	92.25
442.043	83.25
442.264	90.25
442.486	111.25
442.707	88.25
442.928	88.25
443.149	123.25
443.371	119.25
443.592	105.25
443.813	107.25
444.034	102.25
444.255	73.25
444.476	86.25
444.698	81.25
444.919	68.25
445.14	130.25
445.361	105.25
445.582	127.25
445.803	115.25
446.024	125.25
446.245	125.25
446.466	111.25
446.687	91.25
446.908	79.25
447.129	71.25
447.35	89.25
447.571	83.25
447.792	103.25
448.013	97.25
448.234	99.25
448.455	97.25
448.675	98.25
448.896	106.25
449.117	94.25
449.338	106.25
449.559	127.25
449.779	125.25
450	105.25
450.221	83.25
450.442	96.25
450.662	86.25
450.883	95.25
451.104	104.25
451.324	79.25
451.545	83.25
451.766	104.25
451.986	87.25
452.207	82.25
452.428	69.25
452.648	95.25
452.869	90.25
453.089	95.25
453.31	113.25
453.53	77.25
453.751	92.25
453.971	98.25
454.192	109.25
454.412	94.25
454.633	74.25
454.853	82.25
455.073	72.25
455.294	83.25
455.514	82.25
455.734	97.25
455.955	87.25
456.175	86.25
456.395	91.25
456.616	88.25
456.836	93.25
457.056	96.25
457.276	92.25
457.497	84.25
457.717	79.25
457.937	87.25
458.157	83.25
458.377	88.25
458.598	107.25
458.818	123.25
459.038	143.25
459.258	102.25
459.478	89.25
459.698	96.25
459.918	94.25
460.138	75.25
460.358	79.25
460.578	79.25
460.798	83.25
461.018	78.25
461.238	70.25
461.458	77.25
461.678	79.25
461.898	81.25
462.118	82.25
462.338	81.25
462.558	104.25
462.777	79.25
462.997	81.25
463.217	67.25
463.437	94.25
463.657	75.25
463.876	101.25
464.096	95.25
464.316	89.25
464.536	72.25
464.755	80.25
464.975	102.25
465.195	149.25
465.414	128.25
465.634	83.25
465.854	87.25
466.073	75.25
466.293	85.25
466.512	81.25
466.732	81.25
466.951	78.25
467.171	93.25
467.391	85.25
467.61	81.25
467.829	88.25
468.049	87.25
468.268	77.25
468.488	84.25
468.707	71.25
468.927	75.25
469.146	86.25
469.365	78.25
469.585	82.25
469.804	91.25
470.023	79.25
470.243	92.25
470.462	96.25
470.681	97.25
470.901	94.25
471.12	81.25
471.339	85.25
471.558	95.25
471.777	86.25
471.997	86.25
472.216	89.25
472.435	83.25
472.654	98.25
472.873	101.25
473.092	77.25
473.311	83.25
473.53	91.25
473.749	85.25
473.968	97.25
474.187	104.25
474.406	85.25
474.625	78.25
474.844	82.25
475.063	85.25
475.282	79.25
475.501	87.25
475.72	81.25
475.939	82.25
476.158	86.25
476.377	68.25
476.596	81.25
476.814	79.25
477.033	88.25
477.252	99.25
477.471	81.25
477.69	78.25
477.908	88.25
478.127	95.25
478.346	78.25
478.564	81.25
478.783	99.25
479.002	90.25
479.22	91.25
479.439	98.25
479.658	82.25
479.876	75.25
480.095	74.25
480.313	97.25
480.532	82.25
480.751	90.25
480.969	85.25
481.188	133.25
481.406	103.25
481.624	82.25
481.843	87.25
482.061	93.25
482.28	86.25
482.498	95.25
482.717	79.25
482.935	94.25
483.153	91.25
483.372	106.25
483.59	91.25
483.808	86.25
484.027	87.25
484.245	90.25
484.463	90.25
484.681	96.25
484.9	90.25
485.118	100.25
485.336	84.25
485.554	91.25
485.772	91.25
485.99	93.25
486.209	107.25
486.427	93.25
486.645	99.25
486.863	103.25
487.081	111.25
487.299	100.25
487.517	88.25
487.735	84.25
487.953	78.25
488.171	91.25
488.389	89.25
488.607	100.25
488.825	93.25
489.043	94.25
489.261	86.25
489.479	88.25
489.696	79.25
489.914	89.25
490.132	77.25
490.35	95.25
490.568	88.25
490.786	89.25
491.003	82.25
491.221	79.25
491.439	67.25
491.657	88.25
491.874	85.25
492.092	89.25
492.31	89.25
492.527	94.25
492.745	91.25
492.963	100.25
493.18	77.25
493.398	93.25
493.615	87.25
493.833	81.25
494.05	86.25
494.268	83.25
494.485	83.25
494.703	86.25
494.92	91.25
495.138	97.25
495.355	95.25
495.573	88.25
495.79	88.25
496.008	88.25
496.225	95.25
496.442	85.25
496.66	97.25
496.877	96.25
497.094	101.25
497.312	80.25
497.529	89.25
497.746	95.25
497.963	95.25
498.181	84.25
498.398	105.25
498.615	102.25
498.832	105.25
499.049	86.25
499.267	85.25
499.484	87.25
499.701	88.25
499.918	88.25
500.135	70.25
500.352	103.25
500.569	86.25
500.786	84.25
501.003	98.25
501.22	97.25
501.437	88.25
501.654	99.25
501.871	99.25
502.088	82.25
502.305	109.25
502.522	107.25
502.739	79.25
502.956	86.25
503.172	74.25
503.389	75.25
503.606	99.25
503.823	93.25
504.04	100.25
504.256	92.25
504.473	101.25
504.69	88.25
504.907	86.25
505.123	98.25
505.34	92.25
505.557	93.25
505.773	90.25
505.99	84.25
506.207	79.25
506.423	91.25
506.64	99.25
506.856	94.25
507.073	86.25
507.289	93.25
507.506	103.25
507.722	107.25
507.939	105.25
508.155	96.25
508.372	84.25
508.588	87.25
508.805	87.25
509.021	95.25
509.238	101.25
509.454	101.25
509.67	102.25
509.887	107.25
510.103	121.25
510.319	192.25
510.536	701.25
510.752	2112.25
510.968	576.25
511.184	137.25
511.401	97.25
511.617	92.25
511.833	91.25
512.049	92.25
512.265	74.25
512.481	81.25
512.698	94.25
512.914	81.25
513.13	95.25
513.346	106.25
513.562	93.25
513.778	97.25
513.994	102.25
514.21	99.25
514.426	111.25
514.642	133.25
514.858	110.25
515.074	149.25
515.29	384.25
515.506	1252.25
515.721	456.25
515.937	135.25
516.153	101.25
516.369	91.25
516.585	90.25
516.801	83.25
