Data from Uncirc_1983_H10_HRD10591_00010.txt Node
Date: Wed Jan 03 12:25:34 EST 2024
User: Yrep
Spectrometer: HR+D1059
Trigger mode: 1
Integration Time (sec): 1.000000E-1
Scans to average: 1
Electric dark correction enabled: true
Nonlinearity correction enabled: false
Boxcar width: 0
XAxis mode: Wavelengths
Number of Pixels in Spectrum: 2048
>>>>>Begin Spectral Data<<<<<
223.165	-3.75
223.4	-3.75
223.635	-3.75
223.869	-21.75
224.104	-7.75
224.338	-19.75
224.573	-24.75
224.808	-6.75
225.042	-6.75
225.277	-0.75
225.511	-3.75
225.746	0.25
225.98	5.25
226.215	8.25
226.449	-6.75
226.683	25.25
226.918	33.25
227.152	30.25
227.387	28.25
227.621	25.25
227.856	55.25
228.09	60.25
228.324	46.25
228.559	51.25
228.793	62.25
229.027	67.25
229.262	48.25
229.496	65.25
229.73	85.25
229.964	76.25
230.199	65.25
230.433	74.25
230.667	71.25
230.901	76.25
231.136	83.25
231.37	79.25
231.604	86.25
231.838	82.25
232.072	75.25
232.306	81.25
232.541	83.25
232.775	79.25
233.009	72.25
233.243	80.25
233.477	74.25
233.711	76.25
233.945	83.25
234.179	75.25
234.413	87.25
234.647	76.25
234.881	91.25
235.115	76.25
235.349	68.25
235.583	90.25
235.817	79.25
236.051	92.25
236.285	75.25
236.519	73.25
236.753	64.25
236.987	70.25
237.221	67.25
237.455	69.25
237.689	65.25
237.922	73.25
238.156	76.25
238.39	87.25
238.624	88.25
238.858	83.25
239.091	75.25
239.325	64.25
239.559	83.25
239.793	69.25
240.027	86.25
240.26	83.25
240.494	81.25
240.728	69.25
240.961	64.25
241.195	72.25
241.429	89.25
241.662	75.25
241.896	78.25
242.13	87.25
242.363	85.25
242.597	65.25
242.83	75.25
243.064	56.25
243.298	62.25
243.531	60.25
243.765	61.25
243.998	84.25
244.232	90.25
244.465	74.25
244.699	72.25
244.932	71.25
245.166	68.25
245.399	79.25
245.633	77.25
245.866	71.25
246.099	70.25
246.333	76.25
246.566	75.25
246.8	78.25
247.033	72.25
247.266	67.25
247.5	65.25
247.733	81.25
247.966	93.25
248.2	84.25
248.433	74.25
248.666	68.25
248.899	76.25
249.133	72.25
249.366	88.25
249.599	100.25
249.832	88.25
250.066	99.25
250.299	86.25
250.532	79.25
250.765	82.25
250.998	74.25
251.231	77.25
251.465	80.25
251.698	83.25
251.931	83.25
252.164	83.25
252.397	89.25
252.63	88.25
252.863	89.25
253.096	83.25
253.329	74.25
253.562	82.25
253.795	73.25
254.028	85.25
254.261	83.25
254.494	81.25
254.727	73.25
254.96	80.25
255.193	81.25
255.426	83.25
255.659	96.25
255.892	90.25
256.124	83.25
256.357	80.25
256.59	84.25
256.823	79.25
257.056	83.25
257.289	92.25
257.521	89.25
257.754	66.25
257.987	70.25
258.22	65.25
258.452	90.25
258.685	97.25
258.918	91.25
259.151	80.25
259.383	98.25
259.616	85.25
259.849	76.25
260.081	75.25
260.314	88.25
260.547	83.25
260.779	83.25
261.012	83.25
261.244	76.25
261.477	88.25
261.71	81.25
261.942	88.25
262.175	94.25
262.407	87.25
262.64	72.25
262.872	79.25
263.105	82.25
263.337	79.25
263.57	90.25
263.802	84.25
264.035	91.25
264.267	93.25
264.499	80.25
264.732	86.25
264.964	93.25
265.197	85.25
265.429	81.25
265.661	88.25
265.894	90.25
266.126	91.25
266.358	90.25
266.591	81.25
266.823	105.25
267.055	88.25
267.287	75.25
267.52	75.25
267.752	81.25
267.984	75.25
268.216	77.25
268.448	96.25
268.681	90.25
268.913	86.25
269.145	85.25
269.377	90.25
269.609	81.25
269.841	94.25
270.073	81.25
270.306	92.25
270.538	80.25
270.77	83.25
271.002	87.25
271.234	79.25
271.466	75.25
271.698	90.25
271.93	79.25
272.162	62.25
272.394	83.25
272.626	81.25
272.858	86.25
273.09	82.25
273.322	83.25
273.553	72.25
273.785	85.25
274.017	98.25
274.249	84.25
274.481	88.25
274.713	72.25
274.945	91.25
275.176	90.25
275.408	80.25
275.64	93.25
275.872	64.25
276.104	83.25
276.335	89.25
276.567	99.25
276.799	101.25
277.031	100.25
277.262	103.25
277.494	91.25
277.726	86.25
277.957	76.25
278.189	97.25
278.421	84.25
278.652	78.25
278.884	95.25
279.115	93.25
279.347	87.25
279.579	88.25
279.81	94.25
280.042	91.25
280.273	90.25
280.505	92.25
280.736	97.25
280.968	74.25
281.199	87.25
281.431	86.25
281.662	83.25
281.894	87.25
282.125	87.25
282.356	112.25
282.588	117.25
282.819	93.25
283.051	88.25
283.282	105.25
283.513	96.25
283.745	76.25
283.976	99.25
284.207	80.25
284.439	83.25
284.67	85.25
284.901	88.25
285.132	68.25
285.364	91.25
285.595	74.25
285.826	89.25
286.057	87.25
286.288	84.25
286.52	97.25
286.751	95.25
286.982	97.25
287.213	93.25
287.444	85.25
287.675	80.25
287.906	96.25
288.138	84.25
288.369	99.25
288.6	84.25
288.831	90.25
289.062	72.25
289.293	79.25
289.524	88.25
289.755	96.25
289.986	99.25
290.217	90.25
290.448	99.25
290.679	86.25
290.91	89.25
291.141	93.25
291.371	74.25
291.602	84.25
291.833	89.25
292.064	76.25
292.295	82.25
292.526	85.25
292.757	93.25
292.987	94.25
293.218	92.25
293.449	76.25
293.68	91.25
293.91	96.25
294.141	81.25
294.372	80.25
294.603	80.25
294.833	82.25
295.064	86.25
295.295	97.25
295.525	91.25
295.756	93.25
295.987	99.25
296.217	121.25
296.448	115.25
296.679	100.25
296.909	90.25
297.14	96.25
297.37	100.25
297.601	85.25
297.831	90.25
298.062	99.25
298.292	85.25
298.523	70.25
298.753	83.25
298.984	100.25
299.214	85.25
299.445	87.25
299.675	76.25
299.905	88.25
300.136	100.25
300.366	96.25
300.597	88.25
300.827	88.25
301.057	86.25
301.288	94.25
301.518	94.25
301.748	99.25
301.979	112.25
302.209	88.25
302.439	92.25
302.669	76.25
302.9	76.25
303.13	93.25
303.36	93.25
303.59	88.25
303.82	95.25
304.051	80.25
304.281	96.25
304.511	97.25
304.741	108.25
304.971	92.25
305.201	89.25
305.431	87.25
305.661	91.25
305.891	97.25
306.121	98.25
306.352	103.25
306.582	103.25
306.812	96.25
307.042	84.25
307.272	92.25
307.502	82.25
307.731	90.25
307.961	90.25
308.191	101.25
308.421	80.25
308.651	82.25
308.881	85.25
309.111	84.25
309.341	99.25
309.571	95.25
309.8	89.25
310.03	103.25
310.26	89.25
310.49	90.25
310.72	95.25
310.949	84.25
311.179	109.25
311.409	113.25
311.639	103.25
311.868	96.25
312.098	91.25
312.328	91.25
312.557	109.25
312.787	97.25
313.017	100.25
313.246	93.25
313.476	90.25
313.706	89.25
313.935	91.25
314.165	106.25
314.394	106.25
314.624	98.25
314.853	88.25
315.083	104.25
315.312	103.25
315.542	85.25
315.771	105.25
316.001	88.25
316.23	82.25
316.46	87.25
316.689	86.25
316.919	92.25
317.148	80.25
317.377	84.25
317.607	97.25
317.836	89.25
318.065	84.25
318.295	76.25
318.524	83.25
318.753	97.25
318.983	99.25
319.212	97.25
319.441	105.25
319.67	96.25
319.9	99.25
320.129	92.25
320.358	88.25
320.587	87.25
320.816	87.25
321.046	94.25
321.275	91.25
321.504	105.25
321.733	114.25
321.962	103.25
322.191	102.25
322.42	93.25
322.649	106.25
322.878	92.25
323.108	106.25
323.337	109.25
323.566	127.25
323.795	134.25
324.024	180.25
324.253	329.25
324.482	687.25
324.71	1383.25
324.939	1883.25
325.168	661.25
325.397	215.25
325.626	123.25
325.855	123.25
326.084	120.25
326.313	119.25
326.542	149.25
326.77	212.25
326.999	384.25
327.228	804.25
327.457	1476.25
327.686	1181.25
327.914	327.25
328.143	174.25
328.372	144.25
328.6	117.25
328.829	107.25
329.058	99.25
329.287	115.25
329.515	109.25
329.744	91.25
329.972	103.25
330.201	104.25
330.43	102.25
330.658	105.25
330.887	124.25
331.115	108.25
331.344	95.25
331.572	98.25
331.801	100.25
332.03	108.25
332.258	99.25
332.486	94.25
332.715	101.25
332.943	96.25
333.172	89.25
333.4	99.25
333.629	112.25
333.857	114.25
334.085	115.25
334.314	104.25
334.542	100.25
334.771	85.25
334.999	91.25
335.227	108.25
335.455	83.25
335.684	106.25
335.912	100.25
336.14	97.25
336.369	83.25
336.597	94.25
336.825	76.25
337.053	84.25
337.281	81.25
337.51	99.25
337.738	90.25
337.966	97.25
338.194	106.25
338.422	88.25
338.65	87.25
338.878	93.25
339.106	85.25
339.334	91.25
339.562	88.25
339.79	85.25
340.018	82.25
340.246	88.25
340.474	85.25
340.702	83.25
340.93	76.25
341.158	81.25
341.386	91.25
341.614	91.25
341.842	101.25
342.07	97.25
342.298	72.25
342.526	97.25
342.754	79.25
342.981	85.25
343.209	87.25
343.437	93.25
343.665	97.25
343.893	99.25
344.12	86.25
344.348	83.25
344.576	80.25
344.804	82.25
345.031	99.25
345.259	100.25
345.487	83.25
345.714	89.25
345.942	99.25
346.17	85.25
346.397	85.25
346.625	89.25
346.853	103.25
347.08	96.25
347.308	109.25
347.535	99.25
347.763	99.25
347.99	101.25
348.218	83.25
348.445	108.25
348.673	90.25
348.9	93.25
349.128	96.25
349.355	92.25
349.583	83.25
349.81	84.25
350.037	85.25
350.265	87.25
350.492	110.25
350.72	107.25
350.947	111.25
351.174	108.25
351.402	112.25
351.629	131.25
351.856	101.25
352.083	105.25
352.311	88.25
352.538	98.25
352.765	105.25
352.992	120.25
353.22	110.25
353.447	83.25
353.674	98.25
353.901	83.25
354.128	107.25
354.355	89.25
354.583	90.25
354.81	97.25
355.037	103.25
355.264	90.25
355.491	106.25
355.718	107.25
355.945	87.25
356.172	87.25
356.399	81.25
356.626	100.25
356.853	92.25
357.08	92.25
357.307	98.25
357.534	100.25
357.761	89.25
357.988	84.25
358.215	91.25
358.441	99.25
358.668	91.25
358.895	88.25
359.122	89.25
359.349	90.25
359.576	92.25
359.802	95.25
360.029	104.25
360.256	94.25
360.483	101.25
360.709	79.25
360.936	84.25
361.163	89.25
361.39	80.25
361.616	92.25
361.843	92.25
362.07	96.25
362.296	81.25
362.523	95.25
362.749	90.25
362.976	84.25
363.203	73.25
363.429	97.25
363.656	88.25
363.882	88.25
364.109	89.25
364.335	88.25
364.562	81.25
364.788	85.25
365.015	93.25
365.241	89.25
365.468	92.25
365.694	97.25
365.92	79.25
366.147	89.25
366.373	86.25
366.599	86.25
366.826	96.25
367.052	82.25
367.278	90.25
367.505	101.25
367.731	91.25
367.957	106.25
368.184	100.25
368.41	99.25
368.636	107.25
368.862	96.25
369.089	89.25
369.315	89.25
369.541	82.25
369.767	89.25
369.993	95.25
370.219	92.25
370.445	78.25
370.672	88.25
370.898	98.25
371.124	94.25
371.35	88.25
371.576	87.25
371.802	85.25
372.028	102.25
372.254	88.25
372.48	87.25
372.706	80.25
372.932	91.25
373.158	105.25
373.384	95.25
373.61	83.25
373.835	84.25
374.061	93.25
374.287	95.25
374.513	89.25
374.739	94.25
374.965	87.25
375.191	82.25
375.416	97.25
375.642	112.25
375.868	77.25
376.094	87.25
376.319	95.25
376.545	91.25
376.771	97.25
376.997	87.25
377.222	101.25
377.448	75.25
377.674	90.25
377.899	85.25
378.125	90.25
378.35	83.25
378.576	83.25
378.802	83.25
379.027	101.25
379.253	102.25
379.478	88.25
379.704	95.25
379.929	96.25
380.155	98.25
380.38	92.25
380.606	94.25
380.831	91.25
381.057	93.25
381.282	88.25
381.507	116.25
381.733	104.25
381.958	104.25
382.184	102.25
382.409	101.25
382.634	97.25
382.86	109.25
383.085	95.25
383.31	109.25
383.535	114.25
383.761	107.25
383.986	106.25
384.211	114.25
384.436	102.25
384.662	113.25
384.887	103.25
385.112	119.25
385.337	112.25
385.562	111.25
385.787	119.25
386.013	100.25
386.238	112.25
386.463	103.25
386.688	108.25
386.913	105.25
387.138	116.25
387.363	109.25
387.588	97.25
387.813	104.25
388.038	93.25
388.263	109.25
388.488	116.25
388.713	103.25
388.938	100.25
389.163	90.25
389.387	86.25
389.612	101.25
389.837	89.25
390.062	76.25
390.287	101.25
390.512	97.25
390.736	87.25
390.961	78.25
391.186	97.25
391.411	82.25
391.636	96.25
391.86	99.25
392.085	87.25
392.31	82.25
392.534	96.25
392.759	100.25
392.984	73.25
393.208	88.25
393.433	121.25
393.658	115.25
393.882	87.25
394.107	87.25
394.331	66.25
394.556	79.25
394.78	92.25
395.005	75.25
395.229	71.25
395.454	90.25
395.678	82.25
395.903	84.25
396.127	89.25
396.352	106.25
396.576	88.25
396.801	101.25
397.025	104.25
397.249	95.25
397.474	89.25
397.698	101.25
397.922	83.25
398.147	80.25
398.371	87.25
398.595	86.25
398.82	84.25
399.044	86.25
399.268	73.25
399.492	89.25
399.717	100.25
399.941	100.25
400.165	89.25
400.389	92.25
400.613	85.25
400.837	76.25
401.062	91.25
401.286	95.25
401.51	87.25
401.734	93.25
401.958	91.25
402.182	114.25
402.406	150.25
402.63	99.25
402.854	85.25
403.078	87.25
403.302	83.25
403.526	82.25
403.75	83.25
403.974	82.25
404.198	83.25
404.422	76.25
404.645	84.25
404.869	82.25
405.093	87.25
405.317	88.25
405.541	75.25
405.765	87.25
405.988	111.25
406.212	165.25
406.436	196.25
406.66	121.25
406.883	109.25
407.107	86.25
407.331	91.25
407.555	91.25
407.778	92.25
408.002	102.25
408.226	86.25
408.449	65.25
408.673	83.25
408.896	98.25
409.12	94.25
409.344	95.25
409.567	85.25
409.791	89.25
410.014	99.25
410.238	96.25
410.461	96.25
410.685	81.25
410.908	108.25
411.132	103.25
411.355	104.25
411.578	93.25
411.802	84.25
412.025	87.25
412.249	89.25
412.472	93.25
412.695	82.25
412.919	72.25
413.142	90.25
413.365	83.25
413.589	91.25
413.812	96.25
414.035	85.25
414.258	92.25
414.482	89.25
414.705	88.25
414.928	86.25
415.151	92.25
415.374	79.25
415.597	89.25
415.821	101.25
416.044	79.25
416.267	92.25
416.49	80.25
416.713	76.25
416.936	76.25
417.159	88.25
417.382	82.25
417.605	91.25
417.828	82.25
418.051	87.25
418.274	83.25
418.497	88.25
418.72	81.25
418.943	91.25
419.166	91.25
419.389	97.25
419.611	96.25
419.834	97.25
420.057	75.25
420.28	84.25
420.503	78.25
420.726	81.25
420.948	76.25
421.171	103.25
421.394	93.25
421.617	87.25
421.839	104.25
422.062	89.25
422.285	96.25
422.507	113.25
422.73	107.25
422.953	96.25
423.175	98.25
423.398	74.25
423.621	100.25
423.843	87.25
424.066	98.25
424.288	69.25
424.511	88.25
424.733	93.25
424.956	97.25
425.178	71.25
425.401	99.25
425.623	84.25
425.846	89.25
426.068	84.25
426.291	93.25
426.513	88.25
426.735	87.25
426.958	75.25
427.18	102.25
427.402	122.25
427.625	143.25
427.847	124.25
428.069	85.25
428.292	93.25
428.514	93.25
428.736	75.25
428.958	75.25
429.181	87.25
429.403	76.25
429.625	83.25
429.847	71.25
430.069	85.25
430.292	91.25
430.514	82.25
430.736	89.25
430.958	99.25
431.18	83.25
431.402	70.25
431.624	103.25
431.846	90.25
432.068	83.25
432.29	85.25
432.512	74.25
432.734	86.25
432.956	96.25
433.178	90.25
433.4	110.25
433.622	95.25
433.844	83.25
434.066	84.25
434.287	87.25
434.509	94.25
434.731	90.25
434.953	76.25
435.175	83.25
435.397	90.25
435.618	87.25
435.84	93.25
436.062	106.25
436.284	115.25
436.505	104.25
436.727	92.25
436.949	89.25
437.17	96.25
437.392	86.25
437.614	95.25
437.835	100.25
438.057	92.25
438.278	99.25
438.5	102.25
438.721	112.25
438.943	90.25
439.165	89.25
439.386	84.25
439.608	81.25
439.829	95.25
440.05	103.25
440.272	131.25
440.493	85.25
440.715	96.25
440.936	86.25
441.158	77.25
441.379	79.25
441.6	88.25
441.822	88.25
442.043	89.25
442.264	104.25
442.486	89.25
442.707	94.25
442.928	94.25
443.149	117.25
443.371	128.25
443.592	99.25
443.813	113.25
444.034	104.25
444.255	102.25
444.476	85.25
444.698	91.25
444.919	82.25
445.14	132.25
445.361	111.25
445.582	122.25
445.803	115.25
446.024	98.25
446.245	125.25
446.466	100.25
446.687	84.25
446.908	100.25
447.129	93.25
447.35	86.25
447.571	96.25
447.792	90.25
448.013	103.25
448.234	85.25
448.455	98.25
448.675	109.25
448.896	102.25
449.117	103.25
449.338	100.25
449.559	109.25
449.779	111.25
450	88.25
450.221	89.25
450.442	87.25
450.662	89.25
450.883	83.25
451.104	115.25
451.324	81.25
451.545	83.25
451.766	92.25
451.986	72.25
452.207	97.25
452.428	84.25
452.648	91.25
452.869	96.25
453.089	106.25
453.31	101.25
453.53	91.25
453.751	84.25
453.971	98.25
454.192	101.25
454.412	94.25
454.633	83.25
454.853	85.25
455.073	81.25
455.294	79.25
455.514	68.25
455.734	83.25
455.955	85.25
456.175	87.25
456.395	100.25
456.616	94.25
456.836	104.25
457.056	82.25
457.276	80.25
457.497	80.25
457.717	83.25
457.937	82.25
458.157	76.25
458.377	91.25
458.598	111.25
458.818	120.25
459.038	153.25
459.258	108.25
459.478	95.25
459.698	90.25
459.918	89.25
460.138	90.25
460.358	92.25
460.578	95.25
460.798	100.25
461.018	91.25
461.238	89.25
461.458	87.25
461.678	92.25
461.898	87.25
462.118	81.25
462.338	91.25
462.558	92.25
462.777	71.25
462.997	100.25
463.217	80.25
463.437	84.25
463.657	81.25
463.876	91.25
464.096	102.25
464.316	91.25
464.536	94.25
464.755	96.25
464.975	90.25
465.195	144.25
465.414	135.25
465.634	101.25
465.854	91.25
466.073	74.25
466.293	87.25
466.512	89.25
466.732	85.25
466.951	94.25
467.171	87.25
467.391	100.25
467.61	103.25
467.829	104.25
468.049	88.25
468.268	79.25
468.488	91.25
468.707	76.25
468.927	77.25
469.146	74.25
469.365	91.25
469.585	85.25
469.804	91.25
470.023	99.25
470.243	90.25
470.462	95.25
470.681	105.25
470.901	89.25
471.12	91.25
471.339	92.25
471.558	92.25
471.777	89.25
471.997	91.25
472.216	85.25
472.435	97.25
472.654	75.25
472.873	87.25
473.092	77.25
473.311	93.25
473.53	100.25
473.749	103.25
473.968	97.25
474.187	93.25
474.406	98.25
474.625	89.25
474.844	97.25
475.063	82.25
475.282	82.25
475.501	96.25
475.72	90.25
475.939	115.25
476.158	95.25
476.377	95.25
476.596	87.25
476.814	87.25
477.033	108.25
477.252	91.25
477.471	100.25
477.69	89.25
477.908	93.25
478.127	85.25
478.346	96.25
478.564	87.25
478.783	99.25
479.002	81.25
479.22	87.25
479.439	103.25
479.658	97.25
479.876	88.25
480.095	100.25
480.313	95.25
480.532	94.25
480.751	95.25
480.969	83.25
481.188	92.25
481.406	95.25
481.624	89.25
481.843	93.25
482.061	69.25
482.28	78.25
482.498	84.25
482.717	70.25
482.935	74.25
483.153	88.25
483.372	87.25
483.59	85.25
483.808	97.25
484.027	81.25
484.245	92.25
484.463	91.25
484.681	101.25
484.9	88.25
485.118	98.25
485.336	86.25
485.554	93.25
485.772	103.25
485.99	95.25
486.209	99.25
486.427	104.25
486.645	105.25
486.863	106.25
487.081	91.25
487.299	97.25
487.517	117.25
487.735	100.25
487.953	87.25
488.171	100.25
488.389	101.25
488.607	85.25
488.825	92.25
489.043	93.25
489.261	91.25
489.479	97.25
489.696	74.25
489.914	65.25
490.132	101.25
490.35	80.25
490.568	85.25
490.786	92.25
491.003	85.25
491.221	83.25
491.439	84.25
491.657	99.25
491.874	97.25
492.092	90.25
492.31	83.25
492.527	105.25
492.745	92.25
492.963	93.25
493.18	104.25
493.398	103.25
493.615	99.25
493.833	95.25
494.05	88.25
494.268	101.25
494.485	73.25
494.703	84.25
494.92	75.25
495.138	101.25
495.355	83.25
495.573	96.25
495.79	87.25
496.008	97.25
496.225	101.25
496.442	92.25
496.66	93.25
496.877	68.25
497.094	88.25
497.312	89.25
497.529	88.25
497.746	91.25
497.963	92.25
498.181	84.25
498.398	102.25
498.615	108.25
498.832	100.25
499.049	90.25
499.267	83.25
499.484	91.25
499.701	99.25
499.918	103.25
500.135	84.25
500.352	92.25
500.569	92.25
500.786	89.25
501.003	89.25
501.22	79.25
501.437	100.25
501.654	92.25
501.871	96.25
502.088	93.25
502.305	107.25
502.522	94.25
502.739	84.25
502.956	104.25
503.172	96.25
503.389	98.25
503.606	96.25
503.823	104.25
504.04	73.25
504.256	94.25
504.473	83.25
504.69	92.25
504.907	98.25
505.123	97.25
505.34	94.25
505.557	92.25
505.773	105.25
505.99	94.25
506.207	91.25
506.423	95.25
506.64	81.25
506.856	91.25
507.073	83.25
507.289	93.25
507.506	91.25
507.722	88.25
507.939	104.25
508.155	96.25
508.372	84.25
508.588	91.25
508.805	98.25
509.021	97.25
509.238	103.25
509.454	97.25
509.67	96.25
509.887	107.25
510.103	141.25
510.319	193.25
510.536	636.25
510.752	1916.25
510.968	542.25
511.184	140.25
511.401	104.25
511.617	91.25
511.833	91.25
512.049	89.25
512.265	80.25
512.481	91.25
512.698	79.25
512.914	95.25
513.13	99.25
513.346	89.25
513.562	100.25
513.778	104.25
513.994	99.25
514.21	103.25
514.426	112.25
514.642	117.25
514.858	112.25
515.074	132.25
515.29	344.25
515.506	1123.25
515.721	401.25
515.937	124.25
516.153	104.25
