Data from Uncirc_1983_H10_HRD10591_00069.txt Node
Date: Wed Jan 03 12:25:45 EST 2024
User: Yrep
Spectrometer: HR+D1059
Trigger mode: 1
Integration Time (sec): 1.000000E-1
Scans to average: 1
Electric dark correction enabled: true
Nonlinearity correction enabled: false
Boxcar width: 0
XAxis mode: Wavelengths
Number of Pixels in Spectrum: 2048
>>>>>Begin Spectral Data<<<<<
223.165	-21.69
223.4	-21.69
223.635	-21.69
223.869	-34.69
224.104	-10.69
224.338	-14.69
224.573	5.31
224.808	-16.69
225.042	-8.69
225.277	-5.69
225.511	4.31
225.746	6.31
225.98	-3.69
226.215	19.31
226.449	18.31
226.683	10.31
226.918	26.31
227.152	26.31
227.387	22.31
227.621	47.31
227.856	37.31
228.09	45.31
228.324	53.31
228.559	31.31
228.793	163.31
229.027	414.31
229.262	503.31
229.496	595.31
229.73	747.31
229.964	765.31
230.199	529.31
230.433	462.31
230.667	466.31
230.901	450.31
231.136	427.31
231.37	440.31
231.604	449.31
231.838	464.31
232.072	456.31
232.306	462.31
232.541	460.31
232.775	488.31
233.009	462.31
233.243	475.31
233.477	479.31
233.711	505.31
233.945	502.31
234.179	517.31
234.413	487.31
234.647	484.31
234.881	496.31
235.115	523.31
235.349	536.31
235.583	565.31
235.817	568.31
236.051	603.31
236.285	607.31
236.519	616.31
236.753	671.31
236.987	869.31
237.221	1311.31
237.455	1413.31
237.689	835.31
237.922	736.31
238.156	695.31
238.39	650.31
238.624	638.31
238.858	631.31
239.091	673.31
239.325	677.31
239.559	677.31
239.793	711.31
240.027	752.31
240.26	881.31
240.494	927.31
240.728	924.31
240.961	881.31
241.195	810.31
241.429	781.31
241.662	761.31
241.896	771.31
242.13	771.31
242.363	783.31
242.597	809.31
242.83	800.31
243.064	817.31
243.298	805.31
243.531	815.31
243.765	823.31
243.998	826.31
244.232	849.31
244.465	890.31
244.699	888.31
244.932	895.31
245.166	907.31
245.399	912.31
245.633	895.31
245.866	894.31
246.099	909.31
246.333	946.31
246.566	965.31
246.8	991.31
247.033	997.31
247.266	1028.31
247.5	1070.31
247.733	1150.31
247.966	1156.31
248.2	1119.31
248.433	1152.31
248.666	1187.31
248.899	1315.31
249.133	1407.31
249.366	1408.31
249.599	1278.31
249.832	1219.31
250.066	1202.31
250.299	1289.31
250.532	1391.31
250.765	1537.31
250.998	1719.31
251.231	1629.31
251.465	1517.31
251.698	1408.31
251.931	1437.31
252.164	1397.31
252.397	1390.31
252.63	1446.31
252.863	1533.31
253.096	1632.31
253.329	1657.31
253.562	1627.31
253.795	1540.31
254.028	1553.31
254.261	1592.31
254.494	1752.31
254.727	2063.31
254.96	2102.31
255.193	1914.31
255.426	1723.31
255.659	1672.31
255.892	1721.31
256.124	1800.31
256.357	1715.31
256.59	1655.31
256.823	1529.31
257.056	1507.31
257.289	1560.31
257.521	1551.31
257.754	1504.31
257.987	1522.31
258.22	1519.31
258.452	1525.31
258.685	1558.31
258.918	1580.31
259.151	1601.31
259.383	1690.31
259.616	1711.31
259.849	1733.31
260.081	1858.31
260.314	2017.31
260.547	1990.31
260.779	1818.31
261.012	1747.31
261.244	1746.31
261.477	1656.31
261.71	1678.31
261.942	1730.31
262.175	1742.31
262.407	1672.31
262.64	1633.31
262.872	1627.31
263.105	1641.31
263.337	1658.31
263.57	1649.31
263.802	1650.31
264.035	1663.31
264.267	1673.31
264.499	1658.31
264.732	1653.31
264.964	1658.31
265.197	1705.31
265.429	1711.31
265.661	1702.31
265.894	1700.31
266.126	1746.31
266.358	1786.31
266.591	1802.31
266.823	1873.31
267.055	1857.31
267.287	1858.31
267.52	1801.31
267.752	1833.31
267.984	1815.31
268.216	1863.31
268.448	1919.31
268.681	2017.31
268.913	2089.31
269.145	2316.31
269.377	2297.31
269.609	2248.31
269.841	2245.31
270.073	2317.31
270.306	2566.31
270.538	2731.31
270.77	2601.31
271.002	2445.31
271.234	2454.31
271.466	2536.31
271.698	2702.31
271.93	2651.31
272.162	2682.31
272.394	2614.31
272.626	2468.31
272.858	2367.31
273.09	2250.31
273.322	2255.31
273.553	2170.31
273.785	2191.31
274.017	2231.31
274.249	2234.31
274.481	2231.31
274.713	2258.31
274.945	2293.31
275.176	2298.31
275.408	2263.31
275.64	2217.31
275.872	2255.31
276.104	2280.31
276.335	2302.31
276.567	2373.31
276.799	2525.31
277.031	2783.31
277.262	2839.31
277.494	2709.31
277.726	2557.31
277.957	2439.31
278.189	2386.31
278.421	2395.31
278.652	2367.31
278.884	2366.31
279.115	2347.31
279.347	2374.31
279.579	2354.31
279.81	2360.31
280.042	2376.31
280.273	2416.31
280.505	2437.31
280.736	2387.31
280.968	2434.31
281.199	2422.31
281.431	2425.31
281.662	2432.31
281.894	2425.31
282.125	2459.31
282.356	2687.31
282.588	2789.31
282.819	2599.31
283.051	2550.31
283.282	2527.31
283.513	2587.31
283.745	2603.31
283.976	2663.31
284.207	2629.31
284.439	2625.31
284.67	2617.31
284.901	2623.31
285.132	2587.31
285.364	2625.31
285.595	2617.31
285.826	2637.31
286.057	2671.31
286.288	2637.31
286.52	2674.31
286.751	2621.31
286.982	2721.31
287.213	2741.31
287.444	2768.31
287.675	2851.31
287.906	2893.31
288.138	2968.31
288.369	2901.31
288.6	2905.31
288.831	2853.31
289.062	2801.31
289.293	2793.31
289.524	2818.31
289.755	2821.31
289.986	2779.31
290.217	2793.31
290.448	2800.31
290.679	2797.31
290.91	2795.31
291.141	2822.31
291.371	2829.31
291.602	2865.31
291.833	2830.31
292.064	2859.31
292.295	2861.31
292.526	2849.31
292.757	2807.31
292.987	2798.31
293.218	2765.31
293.449	2857.31
293.68	2830.31
293.91	2820.31
294.141	2851.31
294.372	2791.31
294.603	2848.31
294.833	2847.31
295.064	2885.31
295.295	2881.31
295.525	2921.31
295.756	2971.31
295.987	3018.31
296.217	3157.31
296.448	3093.31
296.679	2966.31
296.909	2952.31
297.14	2993.31
297.37	3022.31
297.601	3109.31
297.831	3016.31
298.062	3046.31
298.292	3106.31
298.523	3157.31
298.753	3099.31
298.984	3097.31
299.214	3085.31
299.445	3116.31
299.675	3099.31
299.905	3135.31
300.136	3121.31
300.366	3142.31
300.597	3128.31
300.827	3283.31
301.057	3303.31
301.288	3347.31
301.518	3365.31
301.748	3372.31
301.979	3360.31
302.209	3332.31
302.439	3393.31
302.669	3341.31
302.9	3299.31
303.13	3289.31
303.36	3338.31
303.59	3349.31
303.82	3350.31
304.051	3384.31
304.281	3344.31
304.511	3327.31
304.741	3258.31
304.971	3255.31
305.201	3253.31
305.431	3289.31
305.661	3271.31
305.891	3249.31
306.121	3266.31
306.352	3332.31
306.582	3295.31
306.812	3223.31
307.042	3265.31
307.272	3262.31
307.502	3277.31
307.731	3270.31
307.961	3248.31
308.191	3297.31
308.421	3343.31
308.651	3336.31
308.881	3394.31
309.111	3382.31
309.341	3322.31
309.571	3423.31
309.8	3477.31
310.03	3518.31
310.26	3549.31
310.49	3521.31
310.72	3664.31
310.949	3708.31
311.179	3605.31
311.409	3585.31
311.639	3565.31
311.868	3657.31
312.098	3625.31
312.328	3742.31
312.557	3867.31
312.787	3900.31
313.017	3766.31
313.246	3718.31
313.476	3709.31
313.706	3761.31
313.935	3786.31
314.165	3921.31
314.394	3920.31
314.624	3909.31
314.853	3775.31
315.083	3755.31
315.312	3743.31
315.542	3724.31
315.771	3713.31
316.001	3611.31
316.23	3641.31
316.46	3637.31
316.689	3725.31
316.919	3691.31
317.148	3793.31
317.377	3774.31
317.607	3691.31
317.836	3690.31
318.065	3690.31
318.295	3691.31
318.524	3671.31
318.753	3649.31
318.983	3621.31
319.212	3625.31
319.441	3698.31
319.67	3800.31
319.9	3706.31
320.129	3666.31
320.358	3726.31
320.587	3735.31
320.816	3779.31
321.046	3832.31
321.275	3819.31
321.504	3815.31
321.733	3864.31
321.962	3871.31
322.191	3951.31
322.42	4038.31
322.649	4102.31
322.878	4129.31
323.108	4242.31
323.337	4479.31
323.566	4543.31
323.795	4881.31
324.024	5401.31
324.253	6890.31
324.482	10226.31
324.71	14642.31
324.939	15627.31
325.168	11546.31
325.397	6259.31
325.626	5089.31
325.855	4768.31
326.084	4690.31
326.313	4671.31
326.542	4841.31
326.77	5420.31
326.999	6677.31
327.228	9693.31
327.457	13687.31
327.686	12757.31
327.914	6985.31
328.143	5693.31
328.372	5392.31
328.6	5128.31
328.829	5081.31
329.058	5191.31
329.287	5187.31
329.515	4951.31
329.744	4860.31
329.972	4900.31
330.201	5147.31
330.43	5405.31
330.658	5445.31
330.887	5653.31
331.115	5182.31
331.344	4887.31
331.572	4835.31
331.801	5028.31
332.03	4970.31
332.258	4936.31
332.486	5060.31
332.715	5031.31
332.943	5225.31
333.172	5361.31
333.4	5503.31
333.629	5601.31
333.857	5760.31
334.085	5851.31
334.314	5855.31
334.542	6036.31
334.771	5962.31
334.999	5438.31
335.227	5315.31
335.455	5151.31
335.684	5093.31
335.912	5086.31
336.14	5034.31
336.369	4932.31
336.597	5001.31
336.825	4933.31
337.053	4869.31
337.281	4773.31
337.51	4691.31
337.738	4730.31
337.966	4705.31
338.194	4632.31
338.422	4625.31
338.65	4530.31
338.878	4545.31
339.106	4526.31
339.334	4520.31
339.562	4404.31
339.79	4356.31
340.018	4352.31
340.246	4417.31
340.474	4389.31
340.702	4387.31
340.93	4394.31
341.158	4417.31
341.386	4355.31
341.614	4360.31
341.842	4321.31
342.07	4301.31
342.298	4352.31
342.526	4320.31
342.754	4258.31
342.981	4327.31
343.209	4393.31
343.437	4687.31
343.665	4924.31
343.893	5219.31
344.12	5237.31
344.348	4927.31
344.576	4792.31
344.804	4653.31
345.031	4586.31
345.259	4529.31
345.487	4375.31
345.714	4314.31
345.942	4216.31
346.17	4227.31
346.397	4239.31
346.625	4181.31
346.853	4241.31
347.08	4148.31
347.308	4238.31
347.535	4348.31
347.763	4305.31
347.99	4239.31
348.218	4218.31
348.445	4272.31
348.673	4217.31
348.9	4143.31
349.128	4049.31
349.355	4040.31
349.583	4047.31
349.81	4059.31
350.037	4007.31
350.265	4009.31
350.492	4053.31
350.72	4071.31
350.947	4097.31
351.174	4153.31
351.402	4149.31
351.629	4119.31
351.856	4169.31
352.083	4212.31
352.311	4161.31
352.538	4156.31
352.765	4152.31
352.992	4065.31
353.22	4074.31
353.447	4011.31
353.674	4020.31
353.901	3891.31
354.128	3979.31
354.355	3964.31
354.583	3949.31
354.81	3982.31
355.037	4004.31
355.264	3943.31
355.491	3909.31
355.718	3949.31
355.945	3943.31
356.172	3913.31
356.399	3982.31
356.626	4010.31
356.853	3952.31
357.08	3909.31
357.307	4021.31
357.534	3918.31
357.761	3951.31
357.988	3994.31
358.215	3929.31
358.441	3929.31
358.668	4020.31
358.895	4064.31
359.122	4029.31
359.349	4121.31
359.576	4155.31
359.802	4346.31
360.029	4543.31
360.256	4561.31
360.483	4357.31
360.709	4177.31
360.936	4186.31
361.163	4175.31
361.39	4163.31
361.616	4212.31
361.843	4158.31
362.07	4151.31
362.296	4213.31
362.523	4085.31
362.749	4173.31
362.976	4105.31
363.203	4093.31
363.429	4087.31
363.656	4023.31
363.882	4040.31
364.109	4010.31
364.335	3991.31
364.562	4015.31
364.788	4029.31
365.015	4018.31
365.241	3984.31
365.468	4101.31
365.694	4129.31
365.92	4073.31
366.147	4017.31
366.373	4051.31
366.599	4045.31
366.826	3964.31
367.052	3996.31
367.278	4029.31
367.505	4054.31
367.731	4057.31
367.957	4091.31
368.184	4126.31
368.41	4167.31
368.636	4220.31
368.862	4234.31
369.089	4182.31
369.315	4121.31
369.541	4129.31
369.767	4152.31
369.993	4138.31
370.219	4148.31
370.445	4180.31
370.672	4226.31
370.898	4193.31
371.124	4296.31
371.35	4291.31
371.576	4343.31
371.802	4279.31
372.028	4225.31
372.254	4327.31
372.48	4326.31
372.706	4431.31
372.932	4438.31
373.158	4421.31
373.384	4415.31
373.61	4325.31
373.835	4338.31
374.061	4331.31
374.287	4446.31
374.513	4472.31
374.739	4615.31
374.965	4765.31
375.191	4681.31
375.416	4669.31
375.642	4459.31
375.868	4535.31
376.094	4457.31
376.319	4386.31
376.545	4375.31
376.771	4373.31
376.997	4313.31
377.222	4355.31
377.448	4290.31
377.674	4344.31
377.899	4292.31
378.125	4305.31
378.35	4206.31
378.576	4287.31
378.802	4318.31
379.027	4266.31
379.253	4290.31
379.478	4231.31
379.704	4277.31
379.929	4363.31
380.155	4331.31
380.38	4317.31
380.606	4389.31
380.831	4287.31
381.057	4345.31
381.282	4317.31
381.507	4298.31
381.733	4403.31
381.958	4435.31
382.184	4483.31
382.409	4560.31
382.634	4592.31
382.86	4574.31
383.085	4658.31
383.31	4700.31
383.535	4721.31
383.761	4750.31
383.986	4855.31
384.211	4968.31
384.436	5007.31
384.662	5145.31
384.887	5170.31
385.112	5163.31
385.337	5201.31
385.562	5171.31
385.787	5249.31
386.013	5285.31
386.238	5345.31
386.463	5273.31
386.688	5273.31
386.913	5161.31
387.138	5159.31
387.363	5139.31
387.588	5086.31
387.813	5122.31
388.038	5192.31
388.263	5191.31
388.488	5186.31
388.713	5125.31
388.938	5155.31
389.163	5117.31
389.387	5122.31
389.612	5081.31
389.837	5143.31
390.062	5064.31
390.287	5140.31
390.512	5101.31
390.736	5167.31
390.961	5243.31
391.186	5344.31
391.411	5523.31
391.636	5587.31
391.86	5764.31
392.085	5893.31
392.31	5779.31
392.534	5592.31
392.759	5485.31
392.984	5365.31
393.208	5341.31
393.433	5373.31
393.658	5404.31
393.882	5364.31
394.107	5383.31
394.331	5502.31
394.556	5389.31
394.78	5514.31
395.005	5536.31
395.229	5573.31
395.454	5736.31
395.678	5852.31
395.903	5849.31
396.127	5846.31
396.352	5687.31
396.576	5511.31
396.801	5474.31
397.025	5591.31
397.249	5726.31
397.474	5755.31
397.698	5868.31
397.922	5985.31
398.147	6150.31
398.371	6182.31
398.595	6369.31
398.82	6701.31
399.044	7210.31
399.268	7966.31
399.492	9063.31
399.717	9594.31
399.941	9413.31
400.165	8729.31
400.389	8061.31
400.613	7170.31
400.837	6849.31
401.062	6633.31
401.286	6602.31
401.51	6577.31
401.734	6465.31
401.958	6586.31
402.182	6771.31
402.406	6853.31
402.63	6960.31
402.854	7053.31
403.078	7110.31
403.302	7209.31
403.526	7425.31
403.75	7350.31
403.974	7417.31
404.198	7411.31
404.422	7562.31
404.645	7511.31
404.869	7490.31
405.093	7790.31
405.317	8044.31
405.541	7917.31
405.765	7417.31
405.988	7349.31
406.212	7510.31
406.436	7603.31
406.66	7878.31
406.883	7781.31
407.107	8337.31
407.331	8927.31
407.555	9407.31
407.778	9069.31
408.002	8328.31
408.226	7949.31
408.449	7911.31
408.673	7638.31
408.896	7844.31
409.12	7941.31
409.344	7520.31
409.567	7202.31
409.791	7178.31
410.014	7003.31
410.238	6952.31
410.461	7034.31
410.685	7017.31
410.908	7156.31
411.132	7349.31
411.355	7447.31
411.578	6951.31
411.802	6856.31
412.025	6828.31
412.249	7032.31
412.472	7211.31
412.695	7329.31
412.919	6824.31
413.142	6687.31
413.365	6620.31
413.589	6600.31
413.812	6411.31
414.035	6353.31
414.258	6436.31
414.482	6449.31
414.705	6579.31
414.928	6518.31
415.151	6399.31
415.374	6427.31
415.597	6334.31
415.821	6245.31
416.044	6349.31
416.267	6277.31
416.49	6289.31
416.713	6220.31
416.936	6305.31
417.159	6320.31
417.382	6275.31
417.605	6414.31
417.828	6553.31
418.051	6725.31
418.274	6562.31
418.497	6517.31
418.72	6561.31
418.943	6520.31
419.166	6890.31
419.389	7313.31
419.611	7193.31
419.834	7042.31
420.057	6918.31
420.28	6808.31
420.503	6498.31
420.726	6620.31
420.948	6704.31
421.171	7129.31
421.394	7063.31
421.617	6577.31
421.839	6549.31
422.062	6758.31
422.285	6772.31
422.507	7530.31
422.73	7907.31
422.953	7376.31
423.175	7026.31
423.398	6974.31
423.621	6966.31
423.843	7276.31
424.066	7323.31
424.288	7181.31
424.511	7395.31
424.733	7801.31
424.956	8233.31
425.178	7726.31
425.401	7850.31
425.623	7774.31
425.846	6751.31
426.068	6672.31
426.291	6600.31
426.513	6520.31
426.735	6655.31
426.958	6987.31
427.18	7796.31
427.402	8939.31
427.625	8898.31
427.847	7602.31
428.069	6953.31
428.292	6409.31
428.514	6121.31
428.736	6002.31
428.958	6034.31
429.181	5787.31
429.403	5807.31
429.625	5981.31
429.847	6264.31
430.069	6802.31
430.292	6361.31
430.514	5890.31
430.736	5818.31
430.958	5770.31
431.18	5635.31
431.402	5675.31
431.624	5730.31
431.846	5697.31
432.068	5697.31
432.29	5868.31
432.512	5692.31
432.734	5802.31
432.956	5757.31
433.178	5847.31
433.4	5913.31
433.622	5767.31
433.844	5726.31
434.066	5819.31
434.287	5957.31
434.509	6257.31
434.731	6371.31
434.953	6489.31
435.175	6568.31
435.397	6631.31
435.618	6557.31
435.84	7015.31
436.062	7695.31
436.284	7640.31
436.505	6527.31
436.727	6218.31
436.949	5922.31
437.17	5857.31
437.392	5797.31
437.614	5987.31
437.835	6403.31
438.057	7246.31
438.278	7969.31
438.5	7793.31
438.721	8559.31
438.943	7504.31
439.165	6339.31
439.386	6238.31
439.608	6212.31
439.829	6314.31
440.05	6674.31
440.272	6939.31
440.493	6418.31
440.715	6071.31
440.936	6093.31
441.158	6205.31
441.379	6361.31
441.6	6625.31
441.822	6856.31
442.043	7233.31
442.264	8063.31
442.486	7644.31
442.707	6847.31
442.928	6693.31
443.149	6895.31
443.371	7029.31
443.592	7677.31
443.813	8625.31
444.034	8566.31
444.255	7514.31
444.476	7373.31
444.698	7564.31
444.919	7677.31
445.14	7481.31
445.361	7232.31
445.582	7391.31
445.803	7848.31
446.024	8611.31
446.245	8028.31
446.466	7317.31
446.687	6389.31
446.908	6089.31
447.129	5803.31
447.35	5745.31
447.571	5671.31
447.792	5513.31
448.013	5637.31
448.234	5873.31
448.455	6401.31
448.675	7646.31
448.896	8030.31
449.117	6660.31
449.338	6875.31
449.559	8218.31
449.779	8301.31
450	6359.31
450.221	5737.31
450.442	5590.31
450.662	5423.31
450.883	5511.31
451.104	5638.31
451.324	5335.31
451.545	5295.31
451.766	5202.31
451.986	5153.31
452.207	5054.31
452.428	5051.31
452.648	5076.31
452.869	5120.31
453.089	5169.31
453.31	5263.31
453.53	5109.31
453.751	4992.31
453.971	5013.31
454.192	5191.31
454.412	4977.31
454.633	4953.31
454.853	4913.31
455.073	4918.31
455.294	5336.31
455.514	5839.31
455.734	5299.31
455.955	4773.31
456.175	4778.31
456.395	4726.31
456.616	4651.31
456.836	4719.31
457.056	4642.31
457.276	4608.31
457.497	4809.31
457.717	4679.31
457.937	4813.31
458.157	4921.31
458.377	4930.31
458.598	5229.31
458.818	5922.31
459.038	6652.31
459.258	6534.31
459.478	5930.31
459.698	5856.31
459.918	5897.31
460.138	6072.31
460.358	6335.31
460.578	6322.31
460.798	6397.31
461.018	6426.31
461.238	6316.31
461.458	6323.31
461.678	6311.31
461.898	6464.31
462.118	6410.31
462.338	6707.31
462.558	6934.31
462.777	7272.31
462.997	7789.31
463.217	8311.31
463.437	8006.31
463.657	7434.31
463.876	7235.31
464.096	7210.31
464.316	7315.31
464.536	7237.31
464.755	7009.31
464.975	6952.31
465.195	6975.31
465.414	7022.31
465.634	6125.31
465.854	5888.31
466.073	5669.31
466.293	5533.31
466.512	5404.31
466.732	5282.31
466.951	5201.31
467.171	5220.31
467.391	5200.31
467.61	5342.31
467.829	5326.31
468.049	5270.31
468.268	5184.31
468.488	5005.31
468.707	4985.31
468.927	5046.31
469.146	4969.31
469.365	5083.31
469.585	5164.31
469.804	5304.31
470.023	5486.31
470.243	5353.31
470.462	5553.31
470.681	5609.31
470.901	5527.31
471.12	5367.31
471.339	5285.31
471.558	5244.31
471.777	5152.31
471.997	5115.31
472.216	5163.31
472.435	5457.31
472.654	5201.31
472.873	4980.31
473.092	5034.31
473.311	4994.31
473.53	5007.31
473.749	5087.31
473.968	5597.31
474.187	6652.31
474.406	6184.31
474.625	5221.31
474.844	5099.31
475.063	5005.31
475.282	5117.31
475.501	5152.31
475.72	5136.31
475.939	5134.31
476.158	5173.31
476.377	5274.31
476.596	5217.31
476.814	5354.31
477.033	5442.31
477.252	5503.31
477.471	5602.31
477.69	5704.31
477.908	5744.31
478.127	5912.31
478.346	5968.31
478.564	6127.31
478.783	6195.31
479.002	6389.31
479.22	6354.31
479.439	6338.31
479.658	6565.31
479.876	6593.31
480.095	6802.31
480.313	7209.31
480.532	7086.31
480.751	6957.31
480.969	6921.31
481.188	7267.31
481.406	7070.31
481.624	6494.31
481.843	6246.31
482.061	6076.31
482.28	6045.31
482.498	5981.31
482.717	5878.31
482.935	5910.31
483.153	5949.31
483.372	5888.31
483.59	5864.31
483.808	5947.31
484.027	5923.31
484.245	5914.31
484.463	5979.31
484.681	6049.31
484.9	6161.31
485.118	6165.31
485.336	6200.31
485.554	6222.31
485.772	6308.31
485.99	6256.31
486.209	6260.31
486.427	6220.31
486.645	6338.31
486.863	6498.31
487.081	6455.31
487.299	6381.31
487.517	6308.31
487.735	6339.31
487.953	6269.31
