Data from Uncirc_1983_H10_HRD10591_00076.txt Node
Date: Wed Jan 03 12:25:47 EST 2024
User: Yrep
Spectrometer: HR+D1059
Trigger mode: 1
Integration Time (sec): 1.000000E-1
Scans to average: 1
Electric dark correction enabled: true
Nonlinearity correction enabled: false
Boxcar width: 0
XAxis mode: Wavelengths
Number of Pixels in Spectrum: 2048
>>>>>Begin Spectral Data<<<<<
223.165	-12.19
223.4	-12.19
223.635	-12.19
223.869	-28.19
224.104	-17.19
224.338	-16.19
224.573	-12.19
224.808	-4.19
225.042	-4.19
225.277	-5.19
225.511	-11.19
225.746	-9.19
225.98	6.81
226.215	12.81
226.449	28.81
226.683	20.81
226.918	28.81
227.152	21.81
227.387	23.81
227.621	31.81
227.856	57.81
228.09	48.81
228.324	51.81
228.559	39.81
228.793	160.81
229.027	442.81
229.262	515.81
229.496	602.81
229.73	793.81
229.964	799.81
230.199	545.81
230.433	493.81
230.667	476.81
230.901	462.81
231.136	447.81
231.37	466.81
231.604	443.81
231.838	468.81
232.072	448.81
232.306	468.81
232.541	459.81
232.775	474.81
233.009	469.81
233.243	464.81
233.477	473.81
233.711	478.81
233.945	481.81
234.179	508.81
234.413	522.81
234.647	521.81
234.881	499.81
235.115	516.81
235.349	568.81
235.583	562.81
235.817	584.81
236.051	614.81
236.285	609.81
236.519	621.81
236.753	694.81
236.987	899.81
237.221	1330.81
237.455	1504.81
237.689	900.81
237.922	740.81
238.156	738.81
238.39	674.81
238.624	654.81
238.858	637.81
239.091	639.81
239.325	665.81
239.559	673.81
239.793	718.81
240.027	773.81
240.26	889.81
240.494	976.81
240.728	949.81
240.961	900.81
241.195	809.81
241.429	799.81
241.662	767.81
241.896	781.81
242.13	773.81
242.363	786.81
242.597	793.81
242.83	829.81
243.064	839.81
243.298	842.81
243.531	831.81
243.765	824.81
243.998	842.81
244.232	875.81
244.465	890.81
244.699	912.81
244.932	911.81
245.166	896.81
245.399	898.81
245.633	901.81
245.866	934.81
246.099	934.81
246.333	974.81
246.566	937.81
246.8	978.81
247.033	994.81
247.266	1057.81
247.5	1119.81
247.733	1133.81
247.966	1175.81
248.2	1121.81
248.433	1166.81
248.666	1197.81
248.899	1347.81
249.133	1440.81
249.366	1430.81
249.599	1314.81
249.832	1267.81
250.066	1242.81
250.299	1312.81
250.532	1438.81
250.765	1613.81
250.998	1748.81
251.231	1643.81
251.465	1514.81
251.698	1442.81
251.931	1414.81
252.164	1397.81
252.397	1409.81
252.63	1470.81
252.863	1543.81
253.096	1682.81
253.329	1695.81
253.562	1646.81
253.795	1556.81
254.028	1596.81
254.261	1635.81
254.494	1814.81
254.727	2114.81
254.96	2201.81
255.193	1968.81
255.426	1784.81
255.659	1694.81
255.892	1774.81
256.124	1905.81
256.357	1811.81
256.59	1648.81
256.823	1634.81
257.056	1555.81
257.289	1548.81
257.521	1596.81
257.754	1566.81
257.987	1540.81
258.22	1572.81
258.452	1538.81
258.685	1551.81
258.918	1604.81
259.151	1658.81
259.383	1676.81
259.616	1684.81
259.849	1778.81
260.081	1901.81
260.314	2098.81
260.547	2003.81
260.779	1866.81
261.012	1761.81
261.244	1713.81
261.477	1671.81
261.71	1697.81
261.942	1774.81
262.175	1785.81
262.407	1702.81
262.64	1654.81
262.872	1628.81
263.105	1637.81
263.337	1652.81
263.57	1667.81
263.802	1676.81
264.035	1672.81
264.267	1678.81
264.499	1632.81
264.732	1678.81
264.964	1684.81
265.197	1719.81
265.429	1685.81
265.661	1732.81
265.894	1734.81
266.126	1743.81
266.358	1776.81
266.591	1783.81
266.823	1861.81
267.055	1892.81
267.287	1888.81
267.52	1849.81
267.752	1845.81
267.984	1852.81
268.216	1905.81
268.448	1959.81
268.681	2003.81
268.913	2145.81
269.145	2323.81
269.377	2385.81
269.609	2285.81
269.841	2254.81
270.073	2320.81
270.306	2634.81
270.538	2827.81
270.77	2624.81
271.002	2435.81
271.234	2428.81
271.466	2568.81
271.698	2721.81
271.93	2691.81
272.162	2752.81
272.394	2646.81
272.626	2509.81
272.858	2349.81
273.09	2296.81
273.322	2328.81
273.553	2256.81
273.785	2215.81
274.017	2209.81
274.249	2283.81
274.481	2235.81
274.713	2255.81
274.945	2293.81
275.176	2258.81
275.408	2263.81
275.64	2254.81
275.872	2236.81
276.104	2303.81
276.335	2298.81
276.567	2419.81
276.799	2584.81
277.031	2830.81
277.262	2928.81
277.494	2786.81
277.726	2606.81
277.957	2529.81
278.189	2452.81
278.421	2393.81
278.652	2397.81
278.884	2386.81
279.115	2373.81
279.347	2390.81
279.579	2373.81
279.81	2398.81
280.042	2392.81
280.273	2473.81
280.505	2460.81
280.736	2395.81
280.968	2444.81
281.199	2466.81
281.431	2471.81
281.662	2448.81
281.894	2488.81
282.125	2527.81
282.356	2654.81
282.588	2804.81
282.819	2700.81
283.051	2585.81
283.282	2569.81
283.513	2553.81
283.745	2653.81
283.976	2674.81
284.207	2640.81
284.439	2640.81
284.67	2590.81
284.901	2615.81
285.132	2628.81
285.364	2625.81
285.595	2649.81
285.826	2662.81
286.057	2682.81
286.288	2666.81
286.52	2686.81
286.751	2703.81
286.982	2680.81
287.213	2725.81
287.444	2757.81
287.675	2884.81
287.906	2935.81
288.138	2956.81
288.369	2956.81
288.6	2866.81
288.831	2837.81
289.062	2809.81
289.293	2805.81
289.524	2812.81
289.755	2835.81
289.986	2805.81
290.217	2782.81
290.448	2794.81
290.679	2846.81
290.91	2817.81
291.141	2780.81
291.371	2837.81
291.602	2795.81
291.833	2793.81
292.064	2809.81
292.295	2825.81
292.526	2876.81
292.757	2816.81
292.987	2840.81
293.218	2799.81
293.449	2854.81
293.68	2854.81
293.91	2850.81
294.141	2825.81
294.372	2838.81
294.603	2864.81
294.833	2882.81
295.064	2892.81
295.295	2877.81
295.525	2918.81
295.756	2954.81
295.987	2994.81
296.217	3172.81
296.448	3161.81
296.679	2954.81
296.909	2949.81
297.14	2976.81
297.37	3001.81
297.601	3095.81
297.831	3060.81
298.062	3092.81
298.292	3057.81
298.523	3159.81
298.753	3151.81
298.984	3145.81
299.214	3145.81
299.445	3095.81
299.675	3113.81
299.905	3143.81
300.136	3121.81
300.366	3187.81
300.597	3201.81
300.827	3317.81
301.057	3358.81
301.288	3384.81
301.518	3347.81
301.748	3389.81
301.979	3351.81
302.209	3432.81
302.439	3400.81
302.669	3322.81
302.9	3317.81
303.13	3286.81
303.36	3300.81
303.59	3352.81
303.82	3393.81
304.051	3382.81
304.281	3341.81
304.511	3280.81
304.741	3319.81
304.971	3329.81
305.201	3289.81
305.431	3265.81
305.661	3309.81
305.891	3279.81
306.121	3304.81
306.352	3308.81
306.582	3310.81
306.812	3252.81
307.042	3240.81
307.272	3190.81
307.502	3273.81
307.731	3273.81
307.961	3286.81
308.191	3260.81
308.421	3293.81
308.651	3305.81
308.881	3272.81
309.111	3294.81
309.341	3407.81
309.571	3473.81
309.8	3524.81
310.03	3525.81
310.26	3582.81
310.49	3534.81
310.72	3782.81
310.949	3766.81
311.179	3790.81
311.409	3602.81
311.639	3647.81
311.868	3639.81
312.098	3685.81
312.328	3738.81
312.557	3891.81
312.787	3953.81
313.017	3833.81
313.246	3782.81
313.476	3690.81
313.706	3827.81
313.935	3883.81
314.165	3927.81
314.394	3949.81
314.624	3920.81
314.853	3784.81
315.083	3750.81
315.312	3719.81
315.542	3746.81
315.771	3717.81
316.001	3629.81
316.23	3667.81
316.46	3668.81
316.689	3741.81
316.919	3750.81
317.148	3825.81
317.377	3756.81
317.607	3744.81
317.836	3716.81
318.065	3638.81
318.295	3710.81
318.524	3691.81
318.753	3657.81
318.983	3695.81
319.212	3663.81
319.441	3810.81
319.67	3755.81
319.9	3672.81
320.129	3696.81
320.358	3726.81
320.587	3805.81
320.816	3826.81
321.046	3865.81
321.275	3788.81
321.504	3804.81
321.733	3891.81
321.962	3958.81
322.191	3979.81
322.42	4086.81
322.649	4194.81
322.878	4198.81
323.108	4328.81
323.337	4582.81
323.566	4664.81
323.795	5006.81
324.024	5458.81
324.253	7187.81
324.482	10738.81
324.71	15102.81
324.939	15626.81
325.168	12906.81
325.397	6534.81
325.626	5265.81
325.855	4824.81
326.084	4753.81
326.313	4754.81
326.542	4906.81
326.77	5500.81
326.999	7018.81
327.228	10249.81
327.457	14334.81
327.686	13574.81
327.914	7368.81
328.143	5876.81
328.372	5650.81
328.6	5348.81
328.829	5226.81
329.058	5426.81
329.287	5431.81
329.515	5101.81
329.744	4942.81
329.972	5063.81
330.201	5344.81
330.43	5637.81
330.658	5690.81
330.887	5880.81
331.115	5471.81
331.344	5045.81
331.572	4981.81
331.801	5045.81
332.03	5065.81
332.258	4973.81
332.486	5001.81
332.715	5052.81
332.943	5222.81
333.172	5390.81
333.4	5574.81
333.629	5720.81
333.857	5807.81
334.085	5917.81
334.314	6089.81
334.542	6354.81
334.771	6228.81
334.999	5647.81
335.227	5436.81
335.455	5255.81
335.684	5174.81
335.912	5102.81
336.14	4949.81
336.369	5065.81
336.597	5038.81
336.825	4999.81
337.053	4952.81
337.281	4811.81
337.51	4737.81
337.738	4733.81
337.966	4734.81
338.194	4742.81
338.422	4598.81
338.65	4557.81
338.878	4578.81
339.106	4540.81
339.334	4554.81
339.562	4492.81
339.79	4391.81
340.018	4426.81
340.246	4439.81
340.474	4429.81
340.702	4419.81
340.93	4419.81
341.158	4485.81
341.386	4416.81
341.614	4457.81
341.842	4386.81
342.07	4313.81
342.298	4320.81
342.526	4367.81
342.754	4253.81
342.981	4312.81
343.209	4462.81
343.437	4677.81
343.665	4962.81
343.893	5173.81
344.12	5197.81
344.348	4951.81
344.576	4788.81
344.804	4724.81
345.031	4615.81
345.259	4509.81
345.487	4477.81
345.714	4327.81
345.942	4260.81
346.17	4276.81
346.397	4200.81
346.625	4192.81
346.853	4177.81
347.08	4188.81
347.308	4231.81
347.535	4269.81
347.763	4347.81
347.99	4231.81
348.218	4313.81
348.445	4348.81
348.673	4317.81
348.9	4192.81
349.128	4104.81
349.355	4071.81
349.583	4057.81
349.81	4102.81
350.037	4049.81
350.265	4102.81
350.492	4017.81
350.72	4052.81
350.947	4114.81
351.174	4209.81
351.402	4260.81
351.629	4133.81
351.856	4160.81
352.083	4225.81
352.311	4248.81
352.538	4242.81
352.765	4197.81
352.992	4142.81
353.22	4116.81
353.447	4126.81
353.674	3984.81
353.901	4026.81
354.128	4007.81
354.355	3964.81
354.583	3960.81
354.81	3972.81
355.037	3961.81
355.264	3960.81
355.491	3955.81
355.718	3934.81
355.945	3957.81
356.172	3903.81
356.399	3975.81
356.626	3946.81
356.853	3963.81
357.08	3912.81
357.307	3953.81
357.534	3924.81
357.761	3973.81
357.988	4006.81
358.215	3938.81
358.441	4039.81
358.668	3964.81
358.895	4077.81
359.122	4058.81
359.349	4192.81
359.576	4215.81
359.802	4455.81
360.029	4626.81
360.256	4538.81
360.483	4396.81
360.709	4224.81
360.936	4188.81
361.163	4212.81
361.39	4264.81
361.616	4193.81
361.843	4213.81
362.07	4137.81
362.296	4196.81
362.523	4136.81
362.749	4140.81
362.976	4078.81
363.203	4078.81
363.429	4077.81
363.656	4117.81
363.882	4052.81
364.109	4013.81
364.335	3984.81
364.562	4028.81
364.788	4047.81
365.015	4075.81
365.241	4054.81
365.468	4084.81
365.694	4092.81
365.92	4070.81
366.147	4103.81
366.373	4028.81
366.599	4050.81
366.826	4016.81
367.052	3973.81
367.278	4034.81
367.505	4103.81
367.731	4080.81
367.957	4044.81
368.184	4128.81
368.41	4205.81
368.636	4228.81
368.862	4288.81
369.089	4156.81
369.315	4145.81
369.541	4164.81
369.767	4136.81
369.993	4184.81
370.219	4263.81
370.445	4220.81
370.672	4254.81
370.898	4285.81
371.124	4290.81
371.35	4274.81
371.576	4313.81
371.802	4296.81
372.028	4238.81
372.254	4237.81
372.48	4411.81
372.706	4465.81
372.932	4512.81
373.158	4472.81
373.384	4417.81
373.61	4328.81
373.835	4359.81
374.061	4305.81
374.287	4396.81
374.513	4507.81
374.739	4644.81
374.965	4712.81
375.191	4732.81
375.416	4679.81
375.642	4560.81
375.868	4488.81
376.094	4432.81
376.319	4373.81
376.545	4412.81
376.771	4374.81
376.997	4257.81
377.222	4358.81
377.448	4304.81
377.674	4317.81
377.899	4254.81
378.125	4287.81
378.35	4255.81
378.576	4214.81
378.802	4251.81
379.027	4313.81
379.253	4292.81
379.478	4256.81
379.704	4288.81
379.929	4298.81
380.155	4320.81
380.38	4294.81
380.606	4334.81
380.831	4259.81
381.057	4338.81
381.282	4375.81
381.507	4347.81
381.733	4404.81
381.958	4402.81
382.184	4512.81
382.409	4541.81
382.634	4534.81
382.86	4632.81
383.085	4541.81
383.31	4698.81
383.535	4728.81
383.761	4762.81
383.986	4891.81
384.211	4928.81
384.436	5049.81
384.662	5143.81
384.887	5147.81
385.112	5117.81
385.337	5244.81
385.562	5135.81
385.787	5262.81
386.013	5296.81
386.238	5325.81
386.463	5326.81
386.688	5341.81
386.913	5174.81
387.138	5186.81
387.363	5147.81
387.588	5137.81
387.813	5160.81
388.038	5084.81
388.263	5150.81
388.488	5213.81
388.713	5132.81
388.938	5169.81
389.163	5147.81
389.387	5094.81
389.612	5091.81
389.837	5063.81
390.062	5122.81
390.287	5114.81
390.512	5118.81
390.736	5204.81
390.961	5251.81
391.186	5305.81
391.411	5517.81
391.636	5705.81
391.86	5772.81
392.085	5826.81
392.31	5674.81
392.534	5674.81
392.759	5500.81
392.984	5402.81
393.208	5398.81
393.433	5444.81
393.658	5334.81
393.882	5412.81
394.107	5375.81
394.331	5488.81
394.556	5454.81
394.78	5501.81
395.005	5561.81
395.229	5589.81
395.454	5756.81
395.678	5795.81
395.903	5870.81
396.127	5930.81
396.352	5701.81
396.576	5521.81
396.801	5473.81
397.025	5543.81
397.249	5753.81
397.474	5815.81
397.698	5755.81
397.922	6006.81
398.147	6073.81
398.371	6195.81
398.595	6314.81
398.82	6626.81
399.044	7140.81
399.268	7905.81
399.492	9054.81
399.717	9586.81
399.941	9532.81
400.165	8741.81
400.389	7983.81
400.613	7320.81
400.837	6834.81
401.062	6719.81
401.286	6524.81
401.51	6548.81
401.734	6552.81
401.958	6652.81
402.182	6733.81
402.406	6940.81
402.63	7009.81
402.854	7002.81
403.078	7155.81
403.302	7293.81
403.526	7377.81
403.75	7416.81
403.974	7431.81
404.198	7452.81
404.422	7633.81
404.645	7488.81
404.869	7439.81
405.093	7651.81
405.317	8034.81
405.541	8043.81
405.765	7491.81
405.988	7338.81
406.212	7490.81
406.436	7728.81
406.66	7781.81
406.883	7866.81
407.107	8452.81
407.331	8881.81
407.555	9356.81
407.778	9052.81
408.002	8354.81
408.226	7960.81
408.449	7873.81
408.673	7695.81
408.896	7817.81
409.12	8012.81
409.344	7589.81
409.567	7212.81
409.791	7222.81
410.014	6997.81
410.238	7022.81
410.461	7034.81
410.685	7079.81
410.908	7191.81
411.132	7352.81
411.355	7388.81
411.578	7102.81
411.802	6812.81
412.025	6853.81
412.249	7073.81
412.472	7296.81
412.695	7423.81
412.919	6950.81
413.142	6732.81
413.365	6589.81
413.589	6604.81
413.812	6423.81
414.035	6382.81
414.258	6387.81
414.482	6462.81
414.705	6513.81
414.928	6460.81
415.151	6413.81
415.374	6545.81
415.597	6393.81
415.821	6341.81
416.044	6294.81
416.267	6234.81
416.49	6259.81
416.713	6311.81
416.936	6280.81
417.159	6325.81
417.382	6381.81
417.605	6494.81
417.828	6570.81
418.051	6720.81
418.274	6592.81
418.497	6431.81
418.72	6641.81
418.943	6560.81
419.166	6948.81
419.389	7388.81
419.611	7182.81
419.834	7000.81
420.057	6921.81
420.28	6785.81
420.503	6656.81
420.726	6672.81
420.948	6684.81
421.171	7196.81
421.394	7119.81
421.617	6584.81
421.839	6607.81
422.062	6665.81
422.285	6770.81
422.507	7488.81
422.73	7972.81
422.953	7325.81
423.175	7045.81
423.398	7123.81
423.621	7014.81
423.843	7230.81
424.066	7250.81
424.288	7209.81
424.511	7453.81
424.733	7876.81
424.956	8246.81
425.178	7802.81
425.401	7788.81
425.623	7789.81
425.846	6824.81
426.068	6562.81
426.291	6586.81
426.513	6542.81
426.735	6678.81
426.958	7196.81
427.18	7924.81
427.402	9080.81
427.625	9084.81
427.847	7789.81
428.069	7201.81
428.292	6568.81
428.514	6142.81
428.736	6060.81
428.958	6092.81
429.181	5883.81
429.403	5813.81
429.625	6084.81
429.847	6310.81
430.069	6867.81
430.292	6424.81
430.514	5912.81
430.736	5837.81
430.958	5742.81
431.18	5693.81
431.402	5766.81
431.624	5656.81
431.846	5790.81
432.068	5738.81
432.29	5868.81
432.512	5838.81
432.734	5898.81
432.956	5739.81
433.178	5883.81
433.4	5817.81
433.622	5790.81
433.844	5806.81
434.066	5813.81
434.287	5875.81
434.509	6170.81
434.731	6399.81
434.953	6485.81
435.175	6642.81
435.397	6786.81
435.618	6616.81
435.84	6978.81
436.062	7830.81
436.284	7716.81
436.505	6515.81
436.727	6230.81
436.949	5942.81
437.17	5896.81
437.392	5806.81
437.614	6015.81
437.835	6403.81
438.057	7278.81
438.278	7986.81
438.5	7891.81
438.721	8753.81
438.943	7589.81
439.165	6472.81
439.386	6260.81
439.608	6364.81
439.829	6383.81
440.05	6748.81
440.272	7061.81
440.493	6457.81
440.715	6097.81
440.936	6152.81
441.158	6148.81
441.379	6277.81
441.6	6625.81
441.822	6850.81
442.043	7400.81
442.264	8104.81
442.486	7746.81
442.707	6955.81
442.928	6812.81
443.149	6924.81
443.371	7174.81
443.592	7716.81
443.813	8693.81
444.034	8638.81
444.255	7547.81
444.476	7364.81
444.698	7581.81
444.919	7608.81
445.14	7411.81
445.361	7284.81
445.582	7422.81
445.803	8000.81
446.024	8712.81
446.245	8226.81
446.466	7473.81
446.687	6454.81
446.908	6213.81
447.129	5870.81
447.35	5764.81
447.571	5640.81
447.792	5549.81
448.013	5655.81
448.234	5820.81
448.455	6495.81
448.675	7762.81
448.896	8117.81
449.117	6694.81
449.338	6960.81
449.559	8255.81
449.779	8446.81
450	6437.81
450.221	5884.81
450.442	5582.81
450.662	5514.81
450.883	5655.81
451.104	5680.81
451.324	5554.81
451.545	5392.81
451.766	5226.81
451.986	5132.81
452.207	5001.81
452.428	5015.81
452.648	5060.81
452.869	5134.81
453.089	5220.81
453.31	5237.81
453.53	5110.81
453.751	5067.81
453.971	5079.81
454.192	5175.81
454.412	4981.81
454.633	4926.81
454.853	4992.81
455.073	4961.81
455.294	5406.81
455.514	5972.81
455.734	5383.81
455.955	4883.81
456.175	4746.81
456.395	4654.81
456.616	4743.81
456.836	4745.81
457.056	4644.81
457.276	4632.81
457.497	4800.81
457.717	4738.81
457.937	4729.81
458.157	4943.81
458.377	5010.81
458.598	5376.81
458.818	6013.81
459.038	6747.81
459.258	6756.81
459.478	5962.81
459.698	5870.81
459.918	6032.81
460.138	6198.81
460.358	6342.81
460.578	6371.81
460.798	6442.81
461.018	6385.81
461.238	6230.81
461.458	6195.81
461.678	6232.81
461.898	6437.81
462.118	6482.81
462.338	6804.81
462.558	6880.81
462.777	7111.81
462.997	7722.81
463.217	8201.81
463.437	7887.81
463.657	7402.81
463.876	7168.81
464.096	7293.81
464.316	7205.81
464.536	7245.81
464.755	7097.81
464.975	6881.81
465.195	7114.81
465.414	7048.81
465.634	6278.81
465.854	5920.81
466.073	5661.81
466.293	5519.81
466.512	5340.81
466.732	5208.81
466.951	5295.81
467.171	5274.81
467.391	5335.81
467.61	5398.81
467.829	5302.81
468.049	5262.81
468.268	5200.81
468.488	5105.81
468.707	4993.81
468.927	5086.81
469.146	5032.81
469.365	5107.81
469.585	5096.81
469.804	5253.81
470.023	5572.81
470.243	5445.81
470.462	5533.81
470.681	5684.81
470.901	5511.81
471.12	5433.81
471.339	5328.81
471.558	5311.81
471.777	5262.81
471.997	5168.81
472.216	5251.81
472.435	5605.81
472.654	5286.81
472.873	5094.81
473.092	4929.81
473.311	4995.81
473.53	5097.81
473.749	5169.81
473.968	5660.81
474.187	6668.81
474.406	6208.81
474.625	5270.81
474.844	5094.81
475.063	4966.81
475.282	5050.81
475.501	5149.81
475.72	5099.81
475.939	5199.81
476.158	5213.81
476.377	5173.81
476.596	5220.81
476.814	5375.81
477.033	5346.81
477.252	5433.81
477.471	5592.81
477.69	5657.81
477.908	5805.81
478.127	5904.81
478.346	5986.81
478.564	6079.81
478.783	6157.81
479.002	6383.81
479.22	6337.81
479.439	6438.81
479.658	6498.81
479.876	6669.81
480.095	6820.81
480.313	7246.81
480.532	7191.81
480.751	7002.81
480.969	7038.81
481.188	7728.81
481.406	7350.81
481.624	6657.81
481.843	6380.81
482.061	6208.81
482.28	6122.81
482.498	6032.81
482.717	5980.81
482.935	5928.81
483.153	5927.81
483.372	5920.81
483.59	5876.81
483.808	5881.81
484.027	5985.81
484.245	5959.81
484.463	5972.81
484.681	6086.81
484.9	6167.81
485.118	6215.81
485.336	6226.81
485.554	6258.81
485.772	6292.81
485.99	6303.81
486.209	6384.81
486.427	6448.81
486.645	6413.81
486.863	6528.81
487.081	6460.81
487.299	6458.81
487.517	6373.81
487.735	6296.81
