Data from Uncirc_1983_H10_HRD10591_00035.txt Node
Date: Wed Jan 03 12:25:39 EST 2024
User: Yrep
Spectrometer: HR+D1059
Trigger mode: 1
Integration Time (sec): 1.000000E-1
Scans to average: 1
Electric dark correction enabled: true
Nonlinearity correction enabled: false
Boxcar width: 0
XAxis mode: Wavelengths
Number of Pixels in Spectrum: 2048
>>>>>Begin Spectral Data<<<<<
223.165	-13.69
223.4	-13.69
223.635	-13.69
223.869	-10.69
224.104	-21.69
224.338	-18.69
224.573	0.31
224.808	-23.69
225.042	-8.69
225.277	-6.69
225.511	-2.69
225.746	5.31
225.98	2.31
226.215	9.31
226.449	10.31
226.683	20.31
226.918	21.31
227.152	37.31
227.387	47.31
227.621	35.31
227.856	46.31
228.09	46.31
228.324	54.31
228.559	72.31
228.793	54.31
229.027	55.31
229.262	66.31
229.496	61.31
229.73	77.31
229.964	82.31
230.199	72.31
230.433	70.31
230.667	94.31
230.901	100.31
231.136	75.31
231.37	81.31
231.604	82.31
231.838	70.31
232.072	67.31
232.306	65.31
232.541	79.31
232.775	76.31
233.009	75.31
233.243	79.31
233.477	83.31
233.711	85.31
233.945	72.31
234.179	79.31
234.413	69.31
234.647	76.31
234.881	92.31
235.115	86.31
235.349	85.31
235.583	85.31
235.817	79.31
236.051	74.31
236.285	93.31
236.519	78.31
236.753	64.31
236.987	74.31
237.221	71.31
237.455	78.31
237.689	78.31
237.922	71.31
238.156	70.31
238.39	77.31
238.624	73.31
238.858	65.31
239.091	89.31
239.325	72.31
239.559	77.31
239.793	88.31
240.027	80.31
240.26	77.31
240.494	66.31
240.728	74.31
240.961	72.31
241.195	79.31
241.429	74.31
241.662	97.31
241.896	76.31
242.13	85.31
242.363	75.31
242.597	70.31
242.83	75.31
243.064	78.31
243.298	82.31
243.531	90.31
243.765	67.31
243.998	82.31
244.232	79.31
244.465	91.31
244.699	79.31
244.932	82.31
245.166	74.31
245.399	84.31
245.633	73.31
245.866	62.31
246.099	72.31
246.333	72.31
246.566	69.31
246.8	77.31
247.033	84.31
247.266	82.31
247.5	96.31
247.733	85.31
247.966	81.31
248.2	70.31
248.433	99.31
248.666	71.31
248.899	69.31
249.133	73.31
249.366	106.31
249.599	94.31
249.832	94.31
250.066	68.31
250.299	75.31
250.532	86.31
250.765	73.31
250.998	75.31
251.231	78.31
251.465	79.31
251.698	66.31
251.931	76.31
252.164	73.31
252.397	78.31
252.63	89.31
252.863	86.31
253.096	91.31
253.329	83.31
253.562	78.31
253.795	87.31
254.028	84.31
254.261	74.31
254.494	74.31
254.727	77.31
254.96	68.31
255.193	67.31
255.426	76.31
255.659	82.31
255.892	77.31
256.124	67.31
256.357	82.31
256.59	85.31
256.823	79.31
257.056	76.31
257.289	91.31
257.521	85.31
257.754	75.31
257.987	89.31
258.22	91.31
258.452	88.31
258.685	79.31
258.918	78.31
259.151	76.31
259.383	69.31
259.616	67.31
259.849	74.31
260.081	79.31
260.314	73.31
260.547	89.31
260.779	76.31
261.012	70.31
261.244	85.31
261.477	93.31
261.71	76.31
261.942	98.31
262.175	103.31
262.407	81.31
262.64	72.31
262.872	78.31
263.105	87.31
263.337	95.31
263.57	73.31
263.802	83.31
264.035	93.31
264.267	94.31
264.499	74.31
264.732	84.31
264.964	77.31
265.197	67.31
265.429	73.31
265.661	83.31
265.894	104.31
266.126	91.31
266.358	88.31
266.591	70.31
266.823	94.31
267.055	85.31
267.287	83.31
267.52	79.31
267.752	85.31
267.984	81.31
268.216	83.31
268.448	82.31
268.681	78.31
268.913	93.31
269.145	84.31
269.377	87.31
269.609	85.31
269.841	99.31
270.073	85.31
270.306	83.31
270.538	75.31
270.77	75.31
271.002	85.31
271.234	95.31
271.466	77.31
271.698	88.31
271.93	85.31
272.162	86.31
272.394	74.31
272.626	81.31
272.858	77.31
273.09	79.31
273.322	61.31
273.553	70.31
273.785	74.31
274.017	71.31
274.249	89.31
274.481	76.31
274.713	83.31
274.945	85.31
275.176	93.31
275.408	101.31
275.64	85.31
275.872	79.31
276.104	100.31
276.335	91.31
276.567	102.31
276.799	104.31
277.031	105.31
277.262	94.31
277.494	87.31
277.726	84.31
277.957	77.31
278.189	76.31
278.421	81.31
278.652	81.31
278.884	88.31
279.115	85.31
279.347	98.31
279.579	91.31
279.81	88.31
280.042	91.31
280.273	88.31
280.505	106.31
280.736	88.31
280.968	92.31
281.199	86.31
281.431	87.31
281.662	88.31
281.894	79.31
282.125	110.31
282.356	103.31
282.588	125.31
282.819	107.31
283.051	85.31
283.282	81.31
283.513	90.31
283.745	71.31
283.976	93.31
284.207	95.31
284.439	79.31
284.67	102.31
284.901	90.31
285.132	95.31
285.364	90.31
285.595	75.31
285.826	84.31
286.057	78.31
286.288	75.31
286.52	101.31
286.751	95.31
286.982	94.31
287.213	76.31
287.444	85.31
287.675	92.31
287.906	109.31
288.138	90.31
288.369	95.31
288.6	96.31
288.831	89.31
289.062	85.31
289.293	95.31
289.524	94.31
289.755	88.31
289.986	107.31
290.217	84.31
290.448	97.31
290.679	81.31
290.91	104.31
291.141	88.31
291.371	86.31
291.602	81.31
291.833	61.31
292.064	71.31
292.295	70.31
292.526	92.31
292.757	70.31
292.987	79.31
293.218	93.31
293.449	84.31
293.68	98.31
293.91	74.31
294.141	102.31
294.372	74.31
294.603	83.31
294.833	77.31
295.064	78.31
295.295	94.31
295.525	87.31
295.756	93.31
295.987	106.31
296.217	123.31
296.448	99.31
296.679	92.31
296.909	93.31
297.14	84.31
297.37	76.31
297.601	85.31
297.831	97.31
298.062	86.31
298.292	99.31
298.523	89.31
298.753	93.31
298.984	88.31
299.214	81.31
299.445	100.31
299.675	97.31
299.905	105.31
300.136	82.31
300.366	85.31
300.597	82.31
300.827	81.31
301.057	103.31
301.288	106.31
301.518	97.31
301.748	96.31
301.979	93.31
302.209	93.31
302.439	91.31
302.669	85.31
302.9	92.31
303.13	84.31
303.36	86.31
303.59	99.31
303.82	93.31
304.051	92.31
304.281	90.31
304.511	86.31
304.741	84.31
304.971	86.31
305.201	90.31
305.431	99.31
305.661	90.31
305.891	97.31
306.121	101.31
306.352	114.31
306.582	91.31
306.812	97.31
307.042	79.31
307.272	90.31
307.502	95.31
307.731	104.31
307.961	97.31
308.191	105.31
308.421	94.31
308.651	94.31
308.881	102.31
309.111	95.31
309.341	98.31
309.571	101.31
309.8	87.31
310.03	99.31
310.26	91.31
310.49	106.31
310.72	104.31
310.949	86.31
311.179	99.31
311.409	90.31
311.639	95.31
311.868	88.31
312.098	103.31
312.328	91.31
312.557	93.31
312.787	100.31
313.017	106.31
313.246	83.31
313.476	88.31
313.706	103.31
313.935	94.31
314.165	87.31
314.394	93.31
314.624	97.31
314.853	92.31
315.083	94.31
315.312	98.31
315.542	87.31
315.771	93.31
316.001	89.31
316.23	81.31
316.46	84.31
316.689	93.31
316.919	90.31
317.148	97.31
317.377	94.31
317.607	89.31
317.836	84.31
318.065	90.31
318.295	92.31
318.524	96.31
318.753	86.31
318.983	95.31
319.212	104.31
319.441	93.31
319.67	109.31
319.9	99.31
320.129	95.31
320.358	89.31
320.587	103.31
320.816	93.31
321.046	107.31
321.275	107.31
321.504	86.31
321.733	94.31
321.962	102.31
322.191	117.31
322.42	85.31
322.649	96.31
322.878	108.31
323.108	113.31
323.337	106.31
323.566	137.31
323.795	135.31
324.024	188.31
324.253	337.31
324.482	709.31
324.71	1441.31
324.939	1902.31
325.168	722.31
325.397	221.31
325.626	141.31
325.855	120.31
326.084	117.31
326.313	132.31
326.542	124.31
326.77	220.31
326.999	403.31
327.228	837.31
327.457	1481.31
327.686	1201.31
327.914	344.31
328.143	183.31
328.372	133.31
328.6	122.31
328.829	105.31
329.058	112.31
329.287	110.31
329.515	110.31
329.744	94.31
329.972	96.31
330.201	93.31
330.43	109.31
330.658	120.31
330.887	119.31
331.115	102.31
331.344	101.31
331.572	104.31
331.801	101.31
332.03	102.31
332.258	97.31
332.486	83.31
332.715	95.31
332.943	86.31
333.172	101.31
333.4	101.31
333.629	99.31
333.857	110.31
334.085	108.31
334.314	106.31
334.542	114.31
334.771	94.31
334.999	94.31
335.227	86.31
335.455	104.31
335.684	99.31
335.912	108.31
336.14	90.31
336.369	94.31
336.597	93.31
336.825	91.31
337.053	86.31
337.281	99.31
337.51	106.31
337.738	88.31
337.966	88.31
338.194	100.31
338.422	81.31
338.65	95.31
338.878	111.31
339.106	94.31
339.334	102.31
339.562	103.31
339.79	84.31
340.018	96.31
340.246	97.31
340.474	101.31
340.702	91.31
340.93	90.31
341.158	97.31
341.386	83.31
341.614	105.31
341.842	110.31
342.07	94.31
342.298	102.31
342.526	93.31
342.754	87.31
342.981	93.31
343.209	94.31
343.437	97.31
343.665	92.31
343.893	89.31
344.12	91.31
344.348	91.31
344.576	77.31
344.804	98.31
345.031	101.31
345.259	108.31
345.487	92.31
345.714	102.31
345.942	84.31
346.17	89.31
346.397	88.31
346.625	95.31
346.853	100.31
347.08	100.31
347.308	93.31
347.535	101.31
347.763	97.31
347.99	100.31
348.218	100.31
348.445	90.31
348.673	92.31
348.9	94.31
349.128	76.31
349.355	85.31
349.583	104.31
349.81	104.31
350.037	100.31
350.265	89.31
350.492	106.31
350.72	81.31
350.947	90.31
351.174	94.31
351.402	108.31
351.629	92.31
351.856	105.31
352.083	106.31
352.311	95.31
352.538	112.31
352.765	106.31
352.992	112.31
353.22	105.31
353.447	100.31
353.674	95.31
353.901	87.31
354.128	103.31
354.355	91.31
354.583	94.31
354.81	103.31
355.037	105.31
355.264	102.31
355.491	101.31
355.718	90.31
355.945	96.31
356.172	98.31
356.399	93.31
356.626	98.31
356.853	89.31
357.08	105.31
357.307	93.31
357.534	101.31
357.761	106.31
357.988	95.31
358.215	89.31
358.441	102.31
358.668	93.31
358.895	83.31
359.122	83.31
359.349	93.31
359.576	87.31
359.802	106.31
360.029	111.31
360.256	101.31
360.483	92.31
360.709	89.31
360.936	85.31
361.163	91.31
361.39	102.31
361.616	94.31
361.843	102.31
362.07	91.31
362.296	97.31
362.523	102.31
362.749	90.31
362.976	83.31
363.203	113.31
363.429	94.31
363.656	92.31
363.882	86.31
364.109	102.31
364.335	100.31
364.562	92.31
364.788	99.31
365.015	75.31
365.241	91.31
365.468	98.31
365.694	100.31
365.92	104.31
366.147	88.31
366.373	109.31
366.599	74.31
366.826	77.31
367.052	67.31
367.278	93.31
367.505	74.31
367.731	91.31
367.957	81.31
368.184	101.31
368.41	97.31
368.636	110.31
368.862	127.31
369.089	99.31
369.315	86.31
369.541	99.31
369.767	87.31
369.993	97.31
370.219	97.31
370.445	73.31
370.672	93.31
370.898	91.31
371.124	76.31
371.35	85.31
371.576	82.31
371.802	95.31
372.028	90.31
372.254	88.31
372.48	98.31
372.706	93.31
372.932	85.31
373.158	85.31
373.384	89.31
373.61	90.31
373.835	102.31
374.061	95.31
374.287	88.31
374.513	78.31
374.739	91.31
374.965	90.31
375.191	97.31
375.416	85.31
375.642	90.31
375.868	97.31
376.094	79.31
376.319	84.31
376.545	85.31
376.771	100.31
376.997	101.31
377.222	97.31
377.448	99.31
377.674	84.31
377.899	95.31
378.125	91.31
378.35	93.31
378.576	91.31
378.802	79.31
379.027	97.31
379.253	93.31
379.478	94.31
379.704	84.31
379.929	107.31
380.155	84.31
380.38	95.31
380.606	91.31
380.831	103.31
381.057	104.31
381.282	91.31
381.507	100.31
381.733	85.31
381.958	82.31
382.184	94.31
382.409	95.31
382.634	101.31
382.86	89.31
383.085	92.31
383.31	99.31
383.535	99.31
383.761	103.31
383.986	108.31
384.211	105.31
384.436	107.31
384.662	117.31
384.887	101.31
385.112	99.31
385.337	105.31
385.562	95.31
385.787	104.31
386.013	114.31
386.238	103.31
386.463	107.31
386.688	111.31
386.913	111.31
387.138	106.31
387.363	98.31
387.588	104.31
387.813	99.31
388.038	95.31
388.263	101.31
388.488	86.31
388.713	92.31
388.938	100.31
389.163	106.31
389.387	103.31
389.612	97.31
389.837	84.31
390.062	101.31
390.287	99.31
390.512	93.31
390.736	98.31
390.961	102.31
391.186	93.31
391.411	100.31
391.636	107.31
391.86	63.31
392.085	68.31
392.31	78.31
392.534	85.31
392.759	87.31
392.984	87.31
393.208	99.31
393.433	101.31
393.658	87.31
393.882	89.31
394.107	74.31
394.331	93.31
394.556	81.31
394.78	101.31
395.005	97.31
395.229	83.31
395.454	94.31
395.678	104.31
395.903	97.31
396.127	87.31
396.352	81.31
396.576	81.31
396.801	77.31
397.025	85.31
397.249	87.31
397.474	88.31
397.698	88.31
397.922	93.31
398.147	101.31
398.371	84.31
398.595	86.31
398.82	94.31
399.044	89.31
399.268	93.31
399.492	78.31
399.717	73.31
399.941	71.31
400.165	101.31
400.389	99.31
400.613	97.31
400.837	92.31
401.062	85.31
401.286	90.31
401.51	85.31
401.734	88.31
401.958	90.31
402.182	110.31
402.406	144.31
402.63	105.31
402.854	93.31
403.078	92.31
403.302	96.31
403.526	91.31
403.75	93.31
403.974	88.31
404.198	100.31
404.422	98.31
404.645	88.31
404.869	97.31
405.093	103.31
405.317	85.31
405.541	105.31
405.765	106.31
405.988	126.31
406.212	147.31
406.436	217.31
406.66	131.31
406.883	115.31
407.107	97.31
407.331	98.31
407.555	86.31
407.778	92.31
408.002	94.31
408.226	98.31
408.449	95.31
408.673	84.31
408.896	98.31
409.12	83.31
409.344	102.31
409.567	102.31
409.791	101.31
410.014	102.31
410.238	72.31
410.461	94.31
410.685	91.31
410.908	92.31
411.132	107.31
411.355	96.31
411.578	89.31
411.802	97.31
412.025	78.31
412.249	98.31
412.472	93.31
412.695	90.31
412.919	77.31
413.142	83.31
413.365	94.31
413.589	90.31
413.812	102.31
414.035	95.31
414.258	106.31
414.482	98.31
414.705	96.31
414.928	99.31
415.151	99.31
415.374	94.31
415.597	97.31
415.821	87.31
416.044	90.31
416.267	89.31
416.49	92.31
416.713	98.31
416.936	89.31
417.159	98.31
417.382	88.31
417.605	100.31
417.828	95.31
418.051	93.31
418.274	94.31
418.497	81.31
418.72	85.31
418.943	84.31
419.166	97.31
419.389	96.31
419.611	91.31
419.834	89.31
420.057	89.31
420.28	80.31
420.503	95.31
420.726	81.31
420.948	89.31
421.171	94.31
421.394	90.31
421.617	96.31
421.839	89.31
422.062	95.31
422.285	95.31
422.507	91.31
422.73	112.31
422.953	109.31
423.175	90.31
423.398	98.31
423.621	104.31
423.843	87.31
424.066	81.31
424.288	88.31
424.511	89.31
424.733	99.31
424.956	98.31
425.178	84.31
425.401	92.31
425.623	113.31
425.846	95.31
426.068	81.31
426.291	91.31
426.513	103.31
426.735	99.31
426.958	78.31
427.18	95.31
427.402	125.31
427.625	151.31
427.847	119.31
428.069	110.31
428.292	81.31
428.514	85.31
428.736	86.31
428.958	76.31
429.181	95.31
429.403	85.31
429.625	81.31
429.847	88.31
430.069	98.31
430.292	98.31
430.514	92.31
430.736	102.31
430.958	87.31
431.18	86.31
431.402	85.31
431.624	81.31
431.846	73.31
432.068	97.31
432.29	88.31
432.512	93.31
432.734	92.31
432.956	90.31
433.178	97.31
433.4	101.31
433.622	84.31
433.844	95.31
434.066	94.31
434.287	88.31
434.509	101.31
434.731	90.31
434.953	96.31
435.175	91.31
435.397	86.31
435.618	94.31
435.84	91.31
436.062	117.31
436.284	114.31
436.505	94.31
436.727	99.31
436.949	89.31
437.17	76.31
437.392	100.31
437.614	94.31
437.835	97.31
438.057	105.31
438.278	99.31
438.5	114.31
438.721	108.31
438.943	103.31
439.165	84.31
439.386	86.31
439.608	89.31
439.829	101.31
440.05	123.31
440.272	143.31
440.493	89.31
440.715	86.31
440.936	88.31
441.158	93.31
441.379	80.31
441.6	77.31
441.822	90.31
442.043	98.31
442.264	95.31
442.486	98.31
442.707	78.31
442.928	106.31
443.149	126.31
443.371	118.31
443.592	107.31
443.813	85.31
444.034	106.31
444.255	91.31
444.476	98.31
444.698	92.31
444.919	90.31
445.14	124.31
445.361	115.31
445.582	95.31
445.803	122.31
446.024	125.31
446.245	127.31
446.466	101.31
446.687	91.31
446.908	93.31
447.129	83.31
447.35	91.31
447.571	91.31
447.792	93.31
448.013	79.31
448.234	102.31
448.455	103.31
448.675	104.31
448.896	123.31
449.117	111.31
449.338	103.31
449.559	125.31
449.779	118.31
450	70.31
450.221	88.31
450.442	114.31
450.662	92.31
450.883	94.31
451.104	107.31
451.324	99.31
451.545	91.31
451.766	93.31
451.986	85.31
452.207	83.31
452.428	81.31
452.648	93.31
452.869	104.31
453.089	113.31
453.31	95.31
453.53	90.31
453.751	75.31
453.971	113.31
454.192	95.31
454.412	97.31
454.633	96.31
454.853	84.31
455.073	85.31
455.294	100.31
455.514	101.31
455.734	93.31
455.955	83.31
456.175	79.31
456.395	85.31
456.616	82.31
456.836	92.31
457.056	75.31
457.276	78.31
457.497	86.31
457.717	94.31
457.937	79.31
458.157	74.31
458.377	90.31
458.598	100.31
458.818	130.31
459.038	131.31
459.258	102.31
459.478	106.31
459.698	104.31
459.918	89.31
460.138	81.31
460.358	93.31
460.578	102.31
460.798	89.31
461.018	81.31
461.238	98.31
461.458	95.31
461.678	89.31
461.898	92.31
462.118	78.31
462.338	97.31
462.558	85.31
462.777	87.31
462.997	85.31
463.217	82.31
463.437	72.31
463.657	93.31
463.876	69.31
464.096	90.31
464.316	95.31
464.536	93.31
464.755	76.31
464.975	103.31
465.195	149.31
465.414	147.31
465.634	100.31
465.854	90.31
466.073	91.31
466.293	88.31
466.512	75.31
466.732	86.31
466.951	83.31
467.171	105.31
467.391	90.31
467.61	114.31
467.829	85.31
468.049	89.31
468.268	89.31
468.488	85.31
468.707	90.31
468.927	85.31
469.146	83.31
469.365	83.31
469.585	82.31
469.804	99.31
470.023	95.31
470.243	85.31
470.462	101.31
470.681	100.31
470.901	85.31
471.12	72.31
471.339	101.31
471.558	89.31
471.777	82.31
471.997	86.31
472.216	113.31
472.435	103.31
472.654	80.31
472.873	75.31
473.092	96.31
473.311	95.31
473.53	90.31
473.749	85.31
473.968	99.31
474.187	102.31
474.406	82.31
474.625	70.31
474.844	83.31
475.063	75.31
475.282	92.31
475.501	98.31
475.72	91.31
475.939	88.31
476.158	102.31
476.377	87.31
476.596	82.31
476.814	81.31
477.033	94.31
477.252	75.31
477.471	91.31
477.69	84.31
477.908	99.31
478.127	91.31
478.346	86.31
478.564	89.31
478.783	82.31
479.002	82.31
479.22	87.31
479.439	104.31
479.658	92.31
479.876	95.31
480.095	93.31
480.313	81.31
480.532	71.31
480.751	107.31
480.969	101.31
481.188	115.31
481.406	91.31
481.624	94.31
481.843	103.31
482.061	84.31
482.28	86.31
482.498	87.31
482.717	95.31
482.935	84.31
483.153	89.31
483.372	90.31
483.59	79.31
483.808	85.31
484.027	102.31
484.245	88.31
484.463	100.31
484.681	93.31
484.9	97.31
485.118	81.31
485.336	97.31
485.554	105.31
485.772	93.31
485.99	92.31
486.209	103.31
486.427	102.31
486.645	101.31
486.863	105.31
487.081	108.31
487.299	105.31
487.517	108.31
487.735	93.31
487.953	81.31
488.171	82.31
488.389	101.31
488.607	101.31
488.825	89.31
489.043	85.31
489.261	83.31
489.479	87.31
489.696	86.31
489.914	93.31
490.132	85.31
490.35	98.31
490.568	93.31
490.786	93.31
491.003	74.31
491.221	86.31
491.439	95.31
491.657	86.31
491.874	97.31
492.092	102.31
492.31	89.31
492.527	96.31
492.745	69.31
492.963	93.31
493.18	82.31
493.398	92.31
493.615	85.31
493.833	103.31
494.05	83.31
494.268	107.31
494.485	98.31
494.703	81.31
494.92	77.31
495.138	87.31
495.355	90.31
495.573	98.31
495.79	99.31
496.008	97.31
496.225	81.31
496.442	104.31
496.66	99.31
496.877	91.31
497.094	95.31
497.312	82.31
497.529	87.31
497.746	85.31
497.963	82.31
498.181	101.31
498.398	100.31
498.615	89.31
498.832	85.31
499.049	89.31
499.267	77.31
499.484	91.31
499.701	93.31
499.918	98.31
500.135	97.31
500.352	87.31
500.569	91.31
500.786	80.31
501.003	92.31
501.22	91.31
501.437	84.31
501.654	76.31
501.871	97.31
502.088	91.31
502.305	78.31
502.522	87.31
502.739	104.31
502.956	95.31
503.172	89.31
503.389	100.31
503.606	98.31
503.823	93.31
504.04	89.31
504.256	91.31
504.473	90.31
504.69	94.31
504.907	86.31
505.123	82.31
505.34	85.31
505.557	85.31
505.773	97.31
505.99	75.31
506.207	82.31
506.423	89.31
506.64	91.31
506.856	90.31
507.073	96.31
507.289	96.31
507.506	90.31
507.722	95.31
507.939	98.31
508.155	91.31
508.372	94.31
508.588	85.31
508.805	87.31
509.021	89.31
509.238	90.31
509.454	96.31
509.67	95.31
509.887	105.31
510.103	128.31
510.319	204.31
510.536	695.31
510.752	2085.31
510.968	553.31
511.184	131.31
511.401	108.31
511.617	97.31
511.833	83.31
512.049	90.31
512.265	97.31
512.481	100.31
512.698	103.31
512.914	81.31
513.13	83.31
513.346	110.31
513.562	105.31
513.778	105.31
513.994	99.31
514.21	91.31
514.426	109.31
514.642	137.31
514.858	100.31
515.074	155.31
515.29	380.31
515.506	1175.31
515.721	425.31
