Data from Uncirc_1983_H10_HRD10591_00043.txt Node
Date: Wed Jan 03 12:25:40 EST 2024
User: Yrep
Spectrometer: HR+D1059
Trigger mode: 1
Integration Time (sec): 1.000000E-1
Scans to average: 1
Electric dark correction enabled: true
Nonlinearity correction enabled: false
Boxcar width: 0
XAxis mode: Wavelengths
Number of Pixels in Spectrum: 2048
>>>>>Begin Spectral Data<<<<<
223.165	-5.5
223.4	-5.5
223.635	-5.5
223.869	-20.5
224.104	-24.5
224.338	-14.5
224.573	-19.5
224.808	-19.5
225.042	-8.5
225.277	-12.5
225.511	8.5
225.746	2.5
225.98	7.5
226.215	23.5
226.449	21.5
226.683	7.5
226.918	23.5
227.152	30.5
227.387	37.5
227.621	34.5
227.856	46.5
228.09	55.5
228.324	62.5
228.559	37.5
228.793	51.5
229.027	68.5
229.262	68.5
229.496	71.5
229.73	76.5
229.964	72.5
230.199	89.5
230.433	71.5
230.667	71.5
230.901	86.5
231.136	77.5
231.37	78.5
231.604	71.5
231.838	70.5
232.072	89.5
232.306	77.5
232.541	84.5
232.775	83.5
233.009	74.5
233.243	94.5
233.477	79.5
233.711	76.5
233.945	89.5
234.179	94.5
234.413	77.5
234.647	78.5
234.881	82.5
235.115	82.5
235.349	73.5
235.583	83.5
235.817	66.5
236.051	77.5
236.285	79.5
236.519	77.5
236.753	67.5
236.987	86.5
237.221	81.5
237.455	84.5
237.689	93.5
237.922	84.5
238.156	68.5
238.39	61.5
238.624	73.5
238.858	74.5
239.091	67.5
239.325	82.5
239.559	72.5
239.793	90.5
240.027	86.5
240.26	71.5
240.494	87.5
240.728	79.5
240.961	85.5
241.195	69.5
241.429	79.5
241.662	83.5
241.896	78.5
242.13	79.5
242.363	83.5
242.597	80.5
242.83	70.5
243.064	94.5
243.298	73.5
243.531	86.5
243.765	81.5
243.998	85.5
244.232	84.5
244.465	85.5
244.699	82.5
244.932	87.5
245.166	76.5
245.399	87.5
245.633	77.5
245.866	82.5
246.099	87.5
246.333	68.5
246.566	78.5
246.8	70.5
247.033	82.5
247.266	95.5
247.5	75.5
247.733	89.5
247.966	69.5
248.2	75.5
248.433	87.5
248.666	70.5
248.899	76.5
249.133	88.5
249.366	75.5
249.599	91.5
249.832	83.5
250.066	81.5
250.299	66.5
250.532	87.5
250.765	73.5
250.998	71.5
251.231	82.5
251.465	86.5
251.698	82.5
251.931	80.5
252.164	72.5
252.397	79.5
252.63	81.5
252.863	66.5
253.096	81.5
253.329	71.5
253.562	77.5
253.795	74.5
254.028	80.5
254.261	77.5
254.494	90.5
254.727	83.5
254.96	69.5
255.193	68.5
255.426	86.5
255.659	78.5
255.892	75.5
256.124	85.5
256.357	68.5
256.59	74.5
256.823	86.5
257.056	84.5
257.289	83.5
257.521	85.5
257.754	76.5
257.987	63.5
258.22	78.5
258.452	99.5
258.685	87.5
258.918	77.5
259.151	96.5
259.383	97.5
259.616	79.5
259.849	93.5
260.081	85.5
260.314	77.5
260.547	87.5
260.779	75.5
261.012	85.5
261.244	83.5
261.477	89.5
261.71	103.5
261.942	100.5
262.175	100.5
262.407	86.5
262.64	94.5
262.872	85.5
263.105	95.5
263.337	93.5
263.57	83.5
263.802	76.5
264.035	89.5
264.267	74.5
264.499	97.5
264.732	79.5
264.964	74.5
265.197	71.5
265.429	70.5
265.661	76.5
265.894	75.5
266.126	81.5
266.358	81.5
266.591	76.5
266.823	71.5
267.055	97.5
267.287	95.5
267.52	89.5
267.752	80.5
267.984	77.5
268.216	81.5
268.448	97.5
268.681	73.5
268.913	83.5
269.145	81.5
269.377	76.5
269.609	90.5
269.841	95.5
270.073	91.5
270.306	100.5
270.538	83.5
270.77	81.5
271.002	87.5
271.234	101.5
271.466	79.5
271.698	87.5
271.93	77.5
272.162	89.5
272.394	76.5
272.626	80.5
272.858	81.5
273.09	85.5
273.322	90.5
273.553	91.5
273.785	83.5
274.017	82.5
274.249	77.5
274.481	75.5
274.713	79.5
274.945	98.5
275.176	89.5
275.408	88.5
275.64	100.5
275.872	92.5
276.104	89.5
276.335	82.5
276.567	89.5
276.799	90.5
277.031	95.5
277.262	83.5
277.494	95.5
277.726	87.5
277.957	106.5
278.189	99.5
278.421	90.5
278.652	77.5
278.884	91.5
279.115	81.5
279.347	94.5
279.579	76.5
279.81	90.5
280.042	106.5
280.273	93.5
280.505	85.5
280.736	79.5
280.968	108.5
281.199	87.5
281.431	91.5
281.662	80.5
281.894	99.5
282.125	88.5
282.356	121.5
282.588	137.5
282.819	100.5
283.051	97.5
283.282	73.5
283.513	92.5
283.745	72.5
283.976	83.5
284.207	81.5
284.439	93.5
284.67	78.5
284.901	86.5
285.132	89.5
285.364	81.5
285.595	79.5
285.826	87.5
286.057	84.5
286.288	92.5
286.52	94.5
286.751	101.5
286.982	87.5
287.213	93.5
287.444	85.5
287.675	93.5
287.906	77.5
288.138	94.5
288.369	86.5
288.6	99.5
288.831	79.5
289.062	79.5
289.293	90.5
289.524	89.5
289.755	92.5
289.986	99.5
290.217	96.5
290.448	94.5
290.679	77.5
290.91	93.5
291.141	81.5
291.371	92.5
291.602	78.5
291.833	68.5
292.064	95.5
292.295	77.5
292.526	100.5
292.757	82.5
292.987	89.5
293.218	76.5
293.449	94.5
293.68	75.5
293.91	98.5
294.141	93.5
294.372	76.5
294.603	82.5
294.833	93.5
295.064	82.5
295.295	91.5
295.525	97.5
295.756	87.5
295.987	105.5
296.217	112.5
296.448	123.5
296.679	97.5
296.909	94.5
297.14	92.5
297.37	87.5
297.601	83.5
297.831	84.5
298.062	91.5
298.292	103.5
298.523	94.5
298.753	85.5
298.984	94.5
299.214	89.5
299.445	89.5
299.675	105.5
299.905	100.5
300.136	85.5
300.366	100.5
300.597	88.5
300.827	74.5
301.057	89.5
301.288	110.5
301.518	89.5
301.748	89.5
301.979	109.5
302.209	94.5
302.439	76.5
302.669	97.5
302.9	84.5
303.13	98.5
303.36	99.5
303.59	100.5
303.82	94.5
304.051	96.5
304.281	84.5
304.511	87.5
304.741	86.5
304.971	85.5
305.201	85.5
305.431	98.5
305.661	85.5
305.891	91.5
306.121	83.5
306.352	99.5
306.582	101.5
306.812	90.5
307.042	83.5
307.272	93.5
307.502	84.5
307.731	100.5
307.961	85.5
308.191	105.5
308.421	90.5
308.651	97.5
308.881	87.5
309.111	95.5
309.341	105.5
309.571	93.5
309.8	93.5
310.03	89.5
310.26	94.5
310.49	97.5
310.72	90.5
310.949	86.5
311.179	80.5
311.409	89.5
311.639	96.5
311.868	95.5
312.098	91.5
312.328	85.5
312.557	91.5
312.787	111.5
313.017	108.5
313.246	101.5
313.476	92.5
313.706	109.5
313.935	84.5
314.165	91.5
314.394	91.5
314.624	87.5
314.853	97.5
315.083	90.5
315.312	105.5
315.542	82.5
315.771	93.5
316.001	93.5
316.23	86.5
316.46	103.5
316.689	85.5
316.919	89.5
317.148	97.5
317.377	86.5
317.607	92.5
317.836	104.5
318.065	88.5
318.295	85.5
318.524	99.5
318.753	93.5
318.983	88.5
319.212	106.5
319.441	109.5
319.67	97.5
319.9	90.5
320.129	89.5
320.358	88.5
320.587	103.5
320.816	95.5
321.046	105.5
321.275	95.5
321.504	82.5
321.733	99.5
321.962	97.5
322.191	93.5
322.42	103.5
322.649	89.5
322.878	105.5
323.108	108.5
323.337	116.5
323.566	121.5
323.795	132.5
324.024	193.5
324.253	301.5
324.482	645.5
324.71	1337.5
324.939	1749.5
325.168	652.5
325.397	219.5
325.626	140.5
325.855	107.5
326.084	112.5
326.313	130.5
326.542	138.5
326.77	198.5
326.999	387.5
327.228	723.5
327.457	1377.5
327.686	1077.5
327.914	309.5
328.143	175.5
328.372	140.5
328.6	114.5
328.829	109.5
329.058	110.5
329.287	116.5
329.515	105.5
329.744	107.5
329.972	97.5
330.201	103.5
330.43	114.5
330.658	108.5
330.887	123.5
331.115	109.5
331.344	100.5
331.572	105.5
331.801	109.5
332.03	91.5
332.258	92.5
332.486	89.5
332.715	96.5
332.943	96.5
333.172	96.5
333.4	87.5
333.629	113.5
333.857	105.5
334.085	109.5
334.314	99.5
334.542	109.5
334.771	101.5
334.999	94.5
335.227	87.5
335.455	102.5
335.684	103.5
335.912	88.5
336.14	92.5
336.369	93.5
336.597	101.5
336.825	105.5
337.053	103.5
337.281	105.5
337.51	97.5
337.738	91.5
337.966	91.5
338.194	104.5
338.422	101.5
338.65	103.5
338.878	86.5
339.106	87.5
339.334	97.5
339.562	98.5
339.79	93.5
340.018	103.5
340.246	88.5
340.474	94.5
340.702	97.5
340.93	91.5
341.158	100.5
341.386	93.5
341.614	102.5
341.842	92.5
342.07	89.5
342.298	88.5
342.526	90.5
342.754	101.5
342.981	102.5
343.209	92.5
343.437	102.5
343.665	101.5
343.893	82.5
344.12	100.5
344.348	89.5
344.576	93.5
344.804	98.5
345.031	102.5
345.259	73.5
345.487	75.5
345.714	99.5
345.942	82.5
346.17	91.5
346.397	87.5
346.625	108.5
346.853	81.5
347.08	86.5
347.308	100.5
347.535	93.5
347.763	101.5
347.99	107.5
348.218	108.5
348.445	107.5
348.673	93.5
348.9	98.5
349.128	98.5
349.355	78.5
349.583	89.5
349.81	109.5
350.037	100.5
350.265	89.5
350.492	101.5
350.72	89.5
350.947	98.5
351.174	96.5
351.402	95.5
351.629	95.5
351.856	98.5
352.083	88.5
352.311	107.5
352.538	121.5
352.765	93.5
352.992	106.5
353.22	101.5
353.447	115.5
353.674	101.5
353.901	76.5
354.128	92.5
354.355	94.5
354.583	95.5
354.81	100.5
355.037	94.5
355.264	102.5
355.491	96.5
355.718	94.5
355.945	87.5
356.172	100.5
356.399	102.5
356.626	104.5
356.853	96.5
357.08	102.5
357.307	85.5
357.534	100.5
357.761	99.5
357.988	101.5
358.215	95.5
358.441	98.5
358.668	87.5
358.895	98.5
359.122	97.5
359.349	95.5
359.576	87.5
359.802	91.5
360.029	97.5
360.256	107.5
360.483	82.5
360.709	97.5
360.936	99.5
361.163	96.5
361.39	99.5
361.616	97.5
361.843	85.5
362.07	102.5
362.296	101.5
362.523	93.5
362.749	99.5
362.976	93.5
363.203	95.5
363.429	74.5
363.656	77.5
363.882	98.5
364.109	97.5
364.335	107.5
364.562	91.5
364.788	103.5
365.015	76.5
365.241	91.5
365.468	105.5
365.694	90.5
365.92	86.5
366.147	89.5
366.373	98.5
366.599	81.5
366.826	97.5
367.052	76.5
367.278	100.5
367.505	89.5
367.731	85.5
367.957	90.5
368.184	111.5
368.41	93.5
368.636	90.5
368.862	112.5
369.089	109.5
369.315	78.5
369.541	94.5
369.767	93.5
369.993	94.5
370.219	76.5
370.445	87.5
370.672	108.5
370.898	90.5
371.124	94.5
371.35	89.5
371.576	90.5
371.802	94.5
372.028	100.5
372.254	83.5
372.48	91.5
372.706	91.5
372.932	97.5
373.158	70.5
373.384	77.5
373.61	91.5
373.835	77.5
374.061	89.5
374.287	81.5
374.513	82.5
374.739	91.5
374.965	83.5
375.191	84.5
375.416	101.5
375.642	95.5
375.868	97.5
376.094	89.5
376.319	87.5
376.545	96.5
376.771	79.5
376.997	94.5
377.222	77.5
377.448	94.5
377.674	99.5
377.899	88.5
378.125	105.5
378.35	88.5
378.576	83.5
378.802	90.5
379.027	79.5
379.253	73.5
379.478	106.5
379.704	93.5
379.929	88.5
380.155	93.5
380.38	94.5
380.606	101.5
380.831	101.5
381.057	101.5
381.282	88.5
381.507	87.5
381.733	94.5
381.958	105.5
382.184	106.5
382.409	99.5
382.634	98.5
382.86	93.5
383.085	105.5
383.31	113.5
383.535	99.5
383.761	101.5
383.986	97.5
384.211	94.5
384.436	89.5
384.662	99.5
384.887	110.5
385.112	105.5
385.337	110.5
385.562	94.5
385.787	87.5
386.013	98.5
386.238	100.5
386.463	108.5
386.688	98.5
386.913	91.5
387.138	104.5
387.363	109.5
387.588	87.5
387.813	101.5
388.038	105.5
388.263	115.5
388.488	113.5
388.713	98.5
388.938	81.5
389.163	87.5
389.387	105.5
389.612	105.5
389.837	98.5
390.062	107.5
390.287	85.5
390.512	97.5
390.736	96.5
390.961	94.5
391.186	103.5
391.411	86.5
391.636	90.5
391.86	79.5
392.085	95.5
392.31	93.5
392.534	82.5
392.759	93.5
392.984	93.5
393.208	85.5
393.433	108.5
393.658	102.5
393.882	87.5
394.107	94.5
394.331	96.5
394.556	102.5
394.78	77.5
395.005	100.5
395.229	83.5
395.454	89.5
395.678	91.5
395.903	105.5
396.127	99.5
396.352	80.5
396.576	89.5
396.801	85.5
397.025	89.5
397.249	91.5
397.474	89.5
397.698	85.5
397.922	89.5
398.147	89.5
398.371	94.5
398.595	95.5
398.82	91.5
399.044	105.5
399.268	97.5
399.492	98.5
399.717	98.5
399.941	102.5
400.165	109.5
400.389	79.5
400.613	95.5
400.837	81.5
401.062	76.5
401.286	76.5
401.51	80.5
401.734	86.5
401.958	97.5
402.182	120.5
402.406	126.5
402.63	115.5
402.854	95.5
403.078	99.5
403.302	81.5
403.526	104.5
403.75	85.5
403.974	79.5
404.198	83.5
404.422	101.5
404.645	86.5
404.869	87.5
405.093	75.5
405.317	87.5
405.541	106.5
405.765	98.5
405.988	116.5
406.212	143.5
406.436	196.5
406.66	136.5
406.883	101.5
407.107	89.5
407.331	106.5
407.555	98.5
407.778	107.5
408.002	75.5
408.226	86.5
408.449	97.5
408.673	85.5
408.896	85.5
409.12	100.5
409.344	86.5
409.567	104.5
409.791	90.5
410.014	102.5
410.238	95.5
410.461	96.5
410.685	95.5
410.908	108.5
411.132	118.5
411.355	100.5
411.578	93.5
411.802	85.5
412.025	88.5
412.249	97.5
412.472	94.5
412.695	98.5
412.919	81.5
413.142	89.5
413.365	88.5
413.589	108.5
413.812	93.5
414.035	95.5
414.258	82.5
414.482	99.5
414.705	103.5
414.928	93.5
415.151	107.5
415.374	103.5
415.597	84.5
415.821	100.5
416.044	99.5
416.267	91.5
416.49	85.5
416.713	83.5
416.936	90.5
417.159	90.5
417.382	80.5
417.605	91.5
417.828	105.5
418.051	99.5
418.274	91.5
418.497	90.5
418.72	85.5
418.943	89.5
419.166	94.5
419.389	83.5
419.611	87.5
419.834	97.5
420.057	90.5
420.28	90.5
420.503	87.5
420.726	81.5
420.948	98.5
421.171	83.5
421.394	91.5
421.617	93.5
421.839	111.5
422.062	105.5
422.285	87.5
422.507	78.5
422.73	97.5
422.953	86.5
423.175	92.5
423.398	103.5
423.621	95.5
423.843	89.5
424.066	81.5
424.288	95.5
424.511	94.5
424.733	100.5
424.956	100.5
425.178	93.5
425.401	104.5
425.623	103.5
425.846	89.5
426.068	82.5
426.291	101.5
426.513	89.5
426.735	96.5
426.958	90.5
427.18	111.5
427.402	135.5
427.625	136.5
427.847	111.5
428.069	101.5
428.292	91.5
428.514	83.5
428.736	90.5
428.958	94.5
429.181	73.5
429.403	95.5
429.625	88.5
429.847	81.5
430.069	93.5
430.292	92.5
430.514	88.5
430.736	81.5
430.958	94.5
431.18	82.5
431.402	83.5
431.624	101.5
431.846	79.5
432.068	84.5
432.29	81.5
432.512	87.5
432.734	80.5
432.956	98.5
433.178	94.5
433.4	112.5
433.622	89.5
433.844	87.5
434.066	90.5
434.287	89.5
434.509	102.5
434.731	99.5
434.953	88.5
435.175	101.5
435.397	90.5
435.618	95.5
435.84	102.5
436.062	114.5
436.284	110.5
436.505	91.5
436.727	106.5
436.949	98.5
437.17	101.5
437.392	97.5
437.614	107.5
437.835	106.5
438.057	111.5
438.278	107.5
438.5	103.5
438.721	114.5
438.943	106.5
439.165	82.5
439.386	95.5
439.608	87.5
439.829	88.5
440.05	105.5
440.272	141.5
440.493	104.5
440.715	85.5
440.936	70.5
441.158	74.5
441.379	95.5
441.6	87.5
441.822	101.5
442.043	103.5
442.264	91.5
442.486	94.5
442.707	91.5
442.928	99.5
443.149	101.5
443.371	109.5
443.592	103.5
443.813	105.5
444.034	110.5
444.255	101.5
444.476	84.5
444.698	76.5
444.919	94.5
445.14	135.5
445.361	131.5
445.582	109.5
445.803	117.5
446.024	117.5
446.245	119.5
446.466	106.5
446.687	94.5
446.908	86.5
447.129	106.5
447.35	89.5
447.571	101.5
447.792	98.5
448.013	83.5
448.234	102.5
448.455	91.5
448.675	113.5
448.896	106.5
449.117	108.5
449.338	89.5
449.559	115.5
449.779	112.5
450	88.5
450.221	103.5
450.442	85.5
450.662	98.5
450.883	96.5
451.104	104.5
451.324	97.5
451.545	105.5
451.766	98.5
451.986	75.5
452.207	86.5
452.428	85.5
452.648	96.5
452.869	94.5
453.089	89.5
453.31	108.5
453.53	95.5
453.751	83.5
453.971	82.5
454.192	91.5
454.412	91.5
454.633	83.5
454.853	88.5
455.073	94.5
455.294	87.5
455.514	113.5
455.734	110.5
455.955	110.5
456.175	83.5
456.395	83.5
456.616	76.5
456.836	88.5
457.056	94.5
457.276	88.5
457.497	92.5
457.717	76.5
457.937	83.5
458.157	91.5
458.377	101.5
458.598	79.5
458.818	116.5
459.038	131.5
459.258	99.5
459.478	89.5
459.698	99.5
459.918	65.5
460.138	82.5
460.358	80.5
460.578	92.5
460.798	69.5
461.018	90.5
461.238	85.5
461.458	95.5
461.678	94.5
461.898	97.5
462.118	91.5
462.338	81.5
462.558	86.5
462.777	87.5
462.997	93.5
463.217	81.5
463.437	85.5
463.657	84.5
463.876	95.5
464.096	83.5
464.316	102.5
464.536	86.5
464.755	77.5
464.975	108.5
465.195	146.5
465.414	129.5
465.634	106.5
465.854	89.5
466.073	87.5
466.293	94.5
466.512	87.5
466.732	83.5
466.951	93.5
467.171	83.5
467.391	88.5
467.61	97.5
467.829	81.5
468.049	69.5
468.268	90.5
468.488	86.5
468.707	90.5
468.927	83.5
469.146	80.5
469.365	97.5
469.585	81.5
469.804	94.5
470.023	91.5
470.243	90.5
470.462	90.5
470.681	104.5
470.901	92.5
471.12	77.5
471.339	90.5
471.558	85.5
471.777	85.5
471.997	81.5
472.216	101.5
472.435	115.5
472.654	88.5
472.873	93.5
473.092	92.5
473.311	79.5
473.53	77.5
473.749	84.5
473.968	81.5
474.187	104.5
474.406	91.5
474.625	90.5
474.844	101.5
475.063	91.5
475.282	89.5
475.501	94.5
475.72	86.5
475.939	99.5
476.158	96.5
476.377	97.5
476.596	87.5
476.814	85.5
477.033	96.5
477.252	76.5
477.471	73.5
477.69	85.5
477.908	96.5
478.127	87.5
478.346	96.5
478.564	77.5
478.783	96.5
479.002	92.5
479.22	107.5
479.439	106.5
479.658	102.5
479.876	95.5
480.095	95.5
480.313	97.5
480.532	87.5
480.751	97.5
480.969	105.5
481.188	119.5
481.406	103.5
481.624	85.5
481.843	106.5
482.061	92.5
482.28	87.5
482.498	87.5
482.717	85.5
482.935	95.5
483.153	90.5
483.372	100.5
483.59	79.5
483.808	90.5
484.027	89.5
484.245	99.5
484.463	102.5
484.681	87.5
484.9	89.5
485.118	86.5
485.336	96.5
485.554	100.5
485.772	94.5
485.99	111.5
486.209	114.5
486.427	99.5
486.645	110.5
486.863	115.5
487.081	89.5
487.299	99.5
487.517	93.5
487.735	91.5
487.953	88.5
488.171	101.5
488.389	85.5
488.607	85.5
488.825	77.5
489.043	95.5
489.261	103.5
489.479	90.5
489.696	107.5
489.914	83.5
490.132	89.5
490.35	96.5
490.568	90.5
490.786	90.5
491.003	79.5
491.221	82.5
491.439	89.5
491.657	83.5
491.874	92.5
492.092	94.5
492.31	90.5
492.527	91.5
492.745	93.5
492.963	97.5
493.18	81.5
493.398	90.5
493.615	88.5
493.833	92.5
494.05	98.5
494.268	91.5
494.485	85.5
494.703	101.5
494.92	91.5
495.138	84.5
495.355	74.5
495.573	106.5
495.79	87.5
496.008	102.5
496.225	92.5
496.442	93.5
496.66	92.5
496.877	93.5
497.094	92.5
497.312	109.5
497.529	99.5
497.746	97.5
497.963	95.5
498.181	91.5
498.398	84.5
498.615	108.5
498.832	97.5
499.049	76.5
499.267	98.5
499.484	94.5
499.701	94.5
499.918	94.5
500.135	85.5
500.352	87.5
500.569	85.5
500.786	90.5
501.003	89.5
501.22	77.5
501.437	87.5
501.654	94.5
501.871	97.5
502.088	100.5
502.305	95.5
502.522	92.5
502.739	104.5
502.956	86.5
503.172	86.5
503.389	98.5
503.606	99.5
503.823	102.5
504.04	90.5
504.256	85.5
504.473	109.5
504.69	96.5
504.907	86.5
505.123	93.5
505.34	99.5
505.557	88.5
505.773	87.5
505.99	81.5
506.207	96.5
506.423	89.5
506.64	81.5
506.856	100.5
507.073	92.5
507.289	94.5
507.506	96.5
507.722	108.5
507.939	92.5
508.155	93.5
508.372	96.5
508.588	95.5
508.805	105.5
509.021	100.5
509.238	114.5
509.454	89.5
509.67	94.5
509.887	98.5
510.103	127.5
510.319	181.5
510.536	630.5
510.752	1918.5
510.968	539.5
511.184	147.5
511.401	117.5
511.617	84.5
511.833	89.5
512.049	88.5
512.265	99.5
512.481	97.5
512.698	98.5
512.914	97.5
513.13	104.5
513.346	95.5
513.562	100.5
513.778	97.5
513.994	86.5
514.21	107.5
514.426	121.5
514.642	111.5
514.858	115.5
515.074	166.5
515.29	351.5
515.506	1111.5
515.721	428.5
515.937	138.5
516.153	98.5
516.369	97.5
516.585	93.5
516.801	97.5
517.016	100.5
517.232	79.5
517.448	102.5
517.664	104.5
517.879	95.5
518.095	93.5
518.311	91.5
518.527	90.5
518.742	87.5
518.958	102.5
519.173	92.5
519.389	94.5
519.605	97.5
519.82	99.5
520.036	94.5
520.251	116.5
520.467	114.5
520.682	112.5
520.898	98.5
521.113	117.5
521.329	125.5
521.544	171.5
521.76	439.5
521.975	1804.5
522.19	1090.5
522.406	265.5
522.621	115.5
522.836	97.5
523.052	105.5
523.267	89.5
523.482	82.5
523.698	98.5
523.913	113.5
524.128	103.5
524.343	99.5
524.559	99.5
524.774	93.5
524.989	97.5
525.204	105.5
525.419	100.5
525.634	87.5
525.849	89.5
526.064	96.5
526.28	92.5
526.495	91.5
526.71	83.5
526.925	97.5
527.14	103.5
527.355	101.5
527.57	87.5
527.785	88.5
527.999	93.5
528.214	95.5
528.429	93.5
528.644	102.5
528.859	93.5
529.074	85.5
529.289	98.5
529.503	149.5
529.718	103.5
529.933	94.5
530.148	89.5
530.363	97.5
530.577	93.5
530.792	99.5
531.007	81.5
531.221	82.5
531.436	83.5
531.651	93.5
531.865	98.5
532.08	87.5
532.295	99.5
532.509	95.5
532.724	81.5
532.938	99.5
533.153	108.5
533.367	89.5
533.582	89.5
533.796	86.5
534.011	93.5
534.225	87.5
534.44	103.5
534.654	98.5
534.868	86.5
535.083	95.5
