Data from Uncirc_1983_H10_HRD10591_00017.txt Node
Date: Wed Jan 03 12:25:35 EST 2024
User: Yrep
Spectrometer: HR+D1059
Trigger mode: 1
Integration Time (sec): 1.000000E-1
Scans to average: 1
Electric dark correction enabled: true
Nonlinearity correction enabled: false
Boxcar width: 0
XAxis mode: Wavelengths
Number of Pixels in Spectrum: 2048
>>>>>Begin Spectral Data<<<<<
223.165	-13
223.4	-13
223.635	-13
223.869	-29
224.104	-24
224.338	5
224.573	-34
224.808	-12
225.042	-16
225.277	-4
225.511	-9
225.746	5
225.98	10
226.215	12
226.449	14
226.683	27
226.918	23
227.152	45
227.387	28
227.621	46
227.856	38
228.09	50
228.324	50
228.559	49
228.793	70
229.027	64
229.262	70
229.496	48
229.73	68
229.964	81
230.199	63
230.433	75
230.667	80
230.901	75
231.136	83
231.37	72
231.604	78
231.838	89
232.072	73
232.306	72
232.541	90
232.775	86
233.009	75
233.243	77
233.477	70
233.711	71
233.945	64
234.179	84
234.413	86
234.647	84
234.881	79
235.115	81
235.349	70
235.583	69
235.817	76
236.051	84
236.285	64
236.519	72
236.753	74
236.987	73
237.221	78
237.455	74
237.689	71
237.922	78
238.156	82
238.39	94
238.624	71
238.858	86
239.091	65
239.325	67
239.559	75
239.793	79
240.027	87
240.26	65
240.494	66
240.728	91
240.961	76
241.195	85
241.429	69
241.662	73
241.896	54
242.13	82
242.363	72
242.597	65
242.83	74
243.064	80
243.298	95
243.531	73
243.765	75
243.998	81
244.232	86
244.465	67
244.699	97
244.932	88
245.166	84
245.399	88
245.633	81
245.866	77
246.099	87
246.333	89
246.566	75
246.8	70
247.033	91
247.266	72
247.5	80
247.733	91
247.966	73
248.2	62
248.433	79
248.666	82
248.899	73
249.133	74
249.366	83
249.599	93
249.832	86
250.066	81
250.299	70
250.532	67
250.765	78
250.998	72
251.231	80
251.465	85
251.698	67
251.931	75
252.164	80
252.397	59
252.63	81
252.863	74
253.096	83
253.329	74
253.562	82
253.795	67
254.028	77
254.261	73
254.494	78
254.727	82
254.96	82
255.193	74
255.426	76
255.659	71
255.892	78
256.124	69
256.357	75
256.59	71
256.823	75
257.056	84
257.289	82
257.521	85
257.754	81
257.987	84
258.22	85
258.452	84
258.685	80
258.918	72
259.151	89
259.383	86
259.616	85
259.849	83
260.081	86
260.314	77
260.547	72
260.779	81
261.012	90
261.244	80
261.477	76
261.71	94
261.942	94
262.175	99
262.407	70
262.64	87
262.872	81
263.105	91
263.337	80
263.57	84
263.802	80
264.035	88
264.267	76
264.499	79
264.732	86
264.964	83
265.197	68
265.429	79
265.661	80
265.894	74
266.126	91
266.358	73
266.591	79
266.823	87
267.055	76
267.287	83
267.52	74
267.752	90
267.984	87
268.216	67
268.448	86
268.681	71
268.913	81
269.145	102
269.377	80
269.609	86
269.841	73
270.073	94
270.306	66
270.538	83
270.77	87
271.002	86
271.234	78
271.466	84
271.698	75
271.93	84
272.162	82
272.394	76
272.626	82
272.858	73
273.09	74
273.322	79
273.553	88
273.785	80
274.017	70
274.249	76
274.481	76
274.713	85
274.945	74
275.176	88
275.408	78
275.64	91
275.872	87
276.104	74
276.335	88
276.567	96
276.799	107
277.031	105
277.262	80
277.494	78
277.726	82
277.957	76
278.189	93
278.421	81
278.652	83
278.884	80
279.115	82
279.347	71
279.579	94
279.81	89
280.042	84
280.273	82
280.505	87
280.736	95
280.968	87
281.199	94
281.431	90
281.662	90
281.894	82
282.125	98
282.356	114
282.588	116
282.819	114
283.051	99
283.282	83
283.513	80
283.745	88
283.976	87
284.207	82
284.439	79
284.67	86
284.901	82
285.132	82
285.364	78
285.595	65
285.826	91
286.057	85
286.288	82
286.52	85
286.751	91
286.982	70
287.213	90
287.444	83
287.675	80
287.906	91
288.138	78
288.369	78
288.6	95
288.831	84
289.062	82
289.293	89
289.524	75
289.755	87
289.986	97
290.217	80
290.448	90
290.679	87
290.91	84
291.141	68
291.371	104
291.602	82
291.833	65
292.064	97
292.295	82
292.526	99
292.757	82
292.987	98
293.218	91
293.449	97
293.68	88
293.91	90
294.141	88
294.372	90
294.603	86
294.833	80
295.064	80
295.295	86
295.525	91
295.756	96
295.987	105
296.217	117
296.448	111
296.679	93
296.909	86
297.14	85
297.37	95
297.601	87
297.831	92
298.062	78
298.292	76
298.523	83
298.753	89
298.984	85
299.214	100
299.445	86
299.675	88
299.905	91
300.136	72
300.366	71
300.597	80
300.827	84
301.057	87
301.288	106
301.518	72
301.748	91
301.979	98
302.209	81
302.439	110
302.669	80
302.9	91
303.13	88
303.36	82
303.59	104
303.82	104
304.051	86
304.281	80
304.511	95
304.741	84
304.971	83
305.201	83
305.431	88
305.661	83
305.891	82
306.121	86
306.352	104
306.582	101
306.812	98
307.042	81
307.272	81
307.502	82
307.731	107
307.961	91
308.191	92
308.421	82
308.651	85
308.881	102
309.111	99
309.341	97
309.571	95
309.8	95
310.03	91
310.26	98
310.49	90
310.72	84
310.949	82
311.179	96
311.409	82
311.639	101
311.868	89
312.098	91
312.328	82
312.557	107
312.787	89
313.017	102
313.246	95
313.476	87
313.706	82
313.935	92
314.165	95
314.394	104
314.624	104
314.853	84
315.083	101
315.312	86
315.542	93
315.771	84
316.001	87
316.23	87
316.46	88
316.689	84
316.919	92
317.148	92
317.377	98
317.607	92
317.836	96
318.065	87
318.295	83
318.524	90
318.753	84
318.983	90
319.212	92
319.441	90
319.67	90
319.9	92
320.129	100
320.358	98
320.587	94
320.816	105
321.046	91
321.275	87
321.504	77
321.733	104
321.962	92
322.191	100
322.42	108
322.649	96
322.878	104
323.108	116
323.337	108
323.566	132
323.795	128
324.024	183
324.253	340
324.482	696
324.71	1404
324.939	1791
325.168	680
325.397	207
325.626	148
325.855	119
326.084	105
326.313	122
326.542	134
326.77	200
326.999	382
327.228	820
327.457	1426
327.686	1131
327.914	303
328.143	176
328.372	135
328.6	118
328.829	102
329.058	120
329.287	115
329.515	99
329.744	110
329.972	92
330.201	101
330.43	95
330.658	124
330.887	108
331.115	115
331.344	94
331.572	101
331.801	99
332.03	80
332.258	96
332.486	96
332.715	83
332.943	107
333.172	95
333.4	99
333.629	81
333.857	110
334.085	96
334.314	95
334.542	103
334.771	90
334.999	93
335.227	90
335.455	90
335.684	96
335.912	76
336.14	78
336.369	88
336.597	104
336.825	99
337.053	95
337.281	105
337.51	78
337.738	91
337.966	92
338.194	98
338.422	111
338.65	86
338.878	95
339.106	88
339.334	95
339.562	99
339.79	91
340.018	92
340.246	87
340.474	88
340.702	96
340.93	99
341.158	85
341.386	87
341.614	97
341.842	78
342.07	90
342.298	97
342.526	90
342.754	88
342.981	95
343.209	89
343.437	92
343.665	98
343.893	80
344.12	103
344.348	87
344.576	82
344.804	94
345.031	93
345.259	95
345.487	97
345.714	102
345.942	96
346.17	94
346.397	90
346.625	93
346.853	94
347.08	78
347.308	86
347.535	92
347.763	89
347.99	93
348.218	96
348.445	94
348.673	85
348.9	103
349.128	97
349.355	102
349.583	88
349.81	89
350.037	85
350.265	99
350.492	94
350.72	82
350.947	100
351.174	117
351.402	99
351.629	102
351.856	107
352.083	104
352.311	96
352.538	117
352.765	105
352.992	108
353.22	117
353.447	99
353.674	97
353.901	95
354.128	98
354.355	99
354.583	91
354.81	99
355.037	102
355.264	96
355.491	98
355.718	74
355.945	97
356.172	95
356.399	103
356.626	92
356.853	92
357.08	100
357.307	90
357.534	93
357.761	89
357.988	96
358.215	85
358.441	88
358.668	103
358.895	92
359.122	99
359.349	94
359.576	87
359.802	91
360.029	98
360.256	99
360.483	95
360.709	94
360.936	78
361.163	61
361.39	85
361.616	82
361.843	81
362.07	75
362.296	82
362.523	83
362.749	89
362.976	97
363.203	90
363.429	104
363.656	103
363.882	88
364.109	90
364.335	79
364.562	98
364.788	88
365.015	90
365.241	86
365.468	108
365.694	98
365.92	97
366.147	84
366.373	84
366.599	79
366.826	89
367.052	88
367.278	98
367.505	90
367.731	86
367.957	83
368.184	73
368.41	88
368.636	100
368.862	99
369.089	102
369.315	87
369.541	88
369.767	87
369.993	85
370.219	86
370.445	105
370.672	84
370.898	91
371.124	85
371.35	84
371.576	88
371.802	88
372.028	81
372.254	90
372.48	82
372.706	89
372.932	86
373.158	77
373.384	94
373.61	91
373.835	84
374.061	83
374.287	82
374.513	103
374.739	94
374.965	89
375.191	98
375.416	84
375.642	100
375.868	73
376.094	90
376.319	79
376.545	86
376.771	98
376.997	86
377.222	85
377.448	71
377.674	90
377.899	88
378.125	73
378.35	82
378.576	96
378.802	89
379.027	94
379.253	103
379.478	88
379.704	97
379.929	100
380.155	103
380.38	85
380.606	101
380.831	95
381.057	115
381.282	97
381.507	98
381.733	93
381.958	114
382.184	98
382.409	103
382.634	102
382.86	97
383.085	100
383.31	96
383.535	101
383.761	99
383.986	107
384.211	102
384.436	92
384.662	91
384.887	103
385.112	111
385.337	105
385.562	102
385.787	91
386.013	106
386.238	110
386.463	107
386.688	115
386.913	109
387.138	112
387.363	126
387.588	113
387.813	111
388.038	118
388.263	129
388.488	118
388.713	99
388.938	103
389.163	86
389.387	89
389.612	90
389.837	82
390.062	89
390.287	91
390.512	96
390.736	104
390.961	83
391.186	92
391.411	88
391.636	89
391.86	76
392.085	75
392.31	74
392.534	76
392.759	83
392.984	82
393.208	91
393.433	106
393.658	102
393.882	93
394.107	78
394.331	78
394.556	74
394.78	94
395.005	96
395.229	89
395.454	83
395.678	95
395.903	87
396.127	78
396.352	85
396.576	96
396.801	99
397.025	87
397.249	90
397.474	86
397.698	100
397.922	90
398.147	77
398.371	78
398.595	78
398.82	90
399.044	93
399.268	81
399.492	85
399.717	82
399.941	92
400.165	86
400.389	81
400.613	79
400.837	99
401.062	79
401.286	81
401.51	87
401.734	79
401.958	95
402.182	123
402.406	143
402.63	105
402.854	95
403.078	74
403.302	88
403.526	75
403.75	85
403.974	71
404.198	95
404.422	85
404.645	90
404.869	76
405.093	81
405.317	97
405.541	101
405.765	94
405.988	104
406.212	136
406.436	191
406.66	130
406.883	96
407.107	78
407.331	93
407.555	89
407.778	90
408.002	77
408.226	91
408.449	94
408.673	92
408.896	95
409.12	86
409.344	86
409.567	81
409.791	80
410.014	95
410.238	84
410.461	104
410.685	99
410.908	96
411.132	102
411.355	103
411.578	95
411.802	94
412.025	83
412.249	99
412.472	88
412.695	89
412.919	82
413.142	78
413.365	98
413.589	91
413.812	101
414.035	87
414.258	86
414.482	73
414.705	86
414.928	94
415.151	82
415.374	81
415.597	86
415.821	89
416.044	89
416.267	87
416.49	94
416.713	92
416.936	89
417.159	95
417.382	86
417.605	88
417.828	95
418.051	110
418.274	91
418.497	89
418.72	95
418.943	80
419.166	86
419.389	75
419.611	87
419.834	74
420.057	74
420.28	87
420.503	104
420.726	88
420.948	76
421.171	94
421.394	82
421.617	95
421.839	104
422.062	79
422.285	98
422.507	99
422.73	103
422.953	102
423.175	85
423.398	91
423.621	103
423.843	82
424.066	91
424.288	94
424.511	82
424.733	96
424.956	106
425.178	100
425.401	89
425.623	90
425.846	98
426.068	83
426.291	111
426.513	87
426.735	88
426.958	90
427.18	100
427.402	123
427.625	136
427.847	112
428.069	90
428.292	97
428.514	86
428.736	76
428.958	75
429.181	77
429.403	87
429.625	95
429.847	85
430.069	114
430.292	87
430.514	90
430.736	98
430.958	91
431.18	78
431.402	93
431.624	92
431.846	88
432.068	88
432.29	78
432.512	91
432.734	86
432.956	107
433.178	98
433.4	100
433.622	85
433.844	75
434.066	102
434.287	97
434.509	82
434.731	102
434.953	90
435.175	81
435.397	86
435.618	99
435.84	94
436.062	115
436.284	100
436.505	85
436.727	101
436.949	91
437.17	82
437.392	86
437.614	85
437.835	106
438.057	111
438.278	102
438.5	88
438.721	114
438.943	108
439.165	84
439.386	77
439.608	84
439.829	94
440.05	108
440.272	133
440.493	88
440.715	80
440.936	91
441.158	101
441.379	89
441.6	95
441.822	94
442.043	82
442.264	108
442.486	84
442.707	87
442.928	108
443.149	117
443.371	121
443.592	126
443.813	101
444.034	97
444.255	100
444.476	85
444.698	92
444.919	89
445.14	129
445.361	115
445.582	113
445.803	131
446.024	127
446.245	122
446.466	100
446.687	79
446.908	70
447.129	88
447.35	87
447.571	105
447.792	96
448.013	102
448.234	95
448.455	101
448.675	104
448.896	91
449.117	108
449.338	92
449.559	123
449.779	125
450	96
450.221	80
450.442	85
450.662	78
450.883	95
451.104	108
451.324	92
451.545	78
451.766	88
451.986	85
452.207	80
452.428	82
452.648	96
452.869	110
453.089	102
453.31	104
453.53	75
453.751	79
453.971	86
454.192	99
454.412	84
454.633	80
454.853	82
455.073	96
455.294	89
455.514	98
455.734	71
455.955	86
456.175	97
456.395	83
456.616	79
456.836	80
457.056	76
457.276	84
457.497	102
457.717	96
457.937	80
458.157	76
458.377	98
458.598	93
458.818	132
459.038	127
459.258	111
459.478	69
459.698	76
459.918	89
460.138	80
460.358	75
460.578	90
460.798	96
461.018	78
461.238	91
461.458	89
461.678	88
461.898	82
462.118	91
462.338	71
462.558	94
462.777	87
462.997	88
463.217	90
463.437	81
463.657	98
463.876	80
464.096	94
464.316	79
464.536	91
464.755	102
464.975	102
465.195	151
465.414	118
465.634	92
465.854	94
466.073	95
466.293	99
466.512	84
466.732	71
466.951	99
467.171	76
467.391	79
467.61	105
467.829	92
468.049	91
468.268	75
468.488	88
468.707	82
468.927	82
469.146	80
469.365	80
469.585	78
469.804	87
470.023	78
470.243	79
470.462	87
470.681	94
470.901	82
471.12	94
471.339	88
471.558	75
471.777	80
471.997	71
472.216	80
472.435	78
472.654	82
472.873	92
473.092	80
473.311	93
473.53	89
473.749	85
473.968	89
474.187	102
474.406	96
474.625	84
474.844	92
475.063	95
475.282	89
475.501	84
475.72	83
475.939	74
476.158	99
476.377	96
476.596	87
476.814	90
477.033	101
477.252	88
477.471	90
477.69	78
477.908	91
478.127	79
478.346	87
478.564	82
478.783	96
479.002	98
479.22	84
479.439	103
479.658	105
479.876	89
480.095	83
480.313	93
480.532	78
480.751	89
480.969	99
481.188	96
481.406	83
481.624	87
481.843	98
482.061	71
482.28	75
482.498	81
482.717	85
482.935	84
483.153	88
483.372	93
483.59	88
483.808	85
484.027	78
484.245	106
484.463	98
484.681	80
484.9	103
485.118	103
485.336	85
485.554	111
485.772	105
485.99	102
486.209	96
486.427	100
486.645	94
486.863	109
487.081	101
487.299	91
487.517	101
487.735	86
487.953	80
488.171	82
488.389	94
488.607	92
488.825	89
489.043	80
489.261	73
489.479	86
489.696	85
489.914	91
490.132	76
490.35	99
490.568	88
490.786	96
491.003	73
491.221	84
491.439	101
491.657	83
491.874	88
492.092	101
492.31	87
492.527	76
492.745	84
492.963	91
493.18	83
493.398	95
493.615	84
493.833	95
494.05	105
494.268	96
494.485	87
494.703	84
494.92	84
495.138	87
495.355	90
495.573	92
495.79	94
496.008	94
496.225	93
496.442	104
496.66	102
496.877	93
497.094	87
497.312	80
497.529	89
497.746	88
497.963	88
498.181	88
498.398	92
498.615	94
498.832	97
499.049	96
499.267	104
499.484	92
499.701	97
499.918	91
500.135	89
500.352	82
500.569	89
500.786	97
501.003	94
501.22	85
501.437	93
501.654	84
501.871	90
502.088	91
502.305	84
502.522	95
502.739	87
502.956	87
503.172	92
503.389	90
503.606	99
503.823	86
504.04	100
504.256	102
504.473	94
504.69	102
504.907	85
505.123	101
505.34	91
505.557	93
505.773	95
505.99	111
506.207	98
506.423	94
506.64	87
506.856	90
507.073	85
507.289	96
507.506	87
507.722	119
507.939	103
508.155	91
508.372	81
508.588	91
508.805	94
509.021	88
509.238	103
509.454	90
509.67	88
509.887	100
510.103	118
510.319	197
510.536	645
510.752	2005
510.968	555
511.184	160
511.401	107
511.617	100
511.833	98
512.049	88
512.265	97
512.481	88
512.698	76
512.914	99
513.13	102
513.346	80
513.562	99
513.778	92
513.994	103
514.21	97
514.426	117
514.642	129
514.858	119
515.074	149
515.29	374
515.506	1168
515.721	422
515.937	149
516.153	99
516.369	105
516.585	89
516.801	74
517.016	83
517.232	93
517.448	96
517.664	83
517.879	99
518.095	105
518.311	100
518.527	81
518.742	86
518.958	97
519.173	99
519.389	98
519.605	94
519.82	88
520.036	101
520.251	105
520.467	93
520.682	105
520.898	107
521.113	90
521.329	127
521.544	162
521.76	459
521.975	1909
522.19	1121
522.406	249
522.621	123
522.836	113
523.052	107
523.267	94
523.482	87
523.698	100
523.913	112
524.128	100
524.343	81
524.559	96
524.774	96
524.989	101
525.204	99
525.419	109
525.634	104
525.849	94
526.064	99
526.28	103
526.495	97
526.71	99
526.925	80
527.14	85
527.355	84
527.57	93
527.785	86
527.999	91
528.214	85
528.429	89
528.644	85
528.859	98
529.074	99
529.289	100
529.503	171
529.718	89
529.933	85
530.148	95
530.363	99
530.577	102
530.792	90
531.007	97
531.221	92
531.436	86
531.651	81
531.865	89
532.08	83
532.295	94
532.509	85
532.724	96
532.938	99
533.153	99
533.367	91
533.582	108
533.796	93
534.011	87
534.225	90
534.44	83
534.654	92
534.868	80
535.083	79
535.297	82
535.511	104
535.726	85
535.94	98
536.154	96
536.369	89
536.583	93
536.797	99
537.011	97
537.225	76
537.44	95
537.654	100
537.868	89
538.082	94
538.296	89
538.51	82
538.724	94
538.938	90
539.153	90
539.367	97
539.581	100
539.795	105
540.009	102
540.222	92
540.436	89
540.65	84
540.864	92
541.078	91
541.292	95
541.506	82
541.72	76
541.934	98
542.147	101
542.361	103
542.575	84
542.789	84
543.002	91
543.216	90
543.43	96
543.644	94
543.857	91
544.071	68
544.285	87
544.498	76
544.712	93
544.925	95
545.139	91
545.352	91
545.566	85
545.779	85
545.993	80
546.206	85
546.42	103
546.633	99
546.847	93
547.06	97
547.274	92
547.487	105
547.7	104
547.914	90
548.127	74
548.34	83
548.554	90
548.767	90
548.98	85
549.193	84
549.407	97
549.62	97
549.833	93
550.046	82
550.259	96
550.473	69
550.686	66
550.899	78
551.112	88
551.325	84
551.538	90
551.751	87
551.964	89
552.177	93
552.39	91
552.603	92
552.816	84
553.029	90
553.242	81
553.455	102
553.667	110
553.88	83
554.093	94
554.306	95
554.519	84
554.732	109
554.944	114
555.157	72
555.37	91
555.583	95
555.795	96
556.008	104
556.221	103
556.433	92
556.646	99
556.859	90
557.071	86
557.284	90
557.496	91
557.709	93
557.921	96
558.134	98
558.346	89
558.559	83
558.771	99
558.984	91
559.196	80
559.409	87
559.621	95
559.833	92
560.046	96
560.258	88
560.47	94
560.683	101
560.895	87
561.107	94
561.32	86
561.532	81
561.744	88
561.956	80
562.168	95
562.381	86
562.593	90
562.805	96
563.017	90
563.229	97
563.441	90
563.653	106
563.865	99
564.077	84
564.289	82
564.501	97
564.713	72
564.925	84
565.137	90
565.349	97
565.561	82
565.773	69
565.985	86
566.197	86
566.408	94
566.62	81
566.832	99
567.044	81
567.255	101
567.467	90
567.679	84
567.891	77
568.102	82
568.314	96
568.526	88
568.737	78
568.949	86
569.161	91
569.372	81
569.584	72
569.795	101
570.007	113
570.218	224
570.43	123
570.641	88
570.853	90
571.064	90
571.276	88
571.487	76
571.698	89
571.91	87
572.121	88
572.333	89
572.544	86
572.755	78
572.966	92
573.178	84
573.389	100
573.6	78
573.811	82
574.023	93
574.234	86
574.445	78
574.656	78
574.867	89
575.078	81
575.289	84
575.501	91
575.712	87
575.923	101
576.134	110
576.345	84
576.556	85
576.767	86
576.978	92
577.188	93
577.399	92
577.61	93
577.821	104
578.032	112
578.243	255
578.454	665
578.665	190
578.875	88
579.086	100
579.297	98
579.508	84
579.718	93
579.929	88
580.14	102
580.35	99
580.561	85
580.772	88
580.982	94
581.193	88
581.403	85
581.614	83
581.825	72
582.035	99
582.246	84
582.456	72
582.667	80
582.877	80
583.087	80
583.298	102
583.508	85
583.719	97
583.929	100
584.139	81
584.35	92
584.56	76
584.77	97
584.981	79
585.191	94
585.401	84
