Data from Uncirc_1983_H10_HRD10591_00020.txt Node
Date: Wed Jan 03 12:25:36 EST 2024
User: Yrep
Spectrometer: HR+D1059
Trigger mode: 1
Integration Time (sec): 1.000000E-1
Scans to average: 1
Electric dark correction enabled: true
Nonlinearity correction enabled: false
Boxcar width: 0
XAxis mode: Wavelengths
Number of Pixels in Spectrum: 2048
>>>>>Begin Spectral Data<<<<<
223.165	-11.62
223.4	-11.62
223.635	-11.62
223.869	-25.62
224.104	-20.62
224.338	-15.62
224.573	-14.62
224.808	-19.62
225.042	-9.62
225.277	-9.62
225.511	10.38
225.746	5.38
225.98	6.38
226.215	1.38
226.449	15.38
226.683	22.38
226.918	20.38
227.152	45.38
227.387	22.38
227.621	45.38
227.856	44.38
228.09	34.38
228.324	57.38
228.559	45.38
228.793	51.38
229.027	61.38
229.262	61.38
229.496	63.38
229.73	70.38
229.964	73.38
230.199	77.38
230.433	65.38
230.667	85.38
230.901	77.38
231.136	63.38
231.37	70.38
231.604	71.38
231.838	86.38
232.072	90.38
232.306	85.38
232.541	73.38
232.775	73.38
233.009	84.38
233.243	92.38
233.477	96.38
233.711	94.38
233.945	94.38
234.179	90.38
234.413	93.38
234.647	88.38
234.881	77.38
235.115	81.38
235.349	82.38
235.583	81.38
235.817	72.38
236.051	81.38
236.285	70.38
236.519	51.38
236.753	62.38
236.987	81.38
237.221	78.38
237.455	85.38
237.689	77.38
237.922	82.38
238.156	73.38
238.39	81.38
238.624	74.38
238.858	83.38
239.091	79.38
239.325	88.38
239.559	84.38
239.793	77.38
240.027	81.38
240.26	78.38
240.494	72.38
240.728	75.38
240.961	78.38
241.195	75.38
241.429	74.38
241.662	76.38
241.896	85.38
242.13	78.38
242.363	83.38
242.597	62.38
242.83	78.38
243.064	78.38
243.298	72.38
243.531	76.38
243.765	78.38
243.998	74.38
244.232	83.38
244.465	82.38
244.699	85.38
244.932	67.38
245.166	76.38
245.399	94.38
245.633	73.38
245.866	81.38
246.099	84.38
246.333	70.38
246.566	77.38
246.8	76.38
247.033	75.38
247.266	79.38
247.5	82.38
247.733	93.38
247.966	83.38
248.2	73.38
248.433	76.38
248.666	66.38
248.899	85.38
249.133	97.38
249.366	100.38
249.599	88.38
249.832	77.38
250.066	79.38
250.299	81.38
250.532	81.38
250.765	85.38
250.998	80.38
251.231	93.38
251.465	73.38
251.698	89.38
251.931	83.38
252.164	89.38
252.397	69.38
252.63	75.38
252.863	77.38
253.096	90.38
253.329	83.38
253.562	71.38
253.795	79.38
254.028	78.38
254.261	84.38
254.494	73.38
254.727	73.38
254.96	96.38
255.193	104.38
255.426	87.38
255.659	87.38
255.892	74.38
256.124	93.38
256.357	89.38
256.59	87.38
256.823	77.38
257.056	75.38
257.289	75.38
257.521	84.38
257.754	85.38
257.987	79.38
258.22	78.38
258.452	77.38
258.685	86.38
258.918	79.38
259.151	82.38
259.383	83.38
259.616	78.38
259.849	83.38
260.081	83.38
260.314	86.38
260.547	98.38
260.779	83.38
261.012	79.38
261.244	88.38
261.477	90.38
261.71	75.38
261.942	101.38
262.175	103.38
262.407	98.38
262.64	92.38
262.872	77.38
263.105	86.38
263.337	71.38
263.57	89.38
263.802	90.38
264.035	90.38
264.267	89.38
264.499	90.38
264.732	86.38
264.964	86.38
265.197	86.38
265.429	70.38
265.661	88.38
265.894	99.38
266.126	97.38
266.358	85.38
266.591	81.38
266.823	91.38
267.055	81.38
267.287	86.38
267.52	88.38
267.752	87.38
267.984	86.38
268.216	77.38
268.448	99.38
268.681	93.38
268.913	83.38
269.145	89.38
269.377	88.38
269.609	84.38
269.841	93.38
270.073	88.38
270.306	95.38
270.538	93.38
270.77	77.38
271.002	91.38
271.234	91.38
271.466	93.38
271.698	85.38
271.93	84.38
272.162	66.38
272.394	90.38
272.626	94.38
272.858	83.38
273.09	91.38
273.322	80.38
273.553	90.38
273.785	96.38
274.017	87.38
274.249	87.38
274.481	93.38
274.713	97.38
274.945	93.38
275.176	71.38
275.408	98.38
275.64	85.38
275.872	85.38
276.104	86.38
276.335	93.38
276.567	96.38
276.799	110.38
277.031	92.38
277.262	89.38
277.494	99.38
277.726	82.38
277.957	87.38
278.189	79.38
278.421	76.38
278.652	85.38
278.884	95.38
279.115	82.38
279.347	91.38
279.579	83.38
279.81	82.38
280.042	93.38
280.273	89.38
280.505	86.38
280.736	93.38
280.968	104.38
281.199	81.38
281.431	87.38
281.662	86.38
281.894	85.38
282.125	97.38
282.356	106.38
282.588	124.38
282.819	95.38
283.051	94.38
283.282	88.38
283.513	97.38
283.745	82.38
283.976	73.38
284.207	76.38
284.439	86.38
284.67	102.38
284.901	94.38
285.132	93.38
285.364	86.38
285.595	91.38
285.826	85.38
286.057	89.38
286.288	81.38
286.52	107.38
286.751	78.38
286.982	89.38
287.213	83.38
287.444	76.38
287.675	91.38
287.906	91.38
288.138	78.38
288.369	81.38
288.6	91.38
288.831	79.38
289.062	92.38
289.293	85.38
289.524	105.38
289.755	89.38
289.986	90.38
290.217	80.38
290.448	82.38
290.679	86.38
290.91	78.38
291.141	93.38
291.371	96.38
291.602	85.38
291.833	86.38
292.064	86.38
292.295	95.38
292.526	89.38
292.757	98.38
292.987	93.38
293.218	76.38
293.449	91.38
293.68	77.38
293.91	81.38
294.141	92.38
294.372	82.38
294.603	95.38
294.833	89.38
295.064	92.38
295.295	77.38
295.525	106.38
295.756	95.38
295.987	100.38
296.217	126.38
296.448	126.38
296.679	103.38
296.909	97.38
297.14	88.38
297.37	87.38
297.601	101.38
297.831	97.38
298.062	83.38
298.292	77.38
298.523	91.38
298.753	85.38
298.984	102.38
299.214	94.38
299.445	74.38
299.675	102.38
299.905	85.38
300.136	84.38
300.366	96.38
300.597	99.38
300.827	101.38
301.057	90.38
301.288	106.38
301.518	93.38
301.748	94.38
301.979	108.38
302.209	79.38
302.439	84.38
302.669	88.38
302.9	99.38
303.13	85.38
303.36	97.38
303.59	96.38
303.82	101.38
304.051	93.38
304.281	77.38
304.511	100.38
304.741	98.38
304.971	86.38
305.201	91.38
305.431	93.38
305.661	88.38
305.891	98.38
306.121	101.38
306.352	94.38
306.582	97.38
306.812	110.38
307.042	89.38
307.272	97.38
307.502	82.38
307.731	101.38
307.961	96.38
308.191	101.38
308.421	75.38
308.651	89.38
308.881	96.38
309.111	99.38
309.341	104.38
309.571	87.38
309.8	92.38
310.03	106.38
310.26	94.38
310.49	91.38
310.72	86.38
310.949	86.38
311.179	85.38
311.409	99.38
311.639	88.38
311.868	94.38
312.098	81.38
312.328	96.38
312.557	111.38
312.787	100.38
313.017	95.38
313.246	99.38
313.476	107.38
313.706	99.38
313.935	83.38
314.165	100.38
314.394	105.38
314.624	98.38
314.853	93.38
315.083	85.38
315.312	81.38
315.542	94.38
315.771	97.38
316.001	89.38
316.23	82.38
316.46	88.38
316.689	100.38
316.919	97.38
317.148	97.38
317.377	102.38
317.607	96.38
317.836	106.38
318.065	75.38
318.295	84.38
318.524	93.38
318.753	96.38
318.983	92.38
319.212	101.38
319.441	98.38
319.67	89.38
319.9	85.38
320.129	92.38
320.358	101.38
320.587	94.38
320.816	86.38
321.046	100.38
321.275	103.38
321.504	88.38
321.733	100.38
321.962	95.38
322.191	91.38
322.42	92.38
322.649	108.38
322.878	115.38
323.108	96.38
323.337	109.38
323.566	122.38
323.795	130.38
324.024	175.38
324.253	294.38
324.482	643.38
324.71	1283.38
324.939	1644.38
325.168	627.38
325.397	205.38
325.626	123.38
325.855	131.38
326.084	115.38
326.313	130.38
326.542	137.38
326.77	189.38
326.999	357.38
327.228	745.38
327.457	1329.38
327.686	1025.38
327.914	297.38
328.143	174.38
328.372	140.38
328.6	105.38
328.829	105.38
329.058	103.38
329.287	110.38
329.515	110.38
329.744	85.38
329.972	102.38
330.201	97.38
330.43	97.38
330.658	104.38
330.887	117.38
331.115	116.38
331.344	81.38
331.572	101.38
331.801	91.38
332.03	94.38
332.258	84.38
332.486	91.38
332.715	89.38
332.943	98.38
333.172	95.38
333.4	99.38
333.629	87.38
333.857	107.38
334.085	88.38
334.314	95.38
334.542	100.38
334.771	91.38
334.999	96.38
335.227	107.38
335.455	104.38
335.684	109.38
335.912	89.38
336.14	105.38
336.369	84.38
336.597	99.38
336.825	90.38
337.053	96.38
337.281	95.38
337.51	89.38
337.738	93.38
337.966	81.38
338.194	85.38
338.422	102.38
338.65	94.38
338.878	79.38
339.106	91.38
339.334	97.38
339.562	95.38
339.79	97.38
340.018	85.38
340.246	94.38
340.474	92.38
340.702	102.38
340.93	98.38
341.158	93.38
341.386	93.38
341.614	104.38
341.842	84.38
342.07	92.38
342.298	106.38
342.526	85.38
342.754	91.38
342.981	97.38
343.209	92.38
343.437	94.38
343.665	93.38
343.893	104.38
344.12	89.38
344.348	83.38
344.576	100.38
344.804	93.38
345.031	96.38
345.259	100.38
345.487	89.38
345.714	85.38
345.942	83.38
346.17	98.38
346.397	92.38
346.625	92.38
346.853	86.38
347.08	92.38
347.308	73.38
347.535	96.38
347.763	116.38
347.99	101.38
348.218	94.38
348.445	101.38
348.673	96.38
348.9	98.38
349.128	102.38
349.355	99.38
349.583	98.38
349.81	75.38
350.037	93.38
350.265	105.38
350.492	101.38
350.72	93.38
350.947	102.38
351.174	107.38
351.402	112.38
351.629	91.38
351.856	96.38
352.083	106.38
352.311	117.38
352.538	97.38
352.765	96.38
352.992	97.38
353.22	103.38
353.447	108.38
353.674	107.38
353.901	82.38
354.128	113.38
354.355	115.38
354.583	100.38
354.81	98.38
355.037	106.38
355.264	99.38
355.491	105.38
355.718	95.38
355.945	116.38
356.172	109.38
356.399	95.38
356.626	97.38
356.853	95.38
357.08	100.38
357.307	95.38
357.534	102.38
357.761	94.38
357.988	100.38
358.215	104.38
358.441	94.38
358.668	91.38
358.895	100.38
359.122	87.38
359.349	75.38
359.576	102.38
359.802	98.38
360.029	89.38
360.256	100.38
360.483	109.38
360.709	91.38
360.936	105.38
361.163	94.38
361.39	100.38
361.616	94.38
361.843	90.38
362.07	106.38
362.296	90.38
362.523	85.38
362.749	96.38
362.976	92.38
363.203	97.38
363.429	95.38
363.656	93.38
363.882	90.38
364.109	97.38
364.335	90.38
364.562	90.38
364.788	84.38
365.015	93.38
365.241	97.38
365.468	98.38
365.694	100.38
365.92	101.38
366.147	96.38
366.373	84.38
366.599	58.38
366.826	90.38
367.052	94.38
367.278	90.38
367.505	94.38
367.731	103.38
367.957	90.38
368.184	88.38
368.41	106.38
368.636	109.38
368.862	114.38
369.089	108.38
369.315	87.38
369.541	81.38
369.767	97.38
369.993	99.38
370.219	82.38
370.445	85.38
370.672	64.38
370.898	76.38
371.124	93.38
371.35	91.38
371.576	85.38
371.802	100.38
372.028	84.38
372.254	100.38
372.48	94.38
372.706	104.38
372.932	94.38
373.158	89.38
373.384	97.38
373.61	85.38
373.835	85.38
374.061	92.38
374.287	91.38
374.513	89.38
374.739	108.38
374.965	98.38
375.191	89.38
375.416	102.38
375.642	94.38
375.868	111.38
376.094	89.38
376.319	86.38
376.545	100.38
376.771	88.38
376.997	99.38
377.222	96.38
377.448	87.38
377.674	83.38
377.899	103.38
378.125	97.38
378.35	95.38
378.576	97.38
378.802	85.38
379.027	87.38
379.253	99.38
379.478	103.38
379.704	106.38
379.929	101.38
380.155	84.38
380.38	89.38
380.606	89.38
380.831	99.38
381.057	111.38
381.282	99.38
381.507	103.38
381.733	101.38
381.958	95.38
382.184	106.38
382.409	103.38
382.634	102.38
382.86	103.38
383.085	106.38
383.31	111.38
383.535	98.38
383.761	110.38
383.986	109.38
384.211	99.38
384.436	99.38
384.662	100.38
384.887	107.38
385.112	113.38
385.337	97.38
385.562	106.38
385.787	109.38
386.013	100.38
386.238	110.38
386.463	105.38
386.688	113.38
386.913	109.38
387.138	109.38
387.363	106.38
387.588	98.38
387.813	129.38
388.038	110.38
388.263	108.38
388.488	102.38
388.713	97.38
388.938	91.38
389.163	93.38
389.387	98.38
389.612	78.38
389.837	76.38
390.062	90.38
390.287	94.38
390.512	93.38
390.736	106.38
390.961	111.38
391.186	89.38
391.411	105.38
391.636	95.38
391.86	76.38
392.085	88.38
392.31	89.38
392.534	87.38
392.759	86.38
392.984	92.38
393.208	111.38
393.433	99.38
393.658	111.38
393.882	94.38
394.107	90.38
394.331	69.38
394.556	89.38
394.78	91.38
395.005	104.38
395.229	89.38
395.454	87.38
395.678	87.38
395.903	93.38
396.127	92.38
396.352	83.38
396.576	93.38
396.801	92.38
397.025	98.38
397.249	87.38
397.474	92.38
397.698	89.38
397.922	81.38
398.147	99.38
398.371	82.38
398.595	91.38
398.82	100.38
399.044	89.38
399.268	89.38
399.492	95.38
399.717	80.38
399.941	94.38
400.165	95.38
400.389	94.38
400.613	93.38
400.837	74.38
401.062	81.38
401.286	108.38
401.51	100.38
401.734	93.38
401.958	107.38
402.182	109.38
402.406	155.38
402.63	93.38
402.854	93.38
403.078	82.38
403.302	85.38
403.526	93.38
403.75	99.38
403.974	96.38
404.198	85.38
404.422	93.38
404.645	74.38
404.869	96.38
405.093	89.38
405.317	93.38
405.541	94.38
405.765	97.38
405.988	105.38
406.212	144.38
406.436	169.38
406.66	122.38
406.883	69.38
407.107	96.38
407.331	75.38
407.555	95.38
407.778	90.38
408.002	85.38
408.226	97.38
408.449	84.38
408.673	85.38
408.896	86.38
409.12	101.38
409.344	69.38
409.567	85.38
409.791	102.38
410.014	87.38
410.238	75.38
410.461	82.38
410.685	88.38
410.908	102.38
411.132	95.38
411.355	90.38
411.578	86.38
411.802	98.38
412.025	88.38
412.249	95.38
412.472	88.38
412.695	101.38
412.919	94.38
413.142	101.38
413.365	83.38
413.589	98.38
413.812	95.38
414.035	87.38
414.258	84.38
414.482	81.38
414.705	92.38
414.928	101.38
415.151	88.38
415.374	96.38
415.597	84.38
415.821	88.38
416.044	89.38
416.267	95.38
416.49	86.38
416.713	89.38
416.936	91.38
417.159	87.38
417.382	81.38
417.605	99.38
417.828	89.38
418.051	103.38
418.274	87.38
418.497	97.38
418.72	101.38
418.943	90.38
419.166	78.38
419.389	100.38
419.611	94.38
419.834	94.38
420.057	84.38
420.28	87.38
420.503	94.38
420.726	92.38
420.948	83.38
421.171	84.38
421.394	95.38
421.617	106.38
421.839	88.38
422.062	102.38
422.285	99.38
422.507	93.38
422.73	113.38
422.953	101.38
423.175	106.38
423.398	92.38
423.621	95.38
423.843	94.38
424.066	83.38
424.288	86.38
424.511	101.38
424.733	88.38
424.956	86.38
425.178	92.38
425.401	92.38
425.623	88.38
425.846	93.38
426.068	88.38
426.291	89.38
426.513	105.38
426.735	102.38
426.958	101.38
427.18	100.38
427.402	120.38
427.625	129.38
427.847	117.38
428.069	89.38
428.292	75.38
428.514	86.38
428.736	85.38
428.958	81.38
429.181	93.38
429.403	92.38
429.625	85.38
429.847	95.38
430.069	100.38
430.292	91.38
430.514	79.38
430.736	89.38
430.958	82.38
431.18	80.38
431.402	99.38
431.624	94.38
431.846	73.38
432.068	93.38
432.29	87.38
432.512	86.38
432.734	90.38
432.956	99.38
433.178	94.38
433.4	105.38
433.622	89.38
433.844	101.38
434.066	87.38
434.287	94.38
434.509	88.38
434.731	93.38
434.953	96.38
435.175	88.38
435.397	95.38
435.618	86.38
435.84	82.38
436.062	108.38
436.284	114.38
436.505	94.38
436.727	102.38
436.949	101.38
437.17	93.38
437.392	83.38
437.614	97.38
437.835	91.38
438.057	105.38
438.278	101.38
438.5	98.38
438.721	101.38
438.943	92.38
439.165	88.38
439.386	101.38
439.608	95.38
439.829	95.38
440.05	124.38
440.272	128.38
440.493	96.38
440.715	81.38
440.936	96.38
441.158	83.38
441.379	90.38
441.6	87.38
441.822	85.38
442.043	99.38
442.264	99.38
442.486	94.38
442.707	91.38
442.928	111.38
443.149	122.38
443.371	110.38
443.592	97.38
443.813	101.38
444.034	104.38
444.255	116.38
444.476	79.38
444.698	74.38
444.919	89.38
445.14	123.38
445.361	117.38
445.582	104.38
445.803	124.38
446.024	112.38
446.245	117.38
446.466	84.38
446.687	89.38
446.908	94.38
447.129	88.38
447.35	85.38
447.571	96.38
447.792	100.38
448.013	93.38
448.234	104.38
448.455	101.38
448.675	105.38
448.896	113.38
449.117	87.38
449.338	108.38
449.559	106.38
449.779	113.38
450	82.38
450.221	91.38
450.442	89.38
450.662	97.38
450.883	94.38
451.104	105.38
451.324	102.38
451.545	93.38
451.766	105.38
451.986	98.38
452.207	84.38
452.428	77.38
452.648	99.38
452.869	90.38
453.089	105.38
453.31	101.38
453.53	82.38
453.751	94.38
453.971	98.38
454.192	90.38
454.412	85.38
454.633	71.38
454.853	82.38
455.073	95.38
455.294	98.38
455.514	91.38
455.734	94.38
455.955	90.38
456.175	82.38
456.395	85.38
456.616	83.38
456.836	78.38
457.056	86.38
457.276	85.38
457.497	94.38
457.717	97.38
457.937	94.38
458.157	92.38
458.377	104.38
458.598	85.38
458.818	133.38
459.038	131.38
459.258	102.38
459.478	92.38
459.698	82.38
459.918	86.38
460.138	82.38
460.358	99.38
460.578	85.38
460.798	91.38
461.018	81.38
461.238	92.38
461.458	94.38
461.678	76.38
461.898	89.38
462.118	86.38
462.338	86.38
462.558	89.38
462.777	90.38
462.997	79.38
463.217	89.38
463.437	94.38
463.657	86.38
463.876	61.38
464.096	86.38
464.316	97.38
464.536	96.38
464.755	93.38
464.975	93.38
465.195	137.38
465.414	123.38
465.634	85.38
465.854	94.38
466.073	85.38
466.293	114.38
466.512	78.38
466.732	95.38
466.951	89.38
467.171	79.38
467.391	90.38
467.61	107.38
467.829	82.38
468.049	85.38
468.268	87.38
468.488	93.38
468.707	73.38
468.927	87.38
469.146	80.38
469.365	87.38
469.585	93.38
469.804	101.38
470.023	94.38
470.243	85.38
470.462	100.38
470.681	93.38
470.901	104.38
471.12	82.38
471.339	91.38
471.558	105.38
471.777	97.38
471.997	97.38
472.216	84.38
472.435	100.38
472.654	82.38
472.873	96.38
473.092	81.38
473.311	89.38
473.53	86.38
473.749	95.38
473.968	95.38
474.187	100.38
474.406	83.38
474.625	72.38
474.844	77.38
475.063	82.38
475.282	85.38
475.501	92.38
475.72	88.38
475.939	87.38
476.158	93.38
476.377	92.38
476.596	75.38
476.814	91.38
477.033	89.38
477.252	91.38
477.471	76.38
477.69	104.38
477.908	92.38
478.127	102.38
478.346	85.38
478.564	94.38
478.783	93.38
479.002	88.38
479.22	84.38
479.439	101.38
479.658	104.38
479.876	103.38
480.095	90.38
480.313	90.38
480.532	89.38
480.751	96.38
480.969	94.38
481.188	106.38
481.406	90.38
481.624	85.38
481.843	95.38
482.061	78.38
482.28	93.38
482.498	81.38
482.717	82.38
482.935	89.38
483.153	92.38
483.372	84.38
483.59	100.38
483.808	106.38
484.027	88.38
484.245	84.38
484.463	79.38
484.681	85.38
484.9	89.38
485.118	98.38
485.336	97.38
485.554	102.38
485.772	104.38
485.99	101.38
486.209	100.38
486.427	107.38
486.645	108.38
486.863	103.38
487.081	93.38
487.299	89.38
487.517	102.38
487.735	91.38
487.953	77.38
488.171	92.38
488.389	83.38
488.607	94.38
488.825	98.38
489.043	83.38
489.261	94.38
489.479	81.38
489.696	93.38
489.914	85.38
490.132	87.38
490.35	97.38
490.568	86.38
490.786	92.38
491.003	93.38
491.221	95.38
491.439	79.38
491.657	89.38
491.874	89.38
492.092	92.38
492.31	78.38
492.527	99.38
492.745	93.38
492.963	92.38
493.18	83.38
493.398	87.38
493.615	99.38
493.833	102.38
494.05	90.38
494.268	105.38
494.485	89.38
494.703	95.38
494.92	89.38
495.138	85.38
495.355	95.38
495.573	90.38
495.79	79.38
496.008	93.38
496.225	102.38
496.442	90.38
496.66	95.38
496.877	92.38
497.094	83.38
497.312	104.38
497.529	73.38
497.746	83.38
497.963	85.38
498.181	77.38
498.398	93.38
498.615	99.38
498.832	95.38
499.049	92.38
499.267	96.38
499.484	88.38
499.701	107.38
499.918	107.38
500.135	87.38
500.352	90.38
500.569	90.38
500.786	99.38
501.003	87.38
501.22	85.38
501.437	78.38
501.654	86.38
501.871	95.38
502.088	76.38
502.305	97.38
502.522	97.38
502.739	97.38
502.956	93.38
503.172	89.38
503.389	105.38
503.606	94.38
503.823	99.38
504.04	95.38
504.256	90.38
504.473	88.38
504.69	96.38
504.907	94.38
505.123	74.38
505.34	97.38
505.557	81.38
505.773	98.38
505.99	96.38
506.207	81.38
506.423	68.38
506.64	101.38
506.856	83.38
507.073	100.38
507.289	100.38
507.506	91.38
507.722	100.38
507.939	98.38
508.155	105.38
508.372	100.38
508.588	84.38
508.805	94.38
509.021	92.38
509.238	89.38
509.454	93.38
509.67	97.38
509.887	95.38
510.103	128.38
510.319	181.38
510.536	593.38
510.752	1772.38
510.968	503.38
511.184	137.38
511.401	103.38
511.617	94.38
511.833	92.38
512.049	91.38
512.265	97.38
512.481	91.38
512.698	88.38
512.914	87.38
513.13	90.38
513.346	102.38
513.562	106.38
513.778	103.38
513.994	96.38
514.21	95.38
514.426	115.38
514.642	106.38
514.858	109.38
515.074	133.38
515.29	329.38
515.506	1032.38
515.721	399.38
