Data from Uncirc_1983_H10_HRD10591_00033.txt Node
Date: Wed Jan 03 12:25:38 EST 2024
User: Yrep
Spectrometer: HR+D1059
Trigger mode: 1
Integration Time (sec): 1.000000E-1
Scans to average: 1
Electric dark correction enabled: true
Nonlinearity correction enabled: false
Boxcar width: 0
XAxis mode: Wavelengths
Number of Pixels in Spectrum: 2048
>>>>>Begin Spectral Data<<<<<
223.165	-14.31
223.4	-14.31
223.635	-14.31
223.869	-26.31
224.104	-14.31
224.338	-7.31
224.573	-15.31
224.808	-7.31
225.042	-10.31
225.277	-12.31
225.511	0.69
225.746	-1.31
225.98	-5.31
226.215	8.69
226.449	18.69
226.683	25.69
226.918	16.69
227.152	43.69
227.387	29.69
227.621	32.69
227.856	44.69
228.09	33.69
228.324	60.69
228.559	47.69
228.793	55.69
229.027	56.69
229.262	60.69
229.496	71.69
229.73	72.69
229.964	75.69
230.199	74.69
230.433	73.69
230.667	81.69
230.901	75.69
231.136	69.69
231.37	77.69
231.604	73.69
231.838	69.69
232.072	65.69
232.306	80.69
232.541	74.69
232.775	76.69
233.009	87.69
233.243	79.69
233.477	74.69
233.711	95.69
233.945	71.69
234.179	68.69
234.413	78.69
234.647	87.69
234.881	72.69
235.115	83.69
235.349	85.69
235.583	98.69
235.817	80.69
236.051	74.69
236.285	88.69
236.519	73.69
236.753	62.69
236.987	82.69
237.221	79.69
237.455	76.69
237.689	83.69
237.922	83.69
238.156	89.69
238.39	76.69
238.624	91.69
238.858	83.69
239.091	67.69
239.325	82.69
239.559	91.69
239.793	75.69
240.027	73.69
240.26	68.69
240.494	67.69
240.728	53.69
240.961	81.69
241.195	75.69
241.429	93.69
241.662	83.69
241.896	68.69
242.13	83.69
242.363	82.69
242.597	62.69
242.83	90.69
243.064	91.69
243.298	79.69
243.531	64.69
243.765	72.69
243.998	88.69
244.232	92.69
244.465	97.69
244.699	84.69
244.932	76.69
245.166	87.69
245.399	83.69
245.633	89.69
245.866	89.69
246.099	93.69
246.333	84.69
246.566	67.69
246.8	65.69
247.033	72.69
247.266	87.69
247.5	76.69
247.733	91.69
247.966	80.69
248.2	83.69
248.433	72.69
248.666	79.69
248.899	86.69
249.133	85.69
249.366	101.69
249.599	76.69
249.832	83.69
250.066	84.69
250.299	74.69
250.532	85.69
250.765	82.69
250.998	73.69
251.231	70.69
251.465	71.69
251.698	81.69
251.931	68.69
252.164	67.69
252.397	67.69
252.63	84.69
252.863	73.69
253.096	86.69
253.329	58.69
253.562	79.69
253.795	71.69
254.028	86.69
254.261	72.69
254.494	88.69
254.727	88.69
254.96	88.69
255.193	79.69
255.426	64.69
255.659	64.69
255.892	80.69
256.124	78.69
256.357	81.69
256.59	81.69
256.823	83.69
257.056	87.69
257.289	91.69
257.521	79.69
257.754	86.69
257.987	79.69
258.22	93.69
258.452	84.69
258.685	82.69
258.918	90.69
259.151	75.69
259.383	82.69
259.616	79.69
259.849	85.69
260.081	77.69
260.314	66.69
260.547	77.69
260.779	85.69
261.012	89.69
261.244	64.69
261.477	81.69
261.71	85.69
261.942	115.69
262.175	114.69
262.407	90.69
262.64	92.69
262.872	81.69
263.105	76.69
263.337	71.69
263.57	81.69
263.802	89.69
264.035	85.69
264.267	79.69
264.499	71.69
264.732	87.69
264.964	77.69
265.197	75.69
265.429	90.69
265.661	83.69
265.894	92.69
266.126	85.69
266.358	72.69
266.591	95.69
266.823	87.69
267.055	65.69
267.287	85.69
267.52	75.69
267.752	83.69
267.984	81.69
268.216	96.69
268.448	91.69
268.681	83.69
268.913	83.69
269.145	77.69
269.377	95.69
269.609	79.69
269.841	100.69
270.073	79.69
270.306	101.69
270.538	84.69
270.77	70.69
271.002	87.69
271.234	99.69
271.466	76.69
271.698	81.69
271.93	75.69
272.162	89.69
272.394	90.69
272.626	81.69
272.858	93.69
273.09	87.69
273.322	81.69
273.553	74.69
273.785	75.69
274.017	91.69
274.249	90.69
274.481	88.69
274.713	81.69
274.945	103.69
275.176	87.69
275.408	85.69
275.64	95.69
275.872	81.69
276.104	83.69
276.335	99.69
276.567	110.69
276.799	94.69
277.031	106.69
277.262	96.69
277.494	79.69
277.726	95.69
277.957	84.69
278.189	96.69
278.421	79.69
278.652	89.69
278.884	81.69
279.115	87.69
279.347	77.69
279.579	83.69
279.81	91.69
280.042	86.69
280.273	72.69
280.505	82.69
280.736	75.69
280.968	97.69
281.199	85.69
281.431	85.69
281.662	88.69
281.894	98.69
282.125	90.69
282.356	112.69
282.588	123.69
282.819	118.69
283.051	73.69
283.282	79.69
283.513	110.69
283.745	95.69
283.976	83.69
284.207	97.69
284.439	96.69
284.67	97.69
284.901	89.69
285.132	72.69
285.364	76.69
285.595	73.69
285.826	75.69
286.057	93.69
286.288	76.69
286.52	67.69
286.751	87.69
286.982	83.69
287.213	93.69
287.444	94.69
287.675	81.69
287.906	96.69
288.138	91.69
288.369	87.69
288.6	95.69
288.831	74.69
289.062	84.69
289.293	85.69
289.524	87.69
289.755	87.69
289.986	85.69
290.217	84.69
290.448	82.69
290.679	89.69
290.91	93.69
291.141	106.69
291.371	85.69
291.602	89.69
291.833	79.69
292.064	79.69
292.295	92.69
292.526	96.69
292.757	92.69
292.987	81.69
293.218	69.69
293.449	95.69
293.68	84.69
293.91	81.69
294.141	88.69
294.372	81.69
294.603	76.69
294.833	98.69
295.064	87.69
295.295	81.69
295.525	80.69
295.756	97.69
295.987	105.69
296.217	131.69
296.448	133.69
296.679	105.69
296.909	90.69
297.14	93.69
297.37	94.69
297.601	99.69
297.831	83.69
298.062	80.69
298.292	94.69
298.523	89.69
298.753	77.69
298.984	88.69
299.214	92.69
299.445	80.69
299.675	104.69
299.905	89.69
300.136	85.69
300.366	104.69
300.597	91.69
300.827	92.69
301.057	90.69
301.288	99.69
301.518	87.69
301.748	77.69
301.979	112.69
302.209	96.69
302.439	79.69
302.669	83.69
302.9	95.69
303.13	91.69
303.36	85.69
303.59	100.69
303.82	101.69
304.051	95.69
304.281	85.69
304.511	92.69
304.741	83.69
304.971	79.69
305.201	92.69
305.431	95.69
305.661	92.69
305.891	91.69
306.121	88.69
306.352	105.69
306.582	108.69
306.812	89.69
307.042	90.69
307.272	98.69
307.502	85.69
307.731	85.69
307.961	97.69
308.191	90.69
308.421	91.69
308.651	96.69
308.881	96.69
309.111	88.69
309.341	93.69
309.571	100.69
309.8	83.69
310.03	113.69
310.26	95.69
310.49	79.69
310.72	100.69
310.949	91.69
311.179	87.69
311.409	88.69
311.639	104.69
311.868	101.69
312.098	105.69
312.328	93.69
312.557	98.69
312.787	116.69
313.017	99.69
313.246	91.69
313.476	93.69
313.706	88.69
313.935	92.69
314.165	96.69
314.394	108.69
314.624	88.69
314.853	98.69
315.083	100.69
315.312	84.69
315.542	76.69
315.771	81.69
316.001	96.69
316.23	85.69
316.46	83.69
316.689	96.69
316.919	91.69
317.148	99.69
317.377	95.69
317.607	90.69
317.836	85.69
318.065	97.69
318.295	92.69
318.524	86.69
318.753	102.69
318.983	98.69
319.212	106.69
319.441	97.69
319.67	103.69
319.9	89.69
320.129	91.69
320.358	102.69
320.587	90.69
320.816	105.69
321.046	85.69
321.275	98.69
321.504	92.69
321.733	96.69
321.962	90.69
322.191	99.69
322.42	86.69
322.649	102.69
322.878	89.69
323.108	122.69
323.337	112.69
323.566	113.69
323.795	123.69
324.024	204.69
324.253	340.69
324.482	738.69
324.71	1490.69
324.939	2001.69
325.168	722.69
325.397	222.69
325.626	146.69
325.855	143.69
326.084	114.69
326.313	125.69
326.542	145.69
326.77	220.69
326.999	416.69
327.228	842.69
327.457	1555.69
327.686	1231.69
327.914	340.69
328.143	191.69
328.372	143.69
328.6	116.69
328.829	109.69
329.058	104.69
329.287	124.69
329.515	101.69
329.744	104.69
329.972	91.69
330.201	116.69
330.43	108.69
330.658	115.69
330.887	117.69
331.115	117.69
331.344	89.69
331.572	91.69
331.801	91.69
332.03	100.69
332.258	93.69
332.486	93.69
332.715	89.69
332.943	95.69
333.172	89.69
333.4	83.69
333.629	81.69
333.857	120.69
334.085	107.69
334.314	101.69
334.542	111.69
334.771	101.69
334.999	90.69
335.227	97.69
335.455	97.69
335.684	91.69
335.912	109.69
336.14	87.69
336.369	109.69
336.597	104.69
336.825	90.69
337.053	90.69
337.281	107.69
337.51	86.69
337.738	105.69
337.966	92.69
338.194	92.69
338.422	99.69
338.65	93.69
338.878	81.69
339.106	73.69
339.334	86.69
339.562	82.69
339.79	95.69
340.018	87.69
340.246	76.69
340.474	95.69
340.702	86.69
340.93	100.69
341.158	97.69
341.386	91.69
341.614	108.69
341.842	85.69
342.07	84.69
342.298	90.69
342.526	89.69
342.754	89.69
342.981	82.69
343.209	84.69
343.437	104.69
343.665	85.69
343.893	89.69
344.12	94.69
344.348	83.69
344.576	91.69
344.804	81.69
345.031	104.69
345.259	97.69
345.487	101.69
345.714	96.69
345.942	84.69
346.17	92.69
346.397	88.69
346.625	95.69
346.853	88.69
347.08	86.69
347.308	97.69
347.535	111.69
347.763	86.69
347.99	101.69
348.218	94.69
348.445	99.69
348.673	90.69
348.9	88.69
349.128	102.69
349.355	87.69
349.583	99.69
349.81	89.69
350.037	83.69
350.265	83.69
350.492	85.69
350.72	101.69
350.947	91.69
351.174	118.69
351.402	107.69
351.629	114.69
351.856	103.69
352.083	91.69
352.311	104.69
352.538	99.69
352.765	114.69
352.992	123.69
353.22	117.69
353.447	104.69
353.674	99.69
353.901	97.69
354.128	95.69
354.355	88.69
354.583	81.69
354.81	103.69
355.037	97.69
355.264	87.69
355.491	109.69
355.718	101.69
355.945	103.69
356.172	92.69
356.399	93.69
356.626	84.69
356.853	86.69
357.08	105.69
357.307	96.69
357.534	89.69
357.761	79.69
357.988	90.69
358.215	111.69
358.441	104.69
358.668	97.69
358.895	89.69
359.122	90.69
359.349	98.69
359.576	89.69
359.802	112.69
360.029	100.69
360.256	105.69
360.483	107.69
360.709	87.69
360.936	89.69
361.163	92.69
361.39	92.69
361.616	97.69
361.843	85.69
362.07	87.69
362.296	80.69
362.523	85.69
362.749	88.69
362.976	88.69
363.203	95.69
363.429	96.69
363.656	86.69
363.882	88.69
364.109	86.69
364.335	80.69
364.562	101.69
364.788	85.69
365.015	92.69
365.241	90.69
365.468	95.69
365.694	109.69
365.92	97.69
366.147	92.69
366.373	83.69
366.599	70.69
366.826	79.69
367.052	86.69
367.278	83.69
367.505	83.69
367.731	85.69
367.957	99.69
368.184	73.69
368.41	104.69
368.636	117.69
368.862	116.69
369.089	109.69
369.315	86.69
369.541	85.69
369.767	87.69
369.993	93.69
370.219	92.69
370.445	67.69
370.672	89.69
370.898	89.69
371.124	81.69
371.35	86.69
371.576	83.69
371.802	93.69
372.028	87.69
372.254	86.69
372.48	84.69
372.706	92.69
372.932	95.69
373.158	86.69
373.384	91.69
373.61	92.69
373.835	104.69
374.061	83.69
374.287	86.69
374.513	87.69
374.739	98.69
374.965	88.69
375.191	95.69
375.416	89.69
375.642	91.69
375.868	91.69
376.094	90.69
376.319	82.69
376.545	66.69
376.771	85.69
376.997	95.69
377.222	97.69
377.448	94.69
377.674	85.69
377.899	89.69
378.125	92.69
378.35	80.69
378.576	83.69
378.802	96.69
379.027	86.69
379.253	95.69
379.478	93.69
379.704	81.69
379.929	96.69
380.155	97.69
380.38	93.69
380.606	90.69
380.831	101.69
381.057	101.69
381.282	85.69
381.507	88.69
381.733	92.69
381.958	98.69
382.184	99.69
382.409	102.69
382.634	103.69
382.86	97.69
383.085	99.69
383.31	98.69
383.535	88.69
383.761	103.69
383.986	100.69
384.211	87.69
384.436	95.69
384.662	92.69
384.887	109.69
385.112	108.69
385.337	90.69
385.562	96.69
385.787	116.69
386.013	98.69
386.238	119.69
386.463	101.69
386.688	110.69
386.913	85.69
387.138	107.69
387.363	112.69
387.588	105.69
387.813	97.69
388.038	98.69
388.263	105.69
388.488	100.69
388.713	108.69
388.938	92.69
389.163	96.69
389.387	102.69
389.612	99.69
389.837	99.69
390.062	93.69
390.287	85.69
390.512	93.69
390.736	101.69
390.961	83.69
391.186	104.69
391.411	88.69
391.636	88.69
391.86	95.69
392.085	83.69
392.31	81.69
392.534	89.69
392.759	80.69
392.984	103.69
393.208	85.69
393.433	99.69
393.658	101.69
393.882	82.69
394.107	90.69
394.331	83.69
394.556	83.69
394.78	94.69
395.005	89.69
395.229	91.69
395.454	99.69
395.678	74.69
395.903	91.69
396.127	81.69
396.352	77.69
396.576	106.69
396.801	98.69
397.025	89.69
397.249	90.69
397.474	95.69
397.698	87.69
397.922	83.69
398.147	85.69
398.371	81.69
398.595	96.69
398.82	102.69
399.044	83.69
399.268	89.69
399.492	90.69
399.717	84.69
399.941	91.69
400.165	92.69
400.389	93.69
400.613	83.69
400.837	73.69
401.062	99.69
401.286	80.69
401.51	90.69
401.734	81.69
401.958	98.69
402.182	120.69
402.406	161.69
402.63	113.69
402.854	89.69
403.078	96.69
403.302	92.69
403.526	89.69
403.75	73.69
403.974	90.69
404.198	89.69
404.422	86.69
404.645	83.69
404.869	82.69
405.093	99.69
405.317	94.69
405.541	86.69
405.765	92.69
405.988	124.69
406.212	174.69
406.436	200.69
406.66	124.69
406.883	97.69
407.107	91.69
407.331	79.69
407.555	84.69
407.778	102.69
408.002	92.69
408.226	89.69
408.449	88.69
408.673	96.69
408.896	90.69
409.12	84.69
409.344	89.69
409.567	91.69
409.791	95.69
410.014	96.69
410.238	103.69
410.461	88.69
410.685	81.69
410.908	107.69
411.132	87.69
411.355	99.69
411.578	96.69
411.802	83.69
412.025	95.69
412.249	84.69
412.472	98.69
412.695	87.69
412.919	100.69
413.142	92.69
413.365	84.69
413.589	92.69
413.812	88.69
414.035	83.69
414.258	81.69
414.482	94.69
414.705	85.69
414.928	102.69
415.151	84.69
415.374	96.69
415.597	84.69
415.821	68.69
416.044	85.69
416.267	67.69
416.49	105.69
416.713	95.69
416.936	95.69
417.159	89.69
417.382	85.69
417.605	93.69
417.828	86.69
418.051	90.69
418.274	75.69
418.497	91.69
418.72	98.69
418.943	85.69
419.166	102.69
419.389	86.69
419.611	80.69
419.834	83.69
420.057	88.69
420.28	92.69
420.503	96.69
420.726	89.69
420.948	95.69
421.171	92.69
421.394	75.69
421.617	99.69
421.839	96.69
422.062	95.69
422.285	104.69
422.507	87.69
422.73	95.69
422.953	101.69
423.175	97.69
423.398	82.69
423.621	97.69
423.843	86.69
424.066	82.69
424.288	87.69
424.511	87.69
424.733	102.69
424.956	99.69
425.178	105.69
425.401	112.69
425.623	104.69
425.846	98.69
426.068	98.69
426.291	94.69
426.513	88.69
426.735	93.69
426.958	94.69
427.18	95.69
427.402	119.69
427.625	143.69
427.847	119.69
428.069	103.69
428.292	80.69
428.514	85.69
428.736	88.69
428.958	69.69
429.181	83.69
429.403	87.69
429.625	80.69
429.847	103.69
430.069	99.69
430.292	84.69
430.514	85.69
430.736	86.69
430.958	91.69
431.18	87.69
431.402	85.69
431.624	87.69
431.846	100.69
432.068	92.69
432.29	96.69
432.512	88.69
432.734	80.69
432.956	83.69
433.178	103.69
433.4	105.69
433.622	105.69
433.844	85.69
434.066	95.69
434.287	82.69
434.509	95.69
434.731	102.69
434.953	88.69
435.175	83.69
435.397	94.69
435.618	88.69
435.84	101.69
436.062	105.69
436.284	115.69
436.505	101.69
436.727	107.69
436.949	88.69
437.17	75.69
437.392	104.69
437.614	96.69
437.835	100.69
438.057	106.69
438.278	106.69
438.5	98.69
438.721	105.69
438.943	103.69
439.165	92.69
439.386	91.69
439.608	90.69
439.829	91.69
440.05	109.69
440.272	123.69
440.493	87.69
440.715	86.69
440.936	95.69
441.158	95.69
441.379	88.69
441.6	101.69
441.822	98.69
442.043	79.69
442.264	114.69
442.486	90.69
442.707	85.69
442.928	92.69
443.149	116.69
443.371	130.69
443.592	89.69
443.813	93.69
444.034	103.69
444.255	83.69
444.476	84.69
444.698	86.69
444.919	81.69
445.14	115.69
445.361	115.69
445.582	113.69
445.803	119.69
446.024	127.69
446.245	128.69
446.466	107.69
446.687	90.69
446.908	93.69
447.129	94.69
447.35	87.69
447.571	83.69
447.792	85.69
448.013	84.69
448.234	99.69
448.455	91.69
448.675	103.69
448.896	114.69
449.117	104.69
449.338	103.69
449.559	123.69
449.779	116.69
450	90.69
450.221	89.69
450.442	83.69
450.662	93.69
450.883	106.69
451.104	116.69
451.324	88.69
451.545	85.69
451.766	95.69
451.986	95.69
452.207	97.69
452.428	83.69
452.648	96.69
452.869	117.69
453.089	115.69
453.31	108.69
453.53	93.69
453.751	79.69
453.971	109.69
454.192	104.69
454.412	87.69
454.633	77.69
454.853	96.69
455.073	71.69
455.294	83.69
455.514	99.69
455.734	85.69
455.955	80.69
456.175	84.69
456.395	97.69
456.616	93.69
456.836	80.69
457.056	72.69
457.276	85.69
457.497	101.69
457.717	70.69
457.937	87.69
458.157	96.69
458.377	84.69
458.598	90.69
458.818	135.69
459.038	140.69
459.258	104.69
459.478	88.69
459.698	99.69
459.918	95.69
460.138	100.69
460.358	77.69
460.578	92.69
460.798	103.69
461.018	87.69
461.238	88.69
461.458	84.69
461.678	84.69
461.898	96.69
462.118	87.69
462.338	83.69
462.558	89.69
462.777	66.69
462.997	84.69
463.217	79.69
463.437	87.69
463.657	85.69
463.876	84.69
464.096	99.69
464.316	99.69
464.536	86.69
464.755	97.69
464.975	91.69
465.195	155.69
465.414	137.69
465.634	93.69
465.854	75.69
466.073	90.69
466.293	76.69
466.512	80.69
466.732	77.69
466.951	96.69
467.171	93.69
467.391	92.69
467.61	91.69
467.829	106.69
468.049	79.69
468.268	95.69
468.488	83.69
468.707	85.69
468.927	86.69
469.146	89.69
469.365	97.69
469.585	92.69
469.804	98.69
470.023	104.69
470.243	83.69
470.462	97.69
470.681	113.69
470.901	88.69
471.12	95.69
471.339	95.69
471.558	83.69
471.777	77.69
471.997	98.69
472.216	98.69
472.435	106.69
472.654	90.69
472.873	92.69
473.092	85.69
473.311	88.69
473.53	73.69
473.749	100.69
473.968	99.69
474.187	102.69
474.406	87.69
474.625	90.69
474.844	84.69
475.063	95.69
475.282	101.69
475.501	71.69
475.72	83.69
475.939	79.69
476.158	89.69
476.377	89.69
476.596	88.69
476.814	99.69
477.033	93.69
477.252	93.69
477.471	83.69
477.69	67.69
477.908	91.69
478.127	93.69
478.346	93.69
478.564	91.69
478.783	95.69
479.002	85.69
479.22	106.69
479.439	96.69
479.658	103.69
479.876	101.69
480.095	79.69
480.313	98.69
480.532	88.69
480.751	107.69
480.969	97.69
481.188	115.69
481.406	103.69
481.624	98.69
481.843	88.69
482.061	88.69
482.28	95.69
482.498	94.69
482.717	90.69
482.935	82.69
483.153	96.69
483.372	90.69
483.59	95.69
483.808	90.69
484.027	86.69
484.245	101.69
484.463	86.69
484.681	86.69
484.9	86.69
485.118	90.69
485.336	85.69
485.554	92.69
485.772	101.69
485.99	105.69
486.209	85.69
486.427	101.69
486.645	103.69
486.863	100.69
487.081	103.69
487.299	99.69
487.517	98.69
487.735	90.69
487.953	120.69
488.171	88.69
488.389	104.69
488.607	93.69
488.825	87.69
489.043	92.69
489.261	89.69
489.479	100.69
489.696	98.69
489.914	82.69
490.132	81.69
490.35	94.69
490.568	95.69
490.786	93.69
491.003	103.69
491.221	99.69
491.439	86.69
491.657	88.69
491.874	101.69
492.092	87.69
492.31	89.69
492.527	76.69
492.745	90.69
492.963	113.69
493.18	91.69
493.398	80.69
493.615	98.69
493.833	94.69
494.05	88.69
494.268	113.69
494.485	81.69
494.703	88.69
494.92	72.69
495.138	85.69
495.355	96.69
495.573	100.69
495.79	86.69
496.008	89.69
496.225	92.69
496.442	93.69
496.66	88.69
496.877	88.69
497.094	88.69
497.312	93.69
497.529	91.69
497.746	82.69
497.963	85.69
498.181	95.69
498.398	97.69
498.615	110.69
498.832	101.69
499.049	111.69
499.267	93.69
499.484	94.69
499.701	95.69
499.918	94.69
500.135	90.69
500.352	90.69
500.569	77.69
500.786	90.69
501.003	87.69
501.22	92.69
501.437	82.69
501.654	92.69
501.871	90.69
502.088	101.69
502.305	93.69
502.522	99.69
502.739	98.69
502.956	94.69
503.172	94.69
503.389	89.69
503.606	107.69
503.823	97.69
504.04	94.69
504.256	102.69
504.473	95.69
504.69	88.69
504.907	91.69
505.123	87.69
505.34	82.69
505.557	84.69
505.773	97.69
505.99	79.69
506.207	87.69
506.423	89.69
506.64	91.69
506.856	80.69
507.073	91.69
507.289	82.69
507.506	91.69
507.722	98.69
507.939	121.69
508.155	104.69
508.372	103.69
508.588	84.69
508.805	90.69
509.021	101.69
509.238	89.69
509.454	95.69
509.67	86.69
509.887	105.69
510.103	121.69
510.319	202.69
510.536	719.69
510.752	2286.69
510.968	640.69
511.184	144.69
511.401	111.69
511.617	104.69
511.833	81.69
512.049	93.69
512.265	83.69
512.481	96.69
512.698	91.69
512.914	104.69
513.13	102.69
513.346	97.69
513.562	82.69
513.778	94.69
513.994	92.69
514.21	110.69
514.426	125.69
514.642	131.69
514.858	125.69
515.074	164.69
515.29	426.69
515.506	1365.69
515.721	495.69
515.937	158.69
516.153	115.69
