Data from Uncirc_1983_H10_HRD10591_00037.txt Node
Date: Wed Jan 03 12:25:39 EST 2024
User: Yrep
Spectrometer: HR+D1059
Trigger mode: 1
Integration Time (sec): 1.000000E-1
Scans to average: 1
Electric dark correction enabled: true
Nonlinearity correction enabled: false
Boxcar width: 0
XAxis mode: Wavelengths
Number of Pixels in Spectrum: 2048
>>>>>Begin Spectral Data<<<<<
223.165	-21.38
223.4	-21.38
223.635	-21.38
223.869	-17.38
224.104	-16.38
224.338	-12.38
224.573	-10.38
224.808	-11.38
225.042	-11.38
225.277	-10.38
225.511	-3.38
225.746	4.62
225.98	11.62
226.215	2.62
226.449	15.62
226.683	21.62
226.918	23.62
227.152	34.62
227.387	26.62
227.621	39.62
227.856	29.62
228.09	51.62
228.324	40.62
228.559	67.62
228.793	45.62
229.027	54.62
229.262	67.62
229.496	65.62
229.73	73.62
229.964	85.62
230.199	79.62
230.433	75.62
230.667	75.62
230.901	56.62
231.136	67.62
231.37	79.62
231.604	89.62
231.838	80.62
232.072	79.62
232.306	82.62
232.541	83.62
232.775	77.62
233.009	68.62
233.243	70.62
233.477	89.62
233.711	81.62
233.945	65.62
234.179	78.62
234.413	67.62
234.647	66.62
234.881	80.62
235.115	68.62
235.349	81.62
235.583	67.62
235.817	69.62
236.051	80.62
236.285	63.62
236.519	61.62
236.753	68.62
236.987	86.62
237.221	61.62
237.455	71.62
237.689	74.62
237.922	79.62
238.156	73.62
238.39	86.62
238.624	59.62
238.858	64.62
239.091	70.62
239.325	68.62
239.559	77.62
239.793	81.62
240.027	67.62
240.26	77.62
240.494	80.62
240.728	64.62
240.961	78.62
241.195	68.62
241.429	72.62
241.662	65.62
241.896	65.62
242.13	81.62
242.363	68.62
242.597	68.62
242.83	67.62
243.064	60.62
243.298	76.62
243.531	70.62
243.765	79.62
243.998	65.62
244.232	73.62
244.465	82.62
244.699	81.62
244.932	75.62
245.166	79.62
245.399	82.62
245.633	75.62
245.866	81.62
246.099	72.62
246.333	75.62
246.566	59.62
246.8	72.62
247.033	84.62
247.266	63.62
247.5	79.62
247.733	83.62
247.966	86.62
248.2	76.62
248.433	78.62
248.666	70.62
248.899	68.62
249.133	73.62
249.366	91.62
249.599	87.62
249.832	69.62
250.066	79.62
250.299	73.62
250.532	70.62
250.765	74.62
250.998	82.62
251.231	67.62
251.465	65.62
251.698	70.62
251.931	75.62
252.164	87.62
252.397	88.62
252.63	89.62
252.863	76.62
253.096	65.62
253.329	82.62
253.562	57.62
253.795	66.62
254.028	70.62
254.261	69.62
254.494	68.62
254.727	89.62
254.96	70.62
255.193	69.62
255.426	87.62
255.659	69.62
255.892	79.62
256.124	71.62
256.357	81.62
256.59	86.62
256.823	86.62
257.056	87.62
257.289	71.62
257.521	71.62
257.754	76.62
257.987	59.62
258.22	77.62
258.452	89.62
258.685	83.62
258.918	92.62
259.151	76.62
259.383	87.62
259.616	78.62
259.849	89.62
260.081	69.62
260.314	85.62
260.547	79.62
260.779	80.62
261.012	81.62
261.244	84.62
261.477	76.62
261.71	81.62
261.942	112.62
262.175	105.62
262.407	92.62
262.64	87.62
262.872	72.62
263.105	80.62
263.337	76.62
263.57	79.62
263.802	83.62
264.035	84.62
264.267	69.62
264.499	84.62
264.732	67.62
264.964	70.62
265.197	69.62
265.429	85.62
265.661	81.62
265.894	72.62
266.126	87.62
266.358	66.62
266.591	79.62
266.823	65.62
267.055	82.62
267.287	77.62
267.52	83.62
267.752	75.62
267.984	68.62
268.216	83.62
268.448	69.62
268.681	80.62
268.913	79.62
269.145	68.62
269.377	77.62
269.609	88.62
269.841	69.62
270.073	75.62
270.306	91.62
270.538	67.62
270.77	80.62
271.002	90.62
271.234	84.62
271.466	81.62
271.698	82.62
271.93	75.62
272.162	79.62
272.394	71.62
272.626	77.62
272.858	81.62
273.09	77.62
273.322	80.62
273.553	72.62
273.785	71.62
274.017	81.62
274.249	84.62
274.481	98.62
274.713	77.62
274.945	101.62
275.176	77.62
275.408	69.62
275.64	74.62
275.872	77.62
276.104	77.62
276.335	94.62
276.567	92.62
276.799	104.62
277.031	107.62
277.262	79.62
277.494	97.62
277.726	83.62
277.957	96.62
278.189	86.62
278.421	81.62
278.652	80.62
278.884	83.62
279.115	79.62
279.347	92.62
279.579	71.62
279.81	79.62
280.042	82.62
280.273	74.62
280.505	78.62
280.736	92.62
280.968	81.62
281.199	85.62
281.431	81.62
281.662	70.62
281.894	90.62
282.125	96.62
282.356	107.62
282.588	117.62
282.819	106.62
283.051	90.62
283.282	91.62
283.513	93.62
283.745	94.62
283.976	71.62
284.207	83.62
284.439	91.62
284.67	89.62
284.901	81.62
285.132	72.62
285.364	75.62
285.595	78.62
285.826	76.62
286.057	101.62
286.288	96.62
286.52	89.62
286.751	82.62
286.982	79.62
287.213	75.62
287.444	66.62
287.675	77.62
287.906	88.62
288.138	87.62
288.369	107.62
288.6	85.62
288.831	83.62
289.062	88.62
289.293	102.62
289.524	81.62
289.755	86.62
289.986	88.62
290.217	79.62
290.448	100.62
290.679	85.62
290.91	85.62
291.141	77.62
291.371	75.62
291.602	84.62
291.833	84.62
292.064	73.62
292.295	84.62
292.526	101.62
292.757	79.62
292.987	100.62
293.218	79.62
293.449	85.62
293.68	94.62
293.91	83.62
294.141	95.62
294.372	60.62
294.603	82.62
294.833	81.62
295.064	75.62
295.295	78.62
295.525	91.62
295.756	96.62
295.987	96.62
296.217	126.62
296.448	98.62
296.679	78.62
296.909	78.62
297.14	102.62
297.37	93.62
297.601	86.62
297.831	92.62
298.062	91.62
298.292	72.62
298.523	70.62
298.753	71.62
298.984	87.62
299.214	62.62
299.445	79.62
299.675	83.62
299.905	84.62
300.136	98.62
300.366	91.62
300.597	84.62
300.827	83.62
301.057	88.62
301.288	89.62
301.518	77.62
301.748	86.62
301.979	91.62
302.209	82.62
302.439	102.62
302.669	77.62
302.9	71.62
303.13	81.62
303.36	84.62
303.59	91.62
303.82	88.62
304.051	92.62
304.281	87.62
304.511	89.62
304.741	91.62
304.971	93.62
305.201	83.62
305.431	91.62
305.661	82.62
305.891	93.62
306.121	110.62
306.352	102.62
306.582	103.62
306.812	87.62
307.042	89.62
307.272	90.62
307.502	85.62
307.731	84.62
307.961	100.62
308.191	79.62
308.421	79.62
308.651	73.62
308.881	75.62
309.111	88.62
309.341	86.62
309.571	90.62
309.8	93.62
310.03	94.62
310.26	76.62
310.49	97.62
310.72	87.62
310.949	99.62
311.179	93.62
311.409	86.62
311.639	95.62
311.868	75.62
312.098	72.62
312.328	87.62
312.557	91.62
312.787	85.62
313.017	85.62
313.246	100.62
313.476	87.62
313.706	92.62
313.935	89.62
314.165	87.62
314.394	92.62
314.624	92.62
314.853	93.62
315.083	81.62
315.312	84.62
315.542	76.62
315.771	82.62
316.001	86.62
316.23	76.62
316.46	92.62
316.689	82.62
316.919	83.62
317.148	91.62
317.377	91.62
317.607	88.62
317.836	88.62
318.065	86.62
318.295	88.62
318.524	70.62
318.753	85.62
318.983	88.62
319.212	99.62
319.441	91.62
319.67	102.62
319.9	99.62
320.129	89.62
320.358	88.62
320.587	86.62
320.816	88.62
321.046	91.62
321.275	93.62
321.504	86.62
321.733	93.62
321.962	98.62
322.191	84.62
322.42	104.62
322.649	95.62
322.878	116.62
323.108	107.62
323.337	102.62
323.566	113.62
323.795	129.62
324.024	183.62
324.253	325.62
324.482	695.62
324.71	1381.62
324.939	1833.62
325.168	684.62
325.397	225.62
325.626	139.62
325.855	113.62
326.084	115.62
326.313	100.62
326.542	142.62
326.77	189.62
326.999	399.62
327.228	792.62
327.457	1421.62
327.686	1154.62
327.914	327.62
328.143	181.62
328.372	132.62
328.6	120.62
328.829	97.62
329.058	111.62
329.287	114.62
329.515	98.62
329.744	94.62
329.972	85.62
330.201	103.62
330.43	108.62
330.658	107.62
330.887	126.62
331.115	97.62
331.344	110.62
331.572	96.62
331.801	105.62
332.03	97.62
332.258	97.62
332.486	99.62
332.715	96.62
332.943	87.62
333.172	82.62
333.4	77.62
333.629	76.62
333.857	113.62
334.085	122.62
334.314	109.62
334.542	88.62
334.771	84.62
334.999	82.62
335.227	85.62
335.455	86.62
335.684	86.62
335.912	88.62
336.14	87.62
336.369	87.62
336.597	93.62
336.825	89.62
337.053	92.62
337.281	81.62
337.51	89.62
337.738	86.62
337.966	72.62
338.194	84.62
338.422	83.62
338.65	83.62
338.878	83.62
339.106	87.62
339.334	87.62
339.562	93.62
339.79	87.62
340.018	86.62
340.246	99.62
340.474	77.62
340.702	80.62
340.93	79.62
341.158	89.62
341.386	80.62
341.614	91.62
341.842	83.62
342.07	81.62
342.298	97.62
342.526	84.62
342.754	82.62
342.981	85.62
343.209	80.62
343.437	104.62
343.665	85.62
343.893	97.62
344.12	84.62
344.348	66.62
344.576	79.62
344.804	94.62
345.031	85.62
345.259	91.62
345.487	90.62
345.714	98.62
345.942	95.62
346.17	91.62
346.397	89.62
346.625	64.62
346.853	100.62
347.08	80.62
347.308	83.62
347.535	88.62
347.763	89.62
347.99	94.62
348.218	95.62
348.445	106.62
348.673	96.62
348.9	95.62
349.128	88.62
349.355	85.62
349.583	99.62
349.81	95.62
350.037	94.62
350.265	89.62
350.492	85.62
350.72	79.62
350.947	95.62
351.174	98.62
351.402	97.62
351.629	95.62
351.856	103.62
352.083	92.62
352.311	85.62
352.538	99.62
352.765	84.62
352.992	110.62
353.22	116.62
353.447	97.62
353.674	86.62
353.901	90.62
354.128	85.62
354.355	90.62
354.583	83.62
354.81	95.62
355.037	85.62
355.264	91.62
355.491	97.62
355.718	86.62
355.945	91.62
356.172	84.62
356.399	103.62
356.626	93.62
356.853	81.62
357.08	91.62
357.307	83.62
357.534	71.62
357.761	91.62
357.988	92.62
358.215	94.62
358.441	97.62
358.668	97.62
358.895	84.62
359.122	86.62
359.349	81.62
359.576	75.62
359.802	83.62
360.029	105.62
360.256	98.62
360.483	102.62
360.709	80.62
360.936	100.62
361.163	79.62
361.39	98.62
361.616	93.62
361.843	80.62
362.07	85.62
362.296	85.62
362.523	77.62
362.749	79.62
362.976	76.62
363.203	97.62
363.429	90.62
363.656	88.62
363.882	105.62
364.109	81.62
364.335	96.62
364.562	96.62
364.788	95.62
365.015	87.62
365.241	97.62
365.468	97.62
365.694	113.62
365.92	92.62
366.147	86.62
366.373	80.62
366.599	75.62
366.826	85.62
367.052	91.62
367.278	91.62
367.505	94.62
367.731	82.62
367.957	84.62
368.184	100.62
368.41	95.62
368.636	107.62
368.862	104.62
369.089	83.62
369.315	89.62
369.541	79.62
369.767	86.62
369.993	87.62
370.219	94.62
370.445	91.62
370.672	84.62
370.898	78.62
371.124	81.62
371.35	85.62
371.576	92.62
371.802	89.62
372.028	93.62
372.254	80.62
372.48	77.62
372.706	84.62
372.932	85.62
373.158	85.62
373.384	72.62
373.61	91.62
373.835	83.62
374.061	79.62
374.287	77.62
374.513	79.62
374.739	84.62
374.965	82.62
375.191	89.62
375.416	94.62
375.642	88.62
375.868	92.62
376.094	91.62
376.319	90.62
376.545	76.62
376.771	87.62
376.997	94.62
377.222	95.62
377.448	85.62
377.674	78.62
377.899	97.62
378.125	85.62
378.35	100.62
378.576	83.62
378.802	88.62
379.027	87.62
379.253	100.62
379.478	104.62
379.704	80.62
379.929	82.62
380.155	80.62
380.38	91.62
380.606	94.62
380.831	88.62
381.057	89.62
381.282	105.62
381.507	99.62
381.733	95.62
381.958	82.62
382.184	96.62
382.409	99.62
382.634	98.62
382.86	86.62
383.085	101.62
383.31	88.62
383.535	104.62
383.761	77.62
383.986	75.62
384.211	68.62
384.436	97.62
384.662	84.62
384.887	97.62
385.112	114.62
385.337	115.62
385.562	108.62
385.787	123.62
386.013	109.62
386.238	105.62
386.463	107.62
386.688	97.62
386.913	100.62
387.138	88.62
387.363	93.62
387.588	91.62
387.813	112.62
388.038	95.62
388.263	116.62
388.488	113.62
388.713	104.62
388.938	90.62
389.163	83.62
389.387	91.62
389.612	84.62
389.837	91.62
390.062	89.62
390.287	96.62
390.512	89.62
390.736	72.62
390.961	85.62
391.186	98.62
391.411	107.62
391.636	85.62
391.86	86.62
392.085	77.62
392.31	89.62
392.534	77.62
392.759	96.62
392.984	83.62
393.208	85.62
393.433	88.62
393.658	89.62
393.882	89.62
394.107	95.62
394.331	70.62
394.556	81.62
394.78	87.62
395.005	94.62
395.229	82.62
395.454	84.62
395.678	83.62
395.903	87.62
396.127	75.62
396.352	75.62
396.576	88.62
396.801	70.62
397.025	70.62
397.249	89.62
397.474	100.62
397.698	69.62
397.922	75.62
398.147	77.62
398.371	72.62
398.595	81.62
398.82	71.62
399.044	72.62
399.268	75.62
399.492	75.62
399.717	85.62
399.941	79.62
400.165	81.62
400.389	89.62
400.613	86.62
400.837	77.62
401.062	92.62
401.286	92.62
401.51	80.62
401.734	102.62
401.958	95.62
402.182	124.62
402.406	149.62
402.63	93.62
402.854	92.62
403.078	81.62
403.302	80.62
403.526	81.62
403.75	88.62
403.974	75.62
404.198	96.62
404.422	85.62
404.645	72.62
404.869	82.62
405.093	77.62
405.317	93.62
405.541	92.62
405.765	79.62
405.988	117.62
406.212	147.62
406.436	211.62
406.66	120.62
406.883	89.62
407.107	81.62
407.331	101.62
407.555	95.62
407.778	84.62
408.002	83.62
408.226	77.62
408.449	83.62
408.673	80.62
408.896	82.62
409.12	91.62
409.344	84.62
409.567	95.62
409.791	103.62
410.014	81.62
410.238	90.62
410.461	85.62
410.685	75.62
410.908	93.62
411.132	78.62
411.355	92.62
411.578	94.62
411.802	108.62
412.025	83.62
412.249	91.62
412.472	87.62
412.695	64.62
412.919	65.62
413.142	77.62
413.365	81.62
413.589	90.62
413.812	84.62
414.035	88.62
414.258	84.62
414.482	88.62
414.705	84.62
414.928	92.62
415.151	88.62
415.374	90.62
415.597	83.62
415.821	95.62
416.044	82.62
416.267	96.62
416.49	84.62
416.713	73.62
416.936	77.62
417.159	66.62
417.382	88.62
417.605	77.62
417.828	96.62
418.051	77.62
418.274	79.62
418.497	82.62
418.72	51.62
418.943	79.62
419.166	96.62
419.389	81.62
419.611	90.62
419.834	88.62
420.057	80.62
420.28	76.62
420.503	89.62
420.726	71.62
420.948	89.62
421.171	86.62
421.394	86.62
421.617	83.62
421.839	94.62
422.062	97.62
422.285	82.62
422.507	93.62
422.73	112.62
422.953	91.62
423.175	88.62
423.398	77.62
423.621	71.62
423.843	84.62
424.066	90.62
424.288	77.62
424.511	70.62
424.733	87.62
424.956	101.62
425.178	94.62
425.401	91.62
425.623	85.62
425.846	96.62
426.068	69.62
426.291	90.62
426.513	81.62
426.735	75.62
426.958	76.62
427.18	94.62
427.402	116.62
427.625	132.62
427.847	121.62
428.069	101.62
428.292	98.62
428.514	76.62
428.736	75.62
428.958	84.62
429.181	99.62
429.403	72.62
429.625	93.62
429.847	94.62
430.069	91.62
430.292	83.62
430.514	86.62
430.736	72.62
430.958	82.62
431.18	79.62
431.402	76.62
431.624	79.62
431.846	79.62
432.068	92.62
432.29	69.62
432.512	80.62
432.734	92.62
432.956	83.62
433.178	93.62
433.4	92.62
433.622	96.62
433.844	80.62
434.066	87.62
434.287	67.62
434.509	89.62
434.731	75.62
434.953	83.62
435.175	95.62
435.397	90.62
435.618	75.62
435.84	89.62
436.062	108.62
436.284	95.62
436.505	99.62
436.727	100.62
436.949	77.62
437.17	81.62
437.392	93.62
437.614	77.62
437.835	89.62
438.057	112.62
438.278	99.62
438.5	93.62
438.721	105.62
438.943	86.62
439.165	92.62
439.386	86.62
439.608	83.62
439.829	92.62
440.05	116.62
440.272	121.62
440.493	97.62
440.715	69.62
440.936	80.62
441.158	79.62
441.379	67.62
441.6	98.62
441.822	89.62
442.043	91.62
442.264	99.62
442.486	95.62
442.707	80.62
442.928	88.62
443.149	105.62
443.371	127.62
443.592	97.62
443.813	101.62
444.034	100.62
444.255	90.62
444.476	84.62
444.698	69.62
444.919	87.62
445.14	141.62
445.361	120.62
445.582	100.62
445.803	98.62
446.024	118.62
446.245	103.62
446.466	87.62
446.687	96.62
446.908	76.62
447.129	76.62
447.35	88.62
447.571	92.62
447.792	97.62
448.013	98.62
448.234	93.62
448.455	84.62
448.675	113.62
448.896	111.62
449.117	89.62
449.338	102.62
449.559	125.62
449.779	118.62
450	91.62
450.221	104.62
450.442	85.62
450.662	91.62
450.883	93.62
451.104	101.62
451.324	98.62
451.545	77.62
451.766	79.62
451.986	80.62
452.207	86.62
452.428	88.62
452.648	85.62
452.869	105.62
453.089	104.62
453.31	101.62
453.53	85.62
453.751	73.62
453.971	87.62
454.192	86.62
454.412	77.62
454.633	68.62
454.853	79.62
455.073	75.62
455.294	78.62
455.514	85.62
455.734	81.62
455.955	89.62
456.175	82.62
456.395	91.62
456.616	83.62
456.836	83.62
457.056	89.62
457.276	80.62
457.497	89.62
457.717	91.62
457.937	89.62
458.157	84.62
458.377	78.62
458.598	80.62
458.818	127.62
459.038	130.62
459.258	104.62
459.478	91.62
459.698	80.62
459.918	93.62
460.138	87.62
460.358	86.62
460.578	78.62
460.798	94.62
461.018	95.62
461.238	82.62
461.458	82.62
461.678	71.62
461.898	93.62
462.118	83.62
462.338	91.62
462.558	61.62
462.777	78.62
462.997	67.62
463.217	79.62
463.437	72.62
463.657	90.62
463.876	81.62
464.096	67.62
464.316	84.62
464.536	84.62
464.755	91.62
464.975	85.62
465.195	149.62
465.414	133.62
465.634	76.62
465.854	72.62
466.073	91.62
466.293	75.62
466.512	87.62
466.732	88.62
466.951	80.62
467.171	79.62
467.391	80.62
467.61	91.62
467.829	91.62
468.049	75.62
468.268	88.62
468.488	82.62
468.707	86.62
468.927	88.62
469.146	77.62
469.365	67.62
469.585	71.62
469.804	82.62
470.023	81.62
470.243	77.62
470.462	104.62
470.681	95.62
470.901	75.62
471.12	83.62
471.339	88.62
471.558	89.62
471.777	85.62
471.997	88.62
472.216	102.62
472.435	102.62
472.654	84.62
472.873	77.62
473.092	68.62
473.311	87.62
473.53	62.62
473.749	87.62
473.968	83.62
474.187	87.62
474.406	92.62
474.625	93.62
474.844	85.62
475.063	82.62
475.282	83.62
475.501	65.62
475.72	84.62
475.939	88.62
476.158	71.62
476.377	88.62
476.596	92.62
476.814	93.62
477.033	82.62
477.252	80.62
477.471	95.62
477.69	90.62
477.908	86.62
478.127	92.62
478.346	90.62
478.564	87.62
478.783	89.62
479.002	94.62
479.22	86.62
479.439	80.62
479.658	73.62
479.876	84.62
480.095	83.62
480.313	102.62
480.532	99.62
480.751	78.62
480.969	72.62
481.188	102.62
481.406	102.62
481.624	84.62
481.843	94.62
482.061	84.62
482.28	75.62
482.498	76.62
482.717	92.62
482.935	87.62
483.153	88.62
483.372	73.62
483.59	71.62
483.808	83.62
484.027	84.62
484.245	93.62
484.463	75.62
484.681	83.62
484.9	99.62
485.118	97.62
485.336	77.62
485.554	96.62
485.772	92.62
485.99	90.62
486.209	90.62
486.427	89.62
486.645	106.62
486.863	89.62
487.081	99.62
487.299	89.62
487.517	95.62
487.735	89.62
487.953	98.62
488.171	92.62
488.389	101.62
488.607	87.62
488.825	86.62
489.043	80.62
489.261	87.62
489.479	96.62
489.696	92.62
489.914	90.62
490.132	85.62
490.35	95.62
490.568	90.62
490.786	83.62
491.003	92.62
491.221	87.62
491.439	76.62
491.657	87.62
491.874	84.62
492.092	87.62
492.31	77.62
492.527	65.62
492.745	98.62
492.963	85.62
493.18	93.62
493.398	90.62
493.615	93.62
493.833	95.62
494.05	83.62
494.268	88.62
494.485	88.62
494.703	92.62
494.92	86.62
495.138	78.62
495.355	77.62
495.573	88.62
495.79	83.62
496.008	77.62
496.225	78.62
496.442	86.62
496.66	97.62
496.877	89.62
497.094	87.62
497.312	103.62
497.529	85.62
497.746	75.62
497.963	89.62
498.181	73.62
498.398	83.62
498.615	104.62
498.832	99.62
499.049	80.62
499.267	81.62
499.484	77.62
499.701	96.62
499.918	88.62
500.135	83.62
500.352	77.62
500.569	76.62
500.786	83.62
501.003	86.62
501.22	91.62
501.437	90.62
501.654	77.62
501.871	91.62
502.088	83.62
502.305	81.62
502.522	75.62
502.739	93.62
502.956	81.62
503.172	102.62
503.389	92.62
503.606	103.62
503.823	89.62
504.04	74.62
504.256	85.62
504.473	67.62
504.69	91.62
504.907	94.62
505.123	105.62
505.34	88.62
505.557	88.62
505.773	68.62
505.99	80.62
506.207	77.62
506.423	71.62
506.64	86.62
506.856	92.62
507.073	97.62
507.289	95.62
507.506	78.62
507.722	97.62
507.939	88.62
508.155	93.62
508.372	103.62
508.588	87.62
508.805	97.62
509.021	105.62
509.238	98.62
509.454	83.62
509.67	88.62
509.887	99.62
510.103	116.62
510.319	212.62
510.536	647.62
510.752	2132.62
510.968	572.62
511.184	153.62
511.401	101.62
511.617	100.62
511.833	88.62
512.049	89.62
512.265	91.62
512.481	81.62
512.698	88.62
512.914	85.62
513.13	95.62
513.346	89.62
513.562	89.62
513.778	96.62
513.994	94.62
514.21	108.62
514.426	103.62
514.642	116.62
514.858	121.62
515.074	142.62
515.29	387.62
515.506	1233.62
515.721	443.62
515.937	143.62
516.153	107.62
516.369	103.62
516.585	102.62
516.801	91.62
517.016	103.62
517.232	82.62
517.448	89.62
