Data from Uncirc_1983_H10_HRD10591_00011.txt Node
Date: Wed Jan 03 12:25:34 EST 2024
User: Yrep
Spectrometer: HR+D1059
Trigger mode: 1
Integration Time (sec): 1.000000E-1
Scans to average: 1
Electric dark correction enabled: true
Nonlinearity correction enabled: false
Boxcar width: 0
XAxis mode: Wavelengths
Number of Pixels in Spectrum: 2048
>>>>>Begin Spectral Data<<<<<
223.165	-11.81
223.4	-11.81
223.635	-11.81
223.869	-21.81
224.104	-19.81
224.338	-22.81
224.573	-15.81
224.808	-25.81
225.042	-16.81
225.277	-2.81
225.511	-7.81
225.746	-5.81
225.98	15.19
226.215	27.19
226.449	33.19
226.683	18.19
226.918	27.19
227.152	30.19
227.387	27.19
227.621	51.19
227.856	58.19
228.09	50.19
228.324	44.19
228.559	56.19
228.793	60.19
229.027	68.19
229.262	74.19
229.496	65.19
229.73	74.19
229.964	84.19
230.199	61.19
230.433	58.19
230.667	86.19
230.901	78.19
231.136	82.19
231.37	78.19
231.604	90.19
231.838	80.19
232.072	84.19
232.306	85.19
232.541	82.19
232.775	84.19
233.009	88.19
233.243	85.19
233.477	86.19
233.711	97.19
233.945	76.19
234.179	84.19
234.413	87.19
234.647	69.19
234.881	89.19
235.115	65.19
235.349	60.19
235.583	88.19
235.817	71.19
236.051	73.19
236.285	76.19
236.519	82.19
236.753	81.19
236.987	75.19
237.221	89.19
237.455	82.19
237.689	67.19
237.922	83.19
238.156	80.19
238.39	80.19
238.624	88.19
238.858	84.19
239.091	66.19
239.325	84.19
239.559	68.19
239.793	90.19
240.027	84.19
240.26	73.19
240.494	85.19
240.728	72.19
240.961	82.19
241.195	69.19
241.429	68.19
241.662	77.19
241.896	75.19
242.13	81.19
242.363	72.19
242.597	78.19
242.83	86.19
243.064	64.19
243.298	71.19
243.531	88.19
243.765	71.19
243.998	77.19
244.232	74.19
244.465	87.19
244.699	76.19
244.932	69.19
245.166	76.19
245.399	69.19
245.633	64.19
245.866	72.19
246.099	86.19
246.333	71.19
246.566	80.19
246.8	91.19
247.033	73.19
247.266	86.19
247.5	69.19
247.733	77.19
247.966	79.19
248.2	89.19
248.433	73.19
248.666	77.19
248.899	78.19
249.133	84.19
249.366	83.19
249.599	88.19
249.832	87.19
250.066	89.19
250.299	78.19
250.532	79.19
250.765	84.19
250.998	77.19
251.231	89.19
251.465	72.19
251.698	81.19
251.931	77.19
252.164	84.19
252.397	61.19
252.63	80.19
252.863	83.19
253.096	82.19
253.329	81.19
253.562	90.19
253.795	81.19
254.028	77.19
254.261	74.19
254.494	87.19
254.727	84.19
254.96	80.19
255.193	94.19
255.426	86.19
255.659	87.19
255.892	78.19
256.124	78.19
256.357	88.19
256.59	82.19
256.823	87.19
257.056	84.19
257.289	75.19
257.521	82.19
257.754	70.19
257.987	61.19
258.22	73.19
258.452	87.19
258.685	86.19
258.918	90.19
259.151	75.19
259.383	82.19
259.616	74.19
259.849	67.19
260.081	76.19
260.314	84.19
260.547	88.19
260.779	88.19
261.012	90.19
261.244	83.19
261.477	90.19
261.71	93.19
261.942	102.19
262.175	102.19
262.407	93.19
262.64	100.19
262.872	93.19
263.105	83.19
263.337	93.19
263.57	83.19
263.802	81.19
264.035	72.19
264.267	82.19
264.499	75.19
264.732	82.19
264.964	96.19
265.197	75.19
265.429	87.19
265.661	85.19
265.894	89.19
266.126	80.19
266.358	87.19
266.591	84.19
266.823	94.19
267.055	80.19
267.287	85.19
267.52	87.19
267.752	69.19
267.984	73.19
268.216	99.19
268.448	77.19
268.681	88.19
268.913	84.19
269.145	92.19
269.377	89.19
269.609	82.19
269.841	93.19
270.073	80.19
270.306	101.19
270.538	90.19
270.77	88.19
271.002	86.19
271.234	86.19
271.466	90.19
271.698	100.19
271.93	97.19
272.162	86.19
272.394	88.19
272.626	81.19
272.858	87.19
273.09	82.19
273.322	73.19
273.553	76.19
273.785	82.19
274.017	96.19
274.249	92.19
274.481	90.19
274.713	89.19
274.945	98.19
275.176	96.19
275.408	86.19
275.64	82.19
275.872	78.19
276.104	82.19
276.335	77.19
276.567	90.19
276.799	90.19
277.031	89.19
277.262	96.19
277.494	92.19
277.726	77.19
277.957	92.19
278.189	82.19
278.421	92.19
278.652	98.19
278.884	84.19
279.115	73.19
279.347	97.19
279.579	85.19
279.81	99.19
280.042	84.19
280.273	77.19
280.505	72.19
280.736	102.19
280.968	92.19
281.199	73.19
281.431	89.19
281.662	96.19
281.894	87.19
282.125	99.19
282.356	103.19
282.588	119.19
282.819	108.19
283.051	81.19
283.282	95.19
283.513	96.19
283.745	105.19
283.976	86.19
284.207	82.19
284.439	90.19
284.67	83.19
284.901	69.19
285.132	68.19
285.364	69.19
285.595	85.19
285.826	87.19
286.057	86.19
286.288	76.19
286.52	89.19
286.751	86.19
286.982	88.19
287.213	88.19
287.444	93.19
287.675	94.19
287.906	98.19
288.138	90.19
288.369	94.19
288.6	77.19
288.831	74.19
289.062	91.19
289.293	89.19
289.524	82.19
289.755	77.19
289.986	93.19
290.217	85.19
290.448	88.19
290.679	89.19
290.91	91.19
291.141	80.19
291.371	80.19
291.602	94.19
291.833	82.19
292.064	94.19
292.295	109.19
292.526	89.19
292.757	91.19
292.987	83.19
293.218	97.19
293.449	74.19
293.68	77.19
293.91	74.19
294.141	98.19
294.372	84.19
294.603	90.19
294.833	96.19
295.064	102.19
295.295	87.19
295.525	101.19
295.756	110.19
295.987	104.19
296.217	121.19
296.448	107.19
296.679	100.19
296.909	89.19
297.14	98.19
297.37	106.19
297.601	81.19
297.831	82.19
298.062	88.19
298.292	91.19
298.523	91.19
298.753	86.19
298.984	98.19
299.214	91.19
299.445	90.19
299.675	100.19
299.905	96.19
300.136	90.19
300.366	97.19
300.597	102.19
300.827	91.19
301.057	92.19
301.288	107.19
301.518	96.19
301.748	88.19
301.979	107.19
302.209	85.19
302.439	93.19
302.669	86.19
302.9	74.19
303.13	98.19
303.36	89.19
303.59	87.19
303.82	104.19
304.051	95.19
304.281	98.19
304.511	98.19
304.741	87.19
304.971	82.19
305.201	96.19
305.431	83.19
305.661	89.19
305.891	72.19
306.121	88.19
306.352	92.19
306.582	88.19
306.812	88.19
307.042	89.19
307.272	100.19
307.502	84.19
307.731	92.19
307.961	79.19
308.191	91.19
308.421	82.19
308.651	92.19
308.881	100.19
309.111	87.19
309.341	88.19
309.571	103.19
309.8	97.19
310.03	94.19
310.26	96.19
310.49	89.19
310.72	93.19
310.949	104.19
311.179	77.19
311.409	94.19
311.639	85.19
311.868	79.19
312.098	95.19
312.328	90.19
312.557	98.19
312.787	114.19
313.017	94.19
313.246	88.19
313.476	94.19
313.706	104.19
313.935	94.19
314.165	100.19
314.394	89.19
314.624	94.19
314.853	82.19
315.083	100.19
315.312	98.19
315.542	83.19
315.771	95.19
316.001	98.19
316.23	93.19
316.46	92.19
316.689	91.19
316.919	95.19
317.148	98.19
317.377	95.19
317.607	97.19
317.836	98.19
318.065	92.19
318.295	93.19
318.524	87.19
318.753	102.19
318.983	92.19
319.212	105.19
319.441	117.19
319.67	97.19
319.9	99.19
320.129	97.19
320.358	92.19
320.587	109.19
320.816	96.19
321.046	85.19
321.275	84.19
321.504	90.19
321.733	84.19
321.962	95.19
322.191	100.19
322.42	102.19
322.649	101.19
322.878	114.19
323.108	111.19
323.337	120.19
323.566	108.19
323.795	131.19
324.024	178.19
324.253	331.19
324.482	651.19
324.71	1272.19
324.939	1644.19
325.168	631.19
325.397	192.19
325.626	126.19
325.855	112.19
326.084	116.19
326.313	113.19
326.542	142.19
326.77	191.19
326.999	386.19
327.228	740.19
327.457	1324.19
327.686	1057.19
327.914	292.19
328.143	170.19
328.372	128.19
328.6	106.19
328.829	100.19
329.058	115.19
329.287	99.19
329.515	112.19
329.744	112.19
329.972	97.19
330.201	92.19
330.43	100.19
330.658	99.19
330.887	112.19
331.115	83.19
331.344	98.19
331.572	106.19
331.801	96.19
332.03	96.19
332.258	89.19
332.486	88.19
332.715	89.19
332.943	89.19
333.172	97.19
333.4	97.19
333.629	104.19
333.857	109.19
334.085	98.19
334.314	100.19
334.542	90.19
334.771	88.19
334.999	88.19
335.227	101.19
335.455	96.19
335.684	86.19
335.912	105.19
336.14	93.19
336.369	103.19
336.597	94.19
336.825	89.19
337.053	83.19
337.281	98.19
337.51	85.19
337.738	78.19
337.966	91.19
338.194	97.19
338.422	96.19
338.65	98.19
338.878	100.19
339.106	77.19
339.334	98.19
339.562	87.19
339.79	85.19
340.018	75.19
340.246	92.19
340.474	104.19
340.702	100.19
340.93	93.19
341.158	90.19
341.386	72.19
341.614	90.19
341.842	90.19
342.07	94.19
342.298	86.19
342.526	107.19
342.754	94.19
342.981	89.19
343.209	93.19
343.437	102.19
343.665	90.19
343.893	96.19
344.12	89.19
344.348	80.19
344.576	90.19
344.804	100.19
345.031	87.19
345.259	91.19
345.487	97.19
345.714	103.19
345.942	91.19
346.17	100.19
346.397	84.19
346.625	91.19
346.853	90.19
347.08	86.19
347.308	83.19
347.535	101.19
347.763	102.19
347.99	106.19
348.218	103.19
348.445	108.19
348.673	97.19
348.9	90.19
349.128	103.19
349.355	102.19
349.583	98.19
349.81	92.19
350.037	91.19
350.265	93.19
350.492	89.19
350.72	104.19
350.947	93.19
351.174	110.19
351.402	91.19
351.629	87.19
351.856	104.19
352.083	108.19
352.311	104.19
352.538	99.19
352.765	99.19
352.992	99.19
353.22	98.19
353.447	103.19
353.674	83.19
353.901	98.19
354.128	93.19
354.355	102.19
354.583	102.19
354.81	94.19
355.037	84.19
355.264	94.19
355.491	108.19
355.718	91.19
355.945	101.19
356.172	106.19
356.399	99.19
356.626	93.19
356.853	96.19
357.08	78.19
357.307	89.19
357.534	91.19
357.761	88.19
357.988	94.19
358.215	91.19
358.441	95.19
358.668	102.19
358.895	88.19
359.122	80.19
359.349	94.19
359.576	74.19
359.802	100.19
360.029	104.19
360.256	87.19
360.483	107.19
360.709	101.19
360.936	97.19
361.163	95.19
361.39	90.19
361.616	87.19
361.843	84.19
362.07	96.19
362.296	98.19
362.523	98.19
362.749	86.19
362.976	95.19
363.203	85.19
363.429	89.19
363.656	105.19
363.882	92.19
364.109	98.19
364.335	90.19
364.562	88.19
364.788	80.19
365.015	90.19
365.241	92.19
365.468	100.19
365.694	106.19
365.92	97.19
366.147	83.19
366.373	94.19
366.599	80.19
366.826	98.19
367.052	84.19
367.278	85.19
367.505	93.19
367.731	103.19
367.957	80.19
368.184	99.19
368.41	88.19
368.636	107.19
368.862	109.19
369.089	90.19
369.315	85.19
369.541	100.19
369.767	92.19
369.993	92.19
370.219	93.19
370.445	80.19
370.672	96.19
370.898	96.19
371.124	99.19
371.35	88.19
371.576	91.19
371.802	91.19
372.028	88.19
372.254	91.19
372.48	99.19
372.706	94.19
372.932	86.19
373.158	94.19
373.384	88.19
373.61	87.19
373.835	89.19
374.061	80.19
374.287	87.19
374.513	85.19
374.739	88.19
374.965	93.19
375.191	86.19
375.416	86.19
375.642	90.19
375.868	84.19
376.094	76.19
376.319	93.19
376.545	94.19
376.771	87.19
376.997	85.19
377.222	109.19
377.448	88.19
377.674	81.19
377.899	100.19
378.125	105.19
378.35	104.19
378.576	92.19
378.802	92.19
379.027	101.19
379.253	86.19
379.478	99.19
379.704	92.19
379.929	94.19
380.155	89.19
380.38	97.19
380.606	111.19
380.831	101.19
381.057	96.19
381.282	93.19
381.507	104.19
381.733	89.19
381.958	101.19
382.184	109.19
382.409	116.19
382.634	101.19
382.86	99.19
383.085	99.19
383.31	90.19
383.535	99.19
383.761	102.19
383.986	93.19
384.211	91.19
384.436	101.19
384.662	95.19
384.887	109.19
385.112	100.19
385.337	106.19
385.562	90.19
385.787	97.19
386.013	115.19
386.238	112.19
386.463	124.19
386.688	117.19
386.913	101.19
387.138	106.19
387.363	112.19
387.588	107.19
387.813	99.19
388.038	108.19
388.263	114.19
388.488	107.19
388.713	104.19
388.938	78.19
389.163	85.19
389.387	88.19
389.612	108.19
389.837	92.19
390.062	102.19
390.287	86.19
390.512	98.19
390.736	100.19
390.961	106.19
391.186	86.19
391.411	111.19
391.636	91.19
391.86	86.19
392.085	101.19
392.31	84.19
392.534	86.19
392.759	87.19
392.984	83.19
393.208	101.19
393.433	104.19
393.658	91.19
393.882	73.19
394.107	91.19
394.331	99.19
394.556	88.19
394.78	93.19
395.005	86.19
395.229	76.19
395.454	91.19
395.678	81.19
395.903	92.19
396.127	85.19
396.352	95.19
396.576	94.19
396.801	104.19
397.025	106.19
397.249	84.19
397.474	87.19
397.698	101.19
397.922	86.19
398.147	92.19
398.371	95.19
398.595	97.19
398.82	96.19
399.044	82.19
399.268	82.19
399.492	74.19
399.717	75.19
399.941	84.19
400.165	78.19
400.389	70.19
400.613	90.19
400.837	84.19
401.062	91.19
401.286	86.19
401.51	93.19
401.734	88.19
401.958	104.19
402.182	96.19
402.406	127.19
402.63	98.19
402.854	92.19
403.078	86.19
403.302	72.19
403.526	78.19
403.75	89.19
403.974	86.19
404.198	88.19
404.422	99.19
404.645	92.19
404.869	81.19
405.093	83.19
405.317	85.19
405.541	97.19
405.765	84.19
405.988	114.19
406.212	145.19
406.436	188.19
406.66	115.19
406.883	97.19
407.107	82.19
407.331	97.19
407.555	94.19
407.778	89.19
408.002	81.19
408.226	93.19
408.449	92.19
408.673	88.19
408.896	75.19
409.12	91.19
409.344	88.19
409.567	94.19
409.791	80.19
410.014	108.19
410.238	88.19
410.461	92.19
410.685	92.19
410.908	98.19
411.132	105.19
411.355	95.19
411.578	77.19
411.802	78.19
412.025	100.19
412.249	90.19
412.472	73.19
412.695	90.19
412.919	62.19
413.142	91.19
413.365	84.19
413.589	93.19
413.812	84.19
414.035	93.19
414.258	88.19
414.482	90.19
414.705	92.19
414.928	77.19
415.151	92.19
415.374	87.19
415.597	90.19
415.821	92.19
416.044	84.19
416.267	94.19
416.49	99.19
416.713	93.19
416.936	84.19
417.159	86.19
417.382	88.19
417.605	78.19
417.828	93.19
418.051	102.19
418.274	71.19
418.497	73.19
418.72	82.19
418.943	97.19
419.166	102.19
419.389	85.19
419.611	88.19
419.834	86.19
420.057	83.19
420.28	92.19
420.503	76.19
420.726	89.19
420.948	69.19
421.171	83.19
421.394	89.19
421.617	86.19
421.839	90.19
422.062	76.19
422.285	80.19
422.507	91.19
422.73	112.19
422.953	83.19
423.175	83.19
423.398	82.19
423.621	88.19
423.843	73.19
424.066	94.19
424.288	102.19
424.511	74.19
424.733	90.19
424.956	88.19
425.178	85.19
425.401	84.19
425.623	91.19
425.846	105.19
426.068	110.19
426.291	101.19
426.513	85.19
426.735	83.19
426.958	84.19
427.18	87.19
427.402	114.19
427.625	132.19
427.847	102.19
428.069	89.19
428.292	84.19
428.514	71.19
428.736	93.19
428.958	83.19
429.181	89.19
429.403	89.19
429.625	85.19
429.847	100.19
430.069	88.19
430.292	92.19
430.514	83.19
430.736	86.19
430.958	85.19
431.18	78.19
431.402	85.19
431.624	82.19
431.846	92.19
432.068	80.19
432.29	70.19
432.512	101.19
432.734	89.19
432.956	74.19
433.178	105.19
433.4	87.19
433.622	86.19
433.844	104.19
434.066	95.19
434.287	81.19
434.509	98.19
434.731	80.19
434.953	89.19
435.175	92.19
435.397	82.19
435.618	90.19
435.84	97.19
436.062	108.19
436.284	105.19
436.505	99.19
436.727	94.19
436.949	89.19
437.17	82.19
437.392	77.19
437.614	83.19
437.835	106.19
438.057	101.19
438.278	86.19
438.5	88.19
438.721	103.19
438.943	94.19
439.165	78.19
439.386	77.19
439.608	103.19
439.829	83.19
440.05	98.19
440.272	125.19
440.493	80.19
440.715	90.19
440.936	102.19
441.158	91.19
441.379	84.19
441.6	80.19
441.822	97.19
442.043	86.19
442.264	92.19
442.486	82.19
442.707	85.19
442.928	101.19
443.149	116.19
443.371	117.19
443.592	107.19
443.813	89.19
444.034	106.19
444.255	79.19
444.476	98.19
444.698	98.19
444.919	84.19
445.14	129.19
445.361	106.19
445.582	89.19
445.803	126.19
446.024	124.19
446.245	113.19
446.466	94.19
446.687	85.19
446.908	85.19
447.129	81.19
447.35	90.19
447.571	78.19
447.792	76.19
448.013	88.19
448.234	116.19
448.455	101.19
448.675	80.19
448.896	102.19
449.117	84.19
449.338	92.19
449.559	120.19
449.779	120.19
450	88.19
450.221	82.19
450.442	83.19
450.662	97.19
450.883	99.19
451.104	114.19
451.324	93.19
451.545	90.19
451.766	77.19
451.986	90.19
452.207	77.19
452.428	80.19
452.648	96.19
452.869	103.19
453.089	107.19
453.31	104.19
453.53	82.19
453.751	80.19
453.971	92.19
454.192	85.19
454.412	82.19
454.633	98.19
454.853	85.19
455.073	75.19
455.294	88.19
455.514	89.19
455.734	86.19
455.955	85.19
456.175	76.19
456.395	82.19
456.616	80.19
456.836	65.19
457.056	82.19
457.276	78.19
457.497	85.19
457.717	96.19
457.937	70.19
458.157	77.19
458.377	92.19
458.598	87.19
458.818	121.19
459.038	126.19
459.258	97.19
459.478	88.19
459.698	85.19
459.918	90.19
460.138	91.19
460.358	89.19
460.578	90.19
460.798	95.19
461.018	93.19
461.238	89.19
461.458	87.19
461.678	91.19
461.898	93.19
462.118	87.19
462.338	84.19
462.558	100.19
462.777	87.19
462.997	91.19
463.217	97.19
463.437	83.19
463.657	68.19
463.876	75.19
464.096	70.19
464.316	104.19
464.536	80.19
464.755	92.19
464.975	93.19
465.195	112.19
465.414	122.19
465.634	88.19
465.854	91.19
466.073	94.19
466.293	88.19
466.512	69.19
466.732	90.19
466.951	88.19
467.171	95.19
467.391	82.19
467.61	105.19
467.829	91.19
468.049	84.19
468.268	89.19
468.488	80.19
468.707	78.19
468.927	67.19
469.146	88.19
469.365	72.19
469.585	86.19
469.804	86.19
470.023	101.19
470.243	107.19
470.462	102.19
470.681	96.19
470.901	93.19
471.12	79.19
471.339	74.19
471.558	82.19
471.777	84.19
471.997	79.19
472.216	93.19
472.435	100.19
472.654	92.19
472.873	89.19
473.092	84.19
473.311	96.19
473.53	73.19
473.749	105.19
473.968	103.19
474.187	101.19
474.406	82.19
474.625	88.19
474.844	92.19
475.063	82.19
475.282	90.19
475.501	77.19
475.72	104.19
475.939	77.19
476.158	84.19
476.377	100.19
476.596	88.19
476.814	95.19
477.033	86.19
477.252	84.19
477.471	86.19
477.69	76.19
477.908	100.19
478.127	92.19
478.346	91.19
478.564	90.19
478.783	99.19
479.002	105.19
479.22	84.19
479.439	96.19
479.658	106.19
479.876	98.19
480.095	81.19
480.313	85.19
480.532	81.19
480.751	81.19
480.969	69.19
481.188	97.19
481.406	88.19
481.624	82.19
481.843	72.19
482.061	96.19
482.28	93.19
482.498	92.19
482.717	82.19
482.935	96.19
483.153	77.19
483.372	88.19
483.59	83.19
483.808	100.19
484.027	92.19
484.245	97.19
484.463	86.19
484.681	82.19
484.9	98.19
485.118	108.19
485.336	97.19
485.554	110.19
485.772	111.19
485.99	96.19
486.209	99.19
486.427	96.19
486.645	106.19
486.863	100.19
487.081	76.19
487.299	92.19
487.517	86.19
487.735	89.19
487.953	91.19
488.171	92.19
488.389	91.19
488.607	77.19
488.825	90.19
489.043	73.19
489.261	78.19
489.479	82.19
489.696	93.19
489.914	82.19
490.132	94.19
490.35	92.19
490.568	84.19
490.786	92.19
491.003	82.19
491.221	81.19
491.439	85.19
491.657	85.19
491.874	86.19
492.092	82.19
492.31	88.19
492.527	81.19
492.745	86.19
492.963	93.19
493.18	94.19
493.398	96.19
493.615	87.19
493.833	89.19
494.05	93.19
494.268	84.19
494.485	90.19
494.703	87.19
494.92	93.19
495.138	92.19
495.355	90.19
495.573	87.19
495.79	90.19
496.008	91.19
496.225	76.19
496.442	77.19
496.66	85.19
496.877	80.19
497.094	93.19
497.312	92.19
497.529	100.19
497.746	99.19
497.963	83.19
498.181	92.19
498.398	69.19
498.615	111.19
498.832	91.19
499.049	82.19
499.267	94.19
499.484	108.19
499.701	90.19
499.918	84.19
500.135	85.19
500.352	83.19
500.569	97.19
500.786	82.19
501.003	89.19
501.22	88.19
501.437	91.19
501.654	80.19
501.871	96.19
502.088	76.19
502.305	93.19
502.522	90.19
502.739	82.19
502.956	84.19
503.172	78.19
503.389	100.19
503.606	86.19
503.823	89.19
504.04	93.19
504.256	95.19
504.473	85.19
504.69	93.19
504.907	98.19
505.123	99.19
505.34	83.19
505.557	93.19
505.773	88.19
505.99	87.19
506.207	93.19
506.423	96.19
506.64	86.19
506.856	84.19
507.073	82.19
507.289	98.19
507.506	86.19
507.722	106.19
507.939	103.19
508.155	96.19
508.372	90.19
508.588	104.19
508.805	84.19
509.021	88.19
509.238	98.19
509.454	103.19
509.67	104.19
509.887	103.19
510.103	112.19
510.319	155.19
510.536	564.19
510.752	1634.19
510.968	475.19
511.184	146.19
511.401	106.19
511.617	92.19
511.833	91.19
512.049	91.19
512.265	92.19
512.481	97.19
512.698	87.19
512.914	81.19
513.13	88.19
513.346	90.19
513.562	92.19
513.778	92.19
513.994	107.19
514.21	102.19
514.426	114.19
514.642	117.19
514.858	113.19
515.074	134.19
515.29	323.19
515.506	986.19
515.721	372.19
515.937	132.19
516.153	105.19
516.369	82.19
