Data from Uncirc_1983_H10_HRD10591_00077.txt Node
Date: Wed Jan 03 12:25:47 EST 2024
User: Yrep
Spectrometer: HR+D1059
Trigger mode: 1
Integration Time (sec): 1.000000E-1
Scans to average: 1
Electric dark correction enabled: true
Nonlinearity correction enabled: false
Boxcar width: 0
XAxis mode: Wavelengths
Number of Pixels in Spectrum: 2048
>>>>>Begin Spectral Data<<<<<
223.165	-11.06
223.4	-11.06
223.635	-11.06
223.869	-33.06
224.104	-11.06
224.338	-25.06
224.573	-15.06
224.808	-9.06
225.042	-20.06
225.277	-5.06
225.511	-11.06
225.746	7.94
225.98	1.94
226.215	21.94
226.449	25.94
226.683	31.94
226.918	19.94
227.152	30.94
227.387	36.94
227.621	28.94
227.856	39.94
228.09	39.94
228.324	48.94
228.559	67.94
228.793	160.94
229.027	436.94
229.262	508.94
229.496	587.94
229.73	752.94
229.964	785.94
230.199	548.94
230.433	468.94
230.667	455.94
230.901	443.94
231.136	425.94
231.37	446.94
231.604	464.94
231.838	436.94
232.072	453.94
232.306	456.94
232.541	466.94
232.775	478.94
233.009	470.94
233.243	463.94
233.477	480.94
233.711	493.94
233.945	508.94
234.179	522.94
234.413	503.94
234.647	506.94
234.881	507.94
235.115	530.94
235.349	534.94
235.583	554.94
235.817	591.94
236.051	631.94
236.285	596.94
236.519	617.94
236.753	671.94
236.987	875.94
237.221	1332.94
237.455	1454.94
237.689	864.94
237.922	737.94
238.156	708.94
238.39	669.94
238.624	638.94
238.858	629.94
239.091	650.94
239.325	642.94
239.559	650.94
239.793	683.94
240.027	750.94
240.26	854.94
240.494	940.94
240.728	934.94
240.961	879.94
241.195	818.94
241.429	792.94
241.662	731.94
241.896	745.94
242.13	786.94
242.363	796.94
242.597	796.94
242.83	850.94
243.064	828.94
243.298	802.94
243.531	807.94
243.765	830.94
243.998	857.94
244.232	858.94
244.465	917.94
244.699	906.94
244.932	890.94
245.166	915.94
245.399	926.94
245.633	924.94
245.866	896.94
246.099	915.94
246.333	928.94
246.566	967.94
246.8	967.94
247.033	1028.94
247.266	1046.94
247.5	1106.94
247.733	1150.94
247.966	1142.94
248.2	1127.94
248.433	1156.94
248.666	1214.94
248.899	1290.94
249.133	1446.94
249.366	1407.94
249.599	1335.94
249.832	1230.94
250.066	1260.94
250.299	1337.94
250.532	1450.94
250.765	1619.94
250.998	1752.94
251.231	1643.94
251.465	1491.94
251.698	1422.94
251.931	1392.94
252.164	1386.94
252.397	1386.94
252.63	1483.94
252.863	1526.94
253.096	1649.94
253.329	1708.94
253.562	1646.94
253.795	1510.94
254.028	1567.94
254.261	1584.94
254.494	1846.94
254.727	2098.94
254.96	2191.94
255.193	1964.94
255.426	1806.94
255.659	1703.94
255.892	1818.94
256.124	1862.94
256.357	1803.94
256.59	1710.94
256.823	1614.94
257.056	1585.94
257.289	1543.94
257.521	1598.94
257.754	1580.94
257.987	1512.94
258.22	1518.94
258.452	1527.94
258.685	1563.94
258.918	1542.94
259.151	1622.94
259.383	1694.94
259.616	1699.94
259.849	1769.94
260.081	1922.94
260.314	2072.94
260.547	1978.94
260.779	1835.94
261.012	1746.94
261.244	1705.94
261.477	1720.94
261.71	1679.94
261.942	1748.94
262.175	1777.94
262.407	1744.94
262.64	1634.94
262.872	1641.94
263.105	1643.94
263.337	1667.94
263.57	1700.94
263.802	1675.94
264.035	1675.94
264.267	1698.94
264.499	1662.94
264.732	1652.94
264.964	1697.94
265.197	1680.94
265.429	1715.94
265.661	1722.94
265.894	1746.94
266.126	1752.94
266.358	1782.94
266.591	1789.94
266.823	1843.94
267.055	1863.94
267.287	1868.94
267.52	1826.94
267.752	1842.94
267.984	1844.94
268.216	1890.94
268.448	1904.94
268.681	1963.94
268.913	2107.94
269.145	2245.94
269.377	2320.94
269.609	2276.94
269.841	2247.94
270.073	2350.94
270.306	2581.94
270.538	2736.94
270.77	2657.94
271.002	2440.94
271.234	2426.94
271.466	2523.94
271.698	2668.94
271.93	2686.94
272.162	2709.94
272.394	2586.94
272.626	2482.94
272.858	2392.94
273.09	2276.94
273.322	2270.94
273.553	2201.94
273.785	2225.94
274.017	2224.94
274.249	2232.94
274.481	2251.94
274.713	2243.94
274.945	2280.94
275.176	2278.94
275.408	2243.94
275.64	2197.94
275.872	2241.94
276.104	2271.94
276.335	2275.94
276.567	2394.94
276.799	2542.94
277.031	2743.94
277.262	2826.94
277.494	2727.94
277.726	2595.94
277.957	2488.94
278.189	2416.94
278.421	2417.94
278.652	2385.94
278.884	2362.94
279.115	2364.94
279.347	2359.94
279.579	2394.94
279.81	2389.94
280.042	2363.94
280.273	2407.94
280.505	2435.94
280.736	2385.94
280.968	2361.94
281.199	2435.94
281.431	2454.94
281.662	2476.94
281.894	2473.94
282.125	2491.94
282.356	2700.94
282.588	2835.94
282.819	2676.94
283.051	2565.94
283.282	2533.94
283.513	2559.94
283.745	2584.94
283.976	2622.94
284.207	2652.94
284.439	2664.94
284.67	2633.94
284.901	2657.94
285.132	2652.94
285.364	2606.94
285.595	2625.94
285.826	2624.94
286.057	2662.94
286.288	2697.94
286.52	2671.94
286.751	2693.94
286.982	2681.94
287.213	2696.94
287.444	2772.94
287.675	2834.94
287.906	2918.94
288.138	2882.94
288.369	2931.94
288.6	2864.94
288.831	2890.94
289.062	2821.94
289.293	2763.94
289.524	2819.94
289.755	2807.94
289.986	2750.94
290.217	2784.94
290.448	2804.94
290.679	2822.94
290.91	2785.94
291.141	2768.94
291.371	2790.94
291.602	2808.94
291.833	2811.94
292.064	2816.94
292.295	2815.94
292.526	2767.94
292.757	2804.94
292.987	2803.94
293.218	2794.94
293.449	2860.94
293.68	2869.94
293.91	2840.94
294.141	2850.94
294.372	2840.94
294.603	2854.94
294.833	2893.94
295.064	2858.94
295.295	2891.94
295.525	2880.94
295.756	2921.94
295.987	3038.94
296.217	3165.94
296.448	3112.94
296.679	2965.94
296.909	2895.94
297.14	2968.94
297.37	3025.94
297.601	3067.94
297.831	3018.94
298.062	3046.94
298.292	3067.94
298.523	3101.94
298.753	3126.94
298.984	3093.94
299.214	3100.94
299.445	3091.94
299.675	3106.94
299.905	3204.94
300.136	3112.94
300.366	3191.94
300.597	3204.94
300.827	3299.94
301.057	3337.94
301.288	3372.94
301.518	3346.94
301.748	3317.94
301.979	3420.94
302.209	3382.94
302.439	3358.94
302.669	3267.94
302.9	3296.94
303.13	3294.94
303.36	3343.94
303.59	3365.94
303.82	3350.94
304.051	3345.94
304.281	3329.94
304.511	3283.94
304.741	3292.94
304.971	3299.94
305.201	3267.94
305.431	3252.94
305.661	3242.94
305.891	3194.94
306.121	3302.94
306.352	3312.94
306.582	3261.94
306.812	3189.94
307.042	3258.94
307.272	3266.94
307.502	3232.94
307.731	3256.94
307.961	3268.94
308.191	3201.94
308.421	3276.94
308.651	3272.94
308.881	3298.94
309.111	3332.94
309.341	3314.94
309.571	3407.94
309.8	3478.94
310.03	3540.94
310.26	3598.94
310.49	3566.94
310.72	3622.94
310.949	3771.94
311.179	3676.94
311.409	3674.94
311.639	3662.94
311.868	3680.94
312.098	3655.94
312.328	3712.94
312.557	3854.94
312.787	3940.94
313.017	3810.94
313.246	3686.94
313.476	3691.94
313.706	3724.94
313.935	3839.94
314.165	3869.94
314.394	3903.94
314.624	3853.94
314.853	3749.94
315.083	3756.94
315.312	3647.94
315.542	3732.94
315.771	3672.94
316.001	3673.94
316.23	3641.94
316.46	3715.94
316.689	3745.94
316.919	3709.94
317.148	3751.94
317.377	3790.94
317.607	3738.94
317.836	3721.94
318.065	3606.94
318.295	3640.94
318.524	3714.94
318.753	3653.94
318.983	3654.94
319.212	3621.94
319.441	3699.94
319.67	3749.94
319.9	3726.94
320.129	3680.94
320.358	3671.94
320.587	3713.94
320.816	3795.94
321.046	3801.94
321.275	3763.94
321.504	3808.94
321.733	3777.94
321.962	3884.94
322.191	3910.94
322.42	4066.94
322.649	4137.94
322.878	4169.94
323.108	4284.94
323.337	4485.94
323.566	4610.94
323.795	4891.94
324.024	5328.94
324.253	6828.94
324.482	10238.94
324.71	14753.94
324.939	15628.94
325.168	12062.94
325.397	6290.94
325.626	5181.94
325.855	4752.94
326.084	4721.94
326.313	4768.94
326.542	4862.94
326.77	5368.94
326.999	6692.94
327.228	9717.94
327.457	13874.94
327.686	13108.94
327.914	7101.94
328.143	5758.94
328.372	5466.94
328.6	5268.94
328.829	5178.94
329.058	5296.94
329.287	5265.94
329.515	5079.94
329.744	4870.94
329.972	4984.94
330.201	5221.94
330.43	5558.94
330.658	5524.94
330.887	5699.94
331.115	5353.94
331.344	5001.94
331.572	4833.94
331.801	5008.94
332.03	4985.94
332.258	5009.94
332.486	4978.94
332.715	5064.94
332.943	5300.94
333.172	5376.94
333.4	5525.94
333.629	5666.94
333.857	5876.94
334.085	5839.94
334.314	6011.94
334.542	6234.94
334.771	6170.94
334.999	5477.94
335.227	5352.94
335.455	5185.94
335.684	5176.94
335.912	5040.94
336.14	5006.94
336.369	4949.94
336.597	5043.94
336.825	4971.94
337.053	4800.94
337.281	4823.94
337.51	4769.94
337.738	4693.94
337.966	4674.94
338.194	4703.94
338.422	4648.94
338.65	4500.94
338.878	4494.94
339.106	4499.94
339.334	4467.94
339.562	4378.94
339.79	4412.94
340.018	4334.94
340.246	4350.94
340.474	4475.94
340.702	4398.94
340.93	4402.94
341.158	4424.94
341.386	4387.94
341.614	4330.94
341.842	4329.94
342.07	4270.94
342.298	4250.94
342.526	4286.94
342.754	4317.94
342.981	4288.94
343.209	4401.94
343.437	4686.94
343.665	4890.94
343.893	5087.94
344.12	5198.94
344.348	4950.94
344.576	4727.94
344.804	4731.94
345.031	4563.94
345.259	4601.94
345.487	4473.94
345.714	4326.94
345.942	4238.94
346.17	4137.94
346.397	4226.94
346.625	4230.94
346.853	4184.94
347.08	4106.94
347.308	4176.94
347.535	4221.94
347.763	4319.94
347.99	4176.94
348.218	4251.94
348.445	4282.94
348.673	4179.94
348.9	4164.94
349.128	4087.94
349.355	4051.94
349.583	4089.94
349.81	4049.94
350.037	3981.94
350.265	4054.94
350.492	4044.94
350.72	4003.94
350.947	4067.94
351.174	4162.94
351.402	4211.94
351.629	4152.94
351.856	4164.94
352.083	4192.94
352.311	4218.94
352.538	4219.94
352.765	4209.94
352.992	4117.94
353.22	4119.94
353.447	3965.94
353.674	3987.94
353.901	3889.94
354.128	4009.94
354.355	3915.94
354.583	3986.94
354.81	3929.94
355.037	3912.94
355.264	3930.94
355.491	3917.94
355.718	3931.94
355.945	3912.94
356.172	3947.94
356.399	3951.94
356.626	3966.94
356.853	4020.94
357.08	3930.94
357.307	3924.94
357.534	3947.94
357.761	3937.94
357.988	3915.94
358.215	3967.94
358.441	3915.94
358.668	3962.94
358.895	4046.94
359.122	4018.94
359.349	4123.94
359.576	4226.94
359.802	4358.94
360.029	4510.94
360.256	4487.94
360.483	4322.94
360.709	4242.94
360.936	4223.94
361.163	4168.94
361.39	4219.94
361.616	4207.94
361.843	4102.94
362.07	4164.94
362.296	4166.94
362.523	4181.94
362.749	4098.94
362.976	4107.94
363.203	4017.94
363.429	4102.94
363.656	4051.94
363.882	3970.94
364.109	3973.94
364.335	4021.94
364.562	4052.94
364.788	4065.94
365.015	4018.94
365.241	4015.94
365.468	4069.94
365.694	4114.94
365.92	4066.94
366.147	4007.94
366.373	4058.94
366.599	4048.94
366.826	4011.94
367.052	4026.94
367.278	3997.94
367.505	4049.94
367.731	4072.94
367.957	4012.94
368.184	4121.94
368.41	4182.94
368.636	4227.94
368.862	4174.94
369.089	4121.94
369.315	4095.94
369.541	4058.94
369.767	4169.94
369.993	4140.94
370.219	4211.94
370.445	4114.94
370.672	4213.94
370.898	4151.94
371.124	4262.94
371.35	4344.94
371.576	4298.94
371.802	4281.94
372.028	4216.94
372.254	4270.94
372.48	4331.94
372.706	4464.94
372.932	4440.94
373.158	4406.94
373.384	4336.94
373.61	4355.94
373.835	4363.94
374.061	4404.94
374.287	4462.94
374.513	4434.94
374.739	4666.94
374.965	4729.94
375.191	4730.94
375.416	4697.94
375.642	4487.94
375.868	4464.94
376.094	4431.94
376.319	4385.94
376.545	4297.94
376.771	4319.94
376.997	4336.94
377.222	4274.94
377.448	4266.94
377.674	4332.94
377.899	4197.94
378.125	4228.94
378.35	4231.94
378.576	4261.94
378.802	4200.94
379.027	4270.94
379.253	4256.94
379.478	4267.94
379.704	4238.94
379.929	4308.94
380.155	4320.94
380.38	4304.94
380.606	4344.94
380.831	4258.94
381.057	4307.94
381.282	4310.94
381.507	4306.94
381.733	4350.94
381.958	4393.94
382.184	4481.94
382.409	4501.94
382.634	4450.94
382.86	4527.94
383.085	4617.94
383.31	4676.94
383.535	4708.94
383.761	4744.94
383.986	4814.94
384.211	4966.94
384.436	5010.94
384.662	5007.94
384.887	5082.94
385.112	5127.94
385.337	5174.94
385.562	5131.94
385.787	5266.94
386.013	5268.94
386.238	5317.94
386.463	5252.94
386.688	5260.94
386.913	5172.94
387.138	5123.94
387.363	5185.94
387.588	5088.94
387.813	5093.94
388.038	5194.94
388.263	5208.94
388.488	5148.94
388.713	5139.94
388.938	5124.94
389.163	5151.94
389.387	5142.94
389.612	5036.94
389.837	5095.94
390.062	5070.94
390.287	5066.94
390.512	4985.94
390.736	5157.94
390.961	5238.94
391.186	5283.94
391.411	5466.94
391.636	5620.94
391.86	5735.94
392.085	5828.94
392.31	5774.94
392.534	5633.94
392.759	5509.94
392.984	5408.94
393.208	5362.94
393.433	5404.94
393.658	5326.94
393.882	5329.94
394.107	5311.94
394.331	5427.94
394.556	5392.94
394.78	5543.94
395.005	5512.94
395.229	5486.94
395.454	5737.94
395.678	5786.94
395.903	5797.94
396.127	5871.94
396.352	5682.94
396.576	5504.94
396.801	5454.94
397.025	5520.94
397.249	5709.94
397.474	5829.94
397.698	5770.94
397.922	5924.94
398.147	6056.94
398.371	6123.94
398.595	6371.94
398.82	6551.94
399.044	7185.94
399.268	7867.94
399.492	9018.94
399.717	9632.94
399.941	9335.94
400.165	8814.94
400.389	8046.94
400.613	7375.94
400.837	6898.94
401.062	6688.94
401.286	6562.94
401.51	6459.94
401.734	6526.94
401.958	6633.94
402.182	6745.94
402.406	6862.94
402.63	6962.94
402.854	7059.94
403.078	7080.94
403.302	7241.94
403.526	7324.94
403.75	7458.94
403.974	7454.94
404.198	7433.94
404.422	7550.94
404.645	7581.94
404.869	7438.94
405.093	7744.94
405.317	8053.94
405.541	7903.94
405.765	7443.94
405.988	7298.94
406.212	7429.94
406.436	7666.94
406.66	7788.94
406.883	7734.94
407.107	8308.94
407.331	8816.94
407.555	9376.94
407.778	9027.94
408.002	8309.94
408.226	7937.94
408.449	7794.94
408.673	7590.94
408.896	7827.94
409.12	7880.94
409.344	7515.94
409.567	7189.94
409.791	7188.94
410.014	7034.94
410.238	7011.94
410.461	7070.94
410.685	7105.94
410.908	7085.94
411.132	7323.94
411.355	7424.94
411.578	6956.94
411.802	6750.94
412.025	6771.94
412.249	7013.94
412.472	7235.94
412.695	7375.94
412.919	7011.94
413.142	6715.94
413.365	6587.94
413.589	6480.94
413.812	6418.94
414.035	6375.94
414.258	6392.94
414.482	6478.94
414.705	6484.94
414.928	6503.94
415.151	6415.94
415.374	6473.94
415.597	6403.94
415.821	6318.94
416.044	6283.94
416.267	6323.94
416.49	6213.94
416.713	6223.94
416.936	6352.94
417.159	6279.94
417.382	6302.94
417.605	6414.94
417.828	6513.94
418.051	6617.94
418.274	6531.94
418.497	6405.94
418.72	6478.94
418.943	6570.94
419.166	6958.94
419.389	7370.94
419.611	7204.94
419.834	7001.94
420.057	6846.94
420.28	6791.94
420.503	6483.94
420.726	6670.94
420.948	6715.94
421.171	7110.94
421.394	7042.94
421.617	6560.94
421.839	6566.94
422.062	6587.94
422.285	6799.94
422.507	7398.94
422.73	7890.94
422.953	7336.94
423.175	6976.94
423.398	7014.94
423.621	7052.94
423.843	7252.94
424.066	7213.94
424.288	7035.94
424.511	7302.94
424.733	7697.94
424.956	8178.94
425.178	7680.94
425.401	7899.94
425.623	7724.94
425.846	6727.94
426.068	6592.94
426.291	6510.94
426.513	6516.94
426.735	6544.94
426.958	7108.94
427.18	7764.94
427.402	8872.94
427.625	8997.94
427.847	7783.94
428.069	7142.94
428.292	6572.94
428.514	6101.94
428.736	5963.94
428.958	5999.94
429.181	5799.94
429.403	5849.94
429.625	6062.94
429.847	6296.94
430.069	6830.94
430.292	6290.94
430.514	5794.94
430.736	5826.94
430.958	5729.94
431.18	5686.94
431.402	5621.94
431.624	5570.94
431.846	5740.94
432.068	5786.94
432.29	5802.94
432.512	5750.94
432.734	5854.94
432.956	5711.94
433.178	5822.94
433.4	5805.94
433.622	5749.94
433.844	5774.94
434.066	5785.94
434.287	5884.94
434.509	6112.94
434.731	6343.94
434.953	6446.94
435.175	6579.94
435.397	6632.94
435.618	6535.94
435.84	6918.94
436.062	7849.94
436.284	7742.94
436.505	6488.94
436.727	6173.94
436.949	5992.94
437.17	5849.94
437.392	5765.94
437.614	5977.94
437.835	6305.94
438.057	7294.94
438.278	7849.94
438.5	7740.94
438.721	8555.94
438.943	7495.94
439.165	6387.94
439.386	6276.94
439.608	6278.94
439.829	6277.94
440.05	6628.94
440.272	6979.94
440.493	6411.94
440.715	6154.94
440.936	6137.94
441.158	6116.94
441.379	6226.94
441.6	6590.94
441.822	6783.94
442.043	7237.94
442.264	8010.94
442.486	7712.94
442.707	6911.94
442.928	6665.94
443.149	6986.94
443.371	7095.94
443.592	7704.94
443.813	8575.94
444.034	8462.94
444.255	7507.94
444.476	7346.94
444.698	7567.94
444.919	7688.94
445.14	7306.94
445.361	7288.94
445.582	7402.94
445.803	7890.94
446.024	8582.94
446.245	8203.94
446.466	7337.94
446.687	6379.94
446.908	6146.94
447.129	5824.94
447.35	5705.94
447.571	5605.94
447.792	5562.94
448.013	5591.94
448.234	5831.94
448.455	6409.94
448.675	7725.94
448.896	8037.94
449.117	6666.94
449.338	6920.94
449.559	8206.94
449.779	8244.94
450	6456.94
450.221	5734.94
450.442	5584.94
450.662	5471.94
450.883	5537.94
451.104	5586.94
451.324	5452.94
451.545	5287.94
451.766	5125.94
451.986	5044.94
452.207	5068.94
452.428	5055.94
452.648	5065.94
452.869	5123.94
453.089	5142.94
453.31	5214.94
453.53	5103.94
453.751	5036.94
453.971	5015.94
454.192	5162.94
454.412	4927.94
454.633	4911.94
454.853	4930.94
455.073	4922.94
455.294	5281.94
455.514	5886.94
455.734	5269.94
455.955	4788.94
456.175	4711.94
456.395	4638.94
456.616	4638.94
456.836	4714.94
457.056	4640.94
457.276	4551.94
457.497	4708.94
457.717	4730.94
457.937	4821.94
458.157	4872.94
458.377	4915.94
458.598	5304.94
458.818	5925.94
459.038	6687.94
459.258	6551.94
459.478	5914.94
459.698	5802.94
459.918	5956.94
460.138	6078.94
460.358	6318.94
460.578	6275.94
460.798	6372.94
461.018	6384.94
461.238	6192.94
461.458	6247.94
461.678	6243.94
461.898	6371.94
462.118	6400.94
462.338	6748.94
462.558	6851.94
462.777	7239.94
462.997	7815.94
463.217	8220.94
463.437	7986.94
463.657	7342.94
463.876	7126.94
464.096	7280.94
464.316	7271.94
464.536	7191.94
464.755	6974.94
464.975	6864.94
465.195	6940.94
465.414	6946.94
465.634	6166.94
465.854	5856.94
466.073	5575.94
466.293	5505.94
466.512	5331.94
466.732	5212.94
466.951	5209.94
467.171	5184.94
467.391	5318.94
467.61	5299.94
467.829	5286.94
468.049	5286.94
468.268	5215.94
468.488	5054.94
468.707	5008.94
468.927	5042.94
469.146	4978.94
469.365	5042.94
469.585	5125.94
469.804	5258.94
470.023	5435.94
470.243	5402.94
470.462	5524.94
470.681	5638.94
470.901	5530.94
471.12	5332.94
471.339	5348.94
471.558	5354.94
471.777	5171.94
471.997	5147.94
472.216	5233.94
472.435	5490.94
472.654	5217.94
472.873	5089.94
473.092	5022.94
473.311	5000.94
473.53	5061.94
473.749	5100.94
473.968	5641.94
474.187	6581.94
474.406	6198.94
474.625	5280.94
474.844	5046.94
475.063	5033.94
475.282	5065.94
475.501	5060.94
475.72	5108.94
475.939	5187.94
476.158	5238.94
476.377	5272.94
476.596	5146.94
476.814	5365.94
477.033	5447.94
477.252	5411.94
477.471	5542.94
477.69	5667.94
477.908	5783.94
478.127	5932.94
478.346	6001.94
478.564	6077.94
478.783	6112.94
479.002	6337.94
479.22	6348.94
479.439	6360.94
479.658	6468.94
479.876	6591.94
480.095	6766.94
480.313	7195.94
480.532	7036.94
480.751	6963.94
480.969	7006.94
481.188	7553.94
481.406	7301.94
481.624	6602.94
481.843	6312.94
482.061	6191.94
482.28	6112.94
482.498	5930.94
482.717	5958.94
482.935	5915.94
483.153	5898.94
483.372	5877.94
483.59	5902.94
483.808	5978.94
484.027	5962.94
484.245	6003.94
484.463	5984.94
484.681	6123.94
484.9	6060.94
485.118	6150.94
485.336	6224.94
485.554	6307.94
485.772	6304.94
485.99	6303.94
486.209	6303.94
486.427	6393.94
486.645	6348.94
486.863	6443.94
487.081	6330.94
487.299	6323.94
487.517	6379.94
487.735	6272.94
