Data from Uncirc_1983_H10_HRD10591_00051.txt Node
Date: Wed Jan 03 12:25:42 EST 2024
User: Yrep
Spectrometer: HR+D1059
Trigger mode: 1
Integration Time (sec): 1.000000E-1
Scans to average: 1
Electric dark correction enabled: true
Nonlinearity correction enabled: false
Boxcar width: 0
XAxis mode: Wavelengths
Number of Pixels in Spectrum: 2048
>>>>>Begin Spectral Data<<<<<
223.165	-20.81
223.4	-20.81
223.635	-20.81
223.869	-12.81
224.104	-28.81
224.338	-20.81
224.573	-12.81
224.808	-15.81
225.042	-0.81
225.277	-14.81
225.511	-15.81
225.746	-0.81
225.98	12.19
226.215	27.19
226.449	20.19
226.683	32.19
226.918	27.19
227.152	25.19
227.387	38.19
227.621	41.19
227.856	32.19
228.09	54.19
228.324	53.19
228.559	55.19
228.793	64.19
229.027	68.19
229.262	81.19
229.496	58.19
229.73	80.19
229.964	77.19
230.199	75.19
230.433	83.19
230.667	81.19
230.901	82.19
231.136	80.19
231.37	75.19
231.604	91.19
231.838	84.19
232.072	89.19
232.306	73.19
232.541	89.19
232.775	62.19
233.009	81.19
233.243	91.19
233.477	74.19
233.711	101.19
233.945	86.19
234.179	79.19
234.413	93.19
234.647	75.19
234.881	63.19
235.115	63.19
235.349	65.19
235.583	65.19
235.817	74.19
236.051	83.19
236.285	69.19
236.519	79.19
236.753	71.19
236.987	76.19
237.221	90.19
237.455	79.19
237.689	82.19
237.922	67.19
238.156	69.19
238.39	89.19
238.624	77.19
238.858	87.19
239.091	75.19
239.325	74.19
239.559	87.19
239.793	75.19
240.027	82.19
240.26	83.19
240.494	76.19
240.728	75.19
240.961	77.19
241.195	76.19
241.429	75.19
241.662	83.19
241.896	75.19
242.13	73.19
242.363	74.19
242.597	67.19
242.83	87.19
243.064	66.19
243.298	79.19
243.531	85.19
243.765	77.19
243.998	79.19
244.232	59.19
244.465	88.19
244.699	86.19
244.932	95.19
245.166	81.19
245.399	87.19
245.633	73.19
245.866	80.19
246.099	77.19
246.333	78.19
246.566	73.19
246.8	70.19
247.033	74.19
247.266	80.19
247.5	80.19
247.733	80.19
247.966	94.19
248.2	73.19
248.433	79.19
248.666	73.19
248.899	79.19
249.133	81.19
249.366	85.19
249.599	76.19
249.832	81.19
250.066	87.19
250.299	74.19
250.532	81.19
250.765	87.19
250.998	76.19
251.231	74.19
251.465	84.19
251.698	81.19
251.931	81.19
252.164	70.19
252.397	79.19
252.63	99.19
252.863	94.19
253.096	91.19
253.329	83.19
253.562	76.19
253.795	89.19
254.028	83.19
254.261	71.19
254.494	83.19
254.727	75.19
254.96	85.19
255.193	85.19
255.426	71.19
255.659	87.19
255.892	85.19
256.124	92.19
256.357	84.19
256.59	91.19
256.823	87.19
257.056	80.19
257.289	91.19
257.521	86.19
257.754	86.19
257.987	93.19
258.22	84.19
258.452	72.19
258.685	83.19
258.918	74.19
259.151	82.19
259.383	76.19
259.616	79.19
259.849	68.19
260.081	72.19
260.314	87.19
260.547	88.19
260.779	88.19
261.012	73.19
261.244	77.19
261.477	96.19
261.71	88.19
261.942	94.19
262.175	106.19
262.407	95.19
262.64	85.19
262.872	75.19
263.105	92.19
263.337	89.19
263.57	81.19
263.802	78.19
264.035	68.19
264.267	89.19
264.499	84.19
264.732	74.19
264.964	79.19
265.197	66.19
265.429	74.19
265.661	87.19
265.894	89.19
266.126	83.19
266.358	77.19
266.591	76.19
266.823	81.19
267.055	96.19
267.287	88.19
267.52	76.19
267.752	77.19
267.984	85.19
268.216	89.19
268.448	81.19
268.681	64.19
268.913	74.19
269.145	92.19
269.377	84.19
269.609	88.19
269.841	88.19
270.073	69.19
270.306	92.19
270.538	87.19
270.77	91.19
271.002	97.19
271.234	81.19
271.466	95.19
271.698	91.19
271.93	85.19
272.162	91.19
272.394	89.19
272.626	97.19
272.858	88.19
273.09	100.19
273.322	83.19
273.553	79.19
273.785	84.19
274.017	88.19
274.249	90.19
274.481	90.19
274.713	80.19
274.945	98.19
275.176	85.19
275.408	98.19
275.64	83.19
275.872	74.19
276.104	93.19
276.335	106.19
276.567	93.19
276.799	102.19
277.031	105.19
277.262	104.19
277.494	81.19
277.726	98.19
277.957	83.19
278.189	81.19
278.421	89.19
278.652	74.19
278.884	100.19
279.115	80.19
279.347	81.19
279.579	91.19
279.81	84.19
280.042	86.19
280.273	82.19
280.505	85.19
280.736	87.19
280.968	93.19
281.199	96.19
281.431	87.19
281.662	71.19
281.894	80.19
282.125	95.19
282.356	118.19
282.588	137.19
282.819	119.19
283.051	86.19
283.282	92.19
283.513	88.19
283.745	73.19
283.976	89.19
284.207	99.19
284.439	72.19
284.67	98.19
284.901	95.19
285.132	79.19
285.364	91.19
285.595	85.19
285.826	92.19
286.057	81.19
286.288	76.19
286.52	79.19
286.751	79.19
286.982	93.19
287.213	86.19
287.444	90.19
287.675	83.19
287.906	79.19
288.138	87.19
288.369	86.19
288.6	96.19
288.831	94.19
289.062	93.19
289.293	95.19
289.524	86.19
289.755	99.19
289.986	82.19
290.217	84.19
290.448	83.19
290.679	79.19
290.91	93.19
291.141	77.19
291.371	82.19
291.602	95.19
291.833	90.19
292.064	95.19
292.295	76.19
292.526	98.19
292.757	95.19
292.987	76.19
293.218	89.19
293.449	85.19
293.68	89.19
293.91	87.19
294.141	95.19
294.372	91.19
294.603	97.19
294.833	83.19
295.064	80.19
295.295	80.19
295.525	92.19
295.756	110.19
295.987	107.19
296.217	137.19
296.448	108.19
296.679	87.19
296.909	83.19
297.14	82.19
297.37	87.19
297.601	79.19
297.831	87.19
298.062	93.19
298.292	105.19
298.523	86.19
298.753	86.19
298.984	84.19
299.214	81.19
299.445	84.19
299.675	92.19
299.905	83.19
300.136	96.19
300.366	87.19
300.597	95.19
300.827	91.19
301.057	101.19
301.288	95.19
301.518	76.19
301.748	87.19
301.979	107.19
302.209	99.19
302.439	83.19
302.669	94.19
302.9	100.19
303.13	77.19
303.36	90.19
303.59	100.19
303.82	109.19
304.051	89.19
304.281	87.19
304.511	95.19
304.741	91.19
304.971	92.19
305.201	76.19
305.431	82.19
305.661	106.19
305.891	83.19
306.121	95.19
306.352	89.19
306.582	120.19
306.812	90.19
307.042	100.19
307.272	86.19
307.502	74.19
307.731	101.19
307.961	75.19
308.191	83.19
308.421	76.19
308.651	88.19
308.881	92.19
309.111	99.19
309.341	85.19
309.571	101.19
309.8	111.19
310.03	87.19
310.26	104.19
310.49	91.19
310.72	94.19
310.949	98.19
311.179	101.19
311.409	94.19
311.639	96.19
311.868	83.19
312.098	83.19
312.328	89.19
312.557	84.19
312.787	89.19
313.017	107.19
313.246	103.19
313.476	89.19
313.706	88.19
313.935	103.19
314.165	107.19
314.394	88.19
314.624	91.19
314.853	98.19
315.083	102.19
315.312	92.19
315.542	93.19
315.771	88.19
316.001	93.19
316.23	79.19
316.46	99.19
316.689	86.19
316.919	77.19
317.148	88.19
317.377	85.19
317.607	102.19
317.836	91.19
318.065	93.19
318.295	90.19
318.524	88.19
318.753	84.19
318.983	102.19
319.212	116.19
319.441	118.19
319.67	79.19
319.9	83.19
320.129	92.19
320.358	74.19
320.587	100.19
320.816	97.19
321.046	102.19
321.275	83.19
321.504	96.19
321.733	96.19
321.962	94.19
322.191	97.19
322.42	100.19
322.649	109.19
322.878	99.19
323.108	100.19
323.337	116.19
323.566	129.19
323.795	133.19
324.024	184.19
324.253	337.19
324.482	725.19
324.71	1522.19
324.939	2044.19
325.168	733.19
325.397	245.19
325.626	152.19
325.855	125.19
326.084	125.19
326.313	128.19
326.542	146.19
326.77	218.19
326.999	419.19
327.228	819.19
327.457	1575.19
327.686	1220.19
327.914	357.19
328.143	175.19
328.372	135.19
328.6	115.19
328.829	105.19
329.058	107.19
329.287	111.19
329.515	116.19
329.744	101.19
329.972	96.19
330.201	103.19
330.43	122.19
330.658	126.19
330.887	119.19
331.115	99.19
331.344	100.19
331.572	91.19
331.801	108.19
332.03	117.19
332.258	84.19
332.486	77.19
332.715	88.19
332.943	109.19
333.172	84.19
333.4	107.19
333.629	103.19
333.857	110.19
334.085	101.19
334.314	103.19
334.542	106.19
334.771	112.19
334.999	95.19
335.227	103.19
335.455	99.19
335.684	98.19
335.912	97.19
336.14	91.19
336.369	96.19
336.597	97.19
336.825	103.19
337.053	95.19
337.281	94.19
337.51	86.19
337.738	99.19
337.966	104.19
338.194	115.19
338.422	104.19
338.65	104.19
338.878	88.19
339.106	92.19
339.334	93.19
339.562	96.19
339.79	87.19
340.018	68.19
340.246	85.19
340.474	100.19
340.702	95.19
340.93	93.19
341.158	85.19
341.386	93.19
341.614	98.19
341.842	88.19
342.07	100.19
342.298	99.19
342.526	101.19
342.754	81.19
342.981	83.19
343.209	76.19
343.437	90.19
343.665	84.19
343.893	87.19
344.12	95.19
344.348	87.19
344.576	90.19
344.804	83.19
345.031	94.19
345.259	91.19
345.487	102.19
345.714	74.19
345.942	91.19
346.17	76.19
346.397	98.19
346.625	94.19
346.853	82.19
347.08	95.19
347.308	81.19
347.535	89.19
347.763	109.19
347.99	87.19
348.218	108.19
348.445	88.19
348.673	92.19
348.9	98.19
349.128	99.19
349.355	97.19
349.583	77.19
349.81	92.19
350.037	101.19
350.265	83.19
350.492	84.19
350.72	94.19
350.947	99.19
351.174	94.19
351.402	99.19
351.629	94.19
351.856	84.19
352.083	91.19
352.311	98.19
352.538	94.19
352.765	106.19
352.992	114.19
353.22	95.19
353.447	104.19
353.674	101.19
353.901	89.19
354.128	107.19
354.355	102.19
354.583	94.19
354.81	91.19
355.037	100.19
355.264	95.19
355.491	110.19
355.718	87.19
355.945	93.19
356.172	109.19
356.399	85.19
356.626	92.19
356.853	99.19
357.08	90.19
357.307	89.19
357.534	94.19
357.761	95.19
357.988	109.19
358.215	108.19
358.441	97.19
358.668	108.19
358.895	82.19
359.122	97.19
359.349	87.19
359.576	97.19
359.802	98.19
360.029	106.19
360.256	119.19
360.483	99.19
360.709	93.19
360.936	98.19
361.163	93.19
361.39	97.19
361.616	76.19
361.843	91.19
362.07	95.19
362.296	84.19
362.523	91.19
362.749	93.19
362.976	80.19
363.203	92.19
363.429	105.19
363.656	96.19
363.882	83.19
364.109	85.19
364.335	88.19
364.562	90.19
364.788	87.19
365.015	88.19
365.241	106.19
365.468	109.19
365.694	99.19
365.92	101.19
366.147	101.19
366.373	88.19
366.599	92.19
366.826	84.19
367.052	86.19
367.278	69.19
367.505	86.19
367.731	105.19
367.957	98.19
368.184	82.19
368.41	109.19
368.636	108.19
368.862	119.19
369.089	99.19
369.315	87.19
369.541	97.19
369.767	90.19
369.993	91.19
370.219	78.19
370.445	77.19
370.672	97.19
370.898	73.19
371.124	72.19
371.35	90.19
371.576	92.19
371.802	86.19
372.028	100.19
372.254	84.19
372.48	88.19
372.706	88.19
372.932	82.19
373.158	97.19
373.384	91.19
373.61	92.19
373.835	99.19
374.061	85.19
374.287	90.19
374.513	105.19
374.739	83.19
374.965	83.19
375.191	87.19
375.416	79.19
375.642	92.19
375.868	95.19
376.094	107.19
376.319	84.19
376.545	85.19
376.771	93.19
376.997	92.19
377.222	85.19
377.448	94.19
377.674	72.19
377.899	85.19
378.125	104.19
378.35	102.19
378.576	97.19
378.802	95.19
379.027	81.19
379.253	86.19
379.478	94.19
379.704	91.19
379.929	93.19
380.155	93.19
380.38	85.19
380.606	95.19
380.831	92.19
381.057	95.19
381.282	90.19
381.507	91.19
381.733	87.19
381.958	95.19
382.184	109.19
382.409	95.19
382.634	90.19
382.86	101.19
383.085	101.19
383.31	88.19
383.535	101.19
383.761	100.19
383.986	92.19
384.211	105.19
384.436	100.19
384.662	90.19
384.887	100.19
385.112	92.19
385.337	98.19
385.562	96.19
385.787	98.19
386.013	100.19
386.238	118.19
386.463	101.19
386.688	98.19
386.913	91.19
387.138	101.19
387.363	91.19
387.588	88.19
387.813	103.19
388.038	93.19
388.263	95.19
388.488	104.19
388.713	81.19
388.938	99.19
389.163	79.19
389.387	99.19
389.612	89.19
389.837	92.19
390.062	96.19
390.287	101.19
390.512	83.19
390.736	73.19
390.961	78.19
391.186	90.19
391.411	93.19
391.636	95.19
391.86	99.19
392.085	105.19
392.31	82.19
392.534	81.19
392.759	94.19
392.984	89.19
393.208	96.19
393.433	85.19
393.658	94.19
393.882	89.19
394.107	85.19
394.331	83.19
394.556	92.19
394.78	91.19
395.005	89.19
395.229	73.19
395.454	91.19
395.678	88.19
395.903	87.19
396.127	83.19
396.352	85.19
396.576	110.19
396.801	87.19
397.025	87.19
397.249	71.19
397.474	90.19
397.698	71.19
397.922	81.19
398.147	67.19
398.371	63.19
398.595	90.19
398.82	99.19
399.044	72.19
399.268	88.19
399.492	87.19
399.717	74.19
399.941	84.19
400.165	103.19
400.389	82.19
400.613	94.19
400.837	91.19
401.062	86.19
401.286	79.19
401.51	80.19
401.734	91.19
401.958	88.19
402.182	115.19
402.406	148.19
402.63	114.19
402.854	110.19
403.078	86.19
403.302	81.19
403.526	83.19
403.75	84.19
403.974	91.19
404.198	78.19
404.422	95.19
404.645	84.19
404.869	88.19
405.093	88.19
405.317	89.19
405.541	95.19
405.765	101.19
405.988	100.19
406.212	147.19
406.436	216.19
406.66	124.19
406.883	102.19
407.107	102.19
407.331	90.19
407.555	105.19
407.778	93.19
408.002	86.19
408.226	89.19
408.449	85.19
408.673	97.19
408.896	106.19
409.12	85.19
409.344	92.19
409.567	97.19
409.791	103.19
410.014	101.19
410.238	84.19
410.461	73.19
410.685	89.19
410.908	101.19
411.132	95.19
411.355	106.19
411.578	114.19
411.802	92.19
412.025	89.19
412.249	82.19
412.472	85.19
412.695	103.19
412.919	87.19
413.142	84.19
413.365	89.19
413.589	103.19
413.812	95.19
414.035	100.19
414.258	88.19
414.482	81.19
414.705	81.19
414.928	96.19
415.151	78.19
415.374	88.19
415.597	83.19
415.821	91.19
416.044	99.19
416.267	91.19
416.49	80.19
416.713	74.19
416.936	87.19
417.159	90.19
417.382	97.19
417.605	86.19
417.828	85.19
418.051	81.19
418.274	103.19
418.497	91.19
418.72	81.19
418.943	86.19
419.166	89.19
419.389	85.19
419.611	90.19
419.834	77.19
420.057	89.19
420.28	89.19
420.503	87.19
420.726	90.19
420.948	86.19
421.171	86.19
421.394	90.19
421.617	87.19
421.839	88.19
422.062	83.19
422.285	94.19
422.507	100.19
422.73	106.19
422.953	103.19
423.175	90.19
423.398	92.19
423.621	91.19
423.843	93.19
424.066	95.19
424.288	81.19
424.511	80.19
424.733	92.19
424.956	106.19
425.178	89.19
425.401	94.19
425.623	89.19
425.846	91.19
426.068	99.19
426.291	83.19
426.513	96.19
426.735	92.19
426.958	99.19
427.18	98.19
427.402	131.19
427.625	136.19
427.847	112.19
428.069	95.19
428.292	101.19
428.514	76.19
428.736	93.19
428.958	87.19
429.181	84.19
429.403	89.19
429.625	72.19
429.847	101.19
430.069	94.19
430.292	95.19
430.514	88.19
430.736	83.19
430.958	82.19
431.18	87.19
431.402	93.19
431.624	102.19
431.846	79.19
432.068	89.19
432.29	83.19
432.512	90.19
432.734	99.19
432.956	86.19
433.178	103.19
433.4	100.19
433.622	91.19
433.844	90.19
434.066	91.19
434.287	97.19
434.509	81.19
434.731	83.19
434.953	85.19
435.175	85.19
435.397	77.19
435.618	90.19
435.84	101.19
436.062	121.19
436.284	109.19
436.505	79.19
436.727	93.19
436.949	104.19
437.17	87.19
437.392	92.19
437.614	97.19
437.835	94.19
438.057	111.19
438.278	104.19
438.5	93.19
438.721	119.19
438.943	87.19
439.165	81.19
439.386	83.19
439.608	75.19
439.829	113.19
440.05	122.19
440.272	128.19
440.493	88.19
440.715	81.19
440.936	85.19
441.158	99.19
441.379	88.19
441.6	86.19
441.822	86.19
442.043	91.19
442.264	109.19
442.486	96.19
442.707	100.19
442.928	100.19
443.149	123.19
443.371	122.19
443.592	105.19
443.813	115.19
444.034	108.19
444.255	81.19
444.476	85.19
444.698	83.19
444.919	73.19
445.14	133.19
445.361	123.19
445.582	120.19
445.803	119.19
446.024	111.19
446.245	140.19
446.466	101.19
446.687	91.19
446.908	102.19
447.129	90.19
447.35	86.19
447.571	96.19
447.792	101.19
448.013	91.19
448.234	115.19
448.455	109.19
448.675	115.19
448.896	106.19
449.117	89.19
449.338	111.19
449.559	129.19
449.779	129.19
450	95.19
450.221	78.19
450.442	93.19
450.662	77.19
450.883	113.19
451.104	118.19
451.324	96.19
451.545	91.19
451.766	85.19
451.986	80.19
452.207	99.19
452.428	90.19
452.648	101.19
452.869	107.19
453.089	102.19
453.31	100.19
453.53	81.19
453.751	83.19
453.971	99.19
454.192	107.19
454.412	101.19
454.633	90.19
454.853	93.19
455.073	62.19
455.294	87.19
455.514	85.19
455.734	103.19
455.955	82.19
456.175	91.19
456.395	79.19
456.616	89.19
456.836	91.19
457.056	80.19
457.276	84.19
457.497	80.19
457.717	87.19
457.937	88.19
458.157	96.19
458.377	84.19
458.598	101.19
458.818	130.19
459.038	143.19
459.258	109.19
459.478	89.19
459.698	92.19
459.918	90.19
460.138	89.19
460.358	81.19
460.578	91.19
460.798	95.19
461.018	85.19
461.238	87.19
461.458	71.19
461.678	90.19
461.898	92.19
462.118	98.19
462.338	102.19
462.558	96.19
462.777	89.19
462.997	90.19
463.217	82.19
463.437	92.19
463.657	75.19
463.876	84.19
464.096	86.19
464.316	81.19
464.536	99.19
464.755	99.19
464.975	107.19
465.195	140.19
465.414	139.19
465.634	101.19
465.854	93.19
466.073	85.19
466.293	91.19
466.512	82.19
466.732	83.19
466.951	79.19
467.171	78.19
467.391	89.19
467.61	103.19
467.829	100.19
468.049	91.19
468.268	73.19
468.488	87.19
468.707	86.19
468.927	77.19
469.146	77.19
469.365	95.19
469.585	79.19
469.804	99.19
470.023	102.19
470.243	107.19
470.462	99.19
470.681	100.19
470.901	76.19
471.12	90.19
471.339	92.19
471.558	102.19
471.777	77.19
471.997	97.19
472.216	106.19
472.435	120.19
472.654	93.19
472.873	88.19
473.092	88.19
473.311	100.19
473.53	90.19
473.749	86.19
473.968	92.19
474.187	97.19
474.406	97.19
474.625	100.19
474.844	92.19
475.063	76.19
475.282	94.19
475.501	88.19
475.72	85.19
475.939	78.19
476.158	93.19
476.377	81.19
476.596	91.19
476.814	89.19
477.033	104.19
477.252	84.19
477.471	85.19
477.69	86.19
477.908	81.19
478.127	89.19
478.346	88.19
478.564	77.19
478.783	95.19
479.002	88.19
479.22	86.19
479.439	103.19
479.658	90.19
479.876	93.19
480.095	82.19
480.313	89.19
480.532	100.19
480.751	84.19
480.969	108.19
481.188	129.19
481.406	121.19
481.624	96.19
481.843	87.19
482.061	99.19
482.28	83.19
482.498	96.19
482.717	90.19
482.935	86.19
483.153	90.19
483.372	91.19
483.59	86.19
483.808	92.19
484.027	89.19
484.245	91.19
484.463	95.19
484.681	84.19
484.9	97.19
485.118	95.19
485.336	104.19
485.554	92.19
485.772	93.19
485.99	101.19
486.209	109.19
486.427	100.19
486.645	111.19
486.863	106.19
487.081	87.19
487.299	103.19
487.517	93.19
487.735	90.19
487.953	93.19
488.171	75.19
488.389	76.19
488.607	95.19
488.825	97.19
489.043	104.19
489.261	98.19
489.479	98.19
489.696	101.19
489.914	87.19
490.132	87.19
490.35	79.19
490.568	101.19
490.786	87.19
491.003	90.19
491.221	97.19
491.439	89.19
491.657	100.19
491.874	80.19
492.092	95.19
492.31	84.19
492.527	93.19
492.745	95.19
492.963	94.19
493.18	99.19
493.398	95.19
493.615	97.19
493.833	95.19
494.05	81.19
494.268	74.19
494.485	92.19
494.703	76.19
494.92	77.19
495.138	88.19
495.355	92.19
495.573	82.19
495.79	72.19
496.008	78.19
496.225	100.19
496.442	90.19
496.66	77.19
496.877	81.19
497.094	100.19
497.312	85.19
497.529	97.19
497.746	91.19
497.963	93.19
498.181	99.19
498.398	109.19
498.615	116.19
498.832	89.19
499.049	81.19
499.267	87.19
499.484	93.19
499.701	88.19
499.918	92.19
500.135	104.19
500.352	95.19
500.569	87.19
500.786	90.19
501.003	81.19
501.22	81.19
501.437	109.19
501.654	106.19
501.871	107.19
502.088	92.19
502.305	91.19
502.522	99.19
502.739	93.19
502.956	85.19
503.172	85.19
503.389	99.19
503.606	105.19
503.823	74.19
504.04	92.19
504.256	86.19
504.473	92.19
504.69	93.19
504.907	93.19
505.123	89.19
505.34	96.19
505.557	89.19
505.773	83.19
505.99	81.19
506.207	79.19
506.423	83.19
506.64	83.19
506.856	93.19
507.073	73.19
507.289	84.19
507.506	96.19
507.722	106.19
507.939	116.19
508.155	92.19
508.372	84.19
508.588	98.19
508.805	90.19
509.021	95.19
509.238	94.19
509.454	97.19
509.67	95.19
509.887	113.19
510.103	129.19
510.319	195.19
510.536	696.19
510.752	2140.19
510.968	598.19
511.184	138.19
511.401	92.19
511.617	104.19
511.833	85.19
512.049	93.19
512.265	92.19
512.481	108.19
512.698	94.19
512.914	97.19
513.13	79.19
513.346	88.19
513.562	90.19
513.778	111.19
513.994	103.19
514.21	90.19
514.426	128.19
514.642	128.19
514.858	113.19
515.074	165.19
515.29	375.19
515.506	1275.19
515.721	454.19
515.937	148.19
