Data from Circ_1999_H10_HRD10591_00007.txt Node
Date: Wed Jan 03 11:23:14 EST 2024
User: Yrep
Spectrometer: HR+D1059
Trigger mode: 1
Integration Time (sec): 1.000000E-1
Scans to average: 1
Electric dark correction enabled: true
Nonlinearity correction enabled: false
Boxcar width: 0
XAxis mode: Wavelengths
Number of Pixels in Spectrum: 2048
>>>>>Begin Spectral Data<<<<<
223.165	-19.5
223.4	-19.5
223.635	-19.5
223.869	-17.5
224.104	-31.5
224.338	-25.5
224.573	-5.5
224.808	-8.5
225.042	-15.5
225.277	-7.5
225.511	-3.5
225.746	0.5
225.98	20.5
226.215	17.5
226.449	20.5
226.683	19.5
226.918	21.5
227.152	34.5
227.387	33.5
227.621	55.5
227.856	37.5
228.09	42.5
228.324	71.5
228.559	63.5
228.793	73.5
229.027	62.5
229.262	64.5
229.496	73.5
229.73	102.5
229.964	92.5
230.199	66.5
230.433	88.5
230.667	84.5
230.901	87.5
231.136	66.5
231.37	83.5
231.604	89.5
231.838	83.5
232.072	95.5
232.306	79.5
232.541	67.5
232.775	85.5
233.009	79.5
233.243	91.5
233.477	77.5
233.711	91.5
233.945	89.5
234.179	77.5
234.413	85.5
234.647	90.5
234.881	76.5
235.115	76.5
235.349	84.5
235.583	80.5
235.817	75.5
236.051	75.5
236.285	80.5
236.519	67.5
236.753	82.5
236.987	91.5
237.221	100.5
237.455	101.5
237.689	82.5
237.922	91.5
238.156	75.5
238.39	81.5
238.624	61.5
238.858	83.5
239.091	82.5
239.325	85.5
239.559	97.5
239.793	94.5
240.027	79.5
240.26	70.5
240.494	93.5
240.728	78.5
240.961	79.5
241.195	82.5
241.429	89.5
241.662	71.5
241.896	73.5
242.13	81.5
242.363	92.5
242.597	65.5
242.83	85.5
243.064	87.5
243.298	74.5
243.531	95.5
243.765	65.5
243.998	77.5
244.232	88.5
244.465	84.5
244.699	93.5
244.932	84.5
245.166	80.5
245.399	66.5
245.633	87.5
245.866	89.5
246.099	89.5
246.333	92.5
246.566	87.5
246.8	91.5
247.033	78.5
247.266	91.5
247.5	89.5
247.733	71.5
247.966	85.5
248.2	98.5
248.433	87.5
248.666	83.5
248.899	93.5
249.133	100.5
249.366	112.5
249.599	114.5
249.832	97.5
250.066	82.5
250.299	96.5
250.532	105.5
250.765	95.5
250.998	75.5
251.231	90.5
251.465	95.5
251.698	88.5
251.931	96.5
252.164	85.5
252.397	88.5
252.63	82.5
252.863	80.5
253.096	94.5
253.329	90.5
253.562	80.5
253.795	63.5
254.028	76.5
254.261	88.5
254.494	90.5
254.727	80.5
254.96	89.5
255.193	92.5
255.426	75.5
255.659	93.5
255.892	88.5
256.124	94.5
256.357	95.5
256.59	93.5
256.823	89.5
257.056	79.5
257.289	89.5
257.521	86.5
257.754	87.5
257.987	89.5
258.22	90.5
258.452	95.5
258.685	92.5
258.918	103.5
259.151	89.5
259.383	87.5
259.616	94.5
259.849	95.5
260.081	84.5
260.314	90.5
260.547	92.5
260.779	107.5
261.012	132.5
261.244	113.5
261.477	99.5
261.71	113.5
261.942	131.5
262.175	170.5
262.407	110.5
262.64	93.5
262.872	75.5
263.105	90.5
263.337	96.5
263.57	99.5
263.802	98.5
264.035	81.5
264.267	89.5
264.499	77.5
264.732	85.5
264.964	73.5
265.197	86.5
265.429	79.5
265.661	94.5
265.894	85.5
266.126	77.5
266.358	87.5
266.591	90.5
266.823	94.5
267.055	89.5
267.287	87.5
267.52	80.5
267.752	84.5
267.984	87.5
268.216	83.5
268.448	94.5
268.681	91.5
268.913	97.5
269.145	96.5
269.377	87.5
269.609	79.5
269.841	88.5
270.073	86.5
270.306	91.5
270.538	76.5
270.77	98.5
271.002	100.5
271.234	82.5
271.466	106.5
271.698	88.5
271.93	93.5
272.162	92.5
272.394	105.5
272.626	107.5
272.858	101.5
273.09	98.5
273.322	98.5
273.553	83.5
273.785	87.5
274.017	98.5
274.249	90.5
274.481	80.5
274.713	97.5
274.945	85.5
275.176	91.5
275.408	105.5
275.64	115.5
275.872	129.5
276.104	114.5
276.335	99.5
276.567	133.5
276.799	166.5
277.031	184.5
277.262	192.5
277.494	151.5
277.726	113.5
277.957	90.5
278.189	91.5
278.421	96.5
278.652	95.5
278.884	98.5
279.115	106.5
279.347	92.5
279.579	103.5
279.81	148.5
280.042	195.5
280.273	256.5
280.505	179.5
280.736	124.5
280.968	82.5
281.199	97.5
281.431	96.5
281.662	89.5
281.894	103.5
282.125	117.5
282.356	142.5
282.588	188.5
282.819	141.5
283.051	105.5
283.282	90.5
283.513	104.5
283.745	89.5
283.976	87.5
284.207	107.5
284.439	92.5
284.67	84.5
284.901	110.5
285.132	104.5
285.364	84.5
285.595	104.5
285.826	94.5
286.057	91.5
286.288	91.5
286.52	68.5
286.751	88.5
286.982	98.5
287.213	77.5
287.444	76.5
287.675	91.5
287.906	98.5
288.138	117.5
288.369	100.5
288.6	103.5
288.831	92.5
289.062	90.5
289.293	92.5
289.524	101.5
289.755	91.5
289.986	103.5
290.217	86.5
290.448	106.5
290.679	101.5
290.91	80.5
291.141	95.5
291.371	84.5
291.602	79.5
291.833	92.5
292.064	91.5
292.295	103.5
292.526	87.5
292.757	121.5
292.987	97.5
293.218	84.5
293.449	103.5
293.68	84.5
293.91	96.5
294.141	95.5
294.372	98.5
294.603	92.5
294.833	92.5
295.064	95.5
295.295	108.5
295.525	81.5
295.756	126.5
295.987	157.5
296.217	192.5
296.448	139.5
296.679	116.5
296.909	95.5
297.14	93.5
297.37	90.5
297.601	91.5
297.831	87.5
298.062	118.5
298.292	92.5
298.523	97.5
298.753	94.5
298.984	94.5
299.214	96.5
299.445	103.5
299.675	99.5
299.905	78.5
300.136	96.5
300.366	100.5
300.597	76.5
300.827	100.5
301.057	114.5
301.288	107.5
301.518	112.5
301.748	104.5
301.979	113.5
302.209	124.5
302.439	111.5
302.669	91.5
302.9	95.5
303.13	109.5
303.36	111.5
303.59	164.5
303.82	155.5
304.051	101.5
304.281	110.5
304.511	103.5
304.741	95.5
304.971	96.5
305.201	88.5
305.431	106.5
305.661	85.5
305.891	105.5
306.121	96.5
306.352	110.5
306.582	139.5
306.812	120.5
307.042	138.5
307.272	174.5
307.502	180.5
307.731	158.5
307.961	120.5
308.191	93.5
308.421	98.5
308.651	112.5
308.881	94.5
309.111	117.5
309.341	97.5
309.571	103.5
309.8	105.5
310.03	120.5
310.26	109.5
310.49	104.5
310.72	113.5
310.949	146.5
311.179	125.5
311.409	111.5
311.639	107.5
311.868	95.5
312.098	108.5
312.328	93.5
312.557	119.5
312.787	149.5
313.017	124.5
313.246	103.5
313.476	97.5
313.706	107.5
313.935	120.5
314.165	128.5
314.394	109.5
314.624	112.5
314.853	105.5
315.083	93.5
315.312	105.5
315.542	99.5
315.771	105.5
316.001	105.5
316.23	100.5
316.46	98.5
316.689	115.5
316.919	107.5
317.148	116.5
317.377	104.5
317.607	98.5
317.836	98.5
318.065	82.5
318.295	88.5
318.524	100.5
318.753	101.5
318.983	101.5
319.212	112.5
319.441	120.5
319.67	142.5
319.9	114.5
320.129	103.5
320.358	91.5
320.587	92.5
320.816	120.5
321.046	114.5
321.275	82.5
321.504	93.5
321.733	100.5
321.962	120.5
322.191	113.5
322.42	129.5
322.649	137.5
322.878	123.5
323.108	141.5
323.337	169.5
323.566	171.5
323.795	178.5
324.024	252.5
324.253	496.5
324.482	1010.5
324.71	1999.5
324.939	2608.5
325.168	988.5
325.397	303.5
325.626	189.5
325.855	153.5
326.084	135.5
326.313	158.5
326.542	186.5
326.77	279.5
326.999	519.5
327.228	997.5
327.457	1813.5
327.686	1473.5
327.914	569.5
328.143	555.5
328.372	703.5
328.6	388.5
328.829	227.5
329.058	220.5
329.287	222.5
329.515	192.5
329.744	282.5
329.972	516.5
330.201	1056.5
330.43	1465.5
330.658	673.5
330.887	355.5
331.115	234.5
331.344	126.5
331.572	138.5
331.801	144.5
332.03	145.5
332.258	136.5
332.486	128.5
332.715	104.5
332.943	117.5
333.172	123.5
333.4	147.5
333.629	180.5
333.857	263.5
334.085	452.5
334.314	963.5
334.542	1806.5
334.771	1663.5
334.999	443.5
335.227	185.5
335.455	139.5
335.684	115.5
335.912	128.5
336.14	116.5
336.369	129.5
336.597	123.5
336.825	125.5
337.053	110.5
337.281	106.5
337.51	105.5
337.738	110.5
337.966	98.5
338.194	117.5
338.422	114.5
338.65	111.5
338.878	107.5
339.106	104.5
339.334	102.5
339.562	102.5
339.79	86.5
340.018	96.5
340.246	100.5
340.474	104.5
340.702	94.5
340.93	97.5
341.158	95.5
341.386	101.5
341.614	114.5
341.842	107.5
342.07	98.5
342.298	105.5
342.526	99.5
342.754	93.5
342.981	101.5
343.209	91.5
343.437	101.5
343.665	97.5
343.893	86.5
344.12	110.5
344.348	101.5
344.576	99.5
344.804	93.5
345.031	112.5
345.259	124.5
345.487	103.5
345.714	107.5
345.942	107.5
346.17	96.5
346.397	113.5
346.625	90.5
346.853	111.5
347.08	84.5
347.308	100.5
347.535	116.5
347.763	135.5
347.99	110.5
348.218	108.5
348.445	140.5
348.673	116.5
348.9	107.5
349.128	99.5
349.355	104.5
349.583	80.5
349.81	113.5
350.037	107.5
350.265	107.5
350.492	102.5
350.72	99.5
350.947	107.5
351.174	124.5
351.402	128.5
351.629	117.5
351.856	127.5
352.083	120.5
352.311	125.5
352.538	136.5
352.765	135.5
352.992	119.5
353.22	138.5
353.447	131.5
353.674	104.5
353.901	100.5
354.128	93.5
354.355	119.5
354.583	112.5
354.81	108.5
355.037	97.5
355.264	108.5
355.491	111.5
355.718	103.5
355.945	105.5
356.172	91.5
356.399	75.5
356.626	110.5
356.853	84.5
357.08	103.5
357.307	89.5
357.534	91.5
357.761	96.5
357.988	109.5
358.215	89.5
358.441	109.5
358.668	85.5
358.895	103.5
359.122	95.5
359.349	93.5
359.576	132.5
359.802	130.5
360.029	178.5
360.256	171.5
360.483	127.5
360.709	91.5
360.936	111.5
361.163	98.5
361.39	101.5
361.616	127.5
361.843	99.5
362.07	113.5
362.296	131.5
362.523	102.5
362.749	106.5
362.976	104.5
363.203	97.5
363.429	105.5
363.656	100.5
363.882	111.5
364.109	90.5
364.335	103.5
364.562	100.5
364.788	107.5
365.015	110.5
365.241	124.5
365.468	128.5
365.694	126.5
365.92	114.5
366.147	114.5
366.373	97.5
366.599	95.5
366.826	103.5
367.052	97.5
367.278	106.5
367.505	104.5
367.731	95.5
367.957	109.5
368.184	101.5
368.41	112.5
368.636	138.5
368.862	151.5
369.089	135.5
369.315	132.5
369.541	109.5
369.767	92.5
369.993	114.5
370.219	93.5
370.445	103.5
370.672	103.5
370.898	91.5
371.124	104.5
371.35	95.5
371.576	103.5
371.802	88.5
372.028	101.5
372.254	98.5
372.48	97.5
372.706	97.5
372.932	98.5
373.158	91.5
373.384	85.5
373.61	97.5
373.835	115.5
374.061	88.5
374.287	103.5
374.513	90.5
374.739	88.5
374.965	95.5
375.191	96.5
375.416	108.5
375.642	85.5
375.868	108.5
376.094	101.5
376.319	89.5
376.545	96.5
376.771	101.5
376.997	90.5
377.222	98.5
377.448	95.5
377.674	97.5
377.899	108.5
378.125	104.5
378.35	94.5
378.576	91.5
378.802	109.5
379.027	103.5
379.253	106.5
379.478	96.5
379.704	92.5
379.929	108.5
380.155	113.5
380.38	109.5
380.606	97.5
380.831	124.5
381.057	103.5
381.282	94.5
381.507	108.5
381.733	124.5
381.958	109.5
382.184	108.5
382.409	113.5
382.634	100.5
382.86	110.5
383.085	117.5
383.31	127.5
383.535	117.5
383.761	111.5
383.986	120.5
384.211	107.5
384.436	98.5
384.662	122.5
384.887	107.5
385.112	123.5
385.337	110.5
385.562	149.5
385.787	139.5
386.013	145.5
386.238	162.5
386.463	124.5
386.688	122.5
386.913	127.5
387.138	123.5
387.363	124.5
387.588	119.5
387.813	117.5
388.038	109.5
388.263	136.5
388.488	121.5
388.713	115.5
388.938	97.5
389.163	97.5
389.387	86.5
389.612	103.5
389.837	93.5
390.062	101.5
390.287	103.5
390.512	100.5
390.736	94.5
390.961	91.5
391.186	88.5
391.411	91.5
391.636	96.5
391.86	85.5
392.085	64.5
392.31	83.5
392.534	103.5
392.759	100.5
392.984	78.5
393.208	87.5
393.433	100.5
393.658	99.5
393.882	89.5
394.107	83.5
394.331	78.5
394.556	86.5
394.78	101.5
395.005	97.5
395.229	85.5
395.454	91.5
395.678	88.5
395.903	81.5
396.127	77.5
396.352	83.5
396.576	101.5
396.801	101.5
397.025	87.5
397.249	92.5
397.474	87.5
397.698	85.5
397.922	107.5
398.147	101.5
398.371	87.5
398.595	89.5
398.82	91.5
399.044	86.5
399.268	99.5
399.492	90.5
399.717	86.5
399.941	95.5
400.165	92.5
400.389	102.5
400.613	92.5
400.837	110.5
401.062	99.5
401.286	109.5
401.51	90.5
401.734	109.5
401.958	108.5
402.182	171.5
402.406	245.5
402.63	160.5
402.854	114.5
403.078	90.5
403.302	99.5
403.526	74.5
403.75	97.5
403.974	92.5
404.198	87.5
404.422	109.5
404.645	93.5
404.869	102.5
405.093	117.5
405.317	171.5
405.541	130.5
405.765	125.5
405.988	143.5
406.212	267.5
406.436	399.5
406.66	250.5
406.883	157.5
407.107	121.5
407.331	114.5
407.555	121.5
407.778	107.5
408.002	103.5
408.226	96.5
408.449	90.5
408.673	91.5
408.896	105.5
409.12	107.5
409.344	102.5
409.567	86.5
409.791	98.5
410.014	100.5
410.238	109.5
410.461	106.5
410.685	101.5
410.908	95.5
411.132	110.5
411.355	91.5
411.578	105.5
411.802	101.5
412.025	93.5
412.249	109.5
412.472	130.5
412.695	137.5
412.919	116.5
413.142	115.5
413.365	89.5
413.589	101.5
413.812	114.5
414.035	101.5
414.258	110.5
414.482	107.5
414.705	92.5
414.928	100.5
415.151	91.5
415.374	102.5
415.597	100.5
415.821	97.5
416.044	107.5
416.267	91.5
416.49	97.5
416.713	92.5
416.936	106.5
417.159	114.5
417.382	94.5
417.605	113.5
417.828	131.5
418.051	107.5
418.274	94.5
418.497	87.5
418.72	94.5
418.943	96.5
419.166	96.5
419.389	85.5
419.611	98.5
419.834	89.5
420.057	83.5
420.28	108.5
420.503	99.5
420.726	104.5
420.948	104.5
421.171	104.5
421.394	110.5
421.617	105.5
421.839	104.5
422.062	94.5
422.285	99.5
422.507	89.5
422.73	119.5
422.953	109.5
423.175	102.5
423.398	82.5
423.621	77.5
423.843	83.5
424.066	96.5
424.288	103.5
424.511	108.5
424.733	108.5
424.956	137.5
425.178	113.5
425.401	103.5
425.623	118.5
425.846	98.5
426.068	114.5
426.291	92.5
426.513	107.5
426.735	94.5
426.958	98.5
427.18	133.5
427.402	211.5
427.625	295.5
427.847	274.5
428.069	207.5
428.292	119.5
428.514	100.5
428.736	91.5
428.958	104.5
429.181	87.5
429.403	92.5
429.625	93.5
429.847	99.5
430.069	108.5
430.292	99.5
430.514	88.5
430.736	91.5
430.958	96.5
431.18	87.5
431.402	91.5
431.624	92.5
431.846	95.5
432.068	99.5
432.29	91.5
432.512	92.5
432.734	104.5
432.956	89.5
433.178	107.5
433.4	96.5
433.622	101.5
433.844	85.5
434.066	109.5
434.287	89.5
434.509	99.5
434.731	82.5
434.953	87.5
435.175	92.5
435.397	104.5
435.618	110.5
435.84	114.5
436.062	129.5
436.284	129.5
436.505	102.5
436.727	106.5
436.949	91.5
437.17	94.5
437.392	94.5
437.614	102.5
437.835	136.5
438.057	178.5
438.278	152.5
438.5	127.5
438.721	158.5
438.943	122.5
439.165	88.5
439.386	88.5
439.608	105.5
439.829	107.5
440.05	161.5
440.272	186.5
440.493	130.5
440.715	98.5
440.936	88.5
441.158	102.5
441.379	101.5
441.6	120.5
441.822	112.5
442.043	107.5
442.264	116.5
442.486	130.5
442.707	107.5
442.928	133.5
443.149	196.5
443.371	194.5
443.592	151.5
443.813	144.5
444.034	121.5
444.255	92.5
444.476	77.5
444.698	92.5
444.919	96.5
445.14	139.5
445.361	156.5
445.582	148.5
445.803	202.5
446.024	189.5
446.245	175.5
446.466	129.5
446.687	107.5
446.908	90.5
447.129	95.5
447.35	102.5
447.571	101.5
447.792	117.5
448.013	129.5
448.234	140.5
448.455	117.5
448.675	110.5
448.896	156.5
449.117	124.5
449.338	123.5
449.559	158.5
449.779	159.5
450	108.5
450.221	93.5
450.442	87.5
450.662	126.5
450.883	153.5
451.104	162.5
451.324	120.5
451.545	89.5
451.766	98.5
451.986	93.5
452.207	93.5
452.428	115.5
452.648	116.5
452.869	143.5
453.089	162.5
453.31	162.5
453.53	122.5
453.751	112.5
453.971	153.5
454.192	164.5
454.412	102.5
454.633	105.5
454.853	78.5
455.073	100.5
455.294	107.5
455.514	135.5
455.734	103.5
455.955	100.5
456.175	77.5
456.395	78.5
456.616	85.5
456.836	76.5
457.056	93.5
457.276	83.5
457.497	86.5
457.717	93.5
457.937	94.5
458.157	99.5
458.377	105.5
458.598	157.5
458.818	250.5
459.038	279.5
459.258	168.5
459.478	107.5
459.698	99.5
459.918	109.5
460.138	100.5
460.358	95.5
460.578	95.5
460.798	100.5
461.018	94.5
461.238	91.5
461.458	69.5
461.678	88.5
461.898	81.5
462.118	82.5
462.338	88.5
462.558	93.5
462.777	94.5
462.997	115.5
463.217	102.5
463.437	96.5
463.657	95.5
463.876	86.5
464.096	106.5
464.316	118.5
464.536	104.5
464.755	109.5
464.975	150.5
465.195	301.5
465.414	303.5
465.634	128.5
465.854	91.5
466.073	85.5
466.293	97.5
466.512	101.5
466.732	101.5
466.951	105.5
467.171	102.5
467.391	112.5
467.61	157.5
467.829	233.5
468.049	575.5
468.268	867.5
468.488	232.5
468.707	115.5
468.927	97.5
469.146	103.5
469.365	101.5
469.585	111.5
469.804	119.5
470.023	138.5
470.243	121.5
470.462	145.5
470.681	167.5
470.901	118.5
471.12	85.5
471.339	129.5
471.558	132.5
471.777	176.5
471.997	325.5
472.216	1135.5
472.435	2551.5
472.654	597.5
472.873	179.5
473.092	109.5
473.311	91.5
473.53	120.5
473.749	119.5
473.968	110.5
474.187	125.5
474.406	126.5
474.625	95.5
474.844	94.5
475.063	104.5
475.282	96.5
475.501	98.5
475.72	109.5
475.939	107.5
476.158	88.5
476.377	93.5
476.596	105.5
476.814	114.5
477.033	109.5
477.252	85.5
477.471	93.5
477.69	108.5
477.908	97.5
478.127	89.5
478.346	100.5
478.564	116.5
478.783	119.5
479.002	119.5
479.22	103.5
479.439	137.5
479.658	163.5
479.876	153.5
480.095	131.5
480.313	142.5
480.532	181.5
480.751	289.5
480.969	1041.5
481.188	4340.5
481.406	2435.5
481.624	371.5
481.843	143.5
482.061	107.5
482.28	107.5
482.498	102.5
482.717	98.5
482.935	109.5
483.153	99.5
483.372	95.5
483.59	96.5
483.808	111.5
484.027	108.5
484.245	98.5
484.463	100.5
484.681	97.5
484.9	107.5
485.118	100.5
485.336	116.5
485.554	110.5
485.772	113.5
485.99	108.5
486.209	116.5
486.427	122.5
486.645	143.5
486.863	155.5
487.081	113.5
487.299	103.5
487.517	115.5
487.735	111.5
487.953	105.5
488.171	106.5
488.389	108.5
488.607	118.5
488.825	103.5
489.043	101.5
489.261	107.5
489.479	98.5
489.696	99.5
489.914	104.5
490.132	103.5
490.35	76.5
490.568	98.5
490.786	108.5
491.003	101.5
491.221	99.5
491.439	113.5
491.657	99.5
491.874	106.5
492.092	104.5
492.31	123.5
492.527	111.5
492.745	94.5
492.963	99.5
493.18	92.5
493.398	97.5
493.615	88.5
493.833	107.5
494.05	93.5
494.268	93.5
494.485	97.5
494.703	107.5
494.92	95.5
495.138	105.5
495.355	95.5
495.573	103.5
495.79	96.5
496.008	92.5
496.225	93.5
496.442	96.5
496.66	96.5
496.877	93.5
497.094	101.5
497.312	101.5
497.529	100.5
497.746	104.5
497.963	95.5
498.181	106.5
498.398	101.5
498.615	118.5
498.832	116.5
499.049	112.5
499.267	101.5
499.484	97.5
499.701	81.5
499.918	88.5
500.135	95.5
500.352	115.5
500.569	108.5
500.786	98.5
501.003	96.5
501.22	105.5
501.437	97.5
501.654	119.5
501.871	157.5
502.088	107.5
502.305	101.5
502.522	101.5
502.739	107.5
502.956	99.5
503.172	114.5
503.389	122.5
503.606	143.5
503.823	116.5
504.04	101.5
504.256	91.5
504.473	91.5
504.69	103.5
504.907	111.5
505.123	96.5
505.34	92.5
505.557	104.5
505.773	107.5
505.99	98.5
506.207	96.5
506.423	83.5
506.64	98.5
506.856	97.5
507.073	106.5
507.289	110.5
507.506	108.5
507.722	157.5
507.939	157.5
508.155	100.5
508.372	101.5
508.588	105.5
508.805	119.5
509.021	111.5
509.238	110.5
509.454	109.5
509.67	116.5
509.887	142.5
510.103	157.5
510.319	281.5
510.536	1196.5
510.752	4313.5
510.968	1106.5
511.184	219.5
511.401	167.5
511.617	114.5
511.833	131.5
512.049	105.5
512.265	100.5
512.481	117.5
512.698	98.5
512.914	100.5
513.13	103.5
513.346	101.5
513.562	102.5
513.778	112.5
513.994	129.5
514.21	140.5
514.426	173.5
514.642	212.5
514.858	187.5
515.074	271.5
515.29	921.5
515.506	3440.5
515.721	1137.5
515.937	260.5
516.153	157.5
516.369	113.5
516.585	110.5
516.801	124.5
517.016	113.5
517.232	115.5
517.448	114.5
517.664	107.5
517.879	115.5
518.095	114.5
518.311	111.5
518.527	111.5
518.742	99.5
518.958	101.5
519.173	120.5
519.389	120.5
519.605	119.5
519.82	113.5
520.036	138.5
520.251	174.5
520.467	158.5
520.682	122.5
520.898	132.5
521.113	162.5
521.329	225.5
521.544	369.5
521.76	1239.5
521.975	5667.5
522.19	3313.5
522.406	633.5
522.621	192.5
522.836	142.5
523.052	120.5
523.267	110.5
523.482	115.5
523.698	124.5
523.913	171.5
524.128	149.5
524.343	111.5
524.559	104.5
524.774	108.5
524.989	108.5
525.204	149.5
525.419	121.5
525.634	87.5
525.849	103.5
526.064	91.5
526.28	100.5
526.495	87.5
526.71	96.5
526.925	91.5
527.14	111.5
527.355	92.5
527.57	107.5
527.785	96.5
527.999	99.5
528.214	101.5
528.429	95.5
