Data from Circ_1999_H10_HRD10591_00018.txt Node
Date: Wed Jan 03 11:23:16 EST 2024
User: Yrep
Spectrometer: HR+D1059
Trigger mode: 1
Integration Time (sec): 1.000000E-1
Scans to average: 1
Electric dark correction enabled: true
Nonlinearity correction enabled: false
Boxcar width: 0
XAxis mode: Wavelengths
Number of Pixels in Spectrum: 2048
>>>>>Begin Spectral Data<<<<<
223.165	-24.12
223.4	-24.12
223.635	-24.12
223.869	-25.12
224.104	-22.12
224.338	-9.12
224.573	-12.12
224.808	-21.12
225.042	-5.12
225.277	2.88
225.511	-2.12
225.746	12.88
225.98	13.88
226.215	20.88
226.449	12.88
226.683	19.88
226.918	18.88
227.152	18.88
227.387	22.88
227.621	39.88
227.856	42.88
228.09	43.88
228.324	54.88
228.559	40.88
228.793	44.88
229.027	58.88
229.262	61.88
229.496	72.88
229.73	106.88
229.964	110.88
230.199	62.88
230.433	81.88
230.667	65.88
230.901	74.88
231.136	78.88
231.37	81.88
231.604	70.88
231.838	85.88
232.072	70.88
232.306	94.88
232.541	74.88
232.775	73.88
233.009	77.88
233.243	82.88
233.477	75.88
233.711	71.88
233.945	93.88
234.179	76.88
234.413	79.88
234.647	82.88
234.881	82.88
235.115	73.88
235.349	84.88
235.583	76.88
235.817	90.88
236.051	80.88
236.285	70.88
236.519	74.88
236.753	74.88
236.987	78.88
237.221	70.88
237.455	83.88
237.689	82.88
237.922	90.88
238.156	76.88
238.39	84.88
238.624	69.88
238.858	89.88
239.091	82.88
239.325	76.88
239.559	93.88
239.793	93.88
240.027	92.88
240.26	85.88
240.494	73.88
240.728	82.88
240.961	70.88
241.195	78.88
241.429	86.88
241.662	66.88
241.896	74.88
242.13	56.88
242.363	80.88
242.597	71.88
242.83	74.88
243.064	70.88
243.298	82.88
243.531	87.88
243.765	92.88
243.998	70.88
244.232	75.88
244.465	88.88
244.699	84.88
244.932	76.88
245.166	87.88
245.399	81.88
245.633	83.88
245.866	76.88
246.099	78.88
246.333	89.88
246.566	79.88
246.8	92.88
247.033	81.88
247.266	82.88
247.5	71.88
247.733	85.88
247.966	73.88
248.2	82.88
248.433	86.88
248.666	76.88
248.899	87.88
249.133	86.88
249.366	118.88
249.599	111.88
249.832	105.88
250.066	70.88
250.299	73.88
250.532	95.88
250.765	79.88
250.998	81.88
251.231	73.88
251.465	76.88
251.698	75.88
251.931	84.88
252.164	99.88
252.397	85.88
252.63	80.88
252.863	76.88
253.096	70.88
253.329	71.88
253.562	85.88
253.795	78.88
254.028	85.88
254.261	75.88
254.494	86.88
254.727	88.88
254.96	81.88
255.193	83.88
255.426	82.88
255.659	95.88
255.892	91.88
256.124	93.88
256.357	96.88
256.59	93.88
256.823	92.88
257.056	85.88
257.289	103.88
257.521	80.88
257.754	82.88
257.987	83.88
258.22	83.88
258.452	94.88
258.685	89.88
258.918	87.88
259.151	82.88
259.383	77.88
259.616	68.88
259.849	78.88
260.081	92.88
260.314	78.88
260.547	93.88
260.779	98.88
261.012	96.88
261.244	120.88
261.477	90.88
261.71	103.88
261.942	160.88
262.175	174.88
262.407	93.88
262.64	96.88
262.872	92.88
263.105	91.88
263.337	86.88
263.57	79.88
263.802	84.88
264.035	85.88
264.267	78.88
264.499	86.88
264.732	77.88
264.964	75.88
265.197	81.88
265.429	80.88
265.661	91.88
265.894	80.88
266.126	76.88
266.358	89.88
266.591	79.88
266.823	90.88
267.055	85.88
267.287	94.88
267.52	81.88
267.752	74.88
267.984	97.88
268.216	89.88
268.448	91.88
268.681	85.88
268.913	74.88
269.145	97.88
269.377	87.88
269.609	87.88
269.841	82.88
270.073	84.88
270.306	84.88
270.538	79.88
270.77	95.88
271.002	98.88
271.234	89.88
271.466	97.88
271.698	82.88
271.93	99.88
272.162	83.88
272.394	103.88
272.626	92.88
272.858	84.88
273.09	81.88
273.322	87.88
273.553	98.88
273.785	77.88
274.017	82.88
274.249	84.88
274.481	92.88
274.713	91.88
274.945	100.88
275.176	89.88
275.408	117.88
275.64	112.88
275.872	132.88
276.104	115.88
276.335	113.88
276.567	158.88
276.799	180.88
277.031	210.88
277.262	239.88
277.494	163.88
277.726	98.88
277.957	89.88
278.189	87.88
278.421	103.88
278.652	102.88
278.884	85.88
279.115	93.88
279.347	93.88
279.579	99.88
279.81	142.88
280.042	244.88
280.273	321.88
280.505	199.88
280.736	110.88
280.968	98.88
281.199	95.88
281.431	81.88
281.662	100.88
281.894	96.88
282.125	109.88
282.356	159.88
282.588	213.88
282.819	146.88
283.051	94.88
283.282	83.88
283.513	98.88
283.745	82.88
283.976	81.88
284.207	98.88
284.439	94.88
284.67	70.88
284.901	99.88
285.132	87.88
285.364	78.88
285.595	94.88
285.826	68.88
286.057	88.88
286.288	84.88
286.52	83.88
286.751	90.88
286.982	91.88
287.213	102.88
287.444	93.88
287.675	99.88
287.906	90.88
288.138	98.88
288.369	90.88
288.6	108.88
288.831	80.88
289.062	90.88
289.293	94.88
289.524	104.88
289.755	78.88
289.986	93.88
290.217	91.88
290.448	93.88
290.679	102.88
290.91	91.88
291.141	90.88
291.371	85.88
291.602	68.88
291.833	103.88
292.064	83.88
292.295	94.88
292.526	90.88
292.757	78.88
292.987	82.88
293.218	92.88
293.449	76.88
293.68	90.88
293.91	89.88
294.141	92.88
294.372	90.88
294.603	83.88
294.833	94.88
295.064	84.88
295.295	97.88
295.525	101.88
295.756	115.88
295.987	156.88
296.217	209.88
296.448	167.88
296.679	94.88
296.909	80.88
297.14	82.88
297.37	97.88
297.601	83.88
297.831	103.88
298.062	105.88
298.292	95.88
298.523	104.88
298.753	96.88
298.984	86.88
299.214	85.88
299.445	102.88
299.675	110.88
299.905	110.88
300.136	101.88
300.366	83.88
300.597	89.88
300.827	97.88
301.057	110.88
301.288	129.88
301.518	113.88
301.748	113.88
301.979	100.88
302.209	117.88
302.439	106.88
302.669	92.88
302.9	84.88
303.13	114.88
303.36	118.88
303.59	136.88
303.82	159.88
304.051	107.88
304.281	83.88
304.511	88.88
304.741	97.88
304.971	85.88
305.201	97.88
305.431	86.88
305.661	96.88
305.891	89.88
306.121	106.88
306.352	127.88
306.582	134.88
306.812	116.88
307.042	152.88
307.272	183.88
307.502	203.88
307.731	194.88
307.961	133.88
308.191	97.88
308.421	101.88
308.651	82.88
308.881	99.88
309.111	99.88
309.341	112.88
309.571	107.88
309.8	95.88
310.03	115.88
310.26	132.88
310.49	105.88
310.72	121.88
310.949	145.88
311.179	134.88
311.409	106.88
311.639	110.88
311.868	111.88
312.098	110.88
312.328	105.88
312.557	131.88
312.787	149.88
313.017	109.88
313.246	98.88
313.476	104.88
313.706	121.88
313.935	101.88
314.165	105.88
314.394	129.88
314.624	114.88
314.853	118.88
315.083	101.88
315.312	86.88
315.542	107.88
315.771	94.88
316.001	95.88
316.23	85.88
316.46	71.88
316.689	91.88
316.919	125.88
317.148	113.88
317.377	95.88
317.607	99.88
317.836	107.88
318.065	91.88
318.295	96.88
318.524	110.88
318.753	107.88
318.983	109.88
319.212	123.88
319.441	132.88
319.67	119.88
319.9	102.88
320.129	100.88
320.358	83.88
320.587	102.88
320.816	114.88
321.046	124.88
321.275	109.88
321.504	94.88
321.733	107.88
321.962	115.88
322.191	115.88
322.42	129.88
322.649	136.88
322.878	122.88
323.108	159.88
323.337	193.88
323.566	180.88
323.795	220.88
324.024	317.88
324.253	621.88
324.482	1322.88
324.71	2763.88
324.939	3593.88
325.168	1290.88
325.397	366.88
325.626	202.88
325.855	155.88
326.084	154.88
326.313	176.88
326.542	205.88
326.77	291.88
326.999	633.88
327.228	1301.88
327.457	2503.88
327.686	2007.88
327.914	707.88
328.143	671.88
328.372	846.88
328.6	460.88
328.829	238.88
329.058	241.88
329.287	271.88
329.515	233.88
329.744	311.88
329.972	629.88
330.201	1350.88
330.43	1887.88
330.658	858.88
330.887	411.88
331.115	245.88
331.344	157.88
331.572	134.88
331.801	154.88
332.03	153.88
332.258	119.88
332.486	116.88
332.715	119.88
332.943	129.88
333.172	134.88
333.4	153.88
333.629	204.88
333.857	297.88
334.085	592.88
334.314	1285.88
334.542	2449.88
334.771	2182.88
334.999	539.88
335.227	209.88
335.455	149.88
335.684	144.88
335.912	121.88
336.14	119.88
336.369	125.88
336.597	129.88
336.825	115.88
337.053	91.88
337.281	108.88
337.51	104.88
337.738	103.88
337.966	113.88
338.194	118.88
338.422	114.88
338.65	102.88
338.878	101.88
339.106	107.88
339.334	96.88
339.562	88.88
339.79	98.88
340.018	98.88
340.246	107.88
340.474	119.88
340.702	98.88
340.93	97.88
341.158	94.88
341.386	103.88
341.614	109.88
341.842	101.88
342.07	101.88
342.298	101.88
342.526	98.88
342.754	93.88
342.981	96.88
343.209	87.88
343.437	100.88
343.665	92.88
343.893	93.88
344.12	103.88
344.348	94.88
344.576	100.88
344.804	102.88
345.031	125.88
345.259	118.88
345.487	110.88
345.714	102.88
345.942	90.88
346.17	98.88
346.397	89.88
346.625	93.88
346.853	85.88
347.08	114.88
347.308	113.88
347.535	112.88
347.763	129.88
347.99	105.88
348.218	111.88
348.445	139.88
348.673	120.88
348.9	100.88
349.128	99.88
349.355	104.88
349.583	101.88
349.81	107.88
350.037	101.88
350.265	88.88
350.492	95.88
350.72	101.88
350.947	126.88
351.174	141.88
351.402	163.88
351.629	125.88
351.856	121.88
352.083	128.88
352.311	131.88
352.538	151.88
352.765	151.88
352.992	150.88
353.22	132.88
353.447	107.88
353.674	104.88
353.901	109.88
354.128	89.88
354.355	95.88
354.583	107.88
354.81	114.88
355.037	100.88
355.264	90.88
355.491	87.88
355.718	94.88
355.945	101.88
356.172	91.88
356.399	83.88
356.626	108.88
356.853	106.88
357.08	98.88
357.307	95.88
357.534	74.88
357.761	86.88
357.988	95.88
358.215	97.88
358.441	79.88
358.668	99.88
358.895	89.88
359.122	90.88
359.349	107.88
359.576	101.88
359.802	131.88
360.029	177.88
360.256	184.88
360.483	138.88
360.709	98.88
360.936	103.88
361.163	130.88
361.39	119.88
361.616	116.88
361.843	94.88
362.07	103.88
362.296	114.88
362.523	94.88
362.749	107.88
362.976	109.88
363.203	106.88
363.429	106.88
363.656	100.88
363.882	92.88
364.109	87.88
364.335	91.88
364.562	98.88
364.788	94.88
365.015	105.88
365.241	104.88
365.468	129.88
365.694	146.88
365.92	108.88
366.147	95.88
366.373	106.88
366.599	85.88
366.826	92.88
367.052	95.88
367.278	99.88
367.505	95.88
367.731	98.88
367.957	99.88
368.184	110.88
368.41	139.88
368.636	151.88
368.862	147.88
369.089	157.88
369.315	101.88
369.541	101.88
369.767	113.88
369.993	99.88
370.219	74.88
370.445	105.88
370.672	87.88
370.898	88.88
371.124	96.88
371.35	75.88
371.576	80.88
371.802	95.88
372.028	94.88
372.254	91.88
372.48	85.88
372.706	85.88
372.932	77.88
373.158	107.88
373.384	89.88
373.61	102.88
373.835	89.88
374.061	89.88
374.287	93.88
374.513	109.88
374.739	88.88
374.965	75.88
375.191	102.88
375.416	99.88
375.642	87.88
375.868	97.88
376.094	94.88
376.319	89.88
376.545	92.88
376.771	114.88
376.997	76.88
377.222	100.88
377.448	99.88
377.674	83.88
377.899	91.88
378.125	91.88
378.35	95.88
378.576	76.88
378.802	84.88
379.027	91.88
379.253	78.88
379.478	96.88
379.704	81.88
379.929	108.88
380.155	101.88
380.38	101.88
380.606	97.88
380.831	104.88
381.057	114.88
381.282	101.88
381.507	93.88
381.733	100.88
381.958	102.88
382.184	107.88
382.409	92.88
382.634	115.88
382.86	113.88
383.085	101.88
383.31	104.88
383.535	98.88
383.761	113.88
383.986	98.88
384.211	97.88
384.436	92.88
384.662	108.88
384.887	106.88
385.112	114.88
385.337	112.88
385.562	121.88
385.787	124.88
386.013	135.88
386.238	153.88
386.463	130.88
386.688	130.88
386.913	104.88
387.138	121.88
387.363	88.88
387.588	97.88
387.813	113.88
388.038	115.88
388.263	119.88
388.488	119.88
388.713	99.88
388.938	94.88
389.163	94.88
389.387	103.88
389.612	95.88
389.837	102.88
390.062	90.88
390.287	86.88
390.512	76.88
390.736	76.88
390.961	88.88
391.186	82.88
391.411	73.88
391.636	85.88
391.86	85.88
392.085	97.88
392.31	81.88
392.534	81.88
392.759	92.88
392.984	86.88
393.208	93.88
393.433	86.88
393.658	85.88
393.882	90.88
394.107	92.88
394.331	89.88
394.556	86.88
394.78	69.88
395.005	94.88
395.229	79.88
395.454	76.88
395.678	84.88
395.903	94.88
396.127	85.88
396.352	101.88
396.576	101.88
396.801	77.88
397.025	85.88
397.249	80.88
397.474	69.88
397.698	94.88
397.922	87.88
398.147	82.88
398.371	91.88
398.595	68.88
398.82	95.88
399.044	87.88
399.268	72.88
399.492	79.88
399.717	85.88
399.941	90.88
400.165	93.88
400.389	99.88
400.613	101.88
400.837	108.88
401.062	94.88
401.286	96.88
401.51	94.88
401.734	101.88
401.958	134.88
402.182	183.88
402.406	250.88
402.63	154.88
402.854	113.88
403.078	99.88
403.302	92.88
403.526	102.88
403.75	95.88
403.974	89.88
404.198	81.88
404.422	88.88
404.645	98.88
404.869	117.88
405.093	131.88
405.317	152.88
405.541	143.88
405.765	127.88
405.988	166.88
406.212	274.88
406.436	416.88
406.66	263.88
406.883	141.88
407.107	117.88
407.331	100.88
407.555	123.88
407.778	126.88
408.002	93.88
408.226	103.88
408.449	97.88
408.673	93.88
408.896	107.88
409.12	106.88
409.344	93.88
409.567	90.88
409.791	82.88
410.014	81.88
410.238	94.88
410.461	103.88
410.685	98.88
410.908	105.88
411.132	122.88
411.355	110.88
411.578	99.88
411.802	76.88
412.025	91.88
412.249	102.88
412.472	137.88
412.695	135.88
412.919	117.88
413.142	105.88
413.365	76.88
413.589	101.88
413.812	95.88
414.035	95.88
414.258	100.88
414.482	88.88
414.705	91.88
414.928	85.88
415.151	83.88
415.374	85.88
415.597	89.88
415.821	100.88
416.044	89.88
416.267	91.88
416.49	84.88
416.713	89.88
416.936	97.88
417.159	77.88
417.382	112.88
417.605	117.88
417.828	122.88
418.051	114.88
418.274	91.88
418.497	85.88
418.72	78.88
418.943	89.88
419.166	99.88
419.389	83.88
419.611	93.88
419.834	102.88
420.057	95.88
420.28	103.88
420.503	103.88
420.726	92.88
420.948	87.88
421.171	110.88
421.394	115.88
421.617	97.88
421.839	90.88
422.062	86.88
422.285	87.88
422.507	106.88
422.73	113.88
422.953	102.88
423.175	85.88
423.398	80.88
423.621	95.88
423.843	89.88
424.066	91.88
424.288	94.88
424.511	108.88
424.733	126.88
424.956	142.88
425.178	123.88
425.401	124.88
425.623	112.88
425.846	113.88
426.068	98.88
426.291	103.88
426.513	93.88
426.735	87.88
426.958	106.88
427.18	142.88
427.402	219.88
427.625	333.88
427.847	304.88
428.069	258.88
428.292	121.88
428.514	103.88
428.736	96.88
428.958	91.88
429.181	91.88
429.403	79.88
429.625	94.88
429.847	109.88
430.069	107.88
430.292	95.88
430.514	90.88
430.736	85.88
430.958	105.88
431.18	95.88
431.402	92.88
431.624	84.88
431.846	90.88
432.068	93.88
432.29	85.88
432.512	86.88
432.734	93.88
432.956	90.88
433.178	105.88
433.4	101.88
433.622	100.88
433.844	93.88
434.066	95.88
434.287	83.88
434.509	95.88
434.731	84.88
434.953	86.88
435.175	106.88
435.397	99.88
435.618	93.88
435.84	118.88
436.062	151.88
436.284	146.88
436.505	112.88
436.727	114.88
436.949	83.88
437.17	90.88
437.392	102.88
437.614	99.88
437.835	141.88
438.057	170.88
438.278	145.88
438.5	131.88
438.721	161.88
438.943	123.88
439.165	100.88
439.386	97.88
439.608	99.88
439.829	129.88
440.05	176.88
440.272	233.88
440.493	146.88
440.715	97.88
440.936	97.88
441.158	77.88
441.379	93.88
441.6	120.88
441.822	101.88
442.043	116.88
442.264	125.88
442.486	126.88
442.707	97.88
442.928	152.88
443.149	217.88
443.371	221.88
443.592	140.88
443.813	138.88
444.034	142.88
444.255	110.88
444.476	94.88
444.698	98.88
444.919	90.88
445.14	145.88
445.361	154.88
445.582	159.88
445.803	244.88
446.024	221.88
446.245	206.88
446.466	148.88
446.687	114.88
446.908	95.88
447.129	89.88
447.35	99.88
447.571	106.88
447.792	88.88
448.013	116.88
448.234	129.88
448.455	133.88
448.675	134.88
448.896	148.88
449.117	121.88
449.338	124.88
449.559	155.88
449.779	175.88
450	108.88
450.221	100.88
450.442	99.88
450.662	114.88
450.883	154.88
451.104	185.88
451.324	117.88
451.545	80.88
451.766	91.88
451.986	86.88
452.207	102.88
452.428	107.88
452.648	130.88
452.869	152.88
453.089	155.88
453.31	181.88
453.53	113.88
453.751	115.88
453.971	131.88
454.192	185.88
454.412	104.88
454.633	87.88
454.853	91.88
455.073	91.88
455.294	99.88
455.514	109.88
455.734	87.88
455.955	78.88
456.175	97.88
456.395	83.88
456.616	96.88
456.836	71.88
457.056	91.88
457.276	78.88
457.497	74.88
457.717	87.88
457.937	101.88
458.157	86.88
458.377	113.88
458.598	142.88
458.818	289.88
459.038	340.88
459.258	195.88
459.478	89.88
459.698	85.88
459.918	101.88
460.138	87.88
460.358	87.88
460.578	97.88
460.798	101.88
461.018	85.88
461.238	86.88
461.458	81.88
461.678	74.88
461.898	93.88
462.118	81.88
462.338	74.88
462.558	89.88
462.777	95.88
462.997	103.88
463.217	114.88
463.437	94.88
463.657	90.88
463.876	97.88
464.096	94.88
464.316	106.88
464.536	109.88
464.755	102.88
464.975	157.88
465.195	334.88
465.414	321.88
465.634	133.88
465.854	114.88
466.073	97.88
466.293	99.88
466.512	87.88
466.732	92.88
466.951	90.88
467.171	95.88
467.391	130.88
467.61	158.88
467.829	258.88
468.049	715.88
468.268	1055.88
468.488	266.88
468.707	109.88
468.927	86.88
469.146	86.88
469.365	95.88
469.585	105.88
469.804	111.88
470.023	125.88
470.243	132.88
470.462	155.88
470.681	181.88
470.901	113.88
471.12	98.88
471.339	119.88
471.558	133.88
471.777	182.88
471.997	385.88
472.216	1420.88
472.435	3286.88
472.654	723.88
472.873	181.88
473.092	116.88
473.311	101.88
473.53	95.88
473.749	107.88
473.968	119.88
474.187	138.88
474.406	121.88
474.625	97.88
474.844	92.88
475.063	98.88
475.282	92.88
475.501	81.88
475.72	105.88
475.939	93.88
476.158	87.88
476.377	97.88
476.596	97.88
476.814	115.88
477.033	122.88
477.252	106.88
477.471	91.88
477.69	98.88
477.908	95.88
478.127	82.88
478.346	105.88
478.564	115.88
478.783	107.88
479.002	119.88
479.22	115.88
479.439	150.88
479.658	171.88
479.876	136.88
480.095	121.88
480.313	154.88
480.532	190.88
480.751	332.88
480.969	1328.88
481.188	5655.88
481.406	3141.88
481.624	451.88
481.843	153.88
482.061	107.88
482.28	95.88
482.498	95.88
482.717	99.88
482.935	94.88
483.153	107.88
483.372	113.88
483.59	85.88
483.808	77.88
484.027	72.88
484.245	88.88
484.463	87.88
484.681	84.88
484.9	97.88
485.118	91.88
485.336	109.88
485.554	87.88
485.772	104.88
485.99	110.88
486.209	114.88
486.427	115.88
486.645	152.88
486.863	168.88
487.081	119.88
487.299	123.88
487.517	101.88
487.735	91.88
487.953	98.88
488.171	107.88
488.389	116.88
488.607	113.88
488.825	106.88
489.043	94.88
489.261	74.88
489.479	84.88
489.696	80.88
489.914	90.88
490.132	103.88
490.35	75.88
490.568	95.88
490.786	82.88
491.003	94.88
491.221	101.88
491.439	89.88
491.657	101.88
491.874	87.88
492.092	101.88
492.31	91.88
492.527	104.88
492.745	93.88
492.963	106.88
493.18	112.88
493.398	95.88
493.615	99.88
493.833	98.88
494.05	91.88
494.268	95.88
494.485	92.88
494.703	98.88
494.92	99.88
495.138	98.88
495.355	83.88
495.573	98.88
495.79	87.88
496.008	86.88
496.225	108.88
496.442	92.88
496.66	100.88
496.877	84.88
497.094	88.88
497.312	85.88
497.529	108.88
497.746	99.88
497.963	103.88
498.181	106.88
498.398	117.88
498.615	125.88
498.832	126.88
499.049	101.88
499.267	92.88
499.484	79.88
499.701	95.88
499.918	91.88
500.135	91.88
500.352	89.88
500.569	100.88
500.786	92.88
501.003	75.88
501.22	92.88
501.437	92.88
501.654	100.88
501.871	152.88
502.088	102.88
502.305	81.88
502.522	89.88
502.739	76.88
502.956	94.88
503.172	94.88
503.389	114.88
503.606	165.88
503.823	114.88
504.04	87.88
504.256	78.88
504.473	83.88
504.69	89.88
504.907	94.88
505.123	97.88
505.34	90.88
505.557	90.88
505.773	102.88
505.99	96.88
506.207	86.88
506.423	88.88
506.64	91.88
506.856	98.88
507.073	94.88
507.289	93.88
507.506	106.88
507.722	163.88
507.939	159.88
508.155	108.88
508.372	85.88
508.588	87.88
508.805	91.88
509.021	109.88
509.238	107.88
509.454	101.88
509.67	115.88
509.887	128.88
510.103	177.88
510.319	293.88
510.536	1315.88
510.752	4745.88
510.968	1187.88
511.184	232.88
511.401	152.88
511.617	130.88
