Data from Circ_1999_H10_HRD10591_00089.txt Node
Date: Wed Jan 03 11:23:30 EST 2024
User: Yrep
Spectrometer: HR+D1059
Trigger mode: 1
Integration Time (sec): 1.000000E-1
Scans to average: 1
Electric dark correction enabled: true
Nonlinearity correction enabled: false
Boxcar width: 0
XAxis mode: Wavelengths
Number of Pixels in Spectrum: 2048
>>>>>Begin Spectral Data<<<<<
223.165	-20.12
223.4	-20.12
223.635	-20.12
223.869	-25.12
224.104	-25.12
224.338	-1.12
224.573	-18.12
224.808	1.88
225.042	-13.12
225.277	-4.12
225.511	-1.12
225.746	5.88
225.98	4.88
226.215	10.88
226.449	16.88
226.683	3.88
226.918	25.88
227.152	37.88
227.387	30.88
227.621	33.88
227.856	40.88
228.09	32.88
228.324	46.88
228.559	52.88
228.793	57.88
229.027	81.88
229.262	65.88
229.496	95.88
229.73	105.88
229.964	111.88
230.199	83.88
230.433	74.88
230.667	96.88
230.901	74.88
231.136	76.88
231.37	81.88
231.604	91.88
231.838	79.88
232.072	75.88
232.306	93.88
232.541	88.88
232.775	104.88
233.009	79.88
233.243	93.88
233.477	93.88
233.711	75.88
233.945	93.88
234.179	87.88
234.413	86.88
234.647	92.88
234.881	67.88
235.115	76.88
235.349	82.88
235.583	76.88
235.817	81.88
236.051	80.88
236.285	78.88
236.519	76.88
236.753	94.88
236.987	77.88
237.221	90.88
237.455	96.88
237.689	87.88
237.922	81.88
238.156	79.88
238.39	83.88
238.624	81.88
238.858	84.88
239.091	78.88
239.325	73.88
239.559	89.88
239.793	91.88
240.027	88.88
240.26	79.88
240.494	76.88
240.728	81.88
240.961	66.88
241.195	81.88
241.429	81.88
241.662	72.88
241.896	94.88
242.13	67.88
242.363	91.88
242.597	77.88
242.83	82.88
243.064	73.88
243.298	87.88
243.531	92.88
243.765	92.88
243.998	96.88
244.232	85.88
244.465	79.88
244.699	78.88
244.932	89.88
245.166	78.88
245.399	71.88
245.633	74.88
245.866	85.88
246.099	99.88
246.333	81.88
246.566	86.88
246.8	77.88
247.033	80.88
247.266	80.88
247.5	92.88
247.733	82.88
247.966	97.88
248.2	85.88
248.433	103.88
248.666	87.88
248.899	88.88
249.133	83.88
249.366	111.88
249.599	119.88
249.832	100.88
250.066	84.88
250.299	98.88
250.532	96.88
250.765	91.88
250.998	77.88
251.231	89.88
251.465	89.88
251.698	102.88
251.931	84.88
252.164	77.88
252.397	90.88
252.63	99.88
252.863	89.88
253.096	96.88
253.329	88.88
253.562	83.88
253.795	89.88
254.028	76.88
254.261	68.88
254.494	88.88
254.727	96.88
254.96	99.88
255.193	67.88
255.426	75.88
255.659	79.88
255.892	97.88
256.124	108.88
256.357	92.88
256.59	98.88
256.823	81.88
257.056	112.88
257.289	110.88
257.521	88.88
257.754	82.88
257.987	99.88
258.22	111.88
258.452	113.88
258.685	103.88
258.918	84.88
259.151	86.88
259.383	86.88
259.616	88.88
259.849	83.88
260.081	91.88
260.314	103.88
260.547	106.88
260.779	108.88
261.012	144.88
261.244	123.88
261.477	102.88
261.71	124.88
261.942	162.88
262.175	181.88
262.407	107.88
262.64	93.88
262.872	87.88
263.105	84.88
263.337	99.88
263.57	95.88
263.802	80.88
264.035	105.88
264.267	87.88
264.499	93.88
264.732	91.88
264.964	96.88
265.197	99.88
265.429	89.88
265.661	97.88
265.894	90.88
266.126	88.88
266.358	82.88
266.591	91.88
266.823	87.88
267.055	95.88
267.287	93.88
267.52	89.88
267.752	86.88
267.984	87.88
268.216	102.88
268.448	97.88
268.681	98.88
268.913	97.88
269.145	74.88
269.377	81.88
269.609	101.88
269.841	83.88
270.073	68.88
270.306	89.88
270.538	108.88
270.77	95.88
271.002	100.88
271.234	102.88
271.466	105.88
271.698	98.88
271.93	88.88
272.162	81.88
272.394	95.88
272.626	89.88
272.858	95.88
273.09	106.88
273.322	83.88
273.553	85.88
273.785	76.88
274.017	87.88
274.249	86.88
274.481	87.88
274.713	102.88
274.945	100.88
275.176	100.88
275.408	107.88
275.64	139.88
275.872	139.88
276.104	135.88
276.335	112.88
276.567	137.88
276.799	215.88
277.031	240.88
277.262	259.88
277.494	193.88
277.726	116.88
277.957	95.88
278.189	103.88
278.421	107.88
278.652	81.88
278.884	90.88
279.115	91.88
279.347	107.88
279.579	111.88
279.81	144.88
280.042	258.88
280.273	369.88
280.505	247.88
280.736	123.88
280.968	92.88
281.199	99.88
281.431	86.88
281.662	112.88
281.894	98.88
282.125	102.88
282.356	158.88
282.588	213.88
282.819	166.88
283.051	112.88
283.282	106.88
283.513	106.88
283.745	91.88
283.976	83.88
284.207	82.88
284.439	77.88
284.67	99.88
284.901	88.88
285.132	91.88
285.364	92.88
285.595	106.88
285.826	83.88
286.057	83.88
286.288	84.88
286.52	77.88
286.751	99.88
286.982	91.88
287.213	87.88
287.444	95.88
287.675	96.88
287.906	89.88
288.138	103.88
288.369	103.88
288.6	114.88
288.831	106.88
289.062	106.88
289.293	91.88
289.524	96.88
289.755	75.88
289.986	89.88
290.217	93.88
290.448	87.88
290.679	89.88
290.91	98.88
291.141	109.88
291.371	105.88
291.602	114.88
291.833	87.88
292.064	106.88
292.295	86.88
292.526	121.88
292.757	99.88
292.987	91.88
293.218	100.88
293.449	87.88
293.68	90.88
293.91	94.88
294.141	96.88
294.372	86.88
294.603	120.88
294.833	93.88
295.064	98.88
295.295	91.88
295.525	92.88
295.756	112.88
295.987	159.88
296.217	211.88
296.448	172.88
296.679	91.88
296.909	103.88
297.14	89.88
297.37	90.88
297.601	97.88
297.831	93.88
298.062	93.88
298.292	102.88
298.523	107.88
298.753	81.88
298.984	92.88
299.214	96.88
299.445	110.88
299.675	109.88
299.905	110.88
300.136	111.88
300.366	98.88
300.597	96.88
300.827	116.88
301.057	114.88
301.288	129.88
301.518	122.88
301.748	94.88
301.979	117.88
302.209	124.88
302.439	116.88
302.669	93.88
302.9	102.88
303.13	109.88
303.36	117.88
303.59	166.88
303.82	181.88
304.051	127.88
304.281	107.88
304.511	81.88
304.741	87.88
304.971	100.88
305.201	96.88
305.431	105.88
305.661	94.88
305.891	105.88
306.121	100.88
306.352	128.88
306.582	144.88
306.812	124.88
307.042	160.88
307.272	200.88
307.502	235.88
307.731	204.88
307.961	151.88
308.191	113.88
308.421	102.88
308.651	104.88
308.881	104.88
309.111	105.88
309.341	112.88
309.571	106.88
309.8	114.88
310.03	115.88
310.26	121.88
310.49	132.88
310.72	114.88
310.949	134.88
311.179	135.88
311.409	104.88
311.639	116.88
311.868	121.88
312.098	110.88
312.328	123.88
312.557	127.88
312.787	140.88
313.017	126.88
313.246	116.88
313.476	94.88
313.706	105.88
313.935	109.88
314.165	124.88
314.394	123.88
314.624	127.88
314.853	118.88
315.083	109.88
315.312	100.88
315.542	89.88
315.771	91.88
316.001	98.88
316.23	100.88
316.46	97.88
316.689	93.88
316.919	105.88
317.148	113.88
317.377	120.88
317.607	93.88
317.836	97.88
318.065	102.88
318.295	101.88
318.524	119.88
318.753	117.88
318.983	94.88
319.212	111.88
319.441	145.88
319.67	154.88
319.9	89.88
320.129	96.88
320.358	106.88
320.587	106.88
320.816	125.88
321.046	130.88
321.275	110.88
321.504	100.88
321.733	107.88
321.962	119.88
322.191	131.88
322.42	120.88
322.649	138.88
322.878	132.88
323.108	151.88
323.337	163.88
323.566	171.88
323.795	217.88
324.024	272.88
324.253	564.88
324.482	1179.88
324.71	2424.88
324.939	3128.88
325.168	1185.88
325.397	348.88
325.626	201.88
325.855	154.88
326.084	159.88
326.313	162.88
326.542	192.88
326.77	315.88
326.999	591.88
327.228	1153.88
327.457	2173.88
327.686	1770.88
327.914	696.88
328.143	748.88
328.372	969.88
328.6	532.88
328.829	253.88
329.058	236.88
329.287	244.88
329.515	219.88
329.744	335.88
329.972	683.88
330.201	1465.88
330.43	2205.88
330.658	932.88
330.887	441.88
331.115	250.88
331.344	153.88
331.572	157.88
331.801	145.88
332.03	156.88
332.258	139.88
332.486	101.88
332.715	133.88
332.943	132.88
333.172	140.88
333.4	158.88
333.629	194.88
333.857	306.88
334.085	610.88
334.314	1325.88
334.542	2576.88
334.771	2450.88
334.999	608.88
335.227	226.88
335.455	144.88
335.684	135.88
335.912	131.88
336.14	121.88
336.369	121.88
336.597	128.88
336.825	138.88
337.053	106.88
337.281	113.88
337.51	100.88
337.738	113.88
337.966	107.88
338.194	124.88
338.422	125.88
338.65	103.88
338.878	113.88
339.106	113.88
339.334	87.88
339.562	108.88
339.79	109.88
340.018	94.88
340.246	107.88
340.474	90.88
340.702	111.88
340.93	103.88
341.158	119.88
341.386	125.88
341.614	110.88
341.842	116.88
342.07	107.88
342.298	105.88
342.526	99.88
342.754	93.88
342.981	106.88
343.209	94.88
343.437	107.88
343.665	100.88
343.893	96.88
344.12	102.88
344.348	90.88
344.576	101.88
344.804	106.88
345.031	117.88
345.259	114.88
345.487	105.88
345.714	101.88
345.942	105.88
346.17	108.88
346.397	104.88
346.625	106.88
346.853	116.88
347.08	98.88
347.308	107.88
347.535	123.88
347.763	115.88
347.99	112.88
348.218	102.88
348.445	124.88
348.673	118.88
348.9	114.88
349.128	105.88
349.355	100.88
349.583	99.88
349.81	111.88
350.037	107.88
350.265	93.88
350.492	98.88
350.72	95.88
350.947	122.88
351.174	113.88
351.402	142.88
351.629	127.88
351.856	120.88
352.083	135.88
352.311	129.88
352.538	141.88
352.765	143.88
352.992	131.88
353.22	127.88
353.447	136.88
353.674	123.88
353.901	100.88
354.128	103.88
354.355	101.88
354.583	94.88
354.81	91.88
355.037	92.88
355.264	94.88
355.491	99.88
355.718	96.88
355.945	114.88
356.172	105.88
356.399	91.88
356.626	91.88
356.853	89.88
357.08	97.88
357.307	84.88
357.534	88.88
357.761	103.88
357.988	83.88
358.215	83.88
358.441	105.88
358.668	101.88
358.895	85.88
359.122	100.88
359.349	106.88
359.576	100.88
359.802	136.88
360.029	172.88
360.256	163.88
360.483	141.88
360.709	109.88
360.936	113.88
361.163	122.88
361.39	136.88
361.616	124.88
361.843	92.88
362.07	111.88
362.296	123.88
362.523	115.88
362.749	100.88
362.976	98.88
363.203	96.88
363.429	101.88
363.656	95.88
363.882	95.88
364.109	101.88
364.335	111.88
364.562	97.88
364.788	110.88
365.015	124.88
365.241	111.88
365.468	141.88
365.694	134.88
365.92	116.88
366.147	106.88
366.373	106.88
366.599	98.88
366.826	96.88
367.052	106.88
367.278	103.88
367.505	97.88
367.731	102.88
367.957	96.88
368.184	102.88
368.41	130.88
368.636	137.88
368.862	155.88
369.089	134.88
369.315	113.88
369.541	117.88
369.767	98.88
369.993	94.88
370.219	104.88
370.445	97.88
370.672	101.88
370.898	98.88
371.124	93.88
371.35	94.88
371.576	97.88
371.802	90.88
372.028	103.88
372.254	83.88
372.48	89.88
372.706	83.88
372.932	93.88
373.158	85.88
373.384	83.88
373.61	95.88
373.835	106.88
374.061	100.88
374.287	103.88
374.513	102.88
374.739	82.88
374.965	93.88
375.191	79.88
375.416	85.88
375.642	96.88
375.868	99.88
376.094	90.88
376.319	93.88
376.545	104.88
376.771	84.88
376.997	91.88
377.222	89.88
377.448	100.88
377.674	91.88
377.899	100.88
378.125	97.88
378.35	89.88
378.576	104.88
378.802	107.88
379.027	95.88
379.253	90.88
379.478	79.88
379.704	85.88
379.929	100.88
380.155	79.88
380.38	104.88
380.606	114.88
380.831	102.88
381.057	90.88
381.282	84.88
381.507	95.88
381.733	98.88
381.958	104.88
382.184	105.88
382.409	106.88
382.634	99.88
382.86	103.88
383.085	103.88
383.31	91.88
383.535	107.88
383.761	101.88
383.986	95.88
384.211	117.88
384.436	99.88
384.662	107.88
384.887	108.88
385.112	91.88
385.337	107.88
385.562	92.88
385.787	105.88
386.013	120.88
386.238	130.88
386.463	119.88
386.688	104.88
386.913	109.88
387.138	104.88
387.363	100.88
387.588	111.88
387.813	107.88
388.038	115.88
388.263	107.88
388.488	105.88
388.713	103.88
388.938	100.88
389.163	90.88
389.387	90.88
389.612	102.88
389.837	95.88
390.062	80.88
390.287	92.88
390.512	81.88
390.736	113.88
390.961	95.88
391.186	73.88
391.411	85.88
391.636	98.88
391.86	70.88
392.085	94.88
392.31	87.88
392.534	85.88
392.759	94.88
392.984	86.88
393.208	101.88
393.433	93.88
393.658	88.88
393.882	85.88
394.107	88.88
394.331	91.88
394.556	87.88
394.78	94.88
395.005	86.88
395.229	91.88
395.454	81.88
395.678	90.88
395.903	77.88
396.127	88.88
396.352	98.88
396.576	104.88
396.801	90.88
397.025	83.88
397.249	85.88
397.474	104.88
397.698	108.88
397.922	91.88
398.147	89.88
398.371	85.88
398.595	88.88
398.82	94.88
399.044	75.88
399.268	98.88
399.492	88.88
399.717	110.88
399.941	90.88
400.165	93.88
400.389	102.88
400.613	80.88
400.837	91.88
401.062	85.88
401.286	99.88
401.51	104.88
401.734	101.88
401.958	140.88
402.182	191.88
402.406	244.88
402.63	191.88
402.854	113.88
403.078	101.88
403.302	97.88
403.526	94.88
403.75	88.88
403.974	99.88
404.198	84.88
404.422	91.88
404.645	97.88
404.869	118.88
405.093	120.88
405.317	159.88
405.541	148.88
405.765	135.88
405.988	168.88
406.212	280.88
406.436	441.88
406.66	274.88
406.883	134.88
407.107	123.88
407.331	109.88
407.555	135.88
407.778	115.88
408.002	103.88
408.226	103.88
408.449	94.88
408.673	89.88
408.896	92.88
409.12	104.88
409.344	93.88
409.567	97.88
409.791	104.88
410.014	105.88
410.238	87.88
410.461	82.88
410.685	85.88
410.908	85.88
411.132	99.88
411.355	111.88
411.578	105.88
411.802	92.88
412.025	81.88
412.249	112.88
412.472	119.88
412.695	142.88
412.919	106.88
413.142	94.88
413.365	112.88
413.589	94.88
413.812	81.88
414.035	90.88
414.258	107.88
414.482	103.88
414.705	91.88
414.928	90.88
415.151	93.88
415.374	102.88
415.597	101.88
415.821	100.88
416.044	89.88
416.267	93.88
416.49	81.88
416.713	89.88
416.936	103.88
417.159	82.88
417.382	101.88
417.605	124.88
417.828	136.88
418.051	111.88
418.274	94.88
418.497	96.88
418.72	88.88
418.943	96.88
419.166	95.88
419.389	79.88
419.611	103.88
419.834	96.88
420.057	97.88
420.28	111.88
420.503	95.88
420.726	96.88
420.948	113.88
421.171	106.88
421.394	112.88
421.617	92.88
421.839	83.88
422.062	92.88
422.285	111.88
422.507	101.88
422.73	112.88
422.953	117.88
423.175	97.88
423.398	101.88
423.621	101.88
423.843	93.88
424.066	87.88
424.288	99.88
424.511	95.88
424.733	105.88
424.956	129.88
425.178	121.88
425.401	125.88
425.623	126.88
425.846	99.88
426.068	96.88
426.291	97.88
426.513	97.88
426.735	104.88
426.958	107.88
427.18	129.88
427.402	196.88
427.625	336.88
427.847	277.88
428.069	229.88
428.292	160.88
428.514	101.88
428.736	120.88
428.958	90.88
429.181	97.88
429.403	88.88
429.625	91.88
429.847	107.88
430.069	118.88
430.292	99.88
430.514	85.88
430.736	78.88
430.958	87.88
431.18	92.88
431.402	112.88
431.624	83.88
431.846	76.88
432.068	89.88
432.29	96.88
432.512	90.88
432.734	82.88
432.956	95.88
433.178	105.88
433.4	115.88
433.622	94.88
433.844	101.88
434.066	96.88
434.287	102.88
434.509	97.88
434.731	99.88
434.953	100.88
435.175	106.88
435.397	96.88
435.618	98.88
435.84	116.88
436.062	129.88
436.284	125.88
436.505	109.88
436.727	108.88
436.949	95.88
437.17	92.88
437.392	105.88
437.614	112.88
437.835	144.88
438.057	164.88
438.278	150.88
438.5	128.88
438.721	137.88
438.943	112.88
439.165	95.88
439.386	84.88
439.608	99.88
439.829	115.88
440.05	158.88
440.272	195.88
440.493	109.88
440.715	101.88
440.936	102.88
441.158	91.88
441.379	89.88
441.6	124.88
441.822	135.88
442.043	115.88
442.264	122.88
442.486	114.88
442.707	132.88
442.928	155.88
443.149	197.88
443.371	202.88
443.592	151.88
443.813	140.88
444.034	122.88
444.255	100.88
444.476	92.88
444.698	99.88
444.919	93.88
445.14	152.88
445.361	134.88
445.582	150.88
445.803	201.88
446.024	188.88
446.245	177.88
446.466	142.88
446.687	103.88
446.908	83.88
447.129	100.88
447.35	110.88
447.571	99.88
447.792	105.88
448.013	129.88
448.234	146.88
448.455	128.88
448.675	136.88
448.896	151.88
449.117	106.88
449.338	104.88
449.559	163.88
449.779	144.88
450	106.88
450.221	100.88
450.442	116.88
450.662	110.88
450.883	163.88
451.104	164.88
451.324	120.88
451.545	89.88
451.766	87.88
451.986	101.88
452.207	113.88
452.428	114.88
452.648	126.88
452.869	152.88
453.089	163.88
453.31	175.88
453.53	122.88
453.751	114.88
453.971	130.88
454.192	163.88
454.412	126.88
454.633	109.88
454.853	98.88
455.073	112.88
455.294	110.88
455.514	122.88
455.734	87.88
455.955	90.88
456.175	95.88
456.395	82.88
456.616	80.88
456.836	98.88
457.056	88.88
457.276	99.88
457.497	84.88
457.717	90.88
457.937	89.88
458.157	113.88
458.377	112.88
458.598	154.88
458.818	278.88
459.038	288.88
459.258	171.88
459.478	102.88
459.698	89.88
459.918	96.88
460.138	98.88
460.358	83.88
460.578	96.88
460.798	111.88
461.018	89.88
461.238	91.88
461.458	94.88
461.678	106.88
461.898	96.88
462.118	88.88
462.338	91.88
462.558	96.88
462.777	103.88
462.997	103.88
463.217	103.88
463.437	125.88
463.657	96.88
463.876	89.88
464.096	120.88
464.316	115.88
464.536	115.88
464.755	123.88
464.975	150.88
465.195	331.88
465.414	324.88
465.634	121.88
465.854	107.88
466.073	104.88
466.293	107.88
466.512	90.88
466.732	92.88
466.951	113.88
467.171	122.88
467.391	142.88
467.61	204.88
467.829	297.88
468.049	939.88
468.268	1348.88
468.488	299.88
468.707	144.88
468.927	105.88
469.146	104.88
469.365	104.88
469.585	109.88
469.804	116.88
470.023	140.88
470.243	120.88
470.462	139.88
470.681	166.88
470.901	116.88
471.12	100.88
471.339	131.88
471.558	160.88
471.777	189.88
471.997	443.88
472.216	1742.88
472.435	3997.88
472.654	873.88
472.873	215.88
473.092	129.88
473.311	121.88
473.53	103.88
473.749	105.88
473.968	114.88
474.187	139.88
474.406	141.88
474.625	97.88
474.844	96.88
475.063	99.88
475.282	97.88
475.501	93.88
475.72	108.88
475.939	81.88
476.158	89.88
476.377	104.88
476.596	105.88
476.814	112.88
477.033	105.88
477.252	99.88
477.471	105.88
477.69	95.88
477.908	104.88
478.127	92.88
478.346	119.88
478.564	106.88
478.783	124.88
479.002	107.88
479.22	128.88
479.439	140.88
479.658	179.88
479.876	155.88
480.095	149.88
480.313	170.88
480.532	216.88
480.751	398.88
480.969	1548.88
481.188	6797.88
481.406	3785.88
481.624	504.88
481.843	169.88
482.061	123.88
482.28	115.88
482.498	112.88
482.717	112.88
482.935	88.88
483.153	95.88
483.372	100.88
483.59	103.88
483.808	96.88
484.027	104.88
484.245	96.88
484.463	110.88
484.681	95.88
484.9	102.88
485.118	98.88
485.336	113.88
485.554	106.88
485.772	120.88
485.99	110.88
486.209	123.88
486.427	119.88
486.645	148.88
486.863	152.88
487.081	125.88
487.299	91.88
487.517	95.88
487.735	101.88
487.953	96.88
488.171	99.88
488.389	114.88
488.607	118.88
488.825	105.88
489.043	92.88
489.261	95.88
489.479	92.88
489.696	101.88
489.914	94.88
490.132	110.88
490.35	105.88
490.568	85.88
490.786	88.88
491.003	94.88
491.221	114.88
491.439	110.88
491.657	112.88
491.874	115.88
492.092	108.88
492.31	101.88
492.527	100.88
492.745	120.88
492.963	114.88
493.18	83.88
493.398	102.88
493.615	100.88
493.833	88.88
494.05	92.88
494.268	100.88
494.485	93.88
494.703	82.88
494.92	93.88
495.138	83.88
495.355	101.88
495.573	101.88
495.79	113.88
496.008	99.88
496.225	105.88
496.442	95.88
496.66	98.88
496.877	94.88
497.094	105.88
497.312	103.88
497.529	77.88
497.746	91.88
497.963	96.88
498.181	93.88
498.398	121.88
498.615	119.88
498.832	116.88
499.049	111.88
499.267	91.88
499.484	96.88
499.701	83.88
499.918	93.88
500.135	95.88
500.352	101.88
500.569	95.88
500.786	82.88
501.003	97.88
501.22	103.88
501.437	97.88
501.654	111.88
501.871	156.88
502.088	111.88
502.305	118.88
502.522	91.88
502.739	88.88
502.956	106.88
503.172	92.88
503.389	127.88
503.606	135.88
503.823	121.88
504.04	112.88
504.256	103.88
504.473	108.88
504.69	83.88
504.907	109.88
505.123	87.88
505.34	93.88
505.557	104.88
505.773	108.88
505.99	85.88
506.207	91.88
506.423	92.88
506.64	101.88
506.856	112.88
507.073	99.88
507.289	107.88
507.506	110.88
507.722	162.88
507.939	164.88
508.155	114.88
508.372	92.88
508.588	99.88
508.805	99.88
509.021	118.88
509.238	131.88
509.454	112.88
509.67	139.88
509.887	139.88
