Data from Circ_1999_H10_HRD10591_00054.txt Node
Date: Wed Jan 03 11:23:23 EST 2024
User: Yrep
Spectrometer: HR+D1059
Trigger mode: 1
Integration Time (sec): 1.000000E-1
Scans to average: 1
Electric dark correction enabled: true
Nonlinearity correction enabled: false
Boxcar width: 0
XAxis mode: Wavelengths
Number of Pixels in Spectrum: 2048
>>>>>Begin Spectral Data<<<<<
223.165	-26.62
223.4	-26.62
223.635	-26.62
223.869	-8.62
224.104	-28.62
224.338	-23.62
224.573	-10.62
224.808	-14.62
225.042	-8.62
225.277	0.38
225.511	-10.62
225.746	11.38
225.98	5.38
226.215	13.38
226.449	11.38
226.683	29.38
226.918	30.38
227.152	30.38
227.387	43.38
227.621	37.38
227.856	45.38
228.09	45.38
228.324	61.38
228.559	64.38
228.793	169.38
229.027	505.38
229.262	599.38
229.496	702.38
229.73	914.38
229.964	974.38
230.199	641.38
230.433	539.38
230.667	545.38
230.901	525.38
231.136	497.38
231.37	517.38
231.604	490.38
231.838	508.38
232.072	513.38
232.306	536.38
232.541	509.38
232.775	544.38
233.009	523.38
233.243	547.38
233.477	528.38
233.711	551.38
233.945	562.38
234.179	565.38
234.413	577.38
234.647	554.38
234.881	575.38
235.115	639.38
235.349	623.38
235.583	634.38
235.817	690.38
236.051	707.38
236.285	692.38
236.519	703.38
236.753	801.38
236.987	1037.38
237.221	1574.38
237.455	1669.38
237.689	991.38
237.922	828.38
238.156	806.38
238.39	756.38
238.624	739.38
238.858	728.38
239.091	759.38
239.325	778.38
239.559	799.38
239.793	825.38
240.027	896.38
240.26	1043.38
240.494	1113.38
240.728	1105.38
240.961	977.38
241.195	943.38
241.429	873.38
241.662	903.38
241.896	875.38
242.13	890.38
242.363	917.38
242.597	945.38
242.83	962.38
243.064	956.38
243.298	982.38
243.531	975.38
243.765	977.38
243.998	993.38
244.232	993.38
244.465	1041.38
244.699	1049.38
244.932	1039.38
245.166	1045.38
245.399	1080.38
245.633	1069.38
245.866	1066.38
246.099	1116.38
246.333	1100.38
246.566	1098.38
246.8	1153.38
247.033	1191.38
247.266	1188.38
247.5	1267.38
247.733	1337.38
247.966	1307.38
248.2	1352.38
248.433	1342.38
248.666	1420.38
248.899	1590.38
249.133	1750.38
249.366	1792.38
249.599	1758.38
249.832	1686.38
250.066	1948.38
250.299	2679.38
250.532	3518.38
250.765	3231.38
250.998	2627.38
251.231	2171.38
251.465	1945.38
251.698	1787.38
251.931	1733.38
252.164	1691.38
252.397	1711.38
252.63	1713.38
252.863	1824.38
253.096	1983.38
253.329	1986.38
253.562	1888.38
253.795	1869.38
254.028	1843.38
254.261	1940.38
254.494	2208.38
254.727	2605.38
254.96	2682.38
255.193	2430.38
255.426	2604.38
255.659	3202.38
255.892	4934.38
256.124	6305.38
256.357	4920.38
256.59	3481.38
256.823	2829.38
257.056	2503.38
257.289	2340.38
257.521	2218.38
257.754	2125.38
257.987	2046.38
258.22	1998.38
258.452	2045.38
258.685	2017.38
258.918	2012.38
259.151	2017.38
259.383	2085.38
259.616	2073.38
259.849	2128.38
260.081	2323.38
260.314	2483.38
260.547	2344.38
260.779	2217.38
261.012	2191.38
261.244	2051.38
261.477	2071.38
261.71	2097.38
261.942	2226.38
262.175	2262.38
262.407	2136.38
262.64	2034.38
262.872	2026.38
263.105	1965.38
263.337	2011.38
263.57	1990.38
263.802	1993.38
264.035	2002.38
264.267	1994.38
264.499	1980.38
264.732	2012.38
264.964	2013.38
265.197	2016.38
265.429	2048.38
265.661	2009.38
265.894	2047.38
266.126	2065.38
266.358	2104.38
266.591	2127.38
266.823	2161.38
267.055	2201.38
267.287	2185.38
267.52	2172.38
267.752	2131.38
267.984	2178.38
268.216	2224.38
268.448	2255.38
268.681	2379.38
268.913	2507.38
269.145	2654.38
269.377	2677.38
269.609	2563.38
269.841	2609.38
270.073	2729.38
270.306	2988.38
270.538	3104.38
270.77	2937.38
271.002	2779.38
271.234	2802.38
271.466	3053.38
271.698	3159.38
271.93	3109.38
272.162	3144.38
272.394	2952.38
272.626	2790.38
272.858	2748.38
273.09	2723.38
273.322	2687.38
273.553	2651.38
273.785	2680.38
274.017	2674.38
274.249	2736.38
274.481	2805.38
274.713	2830.38
274.945	2885.38
275.176	2871.38
275.408	2934.38
275.64	2974.38
275.872	3077.38
276.104	3084.38
276.335	3098.38
276.567	3295.38
276.799	3643.38
277.031	4080.38
277.262	4334.38
277.494	3963.38
277.726	3529.38
277.957	3358.38
278.189	3273.38
278.421	3123.38
278.652	3057.38
278.884	3101.38
279.115	3082.38
279.347	3168.38
279.579	3317.38
279.81	3487.38
280.042	3891.38
280.273	4284.38
280.505	3973.38
280.736	3554.38
280.968	3346.38
281.199	3273.38
281.431	3190.38
281.662	3149.38
281.894	3133.38
282.125	3164.38
282.356	3466.38
282.588	3710.38
282.819	3395.38
283.051	3098.38
283.282	3055.38
283.513	3070.38
283.745	3144.38
283.976	3177.38
284.207	3125.38
284.439	3110.38
284.67	3153.38
284.901	3118.38
285.132	3103.38
285.364	3057.38
285.595	3092.38
285.826	3105.38
286.057	3132.38
286.288	3172.38
286.52	3168.38
286.751	3161.38
286.982	3226.38
287.213	3179.38
287.444	3227.38
287.675	3263.38
287.906	3367.38
288.138	3413.38
288.369	3388.38
288.6	3405.38
288.831	3338.38
289.062	3293.38
289.293	3379.38
289.524	3257.38
289.755	3290.38
289.986	3229.38
290.217	3223.38
290.448	3266.38
290.679	3276.38
290.91	3221.38
291.141	3239.38
291.371	3296.38
291.602	3238.38
291.833	3190.38
292.064	3171.38
292.295	3189.38
292.526	3245.38
292.757	3258.38
292.987	3221.38
293.218	3262.38
293.449	3259.38
293.68	3229.38
293.91	3241.38
294.141	3223.38
294.372	3211.38
294.603	3240.38
294.833	3290.38
295.064	3279.38
295.295	3315.38
295.525	3315.38
295.756	3356.38
295.987	3557.38
296.217	3870.38
296.448	3708.38
296.679	3369.38
296.909	3328.38
297.14	3355.38
297.37	3389.38
297.601	3433.38
297.831	3455.38
298.062	3442.38
298.292	3460.38
298.523	3535.38
298.753	3533.38
298.984	3539.38
299.214	3535.38
299.445	3599.38
299.675	3576.38
299.905	3618.38
300.136	3515.38
300.366	3599.38
300.597	3613.38
300.827	3720.38
301.057	3845.38
301.288	3888.38
301.518	3725.38
301.748	3883.38
301.979	4014.38
302.209	4026.38
302.439	3871.38
302.669	3843.38
302.9	3865.38
303.13	3766.38
303.36	3925.38
303.59	4138.38
303.82	4267.38
304.051	4024.38
304.281	3895.38
304.511	3827.38
304.741	3809.38
304.971	3749.38
305.201	3719.38
305.431	3769.38
305.661	3791.38
305.891	3747.38
306.121	3777.38
306.352	3906.38
306.582	3897.38
306.812	3816.38
307.042	4051.38
307.272	4316.38
307.502	4489.38
307.731	4299.38
307.961	4006.38
308.191	3907.38
308.421	3861.38
308.651	3878.38
308.881	3894.38
309.111	3880.38
309.341	3951.38
309.571	4071.38
309.8	4224.38
310.03	4334.38
310.26	4311.38
310.49	4282.38
310.72	4511.38
310.949	4678.38
311.179	4533.38
311.409	4286.38
311.639	4306.38
311.868	4414.38
312.098	4378.38
312.328	4549.38
312.557	4794.38
312.787	4938.38
313.017	4594.38
313.246	4460.38
313.476	4316.38
313.706	4470.38
313.935	4513.38
314.165	4735.38
314.394	4781.38
314.624	4630.38
314.853	4455.38
315.083	4414.38
315.312	4407.38
315.542	4262.38
315.771	4218.38
316.001	4268.38
316.23	4360.38
316.46	4260.38
316.689	4389.38
316.919	4400.38
317.148	4471.38
317.377	4503.38
317.607	4497.38
317.836	4380.38
318.065	4325.38
318.295	4305.38
318.524	4334.38
318.753	4313.38
318.983	4290.38
319.212	4414.38
319.441	4462.38
319.67	4511.38
319.9	4341.38
320.129	4381.38
320.358	4384.38
320.587	4465.38
320.816	4576.38
321.046	4702.38
321.275	4583.38
321.504	4631.38
321.733	4728.38
321.962	4781.38
322.191	4983.38
322.42	5123.38
322.649	5256.38
322.878	5409.38
323.108	5681.38
323.337	6058.38
323.566	6322.38
323.795	6750.38
324.024	7746.38
324.253	10568.38
324.482	14676.38
324.71	15619.38
324.939	15619.38
325.168	15367.38
325.397	8807.38
325.626	7055.38
325.855	6529.38
326.084	6368.38
326.313	6498.38
326.542	6942.38
326.77	8020.38
326.999	10443.38
327.228	14368.38
327.457	15619.38
327.686	15619.38
327.914	13797.38
328.143	13235.38
328.372	13826.38
328.6	11261.38
328.829	9353.38
329.058	9629.38
329.287	9797.38
329.515	9925.38
329.744	11614.38
329.972	14482.38
330.201	15619.38
330.43	15619.38
330.658	15227.38
330.887	11785.38
331.115	9642.38
331.344	8157.38
331.572	7694.38
331.801	7805.38
332.03	7698.38
332.258	7413.38
332.486	7377.38
332.715	7611.38
332.943	8153.38
333.172	8688.38
333.4	9347.38
333.629	10587.38
333.857	12737.38
334.085	15134.38
334.314	15619.38
334.542	15619.38
334.771	15619.38
334.999	14569.38
335.227	10552.38
335.455	8937.38
335.684	7977.38
335.912	7502.38
336.14	7050.38
336.369	6897.38
336.597	6809.38
336.825	6627.38
337.053	6287.38
337.281	6126.38
337.51	5983.38
337.738	5972.38
337.966	5918.38
338.194	5909.38
338.422	5713.38
338.65	5566.38
338.878	5465.38
339.106	5401.38
339.334	5334.38
339.562	5378.38
339.79	5195.38
340.018	5252.38
340.246	5245.38
340.474	5281.38
340.702	5323.38
340.93	5205.38
341.158	5230.38
341.386	5253.38
341.614	5255.38
341.842	5136.38
342.07	5055.38
342.298	5031.38
342.526	4981.38
342.754	5005.38
342.981	4926.38
343.209	5018.38
343.437	5288.38
343.665	5435.38
343.893	5697.38
344.12	5649.38
344.348	5537.38
344.576	5365.38
344.804	5473.38
345.031	5472.38
345.259	5384.38
345.487	5231.38
345.714	5048.38
345.942	4903.38
346.17	4860.38
346.397	4908.38
346.625	4838.38
346.853	4836.38
347.08	4867.38
347.308	4939.38
347.535	5109.38
347.763	5091.38
347.99	4969.38
348.218	5114.38
348.445	5151.38
348.673	5055.38
348.9	4875.38
349.128	4712.38
349.355	4698.38
349.583	4682.38
349.81	4705.38
350.037	4617.38
350.265	4593.38
350.492	4640.38
350.72	4765.38
350.947	4863.38
351.174	4947.38
351.402	4985.38
351.629	4851.38
351.856	4923.38
352.083	5086.38
352.311	5101.38
352.538	5193.38
352.765	5113.38
352.992	4935.38
353.22	4848.38
353.447	4838.38
353.674	4687.38
353.901	4595.38
354.128	4476.38
354.355	4539.38
354.583	4488.38
354.81	4539.38
355.037	4507.38
355.264	4410.38
355.491	4430.38
355.718	4469.38
355.945	4490.38
356.172	4478.38
356.399	4457.38
356.626	4486.38
356.853	4365.38
357.08	4429.38
357.307	4406.38
357.534	4419.38
357.761	4497.38
357.988	4451.38
358.215	4438.38
358.441	4534.38
358.668	4481.38
358.895	4598.38
359.122	4653.38
359.349	4746.38
359.576	5001.38
359.802	5414.38
360.029	5753.38
360.256	5667.38
360.483	5264.38
360.709	4937.38
360.936	4841.38
361.163	4899.38
361.39	4989.38
361.616	4923.38
361.843	4798.38
362.07	4954.38
362.296	4928.38
362.523	4874.38
362.749	4792.38
362.976	4732.38
363.203	4649.38
363.429	4570.38
363.656	4677.38
363.882	4618.38
364.109	4599.38
364.335	4643.38
364.562	4599.38
364.788	4645.38
365.015	4614.38
365.241	4660.38
365.468	4735.38
365.694	4753.38
365.92	4685.38
366.147	4633.38
366.373	4563.38
366.599	4609.38
366.826	4492.38
367.052	4495.38
367.278	4666.38
367.505	4625.38
367.731	4635.38
367.957	4644.38
368.184	4711.38
368.41	4771.38
368.636	4978.38
368.862	4783.38
369.089	4753.38
369.315	4648.38
369.541	4746.38
369.767	4737.38
369.993	4737.38
370.219	4766.38
370.445	4677.38
370.672	4719.38
370.898	4694.38
371.124	4743.38
371.35	4862.38
371.576	4727.38
371.802	4749.38
372.028	4743.38
372.254	4709.38
372.48	4786.38
372.706	4924.38
372.932	4937.38
373.158	4847.38
373.384	4849.38
373.61	4770.38
373.835	4835.38
374.061	4847.38
374.287	4913.38
374.513	4973.38
374.739	5066.38
374.965	5159.38
375.191	5110.38
375.416	5080.38
375.642	4936.38
375.868	4975.38
376.094	4874.38
376.319	4842.38
376.545	4792.38
376.771	4796.38
376.997	4762.38
377.222	4839.38
377.448	4704.38
377.674	4726.38
377.899	4629.38
378.125	4770.38
378.35	4636.38
378.576	4673.38
378.802	4632.38
379.027	4670.38
379.253	4668.38
379.478	4679.38
379.704	4630.38
379.929	4736.38
380.155	4736.38
380.38	4782.38
380.606	4777.38
380.831	4653.38
381.057	4713.38
381.282	4785.38
381.507	4754.38
381.733	4819.38
381.958	4757.38
382.184	4852.38
382.409	4927.38
382.634	4922.38
382.86	5016.38
383.085	5007.38
383.31	5101.38
383.535	5098.38
383.761	5205.38
383.986	5185.38
384.211	5351.38
384.436	5373.38
384.662	5462.38
384.887	5539.38
385.112	5526.38
385.337	5539.38
385.562	5656.38
385.787	5593.38
386.013	5738.38
386.238	5860.38
386.463	5707.38
386.688	5654.38
386.913	5534.38
387.138	5576.38
387.363	5533.38
387.588	5502.38
387.813	5493.38
388.038	5495.38
388.263	5549.38
388.488	5555.38
388.713	5500.38
388.938	5557.38
389.163	5552.38
389.387	5548.38
389.612	5399.38
389.837	5501.38
390.062	5424.38
390.287	5455.38
390.512	5435.38
390.736	5478.38
390.961	5687.38
391.186	5674.38
391.411	5844.38
391.636	5933.38
391.86	6081.38
392.085	6212.38
392.31	6018.38
392.534	5962.38
392.759	5936.38
392.984	5820.38
393.208	5718.38
393.433	5787.38
393.658	5631.38
393.882	5740.38
394.107	5764.38
394.331	5822.38
394.556	5804.38
394.78	5883.38
395.005	5890.38
395.229	5926.38
395.454	6077.38
395.678	6253.38
395.903	6220.38
396.127	6303.38
396.352	6134.38
396.576	5942.38
396.801	5919.38
397.025	5901.38
397.249	6030.38
397.474	6197.38
397.698	6283.38
397.922	6370.38
398.147	6554.38
398.371	6673.38
398.595	6750.38
398.82	7012.38
399.044	7651.38
399.268	8264.38
399.492	9264.38
399.717	9875.38
399.941	9743.38
400.165	9258.38
400.389	8514.38
400.613	7804.38
400.837	7329.38
401.062	7155.38
401.286	7077.38
401.51	7010.38
401.734	7002.38
401.958	7110.38
402.182	7273.38
402.406	7484.38
402.63	7499.38
402.854	7493.38
403.078	7581.38
403.302	7709.38
403.526	7897.38
403.75	7858.38
403.974	8027.38
404.198	8103.38
404.422	8386.38
404.645	8463.38
404.869	8754.38
405.093	9461.38
405.317	10183.38
405.541	9973.38
405.765	9010.38
405.988	8413.38
406.212	8537.38
406.436	8811.38
406.66	8714.38
406.883	8475.38
407.107	9055.38
407.331	9480.38
407.555	10037.38
407.778	9593.38
408.002	8880.38
408.226	8525.38
408.449	8462.38
408.673	8240.38
408.896	8407.38
409.12	8589.38
409.344	7985.38
409.567	7657.38
409.791	7696.38
410.014	7498.38
410.238	7532.38
410.461	7670.38
410.685	7719.38
410.908	7717.38
411.132	7993.38
411.355	8096.38
411.578	7652.38
411.802	7662.38
412.025	7944.38
412.249	8599.38
412.472	9390.38
412.695	10157.38
412.919	9279.38
413.142	8613.38
413.365	8206.38
413.589	7760.38
413.812	7386.38
414.035	7279.38
414.258	7297.38
414.482	7214.38
414.705	7181.38
414.928	7065.38
415.151	7109.38
415.374	6958.38
415.597	7042.38
415.821	6930.38
416.044	7071.38
416.267	6942.38
416.49	6763.38
416.713	6769.38
416.936	7004.38
417.159	7041.38
417.382	7281.38
417.605	7392.38
417.828	7653.38
418.051	7441.38
418.274	7146.38
418.497	6953.38
418.72	7159.38
418.943	7086.38
419.166	7605.38
419.389	8030.38
419.611	8131.38
419.834	8152.38
420.057	8355.38
420.28	8890.38
420.503	8544.38
420.726	8147.38
420.948	7977.38
421.171	8211.38
421.394	7845.38
421.617	7232.38
421.839	7154.38
422.062	7255.38
422.285	7413.38
422.507	8123.38
422.73	8639.38
422.953	7898.38
423.175	7552.38
423.398	7502.38
423.621	7566.38
423.843	7741.38
424.066	7564.38
424.288	7557.38
424.511	7806.38
424.733	8466.38
424.956	8888.38
425.178	8435.38
425.401	8529.38
425.623	8384.38
425.846	7339.38
426.068	7285.38
426.291	7241.38
426.513	7106.38
426.735	7181.38
426.958	7841.38
427.18	8962.38
427.402	10477.38
427.625	11330.38
427.847	10707.38
428.069	10119.38
428.292	8393.38
428.514	7390.38
428.736	6900.38
428.958	6727.38
429.181	6490.38
429.403	6423.38
429.625	6650.38
429.847	6882.38
430.069	7565.38
430.292	6909.38
430.514	6317.38
430.736	6341.38
430.958	6260.38
431.18	6199.38
431.402	6167.38
431.624	6092.38
431.846	6126.38
432.068	6201.38
432.29	6326.38
432.512	6179.38
432.734	6337.38
432.956	6242.38
433.178	6355.38
433.4	6403.38
433.622	6281.38
433.844	6266.38
434.066	6304.38
434.287	6317.38
434.509	6534.38
434.731	6705.38
434.953	6832.38
435.175	6997.38
435.397	7127.38
435.618	7089.38
435.84	7549.38
436.062	8601.38
436.284	8561.38
436.505	7056.38
436.727	6721.38
436.949	6412.38
437.17	6321.38
437.392	6213.38
437.614	6551.38
437.835	7100.38
438.057	8397.38
438.278	8928.38
438.5	8653.38
438.721	9563.38
438.943	8221.38
439.165	6881.38
439.386	6750.38
439.608	6829.38
439.829	7052.38
440.05	7579.38
440.272	8135.38
440.493	7166.38
440.715	6722.38
440.936	6509.38
441.158	6626.38
441.379	6772.38
441.6	7053.38
441.822	7389.38
442.043	7827.38
442.264	8830.38
442.486	8410.38
442.707	7448.38
442.928	7349.38
443.149	7677.38
443.371	7950.38
443.592	8408.38
443.813	9560.38
444.034	9304.38
444.255	7928.38
444.476	7656.38
444.698	7782.38
444.919	7881.38
445.14	7901.38
445.361	7741.38
445.582	8339.38
445.803	9301.38
446.024	9907.38
446.245	9447.38
446.466	8195.38
446.687	6947.38
446.908	6626.38
447.129	6311.38
447.35	6133.38
447.571	6075.38
447.792	6019.38
448.013	6174.38
448.234	6452.38
448.455	7223.38
448.675	8579.38
448.896	9037.38
449.117	7238.38
449.338	7731.38
449.559	9239.38
449.779	9386.38
450	7034.38
450.221	6334.38
450.442	6069.38
450.662	6061.38
450.883	6318.38
451.104	6551.38
451.324	6205.38
451.545	5868.38
451.766	5730.38
451.986	5599.38
452.207	5539.38
452.428	5504.38
452.648	5527.38
452.869	5645.38
453.089	5771.38
453.31	5790.38
453.53	5618.38
453.751	5568.38
453.971	5717.38
454.192	5954.38
454.412	5655.38
454.633	5470.38
454.853	5396.38
455.073	5416.38
455.294	5973.38
455.514	6635.38
455.734	5937.38
455.955	5292.38
456.175	5151.38
456.395	5138.38
456.616	5149.38
456.836	5162.38
457.056	5070.38
457.276	5086.38
457.497	5310.38
457.717	5224.38
457.937	5317.38
458.157	5370.38
458.377	5563.38
458.598	6118.38
458.818	7235.38
459.038	8204.38
459.258	7698.38
459.478	6606.38
459.698	6428.38
459.918	6344.38
460.138	6509.38
460.358	6722.38
460.578	6741.38
460.798	6810.38
461.018	6864.38
461.238	6672.38
461.458	6657.38
461.678	6581.38
461.898	6813.38
462.118	6759.38
462.338	7153.38
462.558	7303.38
462.777	7475.38
462.997	8072.38
463.217	8573.38
463.437	8208.38
463.657	7910.38
463.876	7658.38
464.096	7664.38
464.316	7714.38
464.536	7754.38
464.755	7634.38
464.975	7659.38
465.195	8546.38
465.414	8876.38
465.634	7345.38
465.854	6791.38
466.073	6395.38
466.293	6226.38
466.512	5992.38
466.732	5909.38
466.951	5956.38
467.171	5947.38
467.391	6156.38
467.61	6566.38
467.829	7085.38
468.049	9423.38
468.268	11776.38
468.488	8399.38
468.707	6811.38
468.927	6333.38
469.146	6153.38
469.365	6082.38
469.585	6039.38
469.804	6267.38
470.023	6460.38
470.243	6443.38
470.462	6462.38
470.681	6793.38
470.901	6573.38
471.12	6374.38
471.339	6498.38
471.558	6613.38
471.777	6934.38
471.997	8162.38
472.216	13322.38
472.435	15619.38
472.654	14717.38
472.873	9831.38
473.092	8214.38
473.311	7440.38
473.53	7039.38
473.749	6922.38
473.968	7421.38
474.187	8511.38
474.406	7645.38
474.625	6533.38
474.844	6137.38
475.063	6067.38
475.282	6110.38
475.501	6080.38
475.72	6097.38
475.939	6043.38
476.158	6081.38
476.377	6136.38
476.596	6143.38
476.814	6420.38
477.033	6381.38
477.252	6449.38
477.471	6432.38
477.69	6573.38
477.908	6663.38
478.127	6866.38
478.346	6818.38
478.564	6999.38
478.783	7127.38
479.002	7406.38
479.22	7473.38
479.439	7647.38
479.658	8029.38
479.876	8150.38
480.095	8540.38
480.313	9144.38
480.532	9451.38
480.751	10764.38
480.969	14721.38
481.188	15619.38
481.406	15619.38
481.624	15605.38
481.843	12529.38
482.061	10793.38
482.28	9691.38
482.498	9029.38
482.717	8499.38
482.935	8253.38
483.153	7926.38
483.372	7743.38
483.59	7651.38
483.808	7610.38
484.027	7471.38
484.245	7499.38
484.463	7493.38
484.681	7537.38
484.9	7457.38
485.118	7441.38
485.336	7508.38
485.554	7602.38
485.772	7570.38
485.99	7554.38
486.209	7631.38
486.427	7663.38
486.645	7716.38
486.863	8074.38
487.081	7841.38
