Data from Circ_1999_H10_HRD10591_00021.txt Node
Date: Wed Jan 03 11:23:16 EST 2024
User: Yrep
Spectrometer: HR+D1059
Trigger mode: 1
Integration Time (sec): 1.000000E-1
Scans to average: 1
Electric dark correction enabled: true
Nonlinearity correction enabled: false
Boxcar width: 0
XAxis mode: Wavelengths
Number of Pixels in Spectrum: 2048
>>>>>Begin Spectral Data<<<<<
223.165	-1.12
223.4	-1.12
223.635	-1.12
223.869	-14.12
224.104	-6.12
224.338	-17.12
224.573	-14.12
224.808	-19.12
225.042	-32.12
225.277	0.88
225.511	-7.12
225.746	0.88
225.98	21.88
226.215	12.88
226.449	19.88
226.683	23.88
226.918	17.88
227.152	12.88
227.387	31.88
227.621	37.88
227.856	43.88
228.09	42.88
228.324	59.88
228.559	48.88
228.793	62.88
229.027	64.88
229.262	51.88
229.496	69.88
229.73	75.88
229.964	86.88
230.199	87.88
230.433	72.88
230.667	83.88
230.901	76.88
231.136	77.88
231.37	79.88
231.604	76.88
231.838	83.88
232.072	91.88
232.306	87.88
232.541	95.88
232.775	84.88
233.009	81.88
233.243	81.88
233.477	76.88
233.711	72.88
233.945	86.88
234.179	82.88
234.413	70.88
234.647	75.88
234.881	87.88
235.115	77.88
235.349	83.88
235.583	89.88
235.817	82.88
236.051	87.88
236.285	77.88
236.519	73.88
236.753	80.88
236.987	100.88
237.221	100.88
237.455	88.88
237.689	88.88
237.922	73.88
238.156	81.88
238.39	85.88
238.624	84.88
238.858	86.88
239.091	78.88
239.325	78.88
239.559	97.88
239.793	88.88
240.027	72.88
240.26	76.88
240.494	71.88
240.728	89.88
240.961	77.88
241.195	89.88
241.429	65.88
241.662	73.88
241.896	76.88
242.13	74.88
242.363	78.88
242.597	71.88
242.83	73.88
243.064	73.88
243.298	80.88
243.531	62.88
243.765	74.88
243.998	67.88
244.232	81.88
244.465	87.88
244.699	91.88
244.932	80.88
245.166	88.88
245.399	90.88
245.633	85.88
245.866	78.88
246.099	75.88
246.333	64.88
246.566	71.88
246.8	82.88
247.033	77.88
247.266	84.88
247.5	85.88
247.733	77.88
247.966	88.88
248.2	83.88
248.433	81.88
248.666	74.88
248.899	86.88
249.133	87.88
249.366	100.88
249.599	92.88
249.832	87.88
250.066	84.88
250.299	74.88
250.532	78.88
250.765	74.88
250.998	73.88
251.231	84.88
251.465	92.88
251.698	83.88
251.931	81.88
252.164	73.88
252.397	87.88
252.63	89.88
252.863	82.88
253.096	83.88
253.329	85.88
253.562	72.88
253.795	92.88
254.028	91.88
254.261	85.88
254.494	78.88
254.727	79.88
254.96	80.88
255.193	92.88
255.426	89.88
255.659	93.88
255.892	105.88
256.124	113.88
256.357	80.88
256.59	86.88
256.823	79.88
257.056	101.88
257.289	90.88
257.521	92.88
257.754	85.88
257.987	86.88
258.22	81.88
258.452	94.88
258.685	80.88
258.918	84.88
259.151	77.88
259.383	97.88
259.616	74.88
259.849	80.88
260.081	76.88
260.314	85.88
260.547	104.88
260.779	91.88
261.012	90.88
261.244	99.88
261.477	93.88
261.71	119.88
261.942	126.88
262.175	159.88
262.407	90.88
262.64	88.88
262.872	87.88
263.105	90.88
263.337	81.88
263.57	97.88
263.802	77.88
264.035	93.88
264.267	81.88
264.499	85.88
264.732	94.88
264.964	86.88
265.197	98.88
265.429	95.88
265.661	86.88
265.894	78.88
266.126	89.88
266.358	76.88
266.591	81.88
266.823	71.88
267.055	77.88
267.287	83.88
267.52	94.88
267.752	85.88
267.984	77.88
268.216	84.88
268.448	93.88
268.681	94.88
268.913	98.88
269.145	83.88
269.377	77.88
269.609	95.88
269.841	82.88
270.073	76.88
270.306	73.88
270.538	89.88
270.77	96.88
271.002	100.88
271.234	91.88
271.466	87.88
271.698	92.88
271.93	80.88
272.162	97.88
272.394	87.88
272.626	83.88
272.858	83.88
273.09	76.88
273.322	85.88
273.553	99.88
273.785	86.88
274.017	79.88
274.249	84.88
274.481	84.88
274.713	94.88
274.945	88.88
275.176	87.88
275.408	103.88
275.64	107.88
275.872	115.88
276.104	96.88
276.335	106.88
276.567	133.88
276.799	146.88
277.031	161.88
277.262	180.88
277.494	124.88
277.726	110.88
277.957	107.88
278.189	90.88
278.421	92.88
278.652	90.88
278.884	99.88
279.115	80.88
279.347	81.88
279.579	85.88
279.81	114.88
280.042	169.88
280.273	217.88
280.505	160.88
280.736	92.88
280.968	93.88
281.199	88.88
281.431	87.88
281.662	82.88
281.894	99.88
282.125	100.88
282.356	141.88
282.588	168.88
282.819	123.88
283.051	93.88
283.282	89.88
283.513	92.88
283.745	78.88
283.976	86.88
284.207	96.88
284.439	96.88
284.67	99.88
284.901	86.88
285.132	81.88
285.364	93.88
285.595	103.88
285.826	96.88
286.057	96.88
286.288	82.88
286.52	88.88
286.751	97.88
286.982	85.88
287.213	90.88
287.444	86.88
287.675	87.88
287.906	94.88
288.138	84.88
288.369	109.88
288.6	101.88
288.831	96.88
289.062	84.88
289.293	94.88
289.524	101.88
289.755	91.88
289.986	82.88
290.217	79.88
290.448	85.88
290.679	93.88
290.91	100.88
291.141	107.88
291.371	87.88
291.602	94.88
291.833	88.88
292.064	84.88
292.295	89.88
292.526	96.88
292.757	80.88
292.987	83.88
293.218	78.88
293.449	102.88
293.68	83.88
293.91	94.88
294.141	79.88
294.372	84.88
294.603	94.88
294.833	87.88
295.064	109.88
295.295	93.88
295.525	93.88
295.756	109.88
295.987	129.88
296.217	179.88
296.448	138.88
296.679	108.88
296.909	95.88
297.14	84.88
297.37	102.88
297.601	104.88
297.831	100.88
298.062	101.88
298.292	93.88
298.523	100.88
298.753	89.88
298.984	90.88
299.214	87.88
299.445	105.88
299.675	104.88
299.905	93.88
300.136	93.88
300.366	84.88
300.597	96.88
300.827	95.88
301.057	96.88
301.288	105.88
301.518	94.88
301.748	92.88
301.979	114.88
302.209	116.88
302.439	89.88
302.669	102.88
302.9	84.88
303.13	75.88
303.36	96.88
303.59	126.88
303.82	146.88
304.051	119.88
304.281	85.88
304.511	99.88
304.741	86.88
304.971	86.88
305.201	83.88
305.431	91.88
305.661	94.88
305.891	101.88
306.121	103.88
306.352	120.88
306.582	113.88
306.812	110.88
307.042	112.88
307.272	135.88
307.502	166.88
307.731	159.88
307.961	119.88
308.191	94.88
308.421	85.88
308.651	78.88
308.881	94.88
309.111	93.88
309.341	95.88
309.571	105.88
309.8	112.88
310.03	103.88
310.26	117.88
310.49	98.88
310.72	105.88
310.949	108.88
311.179	99.88
311.409	90.88
311.639	88.88
311.868	111.88
312.098	95.88
312.328	100.88
312.557	109.88
312.787	127.88
313.017	107.88
313.246	92.88
313.476	84.88
313.706	87.88
313.935	94.88
314.165	90.88
314.394	103.88
314.624	93.88
314.853	103.88
315.083	99.88
315.312	96.88
315.542	77.88
315.771	88.88
316.001	92.88
316.23	96.88
316.46	84.88
316.689	91.88
316.919	85.88
317.148	105.88
317.377	108.88
317.607	95.88
317.836	97.88
318.065	116.88
318.295	91.88
318.524	96.88
318.753	90.88
318.983	95.88
319.212	91.88
319.441	134.88
319.67	124.88
319.9	114.88
320.129	93.88
320.358	100.88
320.587	99.88
320.816	113.88
321.046	116.88
321.275	97.88
321.504	94.88
321.733	88.88
321.962	99.88
322.191	104.88
322.42	108.88
322.649	125.88
322.878	106.88
323.108	137.88
323.337	141.88
323.566	162.88
323.795	163.88
324.024	237.88
324.253	417.88
324.482	809.88
324.71	1683.88
324.939	2135.88
325.168	817.88
325.397	268.88
325.626	160.88
325.855	154.88
326.084	135.88
326.313	147.88
326.542	149.88
326.77	230.88
326.999	423.88
327.228	851.88
327.457	1525.88
327.686	1246.88
327.914	471.88
328.143	469.88
328.372	573.88
328.6	310.88
328.829	199.88
329.058	196.88
329.287	192.88
329.515	181.88
329.744	255.88
329.972	428.88
330.201	830.88
330.43	1221.88
330.658	553.88
330.887	269.88
331.115	186.88
331.344	129.88
331.572	121.88
331.801	133.88
332.03	119.88
332.258	112.88
332.486	107.88
332.715	106.88
332.943	119.88
333.172	124.88
333.4	121.88
333.629	148.88
333.857	219.88
334.085	395.88
334.314	794.88
334.542	1515.88
334.771	1407.88
334.999	360.88
335.227	173.88
335.455	119.88
335.684	111.88
335.912	102.88
336.14	103.88
336.369	89.88
336.597	112.88
336.825	114.88
337.053	92.88
337.281	101.88
337.51	97.88
337.738	105.88
337.966	97.88
338.194	100.88
338.422	127.88
338.65	104.88
338.878	97.88
339.106	82.88
339.334	98.88
339.562	84.88
339.79	90.88
340.018	96.88
340.246	103.88
340.474	114.88
340.702	108.88
340.93	72.88
341.158	87.88
341.386	119.88
341.614	104.88
341.842	120.88
342.07	90.88
342.298	95.88
342.526	92.88
342.754	91.88
342.981	90.88
343.209	84.88
343.437	102.88
343.665	100.88
343.893	80.88
344.12	81.88
344.348	91.88
344.576	77.88
344.804	100.88
345.031	109.88
345.259	101.88
345.487	108.88
345.714	92.88
345.942	88.88
346.17	89.88
346.397	92.88
346.625	99.88
346.853	96.88
347.08	90.88
347.308	101.88
347.535	109.88
347.763	108.88
347.99	102.88
348.218	105.88
348.445	105.88
348.673	116.88
348.9	103.88
349.128	90.88
349.355	96.88
349.583	93.88
349.81	86.88
350.037	102.88
350.265	80.88
350.492	89.88
350.72	108.88
350.947	111.88
351.174	119.88
351.402	128.88
351.629	109.88
351.856	96.88
352.083	115.88
352.311	121.88
352.538	128.88
352.765	132.88
352.992	135.88
353.22	121.88
353.447	112.88
353.674	93.88
353.901	103.88
354.128	94.88
354.355	86.88
354.583	106.88
354.81	84.88
355.037	88.88
355.264	99.88
355.491	96.88
355.718	102.88
355.945	85.88
356.172	87.88
356.399	95.88
356.626	101.88
356.853	101.88
357.08	81.88
357.307	89.88
357.534	91.88
357.761	89.88
357.988	83.88
358.215	90.88
358.441	102.88
358.668	96.88
358.895	109.88
359.122	101.88
359.349	97.88
359.576	101.88
359.802	124.88
360.029	136.88
360.256	133.88
360.483	132.88
360.709	99.88
360.936	96.88
361.163	83.88
361.39	93.88
361.616	103.88
361.843	91.88
362.07	88.88
362.296	109.88
362.523	99.88
362.749	95.88
362.976	85.88
363.203	93.88
363.429	98.88
363.656	92.88
363.882	85.88
364.109	80.88
364.335	87.88
364.562	91.88
364.788	93.88
365.015	92.88
365.241	109.88
365.468	101.88
365.694	120.88
365.92	106.88
366.147	99.88
366.373	93.88
366.599	84.88
366.826	91.88
367.052	91.88
367.278	91.88
367.505	102.88
367.731	99.88
367.957	98.88
368.184	94.88
368.41	102.88
368.636	122.88
368.862	127.88
369.089	121.88
369.315	111.88
369.541	101.88
369.767	91.88
369.993	92.88
370.219	82.88
370.445	71.88
370.672	91.88
370.898	96.88
371.124	92.88
371.35	98.88
371.576	78.88
371.802	81.88
372.028	80.88
372.254	78.88
372.48	83.88
372.706	99.88
372.932	109.88
373.158	103.88
373.384	95.88
373.61	79.88
373.835	80.88
374.061	88.88
374.287	80.88
374.513	91.88
374.739	89.88
374.965	87.88
375.191	87.88
375.416	95.88
375.642	85.88
375.868	80.88
376.094	95.88
376.319	91.88
376.545	96.88
376.771	78.88
376.997	87.88
377.222	99.88
377.448	91.88
377.674	90.88
377.899	86.88
378.125	76.88
378.35	84.88
378.576	111.88
378.802	87.88
379.027	96.88
379.253	97.88
379.478	96.88
379.704	97.88
379.929	79.88
380.155	97.88
380.38	94.88
380.606	82.88
380.831	87.88
381.057	98.88
381.282	100.88
381.507	88.88
381.733	89.88
381.958	87.88
382.184	86.88
382.409	95.88
382.634	106.88
382.86	112.88
383.085	108.88
383.31	97.88
383.535	97.88
383.761	99.88
383.986	98.88
384.211	107.88
384.436	102.88
384.662	89.88
384.887	112.88
385.112	105.88
385.337	103.88
385.562	115.88
385.787	117.88
386.013	119.88
386.238	134.88
386.463	118.88
386.688	113.88
386.913	115.88
387.138	119.88
387.363	96.88
387.588	88.88
387.813	104.88
388.038	119.88
388.263	115.88
388.488	109.88
388.713	82.88
388.938	95.88
389.163	96.88
389.387	99.88
389.612	90.88
389.837	97.88
390.062	97.88
390.287	105.88
390.512	103.88
390.736	84.88
390.961	89.88
391.186	86.88
391.411	80.88
391.636	91.88
391.86	68.88
392.085	92.88
392.31	77.88
392.534	76.88
392.759	73.88
392.984	80.88
393.208	100.88
393.433	87.88
393.658	92.88
393.882	85.88
394.107	89.88
394.331	86.88
394.556	71.88
394.78	89.88
395.005	97.88
395.229	87.88
395.454	82.88
395.678	110.88
395.903	87.88
396.127	84.88
396.352	94.88
396.576	80.88
396.801	91.88
397.025	80.88
397.249	78.88
397.474	101.88
397.698	84.88
397.922	73.88
398.147	84.88
398.371	100.88
398.595	86.88
398.82	92.88
399.044	89.88
399.268	80.88
399.492	69.88
399.717	79.88
399.941	80.88
400.165	104.88
400.389	92.88
400.613	95.88
400.837	82.88
401.062	87.88
401.286	80.88
401.51	94.88
401.734	86.88
401.958	94.88
402.182	147.88
402.406	189.88
402.63	143.88
402.854	105.88
403.078	94.88
403.302	79.88
403.526	83.88
403.75	83.88
403.974	79.88
404.198	96.88
404.422	87.88
404.645	92.88
404.869	93.88
405.093	109.88
405.317	125.88
405.541	124.88
405.765	127.88
405.988	140.88
406.212	231.88
406.436	342.88
406.66	202.88
406.883	112.88
407.107	96.88
407.331	106.88
407.555	102.88
407.778	110.88
408.002	92.88
408.226	95.88
408.449	88.88
408.673	101.88
408.896	90.88
409.12	109.88
409.344	87.88
409.567	93.88
409.791	88.88
410.014	95.88
410.238	111.88
410.461	97.88
410.685	81.88
410.908	101.88
411.132	102.88
411.355	104.88
411.578	97.88
411.802	92.88
412.025	91.88
412.249	103.88
412.472	101.88
412.695	126.88
412.919	96.88
413.142	89.88
413.365	87.88
413.589	88.88
413.812	75.88
414.035	89.88
414.258	85.88
414.482	85.88
414.705	97.88
414.928	77.88
415.151	84.88
415.374	91.88
415.597	96.88
415.821	103.88
416.044	97.88
416.267	95.88
416.49	87.88
416.713	90.88
416.936	104.88
417.159	83.88
417.382	96.88
417.605	105.88
417.828	107.88
418.051	80.88
418.274	97.88
418.497	88.88
418.72	83.88
418.943	75.88
419.166	96.88
419.389	89.88
419.611	81.88
419.834	85.88
420.057	90.88
420.28	95.88
420.503	86.88
420.726	95.88
420.948	107.88
421.171	99.88
421.394	89.88
421.617	79.88
421.839	80.88
422.062	87.88
422.285	106.88
422.507	96.88
422.73	104.88
422.953	94.88
423.175	80.88
423.398	80.88
423.621	99.88
423.843	98.88
424.066	86.88
424.288	83.88
424.511	92.88
424.733	104.88
424.956	122.88
425.178	110.88
425.401	107.88
425.623	98.88
425.846	83.88
426.068	97.88
426.291	99.88
426.513	98.88
426.735	96.88
426.958	97.88
427.18	117.88
427.402	158.88
427.625	248.88
427.847	228.88
428.069	181.88
428.292	108.88
428.514	91.88
428.736	100.88
428.958	79.88
429.181	88.88
429.403	75.88
429.625	83.88
429.847	87.88
430.069	114.88
430.292	77.88
430.514	84.88
430.736	96.88
430.958	79.88
431.18	78.88
431.402	93.88
431.624	88.88
431.846	84.88
432.068	88.88
432.29	80.88
432.512	81.88
432.734	88.88
432.956	94.88
433.178	91.88
433.4	109.88
433.622	77.88
433.844	92.88
434.066	80.88
434.287	102.88
434.509	101.88
434.731	86.88
434.953	97.88
435.175	97.88
435.397	95.88
435.618	80.88
435.84	105.88
436.062	128.88
436.284	126.88
436.505	94.88
436.727	86.88
436.949	81.88
437.17	97.88
437.392	86.88
437.614	100.88
437.835	123.88
438.057	144.88
438.278	120.88
438.5	114.88
438.721	112.88
438.943	92.88
439.165	89.88
439.386	89.88
439.608	83.88
439.829	109.88
440.05	125.88
440.272	167.88
440.493	99.88
440.715	70.88
440.936	76.88
441.158	100.88
441.379	105.88
441.6	104.88
441.822	106.88
442.043	104.88
442.264	131.88
442.486	123.88
442.707	89.88
442.928	123.88
443.149	158.88
443.371	152.88
443.592	111.88
443.813	118.88
444.034	133.88
444.255	88.88
444.476	87.88
444.698	99.88
444.919	96.88
445.14	134.88
445.361	123.88
445.582	121.88
445.803	155.88
446.024	150.88
446.245	149.88
446.466	110.88
446.687	92.88
446.908	95.88
447.129	87.88
447.35	89.88
447.571	96.88
447.792	89.88
448.013	111.88
448.234	121.88
448.455	107.88
448.675	117.88
448.896	133.88
449.117	123.88
449.338	103.88
449.559	149.88
449.779	139.88
450	99.88
450.221	95.88
450.442	91.88
450.662	115.88
450.883	123.88
451.104	131.88
451.324	94.88
451.545	94.88
451.766	83.88
451.986	92.88
452.207	85.88
452.428	96.88
452.648	103.88
452.869	133.88
453.089	134.88
453.31	139.88
453.53	102.88
453.751	93.88
453.971	106.88
454.192	129.88
454.412	94.88
454.633	89.88
454.853	80.88
455.073	87.88
455.294	92.88
455.514	118.88
455.734	105.88
455.955	101.88
456.175	86.88
456.395	88.88
456.616	87.88
456.836	86.88
457.056	92.88
457.276	87.88
457.497	76.88
457.717	71.88
457.937	86.88
458.157	81.88
458.377	89.88
458.598	121.88
458.818	215.88
459.038	218.88
459.258	154.88
459.478	89.88
459.698	94.88
459.918	81.88
460.138	88.88
460.358	89.88
460.578	99.88
460.798	81.88
461.018	102.88
461.238	88.88
461.458	74.88
461.678	80.88
461.898	86.88
462.118	102.88
462.338	89.88
462.558	104.88
462.777	84.88
462.997	93.88
463.217	101.88
463.437	87.88
463.657	90.88
463.876	94.88
464.096	79.88
464.316	94.88
464.536	101.88
464.755	99.88
464.975	135.88
465.195	237.88
465.414	232.88
465.634	95.88
465.854	93.88
466.073	83.88
466.293	86.88
466.512	100.88
466.732	80.88
466.951	90.88
467.171	93.88
467.391	84.88
467.61	146.88
467.829	207.88
468.049	481.88
468.268	727.88
468.488	189.88
468.707	104.88
468.927	101.88
469.146	101.88
469.365	90.88
469.585	91.88
469.804	101.88
470.023	108.88
470.243	87.88
470.462	112.88
470.681	145.88
470.901	105.88
471.12	104.88
471.339	121.88
471.558	126.88
471.777	158.88
471.997	286.88
472.216	963.88
472.435	2203.88
472.654	515.88
472.873	158.88
473.092	107.88
473.311	103.88
473.53	91.88
473.749	104.88
473.968	111.88
474.187	125.88
474.406	116.88
474.625	95.88
474.844	83.88
475.063	90.88
475.282	74.88
475.501	80.88
475.72	83.88
475.939	86.88
476.158	94.88
476.377	99.88
476.596	101.88
476.814	101.88
477.033	94.88
477.252	110.88
477.471	94.88
477.69	85.88
477.908	108.88
478.127	86.88
478.346	105.88
478.564	105.88
478.783	117.88
479.002	116.88
479.22	95.88
479.439	115.88
479.658	144.88
479.876	126.88
480.095	109.88
480.313	131.88
480.532	147.88
480.751	263.88
480.969	923.88
481.188	3784.88
481.406	2148.88
481.624	323.88
481.843	126.88
482.061	96.88
482.28	105.88
482.498	103.88
482.717	102.88
482.935	98.88
483.153	97.88
483.372	94.88
483.59	91.88
483.808	92.88
484.027	92.88
484.245	115.88
484.463	93.88
484.681	98.88
484.9	87.88
485.118	88.88
485.336	96.88
485.554	104.88
485.772	111.88
485.99	114.88
486.209	115.88
486.427	109.88
486.645	126.88
486.863	140.88
487.081	112.88
487.299	100.88
487.517	105.88
487.735	108.88
487.953	94.88
488.171	97.88
488.389	97.88
488.607	109.88
488.825	91.88
489.043	101.88
489.261	98.88
489.479	107.88
489.696	102.88
489.914	96.88
490.132	77.88
490.35	96.88
490.568	91.88
490.786	94.88
491.003	88.88
491.221	100.88
491.439	83.88
491.657	92.88
491.874	92.88
492.092	90.88
492.31	93.88
492.527	95.88
492.745	91.88
492.963	93.88
493.18	96.88
493.398	101.88
493.615	91.88
493.833	99.88
494.05	91.88
494.268	101.88
494.485	94.88
494.703	91.88
494.92	78.88
495.138	84.88
495.355	85.88
495.573	91.88
495.79	107.88
496.008	102.88
496.225	91.88
496.442	96.88
496.66	86.88
496.877	82.88
497.094	96.88
497.312	104.88
497.529	98.88
497.746	96.88
497.963	95.88
498.181	92.88
498.398	102.88
498.615	110.88
498.832	97.88
499.049	101.88
499.267	91.88
499.484	80.88
499.701	80.88
499.918	93.88
500.135	94.88
500.352	98.88
500.569	99.88
500.786	91.88
501.003	92.88
501.22	93.88
501.437	90.88
501.654	100.88
501.871	127.88
502.088	98.88
502.305	101.88
502.522	95.88
502.739	95.88
502.956	91.88
503.172	91.88
503.389	109.88
503.606	127.88
503.823	97.88
504.04	95.88
504.256	92.88
504.473	88.88
504.69	87.88
504.907	87.88
505.123	93.88
505.34	87.88
505.557	94.88
505.773	105.88
505.99	92.88
506.207	86.88
506.423	86.88
506.64	92.88
506.856	91.88
507.073	103.88
507.289	99.88
507.506	109.88
507.722	146.88
507.939	137.88
508.155	108.88
508.372	97.88
508.588	96.88
508.805	107.88
509.021	95.88
509.238	104.88
509.454	104.88
509.67	93.88
509.887	126.88
510.103	151.88
510.319	267.88
510.536	1073.88
510.752	3797.88
510.968	980.88
511.184	189.88
511.401	122.88
511.617	110.88
511.833	120.88
512.049	95.88
512.265	103.88
512.481	102.88
512.698	92.88
512.914	80.88
513.13	100.88
513.346	83.88
