Data from Circ_1999_H10_HRD10591_00023.txt Node
Date: Wed Jan 03 11:23:17 EST 2024
User: Yrep
Spectrometer: HR+D1059
Trigger mode: 1
Integration Time (sec): 1.000000E-1
Scans to average: 1
Electric dark correction enabled: true
Nonlinearity correction enabled: false
Boxcar width: 0
XAxis mode: Wavelengths
Number of Pixels in Spectrum: 2048
>>>>>Begin Spectral Data<<<<<
223.165	-22.88
223.4	-22.88
223.635	-22.88
223.869	1.12
224.104	-8.88
224.338	-21.88
224.573	-19.88
224.808	-16.88
225.042	-4.88
225.277	-2.88
225.511	-7.88
225.746	-0.88
225.98	25.12
226.215	6.12
226.449	4.12
226.683	31.12
226.918	26.12
227.152	13.12
227.387	43.12
227.621	44.12
227.856	45.12
228.09	49.12
228.324	46.12
228.559	48.12
228.793	49.12
229.027	64.12
229.262	63.12
229.496	88.12
229.73	109.12
229.964	104.12
230.199	78.12
230.433	83.12
230.667	88.12
230.901	82.12
231.136	96.12
231.37	72.12
231.604	74.12
231.838	85.12
232.072	76.12
232.306	81.12
232.541	77.12
232.775	92.12
233.009	70.12
233.243	87.12
233.477	93.12
233.711	79.12
233.945	86.12
234.179	78.12
234.413	83.12
234.647	87.12
234.881	80.12
235.115	72.12
235.349	82.12
235.583	85.12
235.817	79.12
236.051	81.12
236.285	89.12
236.519	87.12
236.753	80.12
236.987	86.12
237.221	101.12
237.455	96.12
237.689	84.12
237.922	81.12
238.156	82.12
238.39	85.12
238.624	75.12
238.858	85.12
239.091	72.12
239.325	77.12
239.559	88.12
239.793	86.12
240.027	94.12
240.26	97.12
240.494	84.12
240.728	65.12
240.961	72.12
241.195	65.12
241.429	78.12
241.662	92.12
241.896	83.12
242.13	85.12
242.363	75.12
242.597	70.12
242.83	77.12
243.064	74.12
243.298	74.12
243.531	82.12
243.765	72.12
243.998	85.12
244.232	81.12
244.465	92.12
244.699	85.12
244.932	63.12
245.166	84.12
245.399	82.12
245.633	81.12
245.866	75.12
246.099	84.12
246.333	90.12
246.566	85.12
246.8	70.12
247.033	86.12
247.266	84.12
247.5	81.12
247.733	86.12
247.966	88.12
248.2	88.12
248.433	76.12
248.666	85.12
248.899	98.12
249.133	103.12
249.366	114.12
249.599	111.12
249.832	95.12
250.066	94.12
250.299	95.12
250.532	96.12
250.765	86.12
250.998	79.12
251.231	88.12
251.465	111.12
251.698	93.12
251.931	76.12
252.164	83.12
252.397	77.12
252.63	84.12
252.863	80.12
253.096	85.12
253.329	92.12
253.562	65.12
253.795	89.12
254.028	96.12
254.261	92.12
254.494	92.12
254.727	83.12
254.96	74.12
255.193	96.12
255.426	81.12
255.659	91.12
255.892	113.12
256.124	96.12
256.357	84.12
256.59	87.12
256.823	80.12
257.056	86.12
257.289	106.12
257.521	91.12
257.754	79.12
257.987	87.12
258.22	97.12
258.452	111.12
258.685	112.12
258.918	103.12
259.151	79.12
259.383	97.12
259.616	76.12
259.849	81.12
260.081	91.12
260.314	102.12
260.547	94.12
260.779	100.12
261.012	108.12
261.244	108.12
261.477	116.12
261.71	118.12
261.942	163.12
262.175	160.12
262.407	107.12
262.64	105.12
262.872	94.12
263.105	87.12
263.337	92.12
263.57	77.12
263.802	72.12
264.035	92.12
264.267	90.12
264.499	88.12
264.732	89.12
264.964	99.12
265.197	86.12
265.429	91.12
265.661	88.12
265.894	83.12
266.126	82.12
266.358	91.12
266.591	79.12
266.823	103.12
267.055	81.12
267.287	85.12
267.52	91.12
267.752	95.12
267.984	90.12
268.216	88.12
268.448	102.12
268.681	99.12
268.913	96.12
269.145	101.12
269.377	89.12
269.609	91.12
269.841	99.12
270.073	102.12
270.306	96.12
270.538	77.12
270.77	85.12
271.002	82.12
271.234	88.12
271.466	107.12
271.698	99.12
271.93	94.12
272.162	79.12
272.394	102.12
272.626	102.12
272.858	87.12
273.09	95.12
273.322	85.12
273.553	82.12
273.785	86.12
274.017	97.12
274.249	88.12
274.481	85.12
274.713	94.12
274.945	85.12
275.176	105.12
275.408	113.12
275.64	125.12
275.872	146.12
276.104	113.12
276.335	92.12
276.567	150.12
276.799	193.12
277.031	200.12
277.262	204.12
277.494	182.12
277.726	103.12
277.957	85.12
278.189	98.12
278.421	97.12
278.652	98.12
278.884	93.12
279.115	108.12
279.347	100.12
279.579	107.12
279.81	143.12
280.042	236.12
280.273	290.12
280.505	214.12
280.736	130.12
280.968	74.12
281.199	101.12
281.431	102.12
281.662	99.12
281.894	110.12
282.125	123.12
282.356	166.12
282.588	195.12
282.819	164.12
283.051	116.12
283.282	85.12
283.513	94.12
283.745	84.12
283.976	94.12
284.207	76.12
284.439	89.12
284.67	86.12
284.901	90.12
285.132	84.12
285.364	92.12
285.595	91.12
285.826	93.12
286.057	92.12
286.288	103.12
286.52	77.12
286.751	91.12
286.982	89.12
287.213	96.12
287.444	84.12
287.675	95.12
287.906	104.12
288.138	103.12
288.369	106.12
288.6	90.12
288.831	90.12
289.062	97.12
289.293	93.12
289.524	105.12
289.755	92.12
289.986	84.12
290.217	91.12
290.448	78.12
290.679	85.12
290.91	96.12
291.141	95.12
291.371	95.12
291.602	106.12
291.833	86.12
292.064	94.12
292.295	82.12
292.526	81.12
292.757	91.12
292.987	91.12
293.218	95.12
293.449	86.12
293.68	89.12
293.91	98.12
294.141	110.12
294.372	84.12
294.603	85.12
294.833	70.12
295.064	109.12
295.295	78.12
295.525	103.12
295.756	117.12
295.987	150.12
296.217	198.12
296.448	155.12
296.679	95.12
296.909	96.12
297.14	110.12
297.37	89.12
297.601	96.12
297.831	88.12
298.062	102.12
298.292	97.12
298.523	94.12
298.753	91.12
298.984	94.12
299.214	108.12
299.445	113.12
299.675	105.12
299.905	113.12
300.136	99.12
300.366	97.12
300.597	94.12
300.827	111.12
301.057	115.12
301.288	119.12
301.518	96.12
301.748	112.12
301.979	120.12
302.209	107.12
302.439	101.12
302.669	108.12
302.9	91.12
303.13	104.12
303.36	117.12
303.59	146.12
303.82	154.12
304.051	111.12
304.281	100.12
304.511	88.12
304.741	100.12
304.971	79.12
305.201	90.12
305.431	86.12
305.661	81.12
305.891	87.12
306.121	109.12
306.352	128.12
306.582	114.12
306.812	141.12
307.042	133.12
307.272	191.12
307.502	208.12
307.731	170.12
307.961	144.12
308.191	97.12
308.421	94.12
308.651	103.12
308.881	112.12
309.111	95.12
309.341	101.12
309.571	123.12
309.8	99.12
310.03	112.12
310.26	137.12
310.49	112.12
310.72	108.12
310.949	137.12
311.179	124.12
311.409	102.12
311.639	109.12
311.868	106.12
312.098	95.12
312.328	113.12
312.557	129.12
312.787	124.12
313.017	128.12
313.246	108.12
313.476	97.12
313.706	109.12
313.935	111.12
314.165	120.12
314.394	145.12
314.624	122.12
314.853	112.12
315.083	100.12
315.312	86.12
315.542	83.12
315.771	101.12
316.001	95.12
316.23	95.12
316.46	89.12
316.689	103.12
316.919	108.12
317.148	104.12
317.377	120.12
317.607	108.12
317.836	114.12
318.065	85.12
318.295	77.12
318.524	101.12
318.753	110.12
318.983	113.12
319.212	112.12
319.441	133.12
319.67	137.12
319.9	100.12
320.129	112.12
320.358	87.12
320.587	119.12
320.816	120.12
321.046	114.12
321.275	120.12
321.504	105.12
321.733	95.12
321.962	122.12
322.191	142.12
322.42	137.12
322.649	138.12
322.878	156.12
323.108	156.12
323.337	174.12
323.566	193.12
323.795	223.12
324.024	308.12
324.253	692.12
324.482	1517.12
324.71	3254.12
324.939	4150.12
325.168	1430.12
325.397	387.12
325.626	214.12
325.855	162.12
326.084	166.12
326.313	170.12
326.542	232.12
326.77	345.12
326.999	768.12
327.228	1653.12
327.457	3018.12
327.686	2324.12
327.914	776.12
328.143	728.12
328.372	905.12
328.6	480.12
328.829	246.12
329.058	253.12
329.287	262.12
329.515	219.12
329.744	341.12
329.972	678.12
330.201	1436.12
330.43	1932.12
330.658	838.12
330.887	411.12
331.115	255.12
331.344	139.12
331.572	157.12
331.801	136.12
332.03	154.12
332.258	130.12
332.486	130.12
332.715	128.12
332.943	131.12
333.172	142.12
333.4	150.12
333.629	191.12
333.857	312.12
334.085	627.12
334.314	1366.12
334.542	2625.12
334.771	2210.12
334.999	568.12
335.227	216.12
335.455	141.12
335.684	120.12
335.912	126.12
336.14	121.12
336.369	118.12
336.597	118.12
336.825	107.12
337.053	100.12
337.281	100.12
337.51	102.12
337.738	102.12
337.966	106.12
338.194	125.12
338.422	120.12
338.65	109.12
338.878	106.12
339.106	98.12
339.334	101.12
339.562	104.12
339.79	103.12
340.018	106.12
340.246	115.12
340.474	122.12
340.702	113.12
340.93	97.12
341.158	109.12
341.386	102.12
341.614	123.12
341.842	105.12
342.07	105.12
342.298	107.12
342.526	94.12
342.754	104.12
342.981	96.12
343.209	94.12
343.437	88.12
343.665	95.12
343.893	89.12
344.12	110.12
344.348	92.12
344.576	96.12
344.804	111.12
345.031	110.12
345.259	139.12
345.487	118.12
345.714	95.12
345.942	97.12
346.17	96.12
346.397	105.12
346.625	94.12
346.853	106.12
347.08	109.12
347.308	93.12
347.535	94.12
347.763	129.12
347.99	109.12
348.218	116.12
348.445	135.12
348.673	130.12
348.9	122.12
349.128	103.12
349.355	87.12
349.583	93.12
349.81	91.12
350.037	121.12
350.265	86.12
350.492	93.12
350.72	108.12
350.947	117.12
351.174	136.12
351.402	148.12
351.629	116.12
351.856	108.12
352.083	120.12
352.311	127.12
352.538	134.12
352.765	144.12
352.992	132.12
353.22	122.12
353.447	114.12
353.674	127.12
353.901	94.12
354.128	106.12
354.355	103.12
354.583	103.12
354.81	104.12
355.037	96.12
355.264	105.12
355.491	108.12
355.718	101.12
355.945	87.12
356.172	108.12
356.399	102.12
356.626	98.12
356.853	97.12
357.08	105.12
357.307	113.12
357.534	94.12
357.761	108.12
357.988	81.12
358.215	98.12
358.441	95.12
358.668	101.12
358.895	95.12
359.122	115.12
359.349	104.12
359.576	117.12
359.802	155.12
360.029	180.12
360.256	185.12
360.483	129.12
360.709	106.12
360.936	104.12
361.163	116.12
361.39	107.12
361.616	118.12
361.843	112.12
362.07	104.12
362.296	122.12
362.523	112.12
362.749	115.12
362.976	106.12
363.203	98.12
363.429	98.12
363.656	95.12
363.882	84.12
364.109	92.12
364.335	98.12
364.562	110.12
364.788	93.12
365.015	104.12
365.241	96.12
365.468	141.12
365.694	127.12
365.92	107.12
366.147	118.12
366.373	100.12
366.599	103.12
366.826	111.12
367.052	93.12
367.278	89.12
367.505	93.12
367.731	98.12
367.957	90.12
368.184	108.12
368.41	111.12
368.636	136.12
368.862	140.12
369.089	121.12
369.315	110.12
369.541	102.12
369.767	108.12
369.993	122.12
370.219	101.12
370.445	94.12
370.672	87.12
370.898	91.12
371.124	93.12
371.35	102.12
371.576	90.12
371.802	86.12
372.028	90.12
372.254	93.12
372.48	82.12
372.706	93.12
372.932	102.12
373.158	92.12
373.384	94.12
373.61	104.12
373.835	97.12
374.061	94.12
374.287	97.12
374.513	96.12
374.739	96.12
374.965	94.12
375.191	82.12
375.416	86.12
375.642	105.12
375.868	103.12
376.094	103.12
376.319	91.12
376.545	97.12
376.771	88.12
376.997	91.12
377.222	103.12
377.448	89.12
377.674	93.12
377.899	98.12
378.125	101.12
378.35	96.12
378.576	97.12
378.802	93.12
379.027	91.12
379.253	100.12
379.478	96.12
379.704	96.12
379.929	92.12
380.155	105.12
380.38	114.12
380.606	112.12
380.831	114.12
381.057	113.12
381.282	106.12
381.507	82.12
381.733	102.12
381.958	113.12
382.184	108.12
382.409	110.12
382.634	106.12
382.86	104.12
383.085	97.12
383.31	90.12
383.535	103.12
383.761	103.12
383.986	96.12
384.211	78.12
384.436	109.12
384.662	101.12
384.887	100.12
385.112	112.12
385.337	109.12
385.562	125.12
385.787	119.12
386.013	119.12
386.238	133.12
386.463	121.12
386.688	125.12
386.913	92.12
387.138	98.12
387.363	128.12
387.588	96.12
387.813	110.12
388.038	101.12
388.263	122.12
388.488	134.12
388.713	97.12
388.938	82.12
389.163	93.12
389.387	93.12
389.612	92.12
389.837	94.12
390.062	98.12
390.287	89.12
390.512	92.12
390.736	88.12
390.961	88.12
391.186	88.12
391.411	84.12
391.636	88.12
391.86	85.12
392.085	79.12
392.31	100.12
392.534	94.12
392.759	89.12
392.984	86.12
393.208	94.12
393.433	97.12
393.658	101.12
393.882	96.12
394.107	87.12
394.331	88.12
394.556	85.12
394.78	101.12
395.005	82.12
395.229	89.12
395.454	93.12
395.678	73.12
395.903	94.12
396.127	102.12
396.352	90.12
396.576	94.12
396.801	92.12
397.025	92.12
397.249	99.12
397.474	93.12
397.698	94.12
397.922	98.12
398.147	96.12
398.371	91.12
398.595	101.12
398.82	82.12
399.044	86.12
399.268	84.12
399.492	86.12
399.717	94.12
399.941	88.12
400.165	102.12
400.389	98.12
400.613	84.12
400.837	94.12
401.062	105.12
401.286	104.12
401.51	95.12
401.734	118.12
401.958	105.12
402.182	174.12
402.406	224.12
402.63	180.12
402.854	109.12
403.078	96.12
403.302	97.12
403.526	111.12
403.75	102.12
403.974	95.12
404.198	107.12
404.422	103.12
404.645	93.12
404.869	119.12
405.093	145.12
405.317	175.12
405.541	160.12
405.765	135.12
405.988	152.12
406.212	263.12
406.436	365.12
406.66	239.12
406.883	141.12
407.107	132.12
407.331	122.12
407.555	132.12
407.778	129.12
408.002	111.12
408.226	107.12
408.449	103.12
408.673	82.12
408.896	98.12
409.12	96.12
409.344	81.12
409.567	90.12
409.791	90.12
410.014	102.12
410.238	102.12
410.461	80.12
410.685	106.12
410.908	94.12
411.132	113.12
411.355	101.12
411.578	98.12
411.802	90.12
412.025	107.12
412.249	113.12
412.472	152.12
412.695	172.12
412.919	117.12
413.142	98.12
413.365	99.12
413.589	90.12
413.812	86.12
414.035	81.12
414.258	98.12
414.482	92.12
414.705	76.12
414.928	89.12
415.151	98.12
415.374	94.12
415.597	96.12
415.821	89.12
416.044	82.12
416.267	104.12
416.49	87.12
416.713	84.12
416.936	89.12
417.159	84.12
417.382	105.12
417.605	105.12
417.828	114.12
418.051	106.12
418.274	98.12
418.497	91.12
418.72	91.12
418.943	80.12
419.166	93.12
419.389	94.12
419.611	106.12
419.834	107.12
420.057	101.12
420.28	98.12
420.503	97.12
420.726	99.12
420.948	97.12
421.171	113.12
421.394	106.12
421.617	93.12
421.839	98.12
422.062	85.12
422.285	105.12
422.507	114.12
422.73	121.12
422.953	93.12
423.175	107.12
423.398	91.12
423.621	90.12
423.843	90.12
424.066	82.12
424.288	96.12
424.511	99.12
424.733	107.12
424.956	137.12
425.178	129.12
425.401	142.12
425.623	120.12
425.846	102.12
426.068	108.12
426.291	104.12
426.513	102.12
426.735	110.12
426.958	108.12
427.18	147.12
427.402	241.12
427.625	351.12
427.847	324.12
428.069	283.12
428.292	159.12
428.514	104.12
428.736	104.12
428.958	91.12
429.181	104.12
429.403	85.12
429.625	91.12
429.847	105.12
430.069	117.12
430.292	110.12
430.514	94.12
430.736	96.12
430.958	99.12
431.18	94.12
431.402	88.12
431.624	73.12
431.846	82.12
432.068	92.12
432.29	89.12
432.512	92.12
432.734	88.12
432.956	89.12
433.178	105.12
433.4	108.12
433.622	96.12
433.844	83.12
434.066	88.12
434.287	96.12
434.509	97.12
434.731	95.12
434.953	98.12
435.175	97.12
435.397	91.12
435.618	94.12
435.84	143.12
436.062	180.12
436.284	165.12
436.505	106.12
436.727	114.12
436.949	100.12
437.17	90.12
437.392	84.12
437.614	105.12
437.835	150.12
438.057	188.12
438.278	157.12
438.5	133.12
438.721	169.12
438.943	138.12
439.165	104.12
439.386	101.12
439.608	118.12
439.829	127.12
440.05	187.12
440.272	260.12
440.493	130.12
440.715	92.12
440.936	85.12
441.158	84.12
441.379	96.12
441.6	101.12
441.822	116.12
442.043	112.12
442.264	157.12
442.486	142.12
442.707	119.12
442.928	148.12
443.149	230.12
443.371	198.12
443.592	168.12
443.813	165.12
444.034	163.12
444.255	103.12
444.476	92.12
444.698	86.12
444.919	94.12
445.14	153.12
445.361	159.12
445.582	168.12
445.803	266.12
446.024	236.12
446.245	231.12
446.466	149.12
446.687	102.12
446.908	89.12
447.129	101.12
447.35	92.12
447.571	101.12
447.792	98.12
448.013	128.12
448.234	153.12
448.455	138.12
448.675	171.12
448.896	170.12
449.117	119.12
449.338	106.12
449.559	176.12
449.779	182.12
450	99.12
450.221	90.12
450.442	93.12
450.662	110.12
450.883	158.12
451.104	171.12
451.324	104.12
451.545	96.12
451.766	93.12
451.986	88.12
452.207	102.12
452.428	96.12
452.648	119.12
452.869	136.12
453.089	162.12
453.31	155.12
453.53	112.12
453.751	101.12
453.971	148.12
454.192	159.12
454.412	112.12
454.633	105.12
454.853	89.12
455.073	87.12
455.294	108.12
455.514	129.12
455.734	92.12
455.955	93.12
456.175	86.12
456.395	87.12
456.616	98.12
456.836	86.12
457.056	88.12
457.276	91.12
457.497	93.12
457.717	112.12
457.937	88.12
458.157	81.12
458.377	104.12
458.598	170.12
458.818	280.12
459.038	314.12
459.258	193.12
459.478	100.12
459.698	89.12
459.918	86.12
460.138	99.12
460.358	88.12
460.578	78.12
460.798	93.12
461.018	96.12
461.238	97.12
461.458	95.12
461.678	84.12
461.898	91.12
462.118	87.12
462.338	91.12
462.558	96.12
462.777	94.12
462.997	103.12
463.217	121.12
463.437	117.12
463.657	103.12
463.876	106.12
464.096	105.12
464.316	114.12
464.536	102.12
464.755	98.12
464.975	142.12
465.195	305.12
465.414	312.12
465.634	126.12
465.854	95.12
466.073	96.12
466.293	92.12
466.512	103.12
466.732	85.12
466.951	89.12
467.171	117.12
467.391	125.12
467.61	183.12
467.829	258.12
468.049	716.12
468.268	1050.12
468.488	268.12
468.707	115.12
468.927	86.12
469.146	99.12
469.365	106.12
469.585	98.12
469.804	123.12
470.023	124.12
470.243	98.12
470.462	143.12
470.681	169.12
470.901	110.12
471.12	112.12
471.339	108.12
471.558	122.12
471.777	172.12
471.997	373.12
472.216	1446.12
472.435	3236.12
472.654	738.12
472.873	187.12
473.092	127.12
473.311	94.12
473.53	112.12
473.749	110.12
473.968	130.12
474.187	158.12
474.406	117.12
474.625	101.12
474.844	77.12
475.063	91.12
475.282	95.12
475.501	98.12
475.72	101.12
475.939	78.12
476.158	92.12
476.377	110.12
476.596	94.12
476.814	97.12
477.033	110.12
477.252	105.12
477.471	75.12
477.69	97.12
477.908	106.12
478.127	105.12
478.346	102.12
478.564	103.12
478.783	110.12
479.002	120.12
479.22	120.12
479.439	147.12
479.658	146.12
479.876	148.12
480.095	124.12
480.313	156.12
480.532	183.12
480.751	354.12
480.969	1372.12
481.188	5804.12
481.406	3152.12
481.624	453.12
481.843	156.12
482.061	122.12
482.28	110.12
482.498	119.12
482.717	101.12
482.935	95.12
483.153	99.12
483.372	105.12
483.59	101.12
483.808	100.12
484.027	91.12
484.245	94.12
484.463	95.12
484.681	110.12
484.9	89.12
485.118	102.12
485.336	106.12
485.554	121.12
485.772	113.12
485.99	100.12
486.209	116.12
486.427	128.12
486.645	125.12
486.863	140.12
487.081	116.12
487.299	98.12
487.517	82.12
487.735	106.12
487.953	96.12
488.171	96.12
488.389	96.12
488.607	114.12
488.825	95.12
489.043	104.12
489.261	94.12
489.479	103.12
489.696	87.12
489.914	90.12
490.132	88.12
490.35	98.12
490.568	92.12
490.786	88.12
491.003	89.12
491.221	100.12
491.439	100.12
491.657	93.12
491.874	96.12
492.092	88.12
492.31	108.12
492.527	105.12
492.745	116.12
492.963	95.12
493.18	102.12
493.398	85.12
493.615	98.12
493.833	86.12
494.05	81.12
494.268	95.12
494.485	101.12
494.703	96.12
494.92	100.12
495.138	90.12
495.355	90.12
495.573	90.12
495.79	94.12
496.008	88.12
496.225	89.12
496.442	96.12
496.66	104.12
496.877	75.12
497.094	97.12
497.312	92.12
497.529	94.12
497.746	104.12
497.963	98.12
498.181	104.12
498.398	88.12
498.615	144.12
498.832	134.12
499.049	101.12
499.267	92.12
499.484	88.12
499.701	80.12
499.918	86.12
500.135	92.12
500.352	84.12
500.569	99.12
500.786	94.12
501.003	90.12
501.22	95.12
501.437	94.12
501.654	110.12
501.871	132.12
502.088	102.12
502.305	102.12
502.522	93.12
502.739	84.12
502.956	89.12
503.172	105.12
503.389	119.12
503.606	143.12
503.823	138.12
504.04	101.12
504.256	98.12
504.473	96.12
504.69	91.12
504.907	97.12
505.123	80.12
505.34	86.12
505.557	104.12
505.773	107.12
505.99	87.12
506.207	107.12
506.423	82.12
506.64	81.12
506.856	97.12
507.073	105.12
507.289	94.12
507.506	104.12
507.722	147.12
507.939	159.12
508.155	107.12
508.372	97.12
508.588	97.12
508.805	92.12
509.021	112.12
509.238	117.12
509.454	99.12
509.67	104.12
509.887	131.12
510.103	155.12
510.319	294.12
510.536	1178.12
510.752	4172.12
