Data from Circ_1999_H10_HRD10591_00049.txt Node
Date: Wed Jan 03 11:23:22 EST 2024
User: Yrep
Spectrometer: HR+D1059
Trigger mode: 1
Integration Time (sec): 1.000000E-1
Scans to average: 1
Electric dark correction enabled: true
Nonlinearity correction enabled: false
Boxcar width: 0
XAxis mode: Wavelengths
Number of Pixels in Spectrum: 2048
>>>>>Begin Spectral Data<<<<<
223.165	-19.19
223.4	-19.19
223.635	-19.19
223.869	-21.19
224.104	-26.19
224.338	-17.19
224.573	-27.19
224.808	-14.19
225.042	-10.19
225.277	-10.19
225.511	14.81
225.746	12.81
225.98	16.81
226.215	8.81
226.449	9.81
226.683	28.81
226.918	28.81
227.152	24.81
227.387	26.81
227.621	41.81
227.856	34.81
228.09	38.81
228.324	46.81
228.559	57.81
228.793	61.81
229.027	68.81
229.262	65.81
229.496	81.81
229.73	103.81
229.964	99.81
230.199	76.81
230.433	74.81
230.667	73.81
230.901	81.81
231.136	76.81
231.37	76.81
231.604	89.81
231.838	67.81
232.072	73.81
232.306	68.81
232.541	82.81
232.775	82.81
233.009	94.81
233.243	78.81
233.477	84.81
233.711	72.81
233.945	92.81
234.179	80.81
234.413	77.81
234.647	90.81
234.881	73.81
235.115	78.81
235.349	87.81
235.583	81.81
235.817	82.81
236.051	88.81
236.285	84.81
236.519	83.81
236.753	89.81
236.987	94.81
237.221	96.81
237.455	92.81
237.689	85.81
237.922	70.81
238.156	69.81
238.39	81.81
238.624	81.81
238.858	80.81
239.091	100.81
239.325	82.81
239.559	79.81
239.793	87.81
240.027	68.81
240.26	71.81
240.494	75.81
240.728	80.81
240.961	62.81
241.195	76.81
241.429	95.81
241.662	74.81
241.896	86.81
242.13	81.81
242.363	86.81
242.597	80.81
242.83	76.81
243.064	73.81
243.298	76.81
243.531	87.81
243.765	87.81
243.998	81.81
244.232	79.81
244.465	97.81
244.699	79.81
244.932	69.81
245.166	80.81
245.399	82.81
245.633	84.81
245.866	68.81
246.099	53.81
246.333	78.81
246.566	77.81
246.8	77.81
247.033	81.81
247.266	95.81
247.5	81.81
247.733	89.81
247.966	82.81
248.2	79.81
248.433	85.81
248.666	91.81
248.899	83.81
249.133	86.81
249.366	121.81
249.599	105.81
249.832	89.81
250.066	95.81
250.299	75.81
250.532	102.81
250.765	87.81
250.998	87.81
251.231	76.81
251.465	83.81
251.698	94.81
251.931	84.81
252.164	81.81
252.397	88.81
252.63	89.81
252.863	87.81
253.096	82.81
253.329	91.81
253.562	89.81
253.795	79.81
254.028	84.81
254.261	76.81
254.494	78.81
254.727	76.81
254.96	77.81
255.193	97.81
255.426	93.81
255.659	81.81
255.892	102.81
256.124	99.81
256.357	81.81
256.59	78.81
256.823	85.81
257.056	85.81
257.289	93.81
257.521	97.81
257.754	79.81
257.987	92.81
258.22	90.81
258.452	109.81
258.685	110.81
258.918	88.81
259.151	91.81
259.383	87.81
259.616	93.81
259.849	80.81
260.081	86.81
260.314	98.81
260.547	85.81
260.779	90.81
261.012	110.81
261.244	100.81
261.477	102.81
261.71	109.81
261.942	135.81
262.175	172.81
262.407	101.81
262.64	86.81
262.872	93.81
263.105	96.81
263.337	99.81
263.57	87.81
263.802	88.81
264.035	72.81
264.267	77.81
264.499	78.81
264.732	85.81
264.964	78.81
265.197	71.81
265.429	82.81
265.661	96.81
265.894	92.81
266.126	76.81
266.358	88.81
266.591	90.81
266.823	83.81
267.055	71.81
267.287	94.81
267.52	78.81
267.752	91.81
267.984	102.81
268.216	85.81
268.448	90.81
268.681	92.81
268.913	88.81
269.145	80.81
269.377	93.81
269.609	93.81
269.841	99.81
270.073	97.81
270.306	93.81
270.538	77.81
270.77	71.81
271.002	79.81
271.234	96.81
271.466	97.81
271.698	93.81
271.93	84.81
272.162	83.81
272.394	76.81
272.626	84.81
272.858	90.81
273.09	93.81
273.322	77.81
273.553	105.81
273.785	78.81
274.017	79.81
274.249	90.81
274.481	90.81
274.713	95.81
274.945	98.81
275.176	87.81
275.408	101.81
275.64	126.81
275.872	145.81
276.104	110.81
276.335	94.81
276.567	135.81
276.799	178.81
277.031	209.81
277.262	227.81
277.494	169.81
277.726	97.81
277.957	92.81
278.189	91.81
278.421	96.81
278.652	100.81
278.884	102.81
279.115	115.81
279.347	96.81
279.579	101.81
279.81	124.81
280.042	249.81
280.273	314.81
280.505	197.81
280.736	118.81
280.968	90.81
281.199	103.81
281.431	88.81
281.662	99.81
281.894	96.81
282.125	108.81
282.356	162.81
282.588	214.81
282.819	164.81
283.051	93.81
283.282	86.81
283.513	85.81
283.745	90.81
283.976	93.81
284.207	80.81
284.439	92.81
284.67	84.81
284.901	84.81
285.132	84.81
285.364	87.81
285.595	85.81
285.826	77.81
286.057	94.81
286.288	91.81
286.52	90.81
286.751	86.81
286.982	84.81
287.213	84.81
287.444	75.81
287.675	81.81
287.906	83.81
288.138	98.81
288.369	100.81
288.6	93.81
288.831	79.81
289.062	93.81
289.293	95.81
289.524	85.81
289.755	93.81
289.986	80.81
290.217	85.81
290.448	94.81
290.679	80.81
290.91	92.81
291.141	98.81
291.371	109.81
291.602	96.81
291.833	72.81
292.064	86.81
292.295	102.81
292.526	97.81
292.757	85.81
292.987	88.81
293.218	92.81
293.449	95.81
293.68	89.81
293.91	84.81
294.141	99.81
294.372	91.81
294.603	81.81
294.833	87.81
295.064	93.81
295.295	99.81
295.525	88.81
295.756	122.81
295.987	153.81
296.217	202.81
296.448	169.81
296.679	106.81
296.909	96.81
297.14	82.81
297.37	81.81
297.601	92.81
297.831	97.81
298.062	87.81
298.292	93.81
298.523	90.81
298.753	93.81
298.984	95.81
299.214	97.81
299.445	105.81
299.675	111.81
299.905	108.81
300.136	97.81
300.366	99.81
300.597	87.81
300.827	104.81
301.057	122.81
301.288	137.81
301.518	111.81
301.748	101.81
301.979	126.81
302.209	105.81
302.439	97.81
302.669	99.81
302.9	88.81
303.13	107.81
303.36	100.81
303.59	162.81
303.82	159.81
304.051	122.81
304.281	81.81
304.511	99.81
304.741	93.81
304.971	93.81
305.201	84.81
305.431	95.81
305.661	90.81
305.891	98.81
306.121	105.81
306.352	118.81
306.582	127.81
306.812	123.81
307.042	132.81
307.272	188.81
307.502	205.81
307.731	193.81
307.961	134.81
308.191	105.81
308.421	89.81
308.651	95.81
308.881	97.81
309.111	83.81
309.341	102.81
309.571	109.81
309.8	101.81
310.03	109.81
310.26	120.81
310.49	101.81
310.72	107.81
310.949	128.81
311.179	118.81
311.409	106.81
311.639	109.81
311.868	108.81
312.098	106.81
312.328	120.81
312.557	129.81
312.787	124.81
313.017	121.81
313.246	99.81
313.476	96.81
313.706	96.81
313.935	102.81
314.165	98.81
314.394	123.81
314.624	115.81
314.853	109.81
315.083	112.81
315.312	101.81
315.542	88.81
315.771	94.81
316.001	111.81
316.23	106.81
316.46	101.81
316.689	98.81
316.919	82.81
317.148	98.81
317.377	106.81
317.607	118.81
317.836	110.81
318.065	101.81
318.295	96.81
318.524	103.81
318.753	98.81
318.983	106.81
319.212	117.81
319.441	133.81
319.67	122.81
319.9	108.81
320.129	106.81
320.358	96.81
320.587	97.81
320.816	117.81
321.046	114.81
321.275	115.81
321.504	91.81
321.733	94.81
321.962	101.81
322.191	122.81
322.42	115.81
322.649	119.81
322.878	137.81
323.108	137.81
323.337	158.81
323.566	182.81
323.795	207.81
324.024	283.81
324.253	560.81
324.482	1160.81
324.71	2430.81
324.939	3151.81
325.168	1144.81
325.397	336.81
325.626	192.81
325.855	156.81
326.084	144.81
326.313	154.81
326.542	167.81
326.77	289.81
326.999	618.81
327.228	1207.81
327.457	2170.81
327.686	1790.81
327.914	674.81
328.143	677.81
328.372	829.81
328.6	446.81
328.829	233.81
329.058	221.81
329.287	254.81
329.515	222.81
329.744	312.81
329.972	626.81
330.201	1220.81
330.43	1836.81
330.658	790.81
330.887	351.81
331.115	246.81
331.344	152.81
331.572	140.81
331.801	154.81
332.03	150.81
332.258	117.81
332.486	113.81
332.715	118.81
332.943	118.81
333.172	145.81
333.4	168.81
333.629	180.81
333.857	297.81
334.085	532.81
334.314	1192.81
334.542	2299.81
334.771	2118.81
334.999	518.81
335.227	207.81
335.455	146.81
335.684	133.81
335.912	111.81
336.14	117.81
336.369	123.81
336.597	132.81
336.825	112.81
337.053	94.81
337.281	99.81
337.51	106.81
337.738	97.81
337.966	82.81
338.194	115.81
338.422	106.81
338.65	106.81
338.878	99.81
339.106	96.81
339.334	103.81
339.562	90.81
339.79	112.81
340.018	106.81
340.246	109.81
340.474	106.81
340.702	104.81
340.93	100.81
341.158	85.81
341.386	100.81
341.614	118.81
341.842	110.81
342.07	98.81
342.298	101.81
342.526	103.81
342.754	92.81
342.981	91.81
343.209	93.81
343.437	96.81
343.665	95.81
343.893	93.81
344.12	96.81
344.348	107.81
344.576	93.81
344.804	96.81
345.031	110.81
345.259	120.81
345.487	120.81
345.714	99.81
345.942	105.81
346.17	86.81
346.397	108.81
346.625	97.81
346.853	91.81
347.08	95.81
347.308	105.81
347.535	96.81
347.763	125.81
347.99	118.81
348.218	133.81
348.445	125.81
348.673	106.81
348.9	103.81
349.128	89.81
349.355	105.81
349.583	98.81
349.81	104.81
350.037	100.81
350.265	97.81
350.492	105.81
350.72	102.81
350.947	122.81
351.174	150.81
351.402	129.81
351.629	120.81
351.856	111.81
352.083	110.81
352.311	111.81
352.538	145.81
352.765	130.81
352.992	135.81
353.22	122.81
353.447	123.81
353.674	132.81
353.901	96.81
354.128	106.81
354.355	97.81
354.583	100.81
354.81	96.81
355.037	108.81
355.264	84.81
355.491	76.81
355.718	98.81
355.945	82.81
356.172	94.81
356.399	101.81
356.626	92.81
356.853	86.81
357.08	108.81
357.307	84.81
357.534	107.81
357.761	95.81
357.988	101.81
358.215	86.81
358.441	90.81
358.668	86.81
358.895	94.81
359.122	95.81
359.349	105.81
359.576	98.81
359.802	122.81
360.029	155.81
360.256	152.81
360.483	113.81
360.709	80.81
360.936	112.81
361.163	101.81
361.39	114.81
361.616	104.81
361.843	96.81
362.07	121.81
362.296	111.81
362.523	106.81
362.749	99.81
362.976	104.81
363.203	108.81
363.429	86.81
363.656	100.81
363.882	96.81
364.109	98.81
364.335	97.81
364.562	102.81
364.788	91.81
365.015	94.81
365.241	113.81
365.468	123.81
365.694	129.81
365.92	122.81
366.147	117.81
366.373	101.81
366.599	101.81
366.826	105.81
367.052	96.81
367.278	99.81
367.505	103.81
367.731	109.81
367.957	105.81
368.184	87.81
368.41	112.81
368.636	136.81
368.862	148.81
369.089	133.81
369.315	128.81
369.541	85.81
369.767	93.81
369.993	115.81
370.219	99.81
370.445	80.81
370.672	76.81
370.898	97.81
371.124	88.81
371.35	93.81
371.576	91.81
371.802	98.81
372.028	102.81
372.254	103.81
372.48	86.81
372.706	93.81
372.932	91.81
373.158	79.81
373.384	88.81
373.61	87.81
373.835	98.81
374.061	83.81
374.287	92.81
374.513	80.81
374.739	91.81
374.965	82.81
375.191	84.81
375.416	81.81
375.642	98.81
375.868	102.81
376.094	95.81
376.319	86.81
376.545	81.81
376.771	97.81
376.997	74.81
377.222	96.81
377.448	105.81
377.674	95.81
377.899	79.81
378.125	100.81
378.35	99.81
378.576	92.81
378.802	86.81
379.027	96.81
379.253	92.81
379.478	91.81
379.704	86.81
379.929	94.81
380.155	93.81
380.38	97.81
380.606	94.81
380.831	112.81
381.057	113.81
381.282	90.81
381.507	90.81
381.733	88.81
381.958	97.81
382.184	107.81
382.409	95.81
382.634	111.81
382.86	105.81
383.085	102.81
383.31	98.81
383.535	99.81
383.761	104.81
383.986	112.81
384.211	95.81
384.436	105.81
384.662	98.81
384.887	91.81
385.112	116.81
385.337	117.81
385.562	109.81
385.787	113.81
386.013	111.81
386.238	126.81
386.463	112.81
386.688	119.81
386.913	117.81
387.138	104.81
387.363	93.81
387.588	104.81
387.813	102.81
388.038	84.81
388.263	108.81
388.488	104.81
388.713	92.81
388.938	85.81
389.163	98.81
389.387	90.81
389.612	85.81
389.837	78.81
390.062	96.81
390.287	89.81
390.512	86.81
390.736	96.81
390.961	93.81
391.186	103.81
391.411	97.81
391.636	102.81
391.86	80.81
392.085	86.81
392.31	74.81
392.534	88.81
392.759	84.81
392.984	85.81
393.208	85.81
393.433	81.81
393.658	81.81
393.882	82.81
394.107	89.81
394.331	81.81
394.556	97.81
394.78	86.81
395.005	97.81
395.229	80.81
395.454	86.81
395.678	76.81
395.903	91.81
396.127	84.81
396.352	81.81
396.576	76.81
396.801	91.81
397.025	84.81
397.249	93.81
397.474	97.81
397.698	87.81
397.922	80.81
398.147	94.81
398.371	80.81
398.595	89.81
398.82	78.81
399.044	84.81
399.268	97.81
399.492	92.81
399.717	95.81
399.941	93.81
400.165	100.81
400.389	88.81
400.613	100.81
400.837	86.81
401.062	98.81
401.286	81.81
401.51	107.81
401.734	100.81
401.958	106.81
402.182	182.81
402.406	243.81
402.63	174.81
402.854	109.81
403.078	91.81
403.302	98.81
403.526	89.81
403.75	93.81
403.974	89.81
404.198	94.81
404.422	88.81
404.645	105.81
404.869	111.81
405.093	116.81
405.317	149.81
405.541	128.81
405.765	133.81
405.988	166.81
406.212	250.81
406.436	415.81
406.66	240.81
406.883	125.81
407.107	115.81
407.331	115.81
407.555	118.81
407.778	122.81
408.002	95.81
408.226	97.81
408.449	74.81
408.673	84.81
408.896	94.81
409.12	98.81
409.344	110.81
409.567	93.81
409.791	91.81
410.014	91.81
410.238	85.81
410.461	78.81
410.685	98.81
410.908	95.81
411.132	108.81
411.355	111.81
411.578	93.81
411.802	86.81
412.025	85.81
412.249	103.81
412.472	121.81
412.695	127.81
412.919	103.81
413.142	95.81
413.365	89.81
413.589	71.81
413.812	101.81
414.035	89.81
414.258	83.81
414.482	90.81
414.705	98.81
414.928	86.81
415.151	98.81
415.374	88.81
415.597	94.81
415.821	98.81
416.044	106.81
416.267	94.81
416.49	95.81
416.713	86.81
416.936	94.81
417.159	90.81
417.382	90.81
417.605	90.81
417.828	121.81
418.051	111.81
418.274	78.81
418.497	90.81
418.72	96.81
418.943	81.81
419.166	93.81
419.389	88.81
419.611	102.81
419.834	88.81
420.057	100.81
420.28	89.81
420.503	108.81
420.726	81.81
420.948	93.81
421.171	105.81
421.394	96.81
421.617	89.81
421.839	88.81
422.062	87.81
422.285	95.81
422.507	106.81
422.73	108.81
422.953	95.81
423.175	99.81
423.398	93.81
423.621	84.81
423.843	84.81
424.066	81.81
424.288	98.81
424.511	103.81
424.733	106.81
424.956	121.81
425.178	114.81
425.401	116.81
425.623	93.81
425.846	98.81
426.068	102.81
426.291	100.81
426.513	94.81
426.735	94.81
426.958	104.81
427.18	119.81
427.402	186.81
427.625	303.81
427.847	280.81
428.069	253.81
428.292	152.81
428.514	95.81
428.736	97.81
428.958	88.81
429.181	95.81
429.403	103.81
429.625	90.81
429.847	95.81
430.069	121.81
430.292	98.81
430.514	97.81
430.736	95.81
430.958	77.81
431.18	73.81
431.402	94.81
431.624	87.81
431.846	94.81
432.068	106.81
432.29	88.81
432.512	80.81
432.734	88.81
432.956	90.81
433.178	100.81
433.4	112.81
433.622	86.81
433.844	95.81
434.066	94.81
434.287	86.81
434.509	86.81
434.731	100.81
434.953	99.81
435.175	90.81
435.397	98.81
435.618	94.81
435.84	98.81
436.062	138.81
436.284	134.81
436.505	116.81
436.727	102.81
436.949	97.81
437.17	91.81
437.392	89.81
437.614	107.81
437.835	129.81
438.057	161.81
438.278	138.81
438.5	132.81
438.721	136.81
438.943	105.81
439.165	88.81
439.386	88.81
439.608	113.81
439.829	111.81
440.05	165.81
440.272	208.81
440.493	96.81
440.715	86.81
440.936	86.81
441.158	96.81
441.379	88.81
441.6	108.81
441.822	109.81
442.043	106.81
442.264	125.81
442.486	118.81
442.707	107.81
442.928	140.81
443.149	200.81
443.371	193.81
443.592	159.81
443.813	127.81
444.034	128.81
444.255	86.81
444.476	86.81
444.698	107.81
444.919	102.81
445.14	140.81
445.361	129.81
445.582	140.81
445.803	217.81
446.024	196.81
446.245	164.81
446.466	141.81
446.687	110.81
446.908	89.81
447.129	77.81
447.35	98.81
447.571	100.81
447.792	106.81
448.013	123.81
448.234	119.81
448.455	126.81
448.675	136.81
448.896	129.81
449.117	108.81
449.338	119.81
449.559	140.81
449.779	151.81
450	110.81
450.221	94.81
450.442	99.81
450.662	117.81
450.883	150.81
451.104	167.81
451.324	119.81
451.545	98.81
451.766	97.81
451.986	98.81
452.207	104.81
452.428	102.81
452.648	129.81
452.869	123.81
453.089	160.81
453.31	177.81
453.53	112.81
453.751	104.81
453.971	137.81
454.192	151.81
454.412	118.81
454.633	99.81
454.853	74.81
455.073	81.81
455.294	113.81
455.514	105.81
455.734	105.81
455.955	93.81
456.175	77.81
456.395	94.81
456.616	86.81
456.836	79.81
457.056	97.81
457.276	86.81
457.497	88.81
457.717	89.81
457.937	94.81
458.157	99.81
458.377	103.81
458.598	133.81
458.818	253.81
459.038	284.81
459.258	169.81
459.478	96.81
459.698	81.81
459.918	95.81
460.138	96.81
460.358	81.81
460.578	85.81
460.798	91.81
461.018	110.81
461.238	106.81
461.458	76.81
461.678	83.81
461.898	86.81
462.118	99.81
462.338	88.81
462.558	79.81
462.777	85.81
462.997	105.81
463.217	117.81
463.437	102.81
463.657	97.81
463.876	87.81
464.096	92.81
464.316	102.81
464.536	120.81
464.755	100.81
464.975	139.81
465.195	298.81
465.414	284.81
465.634	125.81
465.854	114.81
466.073	92.81
466.293	86.81
466.512	92.81
466.732	91.81
466.951	102.81
467.171	105.81
467.391	111.81
467.61	166.81
467.829	248.81
468.049	737.81
468.268	1094.81
468.488	253.81
468.707	106.81
468.927	98.81
469.146	92.81
469.365	100.81
469.585	93.81
469.804	123.81
470.023	130.81
470.243	115.81
470.462	119.81
470.681	165.81
470.901	113.81
471.12	114.81
471.339	109.81
471.558	124.81
471.777	182.81
471.997	367.81
472.216	1459.81
472.435	3344.81
472.654	761.81
472.873	183.81
473.092	110.81
473.311	87.81
473.53	92.81
473.749	100.81
473.968	111.81
474.187	140.81
474.406	112.81
474.625	90.81
474.844	106.81
475.063	85.81
475.282	89.81
475.501	87.81
475.72	89.81
475.939	93.81
476.158	90.81
476.377	86.81
476.596	90.81
476.814	107.81
477.033	100.81
477.252	105.81
477.471	98.81
477.69	99.81
477.908	120.81
478.127	100.81
478.346	97.81
478.564	112.81
478.783	110.81
479.002	122.81
479.22	126.81
479.439	152.81
479.658	154.81
479.876	133.81
480.095	135.81
480.313	152.81
480.532	189.81
480.751	364.81
480.969	1300.81
481.188	5797.81
481.406	3232.81
481.624	460.81
481.843	146.81
482.061	113.81
482.28	105.81
482.498	103.81
482.717	94.81
482.935	106.81
483.153	94.81
483.372	106.81
483.59	97.81
483.808	101.81
484.027	89.81
484.245	109.81
484.463	108.81
484.681	88.81
484.9	77.81
485.118	114.81
485.336	92.81
485.554	110.81
485.772	108.81
485.99	104.81
486.209	123.81
486.427	124.81
486.645	127.81
486.863	142.81
487.081	110.81
487.299	104.81
487.517	98.81
487.735	107.81
487.953	92.81
488.171	99.81
488.389	105.81
488.607	95.81
488.825	86.81
489.043	111.81
489.261	103.81
489.479	98.81
489.696	87.81
489.914	77.81
490.132	88.81
490.35	97.81
490.568	95.81
490.786	85.81
491.003	93.81
491.221	106.81
491.439	100.81
491.657	99.81
491.874	100.81
492.092	86.81
492.31	102.81
492.527	105.81
492.745	118.81
492.963	84.81
493.18	100.81
493.398	101.81
493.615	100.81
493.833	108.81
494.05	97.81
494.268	102.81
494.485	98.81
494.703	105.81
494.92	90.81
495.138	88.81
495.355	95.81
495.573	111.81
495.79	85.81
496.008	95.81
496.225	74.81
496.442	90.81
496.66	84.81
496.877	88.81
497.094	101.81
497.312	102.81
497.529	98.81
497.746	103.81
497.963	111.81
498.181	102.81
498.398	113.81
498.615	123.81
498.832	113.81
499.049	99.81
499.267	99.81
499.484	86.81
499.701	91.81
499.918	95.81
500.135	81.81
500.352	96.81
500.569	112.81
500.786	108.81
501.003	116.81
501.22	87.81
501.437	103.81
501.654	117.81
501.871	144.81
502.088	96.81
502.305	106.81
502.522	91.81
502.739	96.81
502.956	110.81
503.172	112.81
503.389	107.81
503.606	133.81
503.823	117.81
504.04	95.81
504.256	87.81
504.473	106.81
504.69	103.81
504.907	101.81
505.123	86.81
505.34	108.81
505.557	88.81
505.773	95.81
505.99	93.81
506.207	89.81
506.423	104.81
506.64	106.81
506.856	99.81
507.073	98.81
507.289	96.81
507.506	115.81
507.722	149.81
507.939	133.81
508.155	111.81
508.372	106.81
508.588	104.81
508.805	99.81
509.021	108.81
509.238	97.81
509.454	107.81
509.67	122.81
509.887	137.81
510.103	173.81
510.319	325.81
510.536	1263.81
510.752	4642.81
510.968	1163.81
511.184	225.81
511.401	153.81
511.617	106.81
