Data from Circ_1999_H10_HRD10591_00002.txt Node
Date: Wed Jan 03 11:23:13 EST 2024
User: Yrep
Spectrometer: HR+D1059
Trigger mode: 1
Integration Time (sec): 1.000000E-1
Scans to average: 1
Electric dark correction enabled: true
Nonlinearity correction enabled: false
Boxcar width: 0
XAxis mode: Wavelengths
Number of Pixels in Spectrum: 2048
>>>>>Begin Spectral Data<<<<<
223.165	-19.69
223.4	-19.69
223.635	-19.69
223.869	-24.69
224.104	-19.69
224.338	-28.69
224.573	-18.69
224.808	-19.69
225.042	-5.69
225.277	-3.69
225.511	-1.69
225.746	12.31
225.98	-5.69
226.215	25.31
226.449	29.31
226.683	22.31
226.918	19.31
227.152	39.31
227.387	30.31
227.621	49.31
227.856	61.31
228.09	55.31
228.324	50.31
228.559	55.31
228.793	56.31
229.027	62.31
229.262	80.31
229.496	87.31
229.73	102.31
229.964	90.31
230.199	81.31
230.433	96.31
230.667	90.31
230.901	83.31
231.136	75.31
231.37	88.31
231.604	81.31
231.838	100.31
232.072	89.31
232.306	80.31
232.541	80.31
232.775	84.31
233.009	80.31
233.243	99.31
233.477	80.31
233.711	94.31
233.945	84.31
234.179	87.31
234.413	74.31
234.647	89.31
234.881	83.31
235.115	80.31
235.349	71.31
235.583	88.31
235.817	73.31
236.051	82.31
236.285	88.31
236.519	79.31
236.753	91.31
236.987	92.31
237.221	110.31
237.455	98.31
237.689	91.31
237.922	84.31
238.156	68.31
238.39	84.31
238.624	68.31
238.858	85.31
239.091	77.31
239.325	76.31
239.559	83.31
239.793	82.31
240.027	76.31
240.26	82.31
240.494	78.31
240.728	85.31
240.961	71.31
241.195	78.31
241.429	83.31
241.662	92.31
241.896	76.31
242.13	88.31
242.363	83.31
242.597	75.31
242.83	85.31
243.064	78.31
243.298	87.31
243.531	84.31
243.765	80.31
243.998	89.31
244.232	79.31
244.465	89.31
244.699	77.31
244.932	81.31
245.166	88.31
245.399	74.31
245.633	97.31
245.866	96.31
246.099	73.31
246.333	84.31
246.566	87.31
246.8	86.31
247.033	91.31
247.266	92.31
247.5	106.31
247.733	79.31
247.966	88.31
248.2	95.31
248.433	94.31
248.666	89.31
248.899	71.31
249.133	104.31
249.366	116.31
249.599	91.31
249.832	88.31
250.066	93.31
250.299	92.31
250.532	95.31
250.765	80.31
250.998	79.31
251.231	98.31
251.465	95.31
251.698	76.31
251.931	93.31
252.164	85.31
252.397	91.31
252.63	84.31
252.863	70.31
253.096	97.31
253.329	92.31
253.562	85.31
253.795	78.31
254.028	97.31
254.261	100.31
254.494	83.31
254.727	80.31
254.96	88.31
255.193	89.31
255.426	87.31
255.659	89.31
255.892	96.31
256.124	95.31
256.357	88.31
256.59	81.31
256.823	87.31
257.056	87.31
257.289	95.31
257.521	92.31
257.754	95.31
257.987	82.31
258.22	94.31
258.452	88.31
258.685	82.31
258.918	79.31
259.151	93.31
259.383	86.31
259.616	80.31
259.849	88.31
260.081	98.31
260.314	86.31
260.547	102.31
260.779	97.31
261.012	112.31
261.244	101.31
261.477	99.31
261.71	100.31
261.942	144.31
262.175	128.31
262.407	99.31
262.64	83.31
262.872	88.31
263.105	88.31
263.337	96.31
263.57	76.31
263.802	76.31
264.035	92.31
264.267	89.31
264.499	91.31
264.732	93.31
264.964	87.31
265.197	85.31
265.429	82.31
265.661	96.31
265.894	92.31
266.126	100.31
266.358	96.31
266.591	88.31
266.823	71.31
267.055	89.31
267.287	101.31
267.52	92.31
267.752	91.31
267.984	79.31
268.216	88.31
268.448	80.31
268.681	76.31
268.913	94.31
269.145	90.31
269.377	92.31
269.609	93.31
269.841	87.31
270.073	74.31
270.306	84.31
270.538	99.31
270.77	80.31
271.002	93.31
271.234	92.31
271.466	101.31
271.698	96.31
271.93	90.31
272.162	84.31
272.394	96.31
272.626	99.31
272.858	85.31
273.09	87.31
273.322	87.31
273.553	98.31
273.785	98.31
274.017	99.31
274.249	100.31
274.481	68.31
274.713	93.31
274.945	98.31
275.176	92.31
275.408	108.31
275.64	116.31
275.872	114.31
276.104	112.31
276.335	93.31
276.567	118.31
276.799	168.31
277.031	161.31
277.262	165.31
277.494	137.31
277.726	94.31
277.957	91.31
278.189	95.31
278.421	97.31
278.652	84.31
278.884	92.31
279.115	85.31
279.347	107.31
279.579	98.31
279.81	136.31
280.042	171.31
280.273	216.31
280.505	153.31
280.736	112.31
280.968	108.31
281.199	94.31
281.431	81.31
281.662	86.31
281.894	99.31
282.125	120.31
282.356	147.31
282.588	173.31
282.819	141.31
283.051	102.31
283.282	92.31
283.513	93.31
283.745	106.31
283.976	86.31
284.207	100.31
284.439	96.31
284.67	87.31
284.901	87.31
285.132	81.31
285.364	90.31
285.595	87.31
285.826	94.31
286.057	93.31
286.288	82.31
286.52	99.31
286.751	87.31
286.982	89.31
287.213	91.31
287.444	104.31
287.675	111.31
287.906	89.31
288.138	84.31
288.369	100.31
288.6	101.31
288.831	95.31
289.062	83.31
289.293	104.31
289.524	89.31
289.755	101.31
289.986	93.31
290.217	96.31
290.448	90.31
290.679	83.31
290.91	97.31
291.141	96.31
291.371	97.31
291.602	94.31
291.833	91.31
292.064	79.31
292.295	93.31
292.526	96.31
292.757	84.31
292.987	103.31
293.218	89.31
293.449	89.31
293.68	77.31
293.91	91.31
294.141	87.31
294.372	93.31
294.603	102.31
294.833	84.31
295.064	84.31
295.295	88.31
295.525	106.31
295.756	107.31
295.987	127.31
296.217	179.31
296.448	156.31
296.679	101.31
296.909	111.31
297.14	95.31
297.37	100.31
297.601	87.31
297.831	96.31
298.062	104.31
298.292	91.31
298.523	93.31
298.753	88.31
298.984	92.31
299.214	99.31
299.445	104.31
299.675	107.31
299.905	101.31
300.136	97.31
300.366	97.31
300.597	84.31
300.827	111.31
301.057	114.31
301.288	123.31
301.518	99.31
301.748	92.31
301.979	111.31
302.209	111.31
302.439	112.31
302.669	94.31
302.9	89.31
303.13	96.31
303.36	106.31
303.59	132.31
303.82	136.31
304.051	107.31
304.281	98.31
304.511	85.31
304.741	105.31
304.971	77.31
305.201	75.31
305.431	85.31
305.661	93.31
305.891	94.31
306.121	100.31
306.352	116.31
306.582	126.31
306.812	131.31
307.042	119.31
307.272	145.31
307.502	173.31
307.731	162.31
307.961	133.31
308.191	101.31
308.421	90.31
308.651	103.31
308.881	102.31
309.111	96.31
309.341	101.31
309.571	112.31
309.8	98.31
310.03	100.31
310.26	123.31
310.49	116.31
310.72	124.31
310.949	123.31
311.179	116.31
311.409	124.31
311.639	98.31
311.868	108.31
312.098	102.31
312.328	112.31
312.557	107.31
312.787	112.31
313.017	116.31
313.246	106.31
313.476	90.31
313.706	114.31
313.935	108.31
314.165	119.31
314.394	118.31
314.624	124.31
314.853	116.31
315.083	92.31
315.312	103.31
315.542	111.31
315.771	106.31
316.001	105.31
316.23	98.31
316.46	97.31
316.689	101.31
316.919	113.31
317.148	105.31
317.377	104.31
317.607	99.31
317.836	108.31
318.065	120.31
318.295	101.31
318.524	98.31
318.753	103.31
318.983	99.31
319.212	107.31
319.441	129.31
319.67	116.31
319.9	99.31
320.129	101.31
320.358	111.31
320.587	112.31
320.816	119.31
321.046	116.31
321.275	113.31
321.504	105.31
321.733	102.31
321.962	101.31
322.191	115.31
322.42	128.31
322.649	132.31
322.878	110.31
323.108	121.31
323.337	156.31
323.566	146.31
323.795	170.31
324.024	244.31
324.253	458.31
324.482	941.31
324.71	1834.31
324.939	2329.31
325.168	885.31
325.397	283.31
325.626	171.31
325.855	157.31
326.084	143.31
326.313	141.31
326.542	157.31
326.77	254.31
326.999	479.31
327.228	943.31
327.457	1649.31
327.686	1349.31
327.914	502.31
328.143	474.31
328.372	571.31
328.6	325.31
328.829	192.31
329.058	196.31
329.287	215.31
329.515	185.31
329.744	232.31
329.972	418.31
330.201	825.31
330.43	1153.31
330.658	552.31
330.887	288.31
331.115	188.31
331.344	132.31
331.572	108.31
331.801	141.31
332.03	126.31
332.258	107.31
332.486	105.31
332.715	122.31
332.943	109.31
333.172	107.31
333.4	125.31
333.629	155.31
333.857	224.31
334.085	389.31
334.314	760.31
334.542	1467.31
334.771	1349.31
334.999	359.31
335.227	162.31
335.455	128.31
335.684	108.31
335.912	115.31
336.14	125.31
336.369	130.31
336.597	121.31
336.825	107.31
337.053	100.31
337.281	93.31
337.51	123.31
337.738	112.31
337.966	112.31
338.194	112.31
338.422	120.31
338.65	113.31
338.878	100.31
339.106	96.31
339.334	101.31
339.562	100.31
339.79	115.31
340.018	104.31
340.246	109.31
340.474	108.31
340.702	115.31
340.93	98.31
341.158	101.31
341.386	120.31
341.614	104.31
341.842	101.31
342.07	91.31
342.298	100.31
342.526	103.31
342.754	103.31
342.981	84.31
343.209	105.31
343.437	104.31
343.665	96.31
343.893	95.31
344.12	99.31
344.348	101.31
344.576	97.31
344.804	105.31
345.031	106.31
345.259	117.31
345.487	114.31
345.714	92.31
345.942	103.31
346.17	98.31
346.397	91.31
346.625	96.31
346.853	107.31
347.08	93.31
347.308	110.31
347.535	120.31
347.763	108.31
347.99	107.31
348.218	111.31
348.445	138.31
348.673	119.31
348.9	112.31
349.128	97.31
349.355	104.31
349.583	100.31
349.81	109.31
350.037	93.31
350.265	107.31
350.492	100.31
350.72	106.31
350.947	102.31
351.174	128.31
351.402	128.31
351.629	127.31
351.856	107.31
352.083	108.31
352.311	129.31
352.538	131.31
352.765	116.31
352.992	125.31
353.22	116.31
353.447	118.31
353.674	115.31
353.901	98.31
354.128	101.31
354.355	116.31
354.583	102.31
354.81	92.31
355.037	100.31
355.264	106.31
355.491	103.31
355.718	101.31
355.945	95.31
356.172	97.31
356.399	109.31
356.626	116.31
356.853	85.31
357.08	92.31
357.307	98.31
357.534	88.31
357.761	104.31
357.988	98.31
358.215	105.31
358.441	105.31
358.668	104.31
358.895	93.31
359.122	101.31
359.349	84.31
359.576	93.31
359.802	131.31
360.029	161.31
360.256	145.31
360.483	121.31
360.709	103.31
360.936	95.31
361.163	116.31
361.39	107.31
361.616	114.31
361.843	111.31
362.07	117.31
362.296	110.31
362.523	98.31
362.749	100.31
362.976	109.31
363.203	92.31
363.429	95.31
363.656	100.31
363.882	91.31
364.109	91.31
364.335	106.31
364.562	97.31
364.788	100.31
365.015	106.31
365.241	121.31
365.468	121.31
365.694	122.31
365.92	112.31
366.147	99.31
366.373	93.31
366.599	92.31
366.826	98.31
367.052	104.31
367.278	85.31
367.505	98.31
367.731	104.31
367.957	89.31
368.184	97.31
368.41	124.31
368.636	122.31
368.862	123.31
369.089	132.31
369.315	109.31
369.541	111.31
369.767	93.31
369.993	98.31
370.219	92.31
370.445	99.31
370.672	93.31
370.898	91.31
371.124	96.31
371.35	93.31
371.576	89.31
371.802	91.31
372.028	92.31
372.254	97.31
372.48	79.31
372.706	94.31
372.932	93.31
373.158	87.31
373.384	94.31
373.61	96.31
373.835	116.31
374.061	98.31
374.287	103.31
374.513	93.31
374.739	105.31
374.965	91.31
375.191	91.31
375.416	107.31
375.642	92.31
375.868	94.31
376.094	97.31
376.319	93.31
376.545	88.31
376.771	89.31
376.997	115.31
377.222	105.31
377.448	103.31
377.674	100.31
377.899	79.31
378.125	92.31
378.35	95.31
378.576	108.31
378.802	93.31
379.027	83.31
379.253	103.31
379.478	107.31
379.704	89.31
379.929	100.31
380.155	101.31
380.38	109.31
380.606	104.31
380.831	108.31
381.057	105.31
381.282	103.31
381.507	122.31
381.733	102.31
381.958	112.31
382.184	106.31
382.409	111.31
382.634	133.31
382.86	119.31
383.085	118.31
383.31	121.31
383.535	106.31
383.761	115.31
383.986	115.31
384.211	118.31
384.436	124.31
384.662	112.31
384.887	132.31
385.112	120.31
385.337	128.31
385.562	133.31
385.787	135.31
386.013	133.31
386.238	156.31
386.463	116.31
386.688	135.31
386.913	123.31
387.138	133.31
387.363	124.31
387.588	107.31
387.813	129.31
388.038	140.31
388.263	145.31
388.488	149.31
388.713	110.31
388.938	95.31
389.163	93.31
389.387	110.31
389.612	91.31
389.837	84.31
390.062	96.31
390.287	88.31
390.512	92.31
390.736	82.31
390.961	100.31
391.186	100.31
391.411	90.31
391.636	84.31
391.86	85.31
392.085	91.31
392.31	93.31
392.534	85.31
392.759	93.31
392.984	81.31
393.208	86.31
393.433	100.31
393.658	90.31
393.882	95.31
394.107	90.31
394.331	92.31
394.556	81.31
394.78	94.31
395.005	81.31
395.229	91.31
395.454	98.31
395.678	87.31
395.903	75.31
396.127	90.31
396.352	82.31
396.576	99.31
396.801	92.31
397.025	93.31
397.249	91.31
397.474	94.31
397.698	85.31
397.922	92.31
398.147	89.31
398.371	87.31
398.595	92.31
398.82	88.31
399.044	88.31
399.268	96.31
399.492	82.31
399.717	80.31
399.941	82.31
400.165	95.31
400.389	95.31
400.613	111.31
400.837	81.31
401.062	92.31
401.286	100.31
401.51	103.31
401.734	108.31
401.958	115.31
402.182	149.31
402.406	207.31
402.63	153.31
402.854	108.31
403.078	85.31
403.302	96.31
403.526	92.31
403.75	91.31
403.974	103.31
404.198	99.31
404.422	103.31
404.645	104.31
404.869	95.31
405.093	124.31
405.317	134.31
405.541	128.31
405.765	114.31
405.988	169.31
406.212	233.31
406.436	341.31
406.66	219.31
406.883	123.31
407.107	120.31
407.331	111.31
407.555	104.31
407.778	97.31
408.002	93.31
408.226	92.31
408.449	99.31
408.673	92.31
408.896	96.31
409.12	99.31
409.344	105.31
409.567	96.31
409.791	104.31
410.014	92.31
410.238	90.31
410.461	105.31
410.685	97.31
410.908	111.31
411.132	107.31
411.355	119.31
411.578	93.31
411.802	92.31
412.025	95.31
412.249	99.31
412.472	121.31
412.695	143.31
412.919	123.31
413.142	103.31
413.365	92.31
413.589	97.31
413.812	99.31
414.035	93.31
414.258	89.31
414.482	97.31
414.705	88.31
414.928	96.31
415.151	103.31
415.374	112.31
415.597	89.31
415.821	95.31
416.044	109.31
416.267	87.31
416.49	81.31
416.713	84.31
416.936	93.31
417.159	96.31
417.382	105.31
417.605	112.31
417.828	108.31
418.051	102.31
418.274	95.31
418.497	99.31
418.72	97.31
418.943	87.31
419.166	113.31
419.389	93.31
419.611	94.31
419.834	110.31
420.057	94.31
420.28	100.31
420.503	79.31
420.726	92.31
420.948	97.31
421.171	110.31
421.394	93.31
421.617	101.31
421.839	105.31
422.062	96.31
422.285	99.31
422.507	108.31
422.73	113.31
422.953	103.31
423.175	98.31
423.398	103.31
423.621	96.31
423.843	96.31
424.066	93.31
424.288	83.31
424.511	96.31
424.733	105.31
424.956	109.31
425.178	131.31
425.401	109.31
425.623	106.31
425.846	104.31
426.068	97.31
426.291	104.31
426.513	95.31
426.735	96.31
426.958	105.31
427.18	126.31
427.402	164.31
427.625	252.31
427.847	220.31
428.069	176.31
428.292	115.31
428.514	95.31
428.736	105.31
428.958	111.31
429.181	80.31
429.403	92.31
429.625	101.31
429.847	106.31
430.069	111.31
430.292	101.31
430.514	80.31
430.736	93.31
430.958	87.31
431.18	77.31
431.402	82.31
431.624	87.31
431.846	90.31
432.068	80.31
432.29	92.31
432.512	92.31
432.734	84.31
432.956	96.31
433.178	110.31
433.4	104.31
433.622	103.31
433.844	96.31
434.066	89.31
434.287	88.31
434.509	85.31
434.731	104.31
434.953	92.31
435.175	101.31
435.397	105.31
435.618	109.31
435.84	107.31
436.062	136.31
436.284	137.31
436.505	124.31
436.727	107.31
436.949	97.31
437.17	94.31
437.392	93.31
437.614	101.31
437.835	127.31
438.057	154.31
438.278	135.31
438.5	117.31
438.721	131.31
438.943	107.31
439.165	111.31
439.386	110.31
439.608	91.31
439.829	121.31
440.05	124.31
440.272	172.31
440.493	97.31
440.715	81.31
440.936	96.31
441.158	91.31
441.379	80.31
441.6	110.31
441.822	91.31
442.043	128.31
442.264	116.31
442.486	119.31
442.707	96.31
442.928	132.31
443.149	170.31
443.371	163.31
443.592	137.31
443.813	121.31
444.034	126.31
444.255	84.31
444.476	92.31
444.698	89.31
444.919	90.31
445.14	133.31
445.361	141.31
445.582	128.31
445.803	181.31
446.024	161.31
446.245	152.31
446.466	120.31
446.687	104.31
446.908	86.31
447.129	83.31
447.35	92.31
447.571	108.31
447.792	103.31
448.013	112.31
448.234	129.31
448.455	132.31
448.675	148.31
448.896	144.31
449.117	123.31
449.338	115.31
449.559	145.31
449.779	155.31
450	98.31
450.221	102.31
450.442	99.31
450.662	100.31
450.883	129.31
451.104	134.31
451.324	111.31
451.545	89.31
451.766	97.31
451.986	96.31
452.207	99.31
452.428	116.31
452.648	103.31
452.869	133.31
453.089	126.31
453.31	161.31
453.53	110.31
453.751	92.31
453.971	116.31
454.192	149.31
454.412	112.31
454.633	89.31
454.853	84.31
455.073	81.31
455.294	105.31
455.514	104.31
455.734	86.31
455.955	99.31
456.175	93.31
456.395	83.31
456.616	108.31
456.836	81.31
457.056	86.31
457.276	80.31
457.497	89.31
457.717	99.31
457.937	87.31
458.157	93.31
458.377	91.31
458.598	135.31
458.818	224.31
459.038	243.31
459.258	137.31
459.478	104.31
459.698	81.31
459.918	104.31
460.138	90.31
460.358	100.31
460.578	96.31
460.798	102.31
461.018	91.31
461.238	92.31
461.458	95.31
461.678	98.31
461.898	96.31
462.118	96.31
462.338	91.31
462.558	77.31
462.777	101.31
462.997	92.31
463.217	112.31
463.437	104.31
463.657	93.31
463.876	93.31
464.096	90.31
464.316	99.31
464.536	91.31
464.755	102.31
464.975	138.31
465.195	259.31
465.414	250.31
465.634	128.31
465.854	92.31
466.073	97.31
466.293	107.31
466.512	104.31
466.732	91.31
466.951	97.31
467.171	111.31
467.391	98.31
467.61	139.31
467.829	184.31
468.049	503.31
468.268	673.31
468.488	188.31
468.707	97.31
468.927	95.31
469.146	106.31
469.365	105.31
469.585	108.31
469.804	115.31
470.023	117.31
470.243	122.31
470.462	120.31
470.681	133.31
470.901	104.31
471.12	101.31
471.339	104.31
471.558	114.31
471.777	138.31
471.997	290.31
472.216	935.31
472.435	2021.31
472.654	482.31
472.873	139.31
473.092	102.31
473.311	105.31
473.53	100.31
473.749	99.31
473.968	107.31
474.187	107.31
474.406	121.31
474.625	92.31
474.844	100.31
475.063	95.31
475.282	105.31
475.501	84.31
475.72	88.31
475.939	92.31
476.158	85.31
476.377	87.31
476.596	89.31
476.814	105.31
477.033	104.31
477.252	96.31
477.471	90.31
477.69	110.31
477.908	100.31
478.127	105.31
478.346	84.31
478.564	103.31
478.783	111.31
479.002	116.31
479.22	102.31
479.439	127.31
479.658	133.31
479.876	117.31
480.095	122.31
480.313	139.31
480.532	148.31
480.751	255.31
480.969	865.31
481.188	3530.31
481.406	1947.31
481.624	293.31
481.843	124.31
482.061	111.31
482.28	96.31
482.498	98.31
482.717	92.31
482.935	105.31
483.153	89.31
483.372	103.31
483.59	105.31
483.808	97.31
484.027	95.31
484.245	106.31
484.463	104.31
484.681	107.31
484.9	100.31
485.118	84.31
485.336	112.31
485.554	114.31
485.772	99.31
485.99	110.31
486.209	119.31
486.427	114.31
486.645	130.31
486.863	123.31
487.081	99.31
487.299	104.31
487.517	116.31
487.735	103.31
487.953	83.31
488.171	89.31
488.389	114.31
488.607	112.31
488.825	95.31
489.043	94.31
489.261	93.31
489.479	110.31
489.696	101.31
489.914	114.31
490.132	92.31
490.35	84.31
490.568	85.31
490.786	88.31
491.003	88.31
491.221	101.31
491.439	108.31
491.657	95.31
491.874	93.31
492.092	84.31
492.31	96.31
492.527	93.31
492.745	111.31
492.963	87.31
493.18	96.31
493.398	110.31
493.615	109.31
493.833	97.31
494.05	89.31
494.268	101.31
494.485	81.31
494.703	84.31
494.92	99.31
495.138	92.31
495.355	89.31
495.573	99.31
495.79	91.31
496.008	106.31
496.225	91.31
496.442	95.31
496.66	104.31
496.877	101.31
497.094	100.31
497.312	107.31
497.529	89.31
497.746	94.31
497.963	101.31
498.181	110.31
498.398	109.31
498.615	118.31
498.832	121.31
499.049	106.31
499.267	83.31
499.484	96.31
499.701	92.31
499.918	106.31
500.135	94.31
500.352	94.31
500.569	107.31
500.786	110.31
501.003	88.31
501.22	103.31
501.437	107.31
501.654	101.31
501.871	123.31
502.088	104.31
502.305	95.31
502.522	82.31
502.739	98.31
502.956	96.31
503.172	94.31
503.389	99.31
503.606	123.31
503.823	109.31
504.04	85.31
504.256	89.31
504.473	97.31
504.69	103.31
504.907	88.31
505.123	102.31
505.34	98.31
505.557	84.31
505.773	94.31
505.99	87.31
506.207	103.31
506.423	75.31
506.64	106.31
506.856	109.31
507.073	96.31
507.289	112.31
507.506	104.31
507.722	132.31
507.939	138.31
508.155	107.31
508.372	99.31
508.588	107.31
508.805	101.31
509.021	92.31
509.238	115.31
509.454	113.31
509.67	103.31
509.887	141.31
510.103	172.31
510.319	268.31
510.536	1111.31
510.752	3864.31
