Data from Circ_1999_H10_HRD10591_00043.txt Node
Date: Wed Jan 03 11:23:21 EST 2024
User: Yrep
Spectrometer: HR+D1059
Trigger mode: 1
Integration Time (sec): 1.000000E-1
Scans to average: 1
Electric dark correction enabled: true
Nonlinearity correction enabled: false
Boxcar width: 0
XAxis mode: Wavelengths
Number of Pixels in Spectrum: 2048
>>>>>Begin Spectral Data<<<<<
223.165	-13.19
223.4	-13.19
223.635	-13.19
223.869	-7.19
224.104	-17.19
224.338	-24.19
224.573	-13.19
224.808	-13.19
225.042	-19.19
225.277	3.81
225.511	-7.19
225.746	0.81
225.98	9.81
226.215	14.81
226.449	5.81
226.683	25.81
226.918	13.81
227.152	39.81
227.387	36.81
227.621	46.81
227.856	43.81
228.09	49.81
228.324	50.81
228.559	61.81
228.793	66.81
229.027	74.81
229.262	87.81
229.496	88.81
229.73	118.81
229.964	86.81
230.199	80.81
230.433	81.81
230.667	76.81
230.901	79.81
231.136	74.81
231.37	78.81
231.604	87.81
231.838	81.81
232.072	85.81
232.306	67.81
232.541	85.81
232.775	72.81
233.009	80.81
233.243	90.81
233.477	81.81
233.711	80.81
233.945	82.81
234.179	81.81
234.413	81.81
234.647	79.81
234.881	83.81
235.115	82.81
235.349	91.81
235.583	89.81
235.817	76.81
236.051	98.81
236.285	78.81
236.519	91.81
236.753	87.81
236.987	87.81
237.221	90.81
237.455	94.81
237.689	90.81
237.922	77.81
238.156	73.81
238.39	77.81
238.624	89.81
238.858	87.81
239.091	82.81
239.325	79.81
239.559	91.81
239.793	89.81
240.027	69.81
240.26	75.81
240.494	82.81
240.728	70.81
240.961	88.81
241.195	86.81
241.429	94.81
241.662	69.81
241.896	81.81
242.13	86.81
242.363	74.81
242.597	90.81
242.83	77.81
243.064	71.81
243.298	83.81
243.531	69.81
243.765	94.81
243.998	65.81
244.232	94.81
244.465	92.81
244.699	86.81
244.932	83.81
245.166	70.81
245.399	78.81
245.633	81.81
245.866	91.81
246.099	78.81
246.333	89.81
246.566	75.81
246.8	81.81
247.033	81.81
247.266	85.81
247.5	93.81
247.733	78.81
247.966	76.81
248.2	76.81
248.433	77.81
248.666	89.81
248.899	82.81
249.133	80.81
249.366	107.81
249.599	109.81
249.832	97.81
250.066	94.81
250.299	95.81
250.532	78.81
250.765	88.81
250.998	92.81
251.231	83.81
251.465	84.81
251.698	91.81
251.931	80.81
252.164	77.81
252.397	102.81
252.63	69.81
252.863	82.81
253.096	84.81
253.329	79.81
253.562	88.81
253.795	80.81
254.028	78.81
254.261	91.81
254.494	90.81
254.727	77.81
254.96	81.81
255.193	101.81
255.426	83.81
255.659	89.81
255.892	96.81
256.124	103.81
256.357	89.81
256.59	94.81
256.823	82.81
257.056	89.81
257.289	99.81
257.521	88.81
257.754	99.81
257.987	92.81
258.22	85.81
258.452	102.81
258.685	97.81
258.918	97.81
259.151	99.81
259.383	91.81
259.616	72.81
259.849	97.81
260.081	103.81
260.314	90.81
260.547	99.81
260.779	92.81
261.012	118.81
261.244	115.81
261.477	102.81
261.71	116.81
261.942	144.81
262.175	161.81
262.407	113.81
262.64	95.81
262.872	93.81
263.105	90.81
263.337	79.81
263.57	108.81
263.802	86.81
264.035	87.81
264.267	90.81
264.499	91.81
264.732	89.81
264.964	90.81
265.197	85.81
265.429	87.81
265.661	83.81
265.894	77.81
266.126	93.81
266.358	73.81
266.591	85.81
266.823	79.81
267.055	92.81
267.287	90.81
267.52	79.81
267.752	94.81
267.984	89.81
268.216	87.81
268.448	79.81
268.681	92.81
268.913	88.81
269.145	95.81
269.377	87.81
269.609	82.81
269.841	83.81
270.073	101.81
270.306	94.81
270.538	90.81
270.77	81.81
271.002	89.81
271.234	101.81
271.466	99.81
271.698	86.81
271.93	91.81
272.162	98.81
272.394	109.81
272.626	96.81
272.858	99.81
273.09	101.81
273.322	85.81
273.553	96.81
273.785	99.81
274.017	84.81
274.249	100.81
274.481	82.81
274.713	104.81
274.945	100.81
275.176	104.81
275.408	123.81
275.64	118.81
275.872	143.81
276.104	107.81
276.335	108.81
276.567	134.81
276.799	179.81
277.031	221.81
277.262	247.81
277.494	195.81
277.726	118.81
277.957	90.81
278.189	104.81
278.421	97.81
278.652	110.81
278.884	81.81
279.115	91.81
279.347	98.81
279.579	118.81
279.81	153.81
280.042	247.81
280.273	326.81
280.505	213.81
280.736	125.81
280.968	90.81
281.199	98.81
281.431	83.81
281.662	79.81
281.894	87.81
282.125	111.81
282.356	155.81
282.588	215.81
282.819	161.81
283.051	95.81
283.282	97.81
283.513	97.81
283.745	88.81
283.976	89.81
284.207	98.81
284.439	95.81
284.67	99.81
284.901	88.81
285.132	87.81
285.364	86.81
285.595	99.81
285.826	85.81
286.057	84.81
286.288	102.81
286.52	91.81
286.751	94.81
286.982	84.81
287.213	87.81
287.444	91.81
287.675	89.81
287.906	99.81
288.138	86.81
288.369	102.81
288.6	96.81
288.831	90.81
289.062	102.81
289.293	101.81
289.524	95.81
289.755	80.81
289.986	98.81
290.217	88.81
290.448	97.81
290.679	85.81
290.91	79.81
291.141	93.81
291.371	89.81
291.602	85.81
291.833	99.81
292.064	118.81
292.295	96.81
292.526	90.81
292.757	89.81
292.987	96.81
293.218	95.81
293.449	101.81
293.68	104.81
293.91	90.81
294.141	90.81
294.372	100.81
294.603	90.81
294.833	98.81
295.064	94.81
295.295	91.81
295.525	104.81
295.756	111.81
295.987	158.81
296.217	219.81
296.448	167.81
296.679	103.81
296.909	109.81
297.14	96.81
297.37	86.81
297.601	99.81
297.831	103.81
298.062	105.81
298.292	102.81
298.523	86.81
298.753	94.81
298.984	100.81
299.214	97.81
299.445	95.81
299.675	98.81
299.905	117.81
300.136	98.81
300.366	103.81
300.597	94.81
300.827	109.81
301.057	120.81
301.288	120.81
301.518	104.81
301.748	114.81
301.979	116.81
302.209	94.81
302.439	104.81
302.669	112.81
302.9	106.81
303.13	108.81
303.36	118.81
303.59	151.81
303.82	173.81
304.051	110.81
304.281	83.81
304.511	103.81
304.741	89.81
304.971	85.81
305.201	94.81
305.431	97.81
305.661	99.81
305.891	108.81
306.121	109.81
306.352	113.81
306.582	141.81
306.812	127.81
307.042	141.81
307.272	191.81
307.502	219.81
307.731	199.81
307.961	150.81
308.191	98.81
308.421	81.81
308.651	95.81
308.881	95.81
309.111	103.81
309.341	115.81
309.571	114.81
309.8	121.81
310.03	111.81
310.26	132.81
310.49	111.81
310.72	133.81
310.949	149.81
311.179	128.81
311.409	98.81
311.639	115.81
311.868	111.81
312.098	116.81
312.328	103.81
312.557	137.81
312.787	152.81
313.017	107.81
313.246	98.81
313.476	104.81
313.706	110.81
313.935	113.81
314.165	130.81
314.394	138.81
314.624	126.81
314.853	119.81
315.083	114.81
315.312	106.81
315.542	107.81
315.771	97.81
316.001	103.81
316.23	88.81
316.46	100.81
316.689	106.81
316.919	107.81
317.148	107.81
317.377	107.81
317.607	106.81
317.836	101.81
318.065	94.81
318.295	106.81
318.524	114.81
318.753	97.81
318.983	110.81
319.212	109.81
319.441	150.81
319.67	132.81
319.9	118.81
320.129	102.81
320.358	93.81
320.587	104.81
320.816	123.81
321.046	108.81
321.275	98.81
321.504	91.81
321.733	108.81
321.962	106.81
322.191	115.81
322.42	130.81
322.649	133.81
322.878	136.81
323.108	149.81
323.337	158.81
323.566	170.81
323.795	213.81
324.024	269.81
324.253	577.81
324.482	1251.81
324.71	2537.81
324.939	3426.81
325.168	1257.81
325.397	365.81
325.626	193.81
325.855	153.81
326.084	146.81
326.313	151.81
326.542	201.81
326.77	291.81
326.999	574.81
327.228	1244.81
327.457	2339.81
327.686	1894.81
327.914	694.81
328.143	716.81
328.372	909.81
328.6	487.81
328.829	235.81
329.058	233.81
329.287	267.81
329.515	229.81
329.744	341.81
329.972	614.81
330.201	1397.81
330.43	1989.81
330.658	878.81
330.887	401.81
331.115	260.81
331.344	145.81
331.572	153.81
331.801	160.81
332.03	145.81
332.258	133.81
332.486	122.81
332.715	122.81
332.943	124.81
333.172	135.81
333.4	154.81
333.629	206.81
333.857	291.81
334.085	601.81
334.314	1258.81
334.542	2532.81
334.771	2251.81
334.999	562.81
335.227	202.81
335.455	150.81
335.684	120.81
335.912	129.81
336.14	128.81
336.369	118.81
336.597	134.81
336.825	117.81
337.053	115.81
337.281	105.81
337.51	102.81
337.738	97.81
337.966	109.81
338.194	138.81
338.422	110.81
338.65	98.81
338.878	106.81
339.106	96.81
339.334	101.81
339.562	92.81
339.79	104.81
340.018	118.81
340.246	102.81
340.474	114.81
340.702	87.81
340.93	95.81
341.158	96.81
341.386	122.81
341.614	119.81
341.842	113.81
342.07	103.81
342.298	107.81
342.526	95.81
342.754	95.81
342.981	93.81
343.209	86.81
343.437	108.81
343.665	89.81
343.893	96.81
344.12	99.81
344.348	91.81
344.576	113.81
344.804	97.81
345.031	122.81
345.259	126.81
345.487	114.81
345.714	93.81
345.942	98.81
346.17	95.81
346.397	103.81
346.625	112.81
346.853	92.81
347.08	102.81
347.308	116.81
347.535	127.81
347.763	115.81
347.99	120.81
348.218	113.81
348.445	128.81
348.673	129.81
348.9	122.81
349.128	112.81
349.355	90.81
349.583	109.81
349.81	98.81
350.037	110.81
350.265	103.81
350.492	100.81
350.72	94.81
350.947	130.81
351.174	142.81
351.402	159.81
351.629	118.81
351.856	112.81
352.083	135.81
352.311	128.81
352.538	136.81
352.765	141.81
352.992	152.81
353.22	141.81
353.447	129.81
353.674	115.81
353.901	110.81
354.128	78.81
354.355	108.81
354.583	109.81
354.81	93.81
355.037	102.81
355.264	107.81
355.491	97.81
355.718	106.81
355.945	82.81
356.172	101.81
356.399	105.81
356.626	80.81
356.853	103.81
357.08	93.81
357.307	101.81
357.534	95.81
357.761	95.81
357.988	91.81
358.215	95.81
358.441	99.81
358.668	88.81
358.895	101.81
359.122	81.81
359.349	112.81
359.576	114.81
359.802	139.81
360.029	181.81
360.256	169.81
360.483	125.81
360.709	96.81
360.936	120.81
361.163	113.81
361.39	106.81
361.616	123.81
361.843	98.81
362.07	102.81
362.296	126.81
362.523	121.81
362.749	97.81
362.976	111.81
363.203	95.81
363.429	75.81
363.656	104.81
363.882	95.81
364.109	103.81
364.335	103.81
364.562	95.81
364.788	121.81
365.015	111.81
365.241	133.81
365.468	134.81
365.694	139.81
365.92	129.81
366.147	108.81
366.373	106.81
366.599	98.81
366.826	96.81
367.052	94.81
367.278	94.81
367.505	99.81
367.731	114.81
367.957	107.81
368.184	117.81
368.41	122.81
368.636	141.81
368.862	149.81
369.089	134.81
369.315	105.81
369.541	103.81
369.767	99.81
369.993	102.81
370.219	105.81
370.445	95.81
370.672	99.81
370.898	95.81
371.124	94.81
371.35	89.81
371.576	92.81
371.802	82.81
372.028	99.81
372.254	109.81
372.48	95.81
372.706	77.81
372.932	82.81
373.158	89.81
373.384	82.81
373.61	91.81
373.835	94.81
374.061	96.81
374.287	105.81
374.513	98.81
374.739	93.81
374.965	94.81
375.191	97.81
375.416	87.81
375.642	90.81
375.868	108.81
376.094	98.81
376.319	93.81
376.545	84.81
376.771	89.81
376.997	105.81
377.222	101.81
377.448	95.81
377.674	88.81
377.899	79.81
378.125	103.81
378.35	104.81
378.576	78.81
378.802	106.81
379.027	99.81
379.253	89.81
379.478	90.81
379.704	81.81
379.929	99.81
380.155	102.81
380.38	98.81
380.606	109.81
380.831	98.81
381.057	82.81
381.282	102.81
381.507	98.81
381.733	88.81
381.958	93.81
382.184	101.81
382.409	111.81
382.634	109.81
382.86	105.81
383.085	93.81
383.31	99.81
383.535	108.81
383.761	96.81
383.986	99.81
384.211	96.81
384.436	97.81
384.662	87.81
384.887	107.81
385.112	104.81
385.337	106.81
385.562	119.81
385.787	113.81
386.013	125.81
386.238	150.81
386.463	131.81
386.688	122.81
386.913	117.81
387.138	117.81
387.363	107.81
387.588	85.81
387.813	97.81
388.038	102.81
388.263	110.81
388.488	118.81
388.713	97.81
388.938	94.81
389.163	103.81
389.387	93.81
389.612	95.81
389.837	94.81
390.062	78.81
390.287	95.81
390.512	80.81
390.736	90.81
390.961	95.81
391.186	94.81
391.411	88.81
391.636	97.81
391.86	88.81
392.085	86.81
392.31	90.81
392.534	82.81
392.759	89.81
392.984	77.81
393.208	99.81
393.433	103.81
393.658	92.81
393.882	97.81
394.107	87.81
394.331	79.81
394.556	90.81
394.78	99.81
395.005	82.81
395.229	89.81
395.454	82.81
395.678	91.81
395.903	97.81
396.127	88.81
396.352	88.81
396.576	93.81
396.801	91.81
397.025	90.81
397.249	87.81
397.474	89.81
397.698	93.81
397.922	85.81
398.147	97.81
398.371	82.81
398.595	92.81
398.82	87.81
399.044	91.81
399.268	80.81
399.492	85.81
399.717	99.81
399.941	120.81
400.165	98.81
400.389	90.81
400.613	84.81
400.837	105.81
401.062	94.81
401.286	86.81
401.51	114.81
401.734	118.81
401.958	129.81
402.182	176.81
402.406	253.81
402.63	182.81
402.854	112.81
403.078	99.81
403.302	99.81
403.526	107.81
403.75	89.81
403.974	82.81
404.198	85.81
404.422	99.81
404.645	96.81
404.869	117.81
405.093	114.81
405.317	162.81
405.541	161.81
405.765	147.81
405.988	158.81
406.212	298.81
406.436	434.81
406.66	266.81
406.883	159.81
407.107	125.81
407.331	127.81
407.555	134.81
407.778	107.81
408.002	101.81
408.226	106.81
408.449	83.81
408.673	110.81
408.896	118.81
409.12	92.81
409.344	103.81
409.567	100.81
409.791	107.81
410.014	101.81
410.238	89.81
410.461	95.81
410.685	96.81
410.908	105.81
411.132	111.81
411.355	102.81
411.578	92.81
411.802	96.81
412.025	83.81
412.249	114.81
412.472	138.81
412.695	131.81
412.919	141.81
413.142	101.81
413.365	94.81
413.589	97.81
413.812	103.81
414.035	97.81
414.258	92.81
414.482	92.81
414.705	82.81
414.928	101.81
415.151	80.81
415.374	86.81
415.597	91.81
415.821	87.81
416.044	93.81
416.267	93.81
416.49	100.81
416.713	94.81
416.936	104.81
417.159	96.81
417.382	107.81
417.605	116.81
417.828	121.81
418.051	106.81
418.274	109.81
418.497	94.81
418.72	93.81
418.943	82.81
419.166	108.81
419.389	87.81
419.611	82.81
419.834	97.81
420.057	92.81
420.28	106.81
420.503	104.81
420.726	105.81
420.948	96.81
421.171	121.81
421.394	101.81
421.617	91.81
421.839	89.81
422.062	99.81
422.285	85.81
422.507	104.81
422.73	119.81
422.953	96.81
423.175	94.81
423.398	105.81
423.621	90.81
423.843	98.81
424.066	92.81
424.288	107.81
424.511	105.81
424.733	109.81
424.956	136.81
425.178	122.81
425.401	128.81
425.623	97.81
425.846	118.81
426.068	120.81
426.291	96.81
426.513	98.81
426.735	106.81
426.958	116.81
427.18	136.81
427.402	221.81
427.625	339.81
427.847	277.81
428.069	241.81
428.292	138.81
428.514	115.81
428.736	98.81
428.958	88.81
429.181	81.81
429.403	103.81
429.625	99.81
429.847	116.81
430.069	125.81
430.292	112.81
430.514	103.81
430.736	79.81
430.958	89.81
431.18	87.81
431.402	85.81
431.624	85.81
431.846	88.81
432.068	82.81
432.29	95.81
432.512	98.81
432.734	96.81
432.956	82.81
433.178	89.81
433.4	111.81
433.622	100.81
433.844	97.81
434.066	92.81
434.287	111.81
434.509	112.81
434.731	102.81
434.953	103.81
435.175	94.81
435.397	90.81
435.618	106.81
435.84	113.81
436.062	167.81
436.284	124.81
436.505	91.81
436.727	106.81
436.949	97.81
437.17	79.81
437.392	107.81
437.614	110.81
437.835	156.81
438.057	173.81
438.278	150.81
438.5	137.81
438.721	155.81
438.943	120.81
439.165	96.81
439.386	103.81
439.608	98.81
439.829	128.81
440.05	178.81
440.272	209.81
440.493	118.81
440.715	93.81
440.936	107.81
441.158	88.81
441.379	103.81
441.6	119.81
441.822	107.81
442.043	117.81
442.264	141.81
442.486	125.81
442.707	114.81
442.928	151.81
443.149	231.81
443.371	213.81
443.592	168.81
443.813	150.81
444.034	135.81
444.255	106.81
444.476	96.81
444.698	91.81
444.919	87.81
445.14	149.81
445.361	131.81
445.582	159.81
445.803	209.81
446.024	223.81
446.245	201.81
446.466	151.81
446.687	97.81
446.908	95.81
447.129	83.81
447.35	91.81
447.571	104.81
447.792	105.81
448.013	127.81
448.234	148.81
448.455	116.81
448.675	153.81
448.896	153.81
449.117	121.81
449.338	123.81
449.559	162.81
449.779	170.81
450	113.81
450.221	98.81
450.442	96.81
450.662	116.81
450.883	163.81
451.104	183.81
451.324	124.81
451.545	123.81
451.766	85.81
451.986	89.81
452.207	103.81
452.428	101.81
452.648	113.81
452.869	142.81
453.089	161.81
453.31	170.81
453.53	121.81
453.751	111.81
453.971	148.81
454.192	182.81
454.412	110.81
454.633	99.81
454.853	90.81
455.073	93.81
455.294	95.81
455.514	137.81
455.734	105.81
455.955	85.81
456.175	83.81
456.395	80.81
456.616	79.81
456.836	95.81
457.056	89.81
457.276	79.81
457.497	95.81
457.717	100.81
457.937	90.81
458.157	91.81
458.377	103.81
458.598	153.81
458.818	277.81
459.038	337.81
459.258	205.81
459.478	121.81
459.698	117.81
459.918	88.81
460.138	77.81
460.358	90.81
460.578	93.81
460.798	101.81
461.018	105.81
461.238	81.81
461.458	94.81
461.678	93.81
461.898	85.81
462.118	89.81
462.338	100.81
462.558	81.81
462.777	80.81
462.997	102.81
463.217	106.81
463.437	104.81
463.657	113.81
463.876	105.81
464.096	94.81
464.316	117.81
464.536	117.81
464.755	118.81
464.975	162.81
465.195	339.81
465.414	320.81
465.634	121.81
465.854	102.81
466.073	75.81
466.293	95.81
466.512	85.81
466.732	99.81
466.951	99.81
467.171	123.81
467.391	130.81
467.61	190.81
467.829	266.81
468.049	756.81
468.268	1163.81
468.488	283.81
468.707	133.81
468.927	108.81
469.146	105.81
469.365	93.81
469.585	107.81
469.804	116.81
470.023	127.81
470.243	117.81
470.462	140.81
470.681	172.81
470.901	130.81
471.12	107.81
471.339	104.81
471.558	134.81
471.777	173.81
471.997	372.81
472.216	1508.81
472.435	3483.81
472.654	769.81
472.873	189.81
473.092	121.81
473.311	121.81
473.53	96.81
473.749	97.81
473.968	102.81
474.187	137.81
474.406	109.81
474.625	99.81
474.844	87.81
475.063	87.81
475.282	94.81
475.501	95.81
475.72	90.81
475.939	106.81
476.158	99.81
476.377	97.81
476.596	96.81
476.814	104.81
477.033	108.81
477.252	103.81
477.471	98.81
477.69	111.81
477.908	107.81
478.127	104.81
478.346	98.81
478.564	112.81
478.783	124.81
479.002	111.81
479.22	119.81
479.439	151.81
479.658	165.81
479.876	136.81
480.095	138.81
480.313	178.81
480.532	199.81
480.751	362.81
480.969	1369.81
481.188	6028.81
481.406	3359.81
481.624	471.81
481.843	171.81
482.061	135.81
482.28	106.81
482.498	108.81
482.717	92.81
482.935	108.81
483.153	108.81
483.372	99.81
483.59	92.81
483.808	101.81
484.027	93.81
484.245	91.81
484.463	105.81
484.681	100.81
484.9	105.81
485.118	109.81
485.336	114.81
485.554	116.81
485.772	105.81
485.99	108.81
486.209	114.81
486.427	124.81
486.645	127.81
486.863	158.81
487.081	120.81
487.299	105.81
487.517	111.81
487.735	96.81
487.953	99.81
488.171	97.81
488.389	103.81
488.607	101.81
488.825	86.81
489.043	100.81
489.261	93.81
489.479	95.81
489.696	90.81
489.914	99.81
490.132	81.81
490.35	78.81
490.568	83.81
490.786	85.81
491.003	96.81
491.221	93.81
491.439	90.81
491.657	106.81
491.874	107.81
492.092	104.81
492.31	102.81
492.527	113.81
492.745	88.81
492.963	95.81
493.18	108.81
493.398	95.81
493.615	94.81
493.833	94.81
494.05	82.81
494.268	98.81
494.485	92.81
494.703	105.81
494.92	96.81
495.138	97.81
495.355	84.81
495.573	90.81
495.79	88.81
496.008	96.81
496.225	88.81
496.442	105.81
496.66	91.81
496.877	93.81
497.094	88.81
497.312	86.81
497.529	93.81
497.746	102.81
497.963	93.81
498.181	103.81
498.398	106.81
498.615	127.81
498.832	112.81
499.049	98.81
499.267	85.81
499.484	96.81
499.701	87.81
499.918	98.81
500.135	104.81
500.352	99.81
500.569	73.81
500.786	105.81
501.003	92.81
501.22	101.81
501.437	89.81
501.654	129.81
501.871	143.81
502.088	97.81
502.305	89.81
502.522	89.81
502.739	86.81
502.956	95.81
503.172	112.81
503.389	105.81
503.606	145.81
503.823	127.81
504.04	92.81
504.256	110.81
504.473	92.81
504.69	94.81
504.907	107.81
505.123	93.81
505.34	101.81
505.557	101.81
505.773	92.81
505.99	92.81
506.207	96.81
506.423	96.81
506.64	104.81
506.856	97.81
507.073	116.81
507.289	101.81
507.506	113.81
507.722	172.81
507.939	153.81
508.155	112.81
508.372	119.81
508.588	97.81
508.805	99.81
509.021	116.81
509.238	102.81
509.454	116.81
509.67	122.81
509.887	119.81
510.103	169.81
510.319	318.81
510.536	1316.81
510.752	4840.81
