Data from Circ_1999_H10_HRD10591_00029.txt Node
Date: Wed Jan 03 11:23:18 EST 2024
User: Yrep
Spectrometer: HR+D1059
Trigger mode: 1
Integration Time (sec): 1.000000E-1
Scans to average: 1
Electric dark correction enabled: true
Nonlinearity correction enabled: false
Boxcar width: 0
XAxis mode: Wavelengths
Number of Pixels in Spectrum: 2048
>>>>>Begin Spectral Data<<<<<
223.165	-20
223.4	-20
223.635	-20
223.869	-24
224.104	-21
224.338	-12
224.573	-13
224.808	-8
225.042	-6
225.277	-8
225.511	2
225.746	4
225.98	4
226.215	13
226.449	19
226.683	16
226.918	6
227.152	48
227.387	34
227.621	47
227.856	52
228.09	44
228.324	57
228.559	50
228.793	188
229.027	497
229.262	588
229.496	684
229.73	956
229.964	959
230.199	616
230.433	539
230.667	534
230.901	532
231.136	519
231.37	497
231.604	506
231.838	494
232.072	495
232.306	519
232.541	523
232.775	513
233.009	513
233.243	540
233.477	542
233.711	552
233.945	569
234.179	558
234.413	549
234.647	563
234.881	563
235.115	575
235.349	603
235.583	623
235.817	669
236.051	716
236.285	687
236.519	708
236.753	776
236.987	1030
237.221	1587
237.455	1723
237.689	1017
237.922	812
238.156	767
238.39	770
238.624	740
238.858	717
239.091	720
239.325	750
239.559	763
239.793	784
240.027	890
240.26	1026
240.494	1123
240.728	1043
240.961	970
241.195	914
241.429	866
241.662	871
241.896	876
242.13	872
242.363	860
242.597	907
242.83	955
243.064	943
243.298	925
243.531	932
243.765	950
243.998	967
244.232	986
244.465	1020
244.699	1036
244.932	1020
245.166	1025
245.399	999
245.633	1024
245.866	1070
246.099	1051
246.333	1091
246.566	1102
246.8	1126
247.033	1167
247.266	1206
247.5	1249
247.733	1302
247.966	1317
248.2	1324
248.433	1357
248.666	1417
248.899	1606
249.133	1687
249.366	1732
249.599	1708
249.832	1666
250.066	1912
250.299	2566
250.532	3378
250.765	3182
250.998	2626
251.231	2120
251.465	1894
251.698	1743
251.931	1690
252.164	1663
252.397	1662
252.63	1706
252.863	1799
253.096	1979
253.329	1998
253.562	1867
253.795	1822
254.028	1817
254.261	1953
254.494	2157
254.727	2553
254.96	2646
255.193	2426
255.426	2527
255.659	3139
255.892	4721
256.124	6081
256.357	4838
256.59	3327
256.823	2731
257.056	2401
257.289	2251
257.521	2210
257.754	2032
257.987	1957
258.22	1976
258.452	1949
258.685	1922
258.918	1921
259.151	1978
259.383	2017
259.616	2010
259.849	2067
260.081	2263
260.314	2458
260.547	2294
260.779	2090
261.012	2067
261.244	2039
261.477	2002
261.71	2031
261.942	2147
262.175	2175
262.407	2040
262.64	1948
262.872	1937
263.105	1911
263.337	1898
263.57	1959
263.802	1962
264.035	1959
264.267	1931
264.499	1970
264.732	1971
264.964	1960
265.197	1971
265.429	1988
265.661	1944
265.894	1984
266.126	2040
266.358	2058
266.591	2094
266.823	2125
267.055	2136
267.287	2121
267.52	2154
267.752	2127
267.984	2143
268.216	2163
268.448	2218
268.681	2290
268.913	2428
269.145	2638
269.377	2650
269.609	2480
269.841	2520
270.073	2660
270.306	3048
270.538	3125
270.77	2889
271.002	2764
271.234	2737
271.466	2926
271.698	3100
271.93	3033
272.162	3098
272.394	2985
272.626	2782
272.858	2690
273.09	2633
273.322	2632
273.553	2598
273.785	2538
274.017	2563
274.249	2659
274.481	2712
274.713	2746
274.945	2767
275.176	2836
275.408	2790
275.64	2902
275.872	2968
276.104	2945
276.335	2979
276.567	3147
276.799	3530
277.031	3959
277.262	4182
277.494	3834
277.726	3396
277.957	3279
278.189	3130
278.421	3036
278.652	2991
278.884	2975
279.115	2969
279.347	3012
279.579	3139
279.81	3295
280.042	3610
280.273	3947
280.505	3750
280.736	3374
280.968	3152
281.199	3110
281.431	3089
281.662	3042
281.894	3014
282.125	3115
282.356	3310
282.588	3478
282.819	3252
283.051	3088
283.282	2968
283.513	3003
283.745	3076
283.976	3098
284.207	3100
284.439	3047
284.67	3039
284.901	3023
285.132	3035
285.364	3005
285.595	3055
285.826	3027
286.057	3076
286.288	3080
286.52	3094
286.751	3071
286.982	3129
287.213	3129
287.444	3121
287.675	3322
287.906	3344
288.138	3368
288.369	3338
288.6	3339
288.831	3304
289.062	3266
289.293	3243
289.524	3211
289.755	3230
289.986	3201
290.217	3167
290.448	3153
290.679	3183
290.91	3188
291.141	3173
291.371	3201
291.602	3155
291.833	3160
292.064	3149
292.295	3155
292.526	3171
292.757	3173
292.987	3192
293.218	3098
293.449	3188
293.68	3153
293.91	3191
294.141	3137
294.372	3197
294.603	3147
294.833	3199
295.064	3198
295.295	3230
295.525	3245
295.756	3343
295.987	3411
296.217	3697
296.448	3568
296.679	3302
296.909	3233
297.14	3300
297.37	3341
297.601	3362
297.831	3384
298.062	3425
298.292	3494
298.523	3489
298.753	3516
298.984	3443
299.214	3421
299.445	3405
299.675	3492
299.905	3563
300.136	3522
300.366	3536
300.597	3526
300.827	3628
301.057	3752
301.288	3790
301.518	3748
301.748	3789
301.979	3836
302.209	3868
302.439	3835
302.669	3752
302.9	3728
303.13	3706
303.36	3879
303.59	3961
303.82	4080
304.051	3970
304.281	3757
304.511	3700
304.741	3687
304.971	3646
305.201	3602
305.431	3648
305.661	3646
305.891	3691
306.121	3673
306.352	3775
306.582	3802
306.812	3779
307.042	3889
307.272	4108
307.502	4290
307.731	4135
307.961	3894
308.191	3837
308.421	3720
308.651	3822
308.881	3753
309.111	3776
309.341	3841
309.571	3967
309.8	4076
310.03	4196
310.26	4230
310.49	4222
310.72	4451
310.949	4543
311.179	4460
311.409	4222
311.639	4227
311.868	4283
312.098	4321
312.328	4463
312.557	4618
312.787	4834
313.017	4533
313.246	4333
313.476	4204
313.706	4311
313.935	4477
314.165	4698
314.394	4625
314.624	4562
314.853	4422
315.083	4315
315.312	4194
315.542	4157
315.771	4215
316.001	4186
316.23	4145
316.46	4195
316.689	4232
316.919	4356
317.148	4419
317.377	4399
317.607	4430
317.836	4245
318.065	4194
318.295	4196
318.524	4249
318.753	4227
318.983	4250
319.212	4353
319.441	4298
319.67	4449
319.9	4278
320.129	4308
320.358	4272
320.587	4330
320.816	4467
321.046	4540
321.275	4471
321.504	4483
321.733	4502
321.962	4650
322.191	4841
322.42	5047
322.649	5181
322.878	5291
323.108	5435
323.337	5806
323.566	6119
323.795	6650
324.024	7622
324.253	10342
324.482	14605
324.71	15620
324.939	15620
325.168	15411
325.397	8644
325.626	6858
325.855	6391
326.084	6162
326.313	6272
326.542	6646
326.77	7860
326.999	10182
327.228	14282
327.457	15620
327.686	15620
327.914	13426
328.143	12398
328.372	13093
328.6	10455
328.829	8878
329.058	9139
329.287	9335
329.515	9273
329.744	10673
329.972	13695
330.201	15620
330.43	15620
330.658	14719
330.887	11097
331.115	9040
331.344	7722
331.572	7437
331.801	7512
332.03	7297
332.258	7039
332.486	7080
332.715	7323
332.943	7698
333.172	8128
333.4	8769
333.629	9823
333.857	11802
334.085	14438
334.314	15620
334.542	15620
334.771	15620
334.999	14094
335.227	9934
335.455	8445
335.684	7656
335.912	6999
336.14	6747
336.369	6580
336.597	6627
336.825	6376
337.053	6128
337.281	5900
337.51	5891
337.738	5724
337.966	5697
338.194	5694
338.422	5598
338.65	5416
338.878	5302
339.106	5263
339.334	5236
339.562	5174
339.79	5166
340.018	5193
340.246	5128
340.474	5230
340.702	5084
340.93	5049
341.158	5086
341.386	5065
341.614	5182
341.842	5027
342.07	4993
342.298	4963
342.526	4915
342.754	4882
342.981	4792
343.209	4910
343.437	5090
343.665	5359
343.893	5635
344.12	5623
344.348	5377
344.576	5339
344.804	5297
345.031	5329
345.259	5331
345.487	5090
345.714	4958
345.942	4831
346.17	4795
346.397	4799
346.625	4802
346.853	4812
347.08	4751
347.308	4830
347.535	4957
347.763	5096
347.99	4960
348.218	5024
348.445	5083
348.673	4899
348.9	4740
349.128	4651
349.355	4546
349.583	4564
349.81	4563
350.037	4589
350.265	4533
350.492	4577
350.72	4625
350.947	4630
351.174	4866
351.402	4895
351.629	4806
351.856	4882
352.083	4966
352.311	5012
352.538	5004
352.765	4922
352.992	4819
353.22	4762
353.447	4679
353.674	4536
353.901	4490
354.128	4486
354.355	4473
354.583	4496
354.81	4371
355.037	4418
355.264	4371
355.491	4382
355.718	4320
355.945	4396
356.172	4411
356.399	4361
356.626	4397
356.853	4388
357.08	4356
357.307	4339
357.534	4320
357.761	4418
357.988	4420
358.215	4354
358.441	4432
358.668	4452
358.895	4524
359.122	4563
359.349	4670
359.576	4881
359.802	5266
360.029	5622
360.256	5546
360.483	5128
360.709	4812
360.936	4742
361.163	4746
361.39	4854
361.616	4850
361.843	4747
362.07	4773
362.296	4831
362.523	4696
362.749	4778
362.976	4729
363.203	4616
363.429	4591
363.656	4554
363.882	4523
364.109	4477
364.335	4448
364.562	4558
364.788	4552
365.015	4510
365.241	4557
365.468	4619
365.694	4624
365.92	4598
366.147	4569
366.373	4484
366.599	4530
366.826	4447
367.052	4422
367.278	4517
367.505	4528
367.731	4560
367.957	4541
368.184	4565
368.41	4695
368.636	4766
368.862	4750
369.089	4638
369.315	4560
369.541	4544
369.767	4636
369.993	4615
370.219	4623
370.445	4661
370.672	4585
370.898	4639
371.124	4688
371.35	4732
371.576	4586
371.802	4682
372.028	4627
372.254	4684
372.48	4762
372.706	4736
372.932	4760
373.158	4731
373.384	4744
373.61	4764
373.835	4758
374.061	4682
374.287	4803
374.513	4896
374.739	4942
374.965	5007
375.191	5066
375.416	5011
375.642	4870
375.868	4826
376.094	4788
376.319	4729
376.545	4753
376.771	4736
376.997	4678
377.222	4678
377.448	4648
377.674	4671
377.899	4668
378.125	4580
378.35	4558
378.576	4588
378.802	4560
379.027	4578
379.253	4523
379.478	4540
379.704	4586
379.929	4641
380.155	4665
380.38	4629
380.606	4686
380.831	4665
381.057	4655
381.282	4721
381.507	4717
381.733	4682
381.958	4753
382.184	4842
382.409	4822
382.634	4908
382.86	4874
383.085	4900
383.31	4946
383.535	5038
383.761	5084
383.986	5120
384.211	5262
384.436	5358
384.662	5270
384.887	5432
385.112	5441
385.337	5508
385.562	5555
385.787	5570
386.013	5675
386.238	5735
386.463	5612
386.688	5591
386.913	5498
387.138	5470
387.363	5461
387.588	5386
387.813	5392
388.038	5421
388.263	5480
388.488	5504
388.713	5464
388.938	5446
389.163	5471
389.387	5381
389.612	5265
389.837	5347
390.062	5291
390.287	5328
390.512	5385
390.736	5450
390.961	5555
391.186	5623
391.411	5767
391.636	5935
391.86	6013
392.085	6028
392.31	5940
392.534	5851
392.759	5709
392.984	5698
393.208	5640
393.433	5664
393.658	5588
393.882	5596
394.107	5624
394.331	5747
394.556	5664
394.78	5759
395.005	5849
395.229	5927
395.454	6059
395.678	6120
395.903	6179
396.127	6213
396.352	6035
396.576	5792
396.801	5826
397.025	5907
397.249	5930
397.474	6094
397.698	6240
397.922	6339
398.147	6452
398.371	6519
398.595	6642
398.82	6886
399.044	7462
399.268	8090
399.492	9139
399.717	9699
399.941	9518
400.165	9074
400.389	8356
400.613	7588
400.837	7181
401.062	7086
401.286	6918
401.51	6847
401.734	6903
401.958	6978
402.182	7149
402.406	7295
402.63	7384
402.854	7406
403.078	7435
403.302	7574
403.526	7726
403.75	7694
403.974	7860
404.198	7860
404.422	8202
404.645	8241
404.869	8726
405.093	9376
405.317	10001
405.541	9944
405.765	8784
405.988	8283
406.212	8283
406.436	8444
406.66	8539
406.883	8321
407.107	8948
407.331	9347
407.555	9831
407.778	9449
408.002	8694
408.226	8266
408.449	8194
408.673	8134
408.896	8322
409.12	8490
409.344	7896
409.567	7640
409.791	7508
410.014	7446
410.238	7454
410.461	7423
410.685	7522
410.908	7622
411.132	7996
411.355	8012
411.578	7508
411.802	7457
412.025	7738
412.249	8405
412.472	9219
412.695	10006
412.919	9049
413.142	8484
413.365	7922
413.589	7546
413.812	7241
414.035	7113
414.258	7186
414.482	7127
414.705	7081
414.928	6904
415.151	6939
415.374	6838
415.597	6858
415.821	6609
416.044	6889
416.267	6857
416.49	6679
416.713	6664
416.936	6777
417.159	6842
417.382	7088
417.605	7273
417.828	7495
418.051	7324
418.274	6918
418.497	6906
418.72	7003
418.943	6923
419.166	7319
419.389	7849
419.611	7878
419.834	7976
420.057	8194
420.28	8701
420.503	8389
420.726	7924
420.948	7859
421.171	8029
421.394	7790
421.617	7144
421.839	6977
422.062	7057
422.285	7371
422.507	8010
422.73	8590
422.953	7774
423.175	7400
423.398	7344
423.621	7406
423.843	7644
424.066	7558
424.288	7490
424.511	7673
424.733	8231
424.956	8964
425.178	8308
425.401	8439
425.623	8323
425.846	7193
426.068	7169
426.291	7039
426.513	7047
426.735	7240
426.958	7817
427.18	8771
427.402	10410
427.625	11205
427.847	10714
428.069	10252
428.292	8276
428.514	7016
428.736	6700
428.958	6600
429.181	6358
429.403	6368
429.625	6581
429.847	6897
430.069	7529
430.292	6959
430.514	6310
430.736	6241
430.958	6116
431.18	6082
431.402	5986
431.624	5976
431.846	6055
432.068	6102
432.29	6169
432.512	6156
432.734	6199
432.956	6119
433.178	6290
433.4	6342
433.622	6136
433.844	6073
434.066	6130
434.287	6205
434.509	6347
434.731	6662
434.953	6760
435.175	6901
435.397	7029
435.618	7020
435.84	7631
436.062	8614
436.284	8514
436.505	7017
436.727	6671
436.949	6282
437.17	6180
437.392	6136
437.614	6443
437.835	7014
438.057	8180
438.278	8918
438.5	8654
438.721	9666
438.943	8207
439.165	6856
439.386	6750
439.608	6773
439.829	6962
440.05	7631
440.272	8020
440.493	7100
440.715	6624
440.936	6499
441.158	6523
441.379	6605
441.6	6979
441.822	7308
442.043	7806
442.264	8842
442.486	8372
442.707	7286
442.928	7210
443.149	7559
443.371	7782
443.592	8343
443.813	9492
444.034	9270
444.255	7812
444.476	7536
444.698	7826
444.919	7844
445.14	7807
445.361	7784
445.582	8224
445.803	9268
446.024	10093
446.245	9455
446.466	8210
446.687	6914
446.908	6563
447.129	6190
447.35	6050
447.571	5988
447.792	5982
448.013	6110
448.234	6284
448.455	7148
448.675	8541
448.896	9085
449.117	7250
449.338	7519
449.559	9314
449.779	9395
450	6952
450.221	6212
450.442	5859
450.662	5972
450.883	6267
451.104	6512
451.324	6170
451.545	5840
451.766	5585
451.986	5462
452.207	5392
452.428	5458
452.648	5546
452.869	5498
453.089	5657
453.31	5755
453.53	5507
453.751	5425
453.971	5626
454.192	5814
454.412	5513
454.633	5378
454.853	5334
455.073	5356
455.294	5849
455.514	6638
455.734	5813
455.955	5224
456.175	5126
456.395	5074
456.616	4963
456.836	4998
457.056	5006
457.276	4864
457.497	5220
457.717	5166
457.937	5217
458.157	5336
458.377	5426
458.598	6008
458.818	7130
459.038	8031
459.258	7577
459.478	6476
459.698	6269
459.918	6247
460.138	6422
460.358	6588
460.578	6684
460.798	6701
461.018	6684
461.238	6590
461.458	6514
461.678	6450
461.898	6650
462.118	6640
462.338	7034
462.558	7131
462.777	7407
462.997	7919
463.217	8334
463.437	8142
463.657	7603
463.876	7460
464.096	7498
464.316	7588
464.536	7684
464.755	7394
464.975	7504
465.195	8304
465.414	8587
465.634	7188
465.854	6559
466.073	6252
466.293	6036
466.512	5868
466.732	5815
466.951	5771
467.171	5814
467.391	6024
467.61	6334
467.829	6778
468.049	8674
468.268	10636
468.488	7791
468.707	6623
468.927	6172
469.146	6033
469.365	5953
469.585	5945
469.804	6132
470.023	6281
470.243	6240
470.462	6395
470.681	6674
470.901	6479
471.12	6270
471.339	6329
471.558	6434
471.777	6628
471.997	7739
472.216	12237
472.435	15620
472.654	13808
472.873	9142
473.092	7756
473.311	7091
473.53	6773
473.749	6714
473.968	7175
474.187	8346
474.406	7526
474.625	6368
474.844	5967
475.063	5908
475.282	5833
475.501	5931
475.72	5969
475.939	5945
476.158	6021
476.377	5955
476.596	6023
476.814	6227
477.033	6179
477.252	6205
477.471	6330
477.69	6421
477.908	6458
478.127	6637
478.346	6714
478.564	6839
478.783	6960
479.002	7164
479.22	7225
479.439	7393
479.658	7736
479.876	7864
480.095	8190
480.313	8842
480.532	9050
480.751	10175
480.969	13933
481.188	15620
481.406	15620
481.624	15130
481.843	11886
482.061	10126
482.28	9242
482.498	8621
482.717	8200
482.935	7916
483.153	7625
483.372	7553
483.59	7357
483.808	7311
484.027	7297
484.245	7257
484.463	7235
484.681	7271
484.9	7305
485.118	7303
485.336	7323
485.554	7316
485.772	7421
485.99	7438
486.209	7466
486.427	7502
486.645	7615
486.863	7848
487.081	7598
487.299	7507
487.517	7483
487.735	7476
487.953	7498
488.171	7520
488.389	7520
488.607	7534
488.825	7638
489.043	7657
489.261	7743
489.479	7718
489.696	7932
489.914	8094
490.132	8194
490.35	8482
490.568	8618
490.786	9007
491.003	9306
491.221	9982
491.439	10650
491.657	10714
491.874	10716
492.092	10840
492.31	11050
492.527	11488
492.745	11886
492.963	11645
493.18	11319
493.398	11055
493.615	10995
493.833	10603
494.05	10447
494.268	10152
494.485	9945
494.703	9847
494.92	9723
495.138	9559
495.355	9407
495.573	9408
495.79	9365
496.008	9175
496.225	8989
496.442	9118
496.66	9078
496.877	9080
497.094	9133
497.312	9320
497.529	9266
497.746	9497
497.963	9661
498.181	10018
498.398	10205
498.615	10668
498.832	10968
499.049	11402
499.267	11894
499.484	12564
499.701	13200
499.918	13807
500.135	14530
500.352	15077
500.569	15428
500.786	15492
501.003	14978
501.22	14311
501.437	13758
501.654	13006
501.871	12500
502.088	11603
502.305	11059
502.522	10480
502.739	9991
502.956	9664
503.172	9332
503.389	9074
503.606	9105
503.823	8939
504.04	8867
504.256	8799
504.473	8983
504.69	8941
504.907	8685
505.123	8328
505.34	8150
505.557	8004
505.773	7857
505.99	7832
506.207	7784
506.423	7622
506.64	7578
506.856	7390
507.073	7384
507.289	7358
507.506	7303
507.722	7570
507.939	7742
508.155	7267
508.372	7212
508.588	7015
508.805	7071
509.021	7106
509.238	7422
509.454	7211
509.67	7044
509.887	6988
510.103	6986
510.319	7189
510.536	9263
510.752	14164
510.968	9214
511.184	7177
511.401	7272
511.617	7742
511.833	8742
512.049	8699
512.265	7956
512.481	7456
512.698	7142
512.914	6943
513.13	6886
513.346	6860
513.562	6867
513.778	6804
513.994	6918
514.21	7199
514.426	7503
514.642	8010
514.858	8281
515.074	8884
515.29	11398
515.506	14623
515.721	10641
515.937	8290
516.153	7946
516.369	7600
516.585	7421
516.801	7572
517.016	7621
517.232	7841
517.448	8031
517.664	8156
517.879	8127
518.095	8126
518.311	7974
518.527	7771
518.742	7523
518.958	7300
519.173	7173
519.389	7089
519.605	7034
519.82	6912
520.036	7110
520.251	7544
520.467	7678
520.682	7464
520.898	7464
521.113	7903
521.329	8591
521.544	9850
521.76	13172
521.975	15620
522.19	15238
522.406	9265
522.621	7527
522.836	6896
523.052	6475
523.267	6188
523.482	6086
523.698	6088
523.913	6033
524.128	5943
524.343	5724
524.559	5723
524.774	5553
524.989	5615
525.204	5757
525.419	5669
525.634	5528
525.849	5462
526.064	5406
526.28	5386
526.495	5281
526.71	5337
526.925	5241
527.14	5239
527.355	5218
527.57	5251
527.785	5223
527.999	5194
528.214	5203
528.429	5231
528.644	5262
528.859	5242
529.074	5300
529.289	5746
529.503	6939
529.718	6186
529.933	5640
530.148	5388
530.363	5333
530.577	5239
530.792	5173
531.007	5150
531.221	5227
531.436	5185
531.651	5143
531.865	5063
532.08	5089
532.295	5118
532.509	5049
532.724	5054
532.938	5089
533.153	5052
533.367	5072
533.582	5038
533.796	4995
534.011	5018
534.225	4996
534.44	4858
534.654	4918
534.868	4922
535.083	4899
535.297	4904
535.511	4982
535.726	5084
535.94	5050
536.154	4942
536.369	4887
536.583	4790
536.797	4812
537.011	4737
537.225	4704
537.44	4722
537.654	4702
537.868	4634
538.082	4709
538.296	4711
538.51	4651
538.724	4754
538.938	4665
539.153	4686
539.367	4875
539.581	4806
539.795	4650
540.009	4617
540.222	4612
540.436	4610
540.65	4695
540.864	4738
541.078	4822
