Data from Circ_1999_H10_HRD10591_00020.txt Node
Date: Wed Jan 03 11:23:16 EST 2024
User: Yrep
Spectrometer: HR+D1059
Trigger mode: 1
Integration Time (sec): 1.000000E-1
Scans to average: 1
Electric dark correction enabled: true
Nonlinearity correction enabled: false
Boxcar width: 0
XAxis mode: Wavelengths
Number of Pixels in Spectrum: 2048
>>>>>Begin Spectral Data<<<<<
223.165	-8.94
223.4	-8.94
223.635	-8.94
223.869	-26.94
224.104	-19.94
224.338	-7.94
224.573	-2.94
224.808	-16.94
225.042	-17.94
225.277	-4.94
225.511	-0.94
225.746	-7.94
225.98	8.06
226.215	13.06
226.449	12.06
226.683	15.06
226.918	36.06
227.152	31.06
227.387	22.06
227.621	29.06
227.856	36.06
228.09	53.06
228.324	52.06
228.559	39.06
228.793	51.06
229.027	65.06
229.262	64.06
229.496	84.06
229.73	103.06
229.964	93.06
230.199	88.06
230.433	81.06
230.667	73.06
230.901	87.06
231.136	86.06
231.37	77.06
231.604	84.06
231.838	83.06
232.072	71.06
232.306	78.06
232.541	71.06
232.775	86.06
233.009	75.06
233.243	76.06
233.477	83.06
233.711	83.06
233.945	84.06
234.179	67.06
234.413	87.06
234.647	83.06
234.881	77.06
235.115	75.06
235.349	70.06
235.583	65.06
235.817	75.06
236.051	72.06
236.285	81.06
236.519	88.06
236.753	77.06
236.987	82.06
237.221	83.06
237.455	87.06
237.689	76.06
237.922	75.06
238.156	67.06
238.39	67.06
238.624	67.06
238.858	93.06
239.091	73.06
239.325	77.06
239.559	76.06
239.793	83.06
240.027	79.06
240.26	87.06
240.494	94.06
240.728	72.06
240.961	67.06
241.195	76.06
241.429	63.06
241.662	74.06
241.896	64.06
242.13	69.06
242.363	75.06
242.597	85.06
242.83	65.06
243.064	69.06
243.298	85.06
243.531	80.06
243.765	82.06
243.998	85.06
244.232	81.06
244.465	88.06
244.699	89.06
244.932	71.06
245.166	80.06
245.399	92.06
245.633	76.06
245.866	73.06
246.099	79.06
246.333	85.06
246.566	84.06
246.8	63.06
247.033	73.06
247.266	85.06
247.5	81.06
247.733	79.06
247.966	98.06
248.2	101.06
248.433	68.06
248.666	90.06
248.899	80.06
249.133	95.06
249.366	101.06
249.599	95.06
249.832	85.06
250.066	77.06
250.299	84.06
250.532	79.06
250.765	87.06
250.998	100.06
251.231	78.06
251.465	68.06
251.698	81.06
251.931	85.06
252.164	77.06
252.397	75.06
252.63	78.06
252.863	95.06
253.096	80.06
253.329	90.06
253.562	87.06
253.795	64.06
254.028	73.06
254.261	82.06
254.494	84.06
254.727	85.06
254.96	93.06
255.193	88.06
255.426	94.06
255.659	86.06
255.892	98.06
256.124	80.06
256.357	80.06
256.59	84.06
256.823	85.06
257.056	84.06
257.289	87.06
257.521	69.06
257.754	84.06
257.987	84.06
258.22	109.06
258.452	85.06
258.685	101.06
258.918	73.06
259.151	87.06
259.383	91.06
259.616	104.06
259.849	69.06
260.081	87.06
260.314	87.06
260.547	86.06
260.779	98.06
261.012	104.06
261.244	111.06
261.477	94.06
261.71	103.06
261.942	143.06
262.175	154.06
262.407	92.06
262.64	82.06
262.872	90.06
263.105	86.06
263.337	84.06
263.57	75.06
263.802	90.06
264.035	81.06
264.267	76.06
264.499	82.06
264.732	97.06
264.964	82.06
265.197	80.06
265.429	74.06
265.661	79.06
265.894	79.06
266.126	80.06
266.358	77.06
266.591	70.06
266.823	81.06
267.055	79.06
267.287	97.06
267.52	87.06
267.752	91.06
267.984	86.06
268.216	90.06
268.448	92.06
268.681	96.06
268.913	87.06
269.145	96.06
269.377	87.06
269.609	80.06
269.841	92.06
270.073	80.06
270.306	91.06
270.538	87.06
270.77	92.06
271.002	93.06
271.234	91.06
271.466	95.06
271.698	80.06
271.93	79.06
272.162	84.06
272.394	96.06
272.626	76.06
272.858	79.06
273.09	82.06
273.322	87.06
273.553	89.06
273.785	88.06
274.017	90.06
274.249	88.06
274.481	79.06
274.713	75.06
274.945	93.06
275.176	92.06
275.408	104.06
275.64	109.06
275.872	112.06
276.104	100.06
276.335	108.06
276.567	120.06
276.799	165.06
277.031	183.06
277.262	165.06
277.494	146.06
277.726	103.06
277.957	87.06
278.189	101.06
278.421	97.06
278.652	86.06
278.884	76.06
279.115	84.06
279.347	96.06
279.579	94.06
279.81	118.06
280.042	198.06
280.273	236.06
280.505	165.06
280.736	107.06
280.968	82.06
281.199	95.06
281.431	74.06
281.662	104.06
281.894	94.06
282.125	108.06
282.356	148.06
282.588	196.06
282.819	133.06
283.051	87.06
283.282	96.06
283.513	83.06
283.745	89.06
283.976	79.06
284.207	93.06
284.439	88.06
284.67	92.06
284.901	89.06
285.132	85.06
285.364	101.06
285.595	95.06
285.826	86.06
286.057	95.06
286.288	80.06
286.52	78.06
286.751	84.06
286.982	93.06
287.213	87.06
287.444	81.06
287.675	96.06
287.906	95.06
288.138	90.06
288.369	99.06
288.6	93.06
288.831	93.06
289.062	95.06
289.293	84.06
289.524	79.06
289.755	92.06
289.986	101.06
290.217	79.06
290.448	93.06
290.679	95.06
290.91	94.06
291.141	89.06
291.371	87.06
291.602	83.06
291.833	89.06
292.064	93.06
292.295	75.06
292.526	83.06
292.757	89.06
292.987	90.06
293.218	81.06
293.449	92.06
293.68	98.06
293.91	87.06
294.141	89.06
294.372	79.06
294.603	84.06
294.833	83.06
295.064	87.06
295.295	97.06
295.525	94.06
295.756	113.06
295.987	144.06
296.217	188.06
296.448	151.06
296.679	96.06
296.909	98.06
297.14	95.06
297.37	82.06
297.601	86.06
297.831	91.06
298.062	78.06
298.292	86.06
298.523	83.06
298.753	95.06
298.984	98.06
299.214	96.06
299.445	95.06
299.675	109.06
299.905	111.06
300.136	104.06
300.366	90.06
300.597	93.06
300.827	93.06
301.057	114.06
301.288	120.06
301.518	98.06
301.748	94.06
301.979	92.06
302.209	90.06
302.439	99.06
302.669	95.06
302.9	97.06
303.13	109.06
303.36	122.06
303.59	136.06
303.82	144.06
304.051	107.06
304.281	91.06
304.511	93.06
304.741	74.06
304.971	83.06
305.201	100.06
305.431	101.06
305.661	79.06
305.891	84.06
306.121	101.06
306.352	117.06
306.582	121.06
306.812	110.06
307.042	125.06
307.272	155.06
307.502	185.06
307.731	173.06
307.961	129.06
308.191	96.06
308.421	75.06
308.651	107.06
308.881	95.06
309.111	94.06
309.341	93.06
309.571	112.06
309.8	106.06
310.03	106.06
310.26	117.06
310.49	107.06
310.72	105.06
310.949	141.06
311.179	104.06
311.409	99.06
311.639	93.06
311.868	107.06
312.098	103.06
312.328	114.06
312.557	125.06
312.787	129.06
313.017	119.06
313.246	86.06
313.476	78.06
313.706	101.06
313.935	89.06
314.165	111.06
314.394	113.06
314.624	114.06
314.853	108.06
315.083	99.06
315.312	100.06
315.542	106.06
315.771	95.06
316.001	93.06
316.23	99.06
316.46	92.06
316.689	112.06
316.919	90.06
317.148	115.06
317.377	112.06
317.607	101.06
317.836	107.06
318.065	98.06
318.295	103.06
318.524	105.06
318.753	105.06
318.983	100.06
319.212	104.06
319.441	125.06
319.67	128.06
319.9	107.06
320.129	103.06
320.358	103.06
320.587	105.06
320.816	99.06
321.046	108.06
321.275	108.06
321.504	96.06
321.733	96.06
321.962	103.06
322.191	115.06
322.42	105.06
322.649	134.06
322.878	124.06
323.108	140.06
323.337	154.06
323.566	162.06
323.795	180.06
324.024	225.06
324.253	467.06
324.482	987.06
324.71	1898.06
324.939	2494.06
325.168	930.06
325.397	285.06
325.626	163.06
325.855	137.06
326.084	142.06
326.313	148.06
326.542	177.06
326.77	254.06
326.999	478.06
327.228	956.06
327.457	1738.06
327.686	1401.06
327.914	529.06
328.143	547.06
328.372	647.06
328.6	377.06
328.829	169.06
329.058	196.06
329.287	220.06
329.515	176.06
329.744	242.06
329.972	486.06
330.201	979.06
330.43	1392.06
330.658	643.06
330.887	310.06
331.115	199.06
331.344	126.06
331.572	124.06
331.801	135.06
332.03	137.06
332.258	116.06
332.486	97.06
332.715	112.06
332.943	91.06
333.172	124.06
333.4	114.06
333.629	164.06
333.857	227.06
334.085	438.06
334.314	903.06
334.542	1742.06
334.771	1600.06
334.999	422.06
335.227	168.06
335.455	124.06
335.684	126.06
335.912	110.06
336.14	108.06
336.369	107.06
336.597	113.06
336.825	110.06
337.053	101.06
337.281	93.06
337.51	101.06
337.738	108.06
337.966	107.06
338.194	109.06
338.422	100.06
338.65	101.06
338.878	85.06
339.106	95.06
339.334	105.06
339.562	115.06
339.79	97.06
340.018	100.06
340.246	105.06
340.474	110.06
340.702	109.06
340.93	99.06
341.158	102.06
341.386	102.06
341.614	107.06
341.842	101.06
342.07	107.06
342.298	93.06
342.526	99.06
342.754	81.06
342.981	71.06
343.209	82.06
343.437	120.06
343.665	90.06
343.893	99.06
344.12	85.06
344.348	85.06
344.576	101.06
344.804	91.06
345.031	121.06
345.259	103.06
345.487	106.06
345.714	118.06
345.942	91.06
346.17	109.06
346.397	85.06
346.625	97.06
346.853	85.06
347.08	93.06
347.308	111.06
347.535	101.06
347.763	134.06
347.99	105.06
348.218	108.06
348.445	110.06
348.673	105.06
348.9	97.06
349.128	98.06
349.355	99.06
349.583	94.06
349.81	93.06
350.037	94.06
350.265	100.06
350.492	96.06
350.72	86.06
350.947	99.06
351.174	115.06
351.402	147.06
351.629	121.06
351.856	110.06
352.083	115.06
352.311	137.06
352.538	135.06
352.765	122.06
352.992	131.06
353.22	123.06
353.447	115.06
353.674	112.06
353.901	97.06
354.128	99.06
354.355	96.06
354.583	99.06
354.81	103.06
355.037	98.06
355.264	100.06
355.491	102.06
355.718	87.06
355.945	90.06
356.172	90.06
356.399	84.06
356.626	96.06
356.853	91.06
357.08	85.06
357.307	85.06
357.534	114.06
357.761	99.06
357.988	92.06
358.215	83.06
358.441	110.06
358.668	99.06
358.895	104.06
359.122	88.06
359.349	96.06
359.576	118.06
359.802	101.06
360.029	159.06
360.256	160.06
360.483	129.06
360.709	86.06
360.936	103.06
361.163	109.06
361.39	105.06
361.616	89.06
361.843	90.06
362.07	86.06
362.296	116.06
362.523	92.06
362.749	107.06
362.976	98.06
363.203	90.06
363.429	90.06
363.656	90.06
363.882	78.06
364.109	85.06
364.335	94.06
364.562	89.06
364.788	93.06
365.015	97.06
365.241	100.06
365.468	128.06
365.694	104.06
365.92	109.06
366.147	97.06
366.373	95.06
366.599	104.06
366.826	103.06
367.052	100.06
367.278	107.06
367.505	92.06
367.731	108.06
367.957	101.06
368.184	104.06
368.41	114.06
368.636	126.06
368.862	129.06
369.089	126.06
369.315	102.06
369.541	91.06
369.767	90.06
369.993	102.06
370.219	93.06
370.445	96.06
370.672	78.06
370.898	88.06
371.124	85.06
371.35	93.06
371.576	101.06
371.802	88.06
372.028	75.06
372.254	74.06
372.48	86.06
372.706	94.06
372.932	95.06
373.158	81.06
373.384	97.06
373.61	88.06
373.835	88.06
374.061	101.06
374.287	95.06
374.513	82.06
374.739	84.06
374.965	95.06
375.191	85.06
375.416	78.06
375.642	87.06
375.868	94.06
376.094	94.06
376.319	93.06
376.545	88.06
376.771	93.06
376.997	87.06
377.222	84.06
377.448	101.06
377.674	101.06
377.899	89.06
378.125	101.06
378.35	106.06
378.576	79.06
378.802	92.06
379.027	88.06
379.253	89.06
379.478	85.06
379.704	92.06
379.929	91.06
380.155	98.06
380.38	109.06
380.606	93.06
380.831	98.06
381.057	100.06
381.282	100.06
381.507	103.06
381.733	88.06
381.958	101.06
382.184	107.06
382.409	97.06
382.634	105.06
382.86	111.06
383.085	105.06
383.31	103.06
383.535	108.06
383.761	106.06
383.986	92.06
384.211	106.06
384.436	96.06
384.662	102.06
384.887	109.06
385.112	116.06
385.337	114.06
385.562	112.06
385.787	118.06
386.013	117.06
386.238	138.06
386.463	102.06
386.688	126.06
386.913	105.06
387.138	121.06
387.363	118.06
387.588	105.06
387.813	100.06
388.038	110.06
388.263	115.06
388.488	118.06
388.713	93.06
388.938	112.06
389.163	103.06
389.387	102.06
389.612	93.06
389.837	101.06
390.062	81.06
390.287	89.06
390.512	77.06
390.736	89.06
390.961	74.06
391.186	80.06
391.411	83.06
391.636	87.06
391.86	78.06
392.085	87.06
392.31	90.06
392.534	91.06
392.759	94.06
392.984	82.06
393.208	91.06
393.433	92.06
393.658	78.06
393.882	72.06
394.107	97.06
394.331	80.06
394.556	78.06
394.78	89.06
395.005	88.06
395.229	97.06
395.454	89.06
395.678	72.06
395.903	88.06
396.127	93.06
396.352	92.06
396.576	89.06
396.801	95.06
397.025	85.06
397.249	94.06
397.474	97.06
397.698	93.06
397.922	95.06
398.147	78.06
398.371	88.06
398.595	88.06
398.82	97.06
399.044	105.06
399.268	89.06
399.492	71.06
399.717	90.06
399.941	89.06
400.165	97.06
400.389	85.06
400.613	84.06
400.837	94.06
401.062	92.06
401.286	83.06
401.51	97.06
401.734	86.06
401.958	96.06
402.182	143.06
402.406	237.06
402.63	158.06
402.854	116.06
403.078	93.06
403.302	90.06
403.526	79.06
403.75	90.06
403.974	87.06
404.198	89.06
404.422	84.06
404.645	84.06
404.869	110.06
405.093	127.06
405.317	133.06
405.541	141.06
405.765	107.06
405.988	136.06
406.212	248.06
406.436	348.06
406.66	231.06
406.883	124.06
407.107	111.06
407.331	103.06
407.555	116.06
407.778	102.06
408.002	101.06
408.226	103.06
408.449	93.06
408.673	98.06
408.896	100.06
409.12	100.06
409.344	92.06
409.567	105.06
409.791	83.06
410.014	104.06
410.238	90.06
410.461	96.06
410.685	91.06
410.908	95.06
411.132	105.06
411.355	101.06
411.578	92.06
411.802	74.06
412.025	95.06
412.249	100.06
412.472	122.06
412.695	128.06
412.919	107.06
413.142	96.06
413.365	83.06
413.589	83.06
413.812	77.06
414.035	88.06
414.258	90.06
414.482	91.06
414.705	101.06
414.928	79.06
415.151	103.06
415.374	102.06
415.597	87.06
415.821	88.06
416.044	89.06
416.267	95.06
416.49	92.06
416.713	86.06
416.936	80.06
417.159	97.06
417.382	113.06
417.605	102.06
417.828	123.06
418.051	113.06
418.274	93.06
418.497	91.06
418.72	87.06
418.943	80.06
419.166	88.06
419.389	74.06
419.611	85.06
419.834	80.06
420.057	97.06
420.28	84.06
420.503	93.06
420.726	83.06
420.948	102.06
421.171	101.06
421.394	91.06
421.617	89.06
421.839	91.06
422.062	84.06
422.285	96.06
422.507	104.06
422.73	102.06
422.953	112.06
423.175	91.06
423.398	82.06
423.621	91.06
423.843	89.06
424.066	87.06
424.288	89.06
424.511	88.06
424.733	108.06
424.956	98.06
425.178	116.06
425.401	113.06
425.623	89.06
425.846	94.06
426.068	103.06
426.291	96.06
426.513	98.06
426.735	84.06
426.958	119.06
427.18	113.06
427.402	183.06
427.625	279.06
427.847	236.06
428.069	208.06
428.292	124.06
428.514	102.06
428.736	86.06
428.958	75.06
429.181	83.06
429.403	94.06
429.625	95.06
429.847	102.06
430.069	110.06
430.292	109.06
430.514	83.06
430.736	86.06
430.958	90.06
431.18	72.06
431.402	88.06
431.624	95.06
431.846	72.06
432.068	87.06
432.29	89.06
432.512	91.06
432.734	88.06
432.956	91.06
433.178	87.06
433.4	94.06
433.622	97.06
433.844	94.06
434.066	96.06
434.287	107.06
434.509	94.06
434.731	98.06
434.953	82.06
435.175	99.06
435.397	103.06
435.618	96.06
435.84	92.06
436.062	135.06
436.284	123.06
436.505	101.06
436.727	89.06
436.949	104.06
437.17	102.06
437.392	96.06
437.614	101.06
437.835	120.06
438.057	160.06
438.278	137.06
438.5	119.06
438.721	129.06
438.943	118.06
439.165	81.06
439.386	90.06
439.608	98.06
439.829	102.06
440.05	155.06
440.272	186.06
440.493	107.06
440.715	85.06
440.936	91.06
441.158	92.06
441.379	88.06
441.6	95.06
441.822	108.06
442.043	112.06
442.264	120.06
442.486	112.06
442.707	107.06
442.928	133.06
443.149	185.06
443.371	165.06
443.592	131.06
443.813	117.06
444.034	122.06
444.255	88.06
444.476	103.06
444.698	88.06
444.919	95.06
445.14	143.06
445.361	123.06
445.582	132.06
445.803	192.06
446.024	163.06
446.245	170.06
446.466	123.06
446.687	75.06
446.908	90.06
447.129	80.06
447.35	90.06
447.571	90.06
447.792	99.06
448.013	122.06
448.234	138.06
448.455	131.06
448.675	127.06
448.896	134.06
449.117	112.06
449.338	114.06
449.559	151.06
449.779	147.06
450	96.06
450.221	92.06
450.442	106.06
450.662	93.06
450.883	143.06
451.104	143.06
451.324	113.06
451.545	99.06
451.766	73.06
451.986	84.06
452.207	78.06
452.428	101.06
452.648	104.06
452.869	136.06
453.089	142.06
453.31	151.06
453.53	101.06
453.751	117.06
453.971	126.06
454.192	141.06
454.412	105.06
454.633	92.06
454.853	101.06
455.073	78.06
455.294	84.06
455.514	117.06
455.734	97.06
455.955	73.06
456.175	86.06
456.395	80.06
456.616	89.06
456.836	79.06
457.056	87.06
457.276	88.06
457.497	75.06
457.717	84.06
457.937	86.06
458.157	102.06
458.377	98.06
458.598	140.06
458.818	238.06
459.038	247.06
459.258	158.06
459.478	104.06
459.698	94.06
459.918	85.06
460.138	84.06
460.358	85.06
460.578	93.06
460.798	96.06
461.018	87.06
461.238	85.06
461.458	89.06
461.678	84.06
461.898	90.06
462.118	95.06
462.338	91.06
462.558	102.06
462.777	83.06
462.997	91.06
463.217	111.06
463.437	97.06
463.657	91.06
463.876	99.06
464.096	89.06
464.316	104.06
464.536	109.06
464.755	103.06
464.975	144.06
465.195	259.06
465.414	272.06
465.634	126.06
465.854	95.06
466.073	88.06
466.293	93.06
466.512	93.06
466.732	83.06
466.951	78.06
467.171	100.06
467.391	111.06
467.61	165.06
467.829	227.06
468.049	571.06
468.268	826.06
468.488	216.06
468.707	111.06
468.927	107.06
469.146	87.06
469.365	100.06
469.585	92.06
469.804	121.06
470.023	110.06
470.243	99.06
470.462	131.06
470.681	151.06
470.901	116.06
471.12	99.06
471.339	113.06
471.558	123.06
471.777	164.06
471.997	304.06
472.216	1120.06
472.435	2472.06
472.654	585.06
472.873	159.06
473.092	116.06
473.311	91.06
473.53	78.06
473.749	90.06
473.968	105.06
474.187	118.06
474.406	98.06
474.625	92.06
474.844	78.06
475.063	80.06
475.282	86.06
475.501	93.06
475.72	99.06
475.939	88.06
476.158	88.06
476.377	96.06
476.596	101.06
476.814	101.06
477.033	98.06
477.252	92.06
477.471	88.06
477.69	101.06
477.908	91.06
478.127	85.06
478.346	96.06
478.564	102.06
478.783	110.06
479.002	101.06
479.22	101.06
479.439	115.06
479.658	140.06
479.876	124.06
480.095	125.06
480.313	144.06
480.532	157.06
480.751	283.06
480.969	1016.06
481.188	4325.06
481.406	2400.06
481.624	358.06
481.843	125.06
482.061	127.06
482.28	97.06
482.498	94.06
482.717	91.06
482.935	94.06
483.153	109.06
483.372	87.06
483.59	93.06
483.808	100.06
484.027	106.06
484.245	91.06
484.463	97.06
484.681	87.06
484.9	91.06
485.118	83.06
485.336	107.06
485.554	97.06
485.772	111.06
485.99	116.06
486.209	117.06
486.427	110.06
486.645	136.06
486.863	141.06
487.081	108.06
487.299	94.06
487.517	94.06
487.735	96.06
487.953	102.06
488.171	84.06
488.389	92.06
488.607	104.06
488.825	83.06
489.043	91.06
489.261	91.06
489.479	89.06
489.696	95.06
489.914	99.06
490.132	93.06
490.35	91.06
490.568	88.06
490.786	81.06
491.003	95.06
491.221	92.06
491.439	99.06
491.657	86.06
491.874	92.06
492.092	91.06
492.31	102.06
492.527	105.06
492.745	99.06
492.963	96.06
493.18	85.06
493.398	101.06
493.615	89.06
493.833	96.06
494.05	87.06
494.268	84.06
494.485	91.06
494.703	77.06
494.92	92.06
495.138	97.06
495.355	100.06
495.573	88.06
495.79	97.06
496.008	90.06
496.225	93.06
496.442	85.06
496.66	87.06
496.877	79.06
497.094	97.06
497.312	91.06
497.529	86.06
497.746	93.06
497.963	93.06
498.181	107.06
498.398	102.06
498.615	127.06
498.832	115.06
499.049	89.06
499.267	84.06
499.484	99.06
499.701	91.06
499.918	87.06
500.135	91.06
500.352	87.06
500.569	104.06
500.786	109.06
501.003	98.06
501.22	93.06
501.437	98.06
501.654	105.06
501.871	125.06
502.088	114.06
502.305	92.06
502.522	94.06
502.739	91.06
502.956	97.06
503.172	102.06
503.389	115.06
503.606	120.06
503.823	91.06
504.04	100.06
504.256	84.06
504.473	90.06
504.69	84.06
504.907	94.06
505.123	98.06
505.34	83.06
505.557	87.06
505.773	89.06
505.99	91.06
506.207	92.06
506.423	88.06
506.64	88.06
506.856	91.06
507.073	79.06
507.289	97.06
507.506	116.06
507.722	152.06
507.939	129.06
508.155	107.06
508.372	112.06
508.588	91.06
508.805	110.06
509.021	107.06
509.238	107.06
509.454	111.06
509.67	106.06
509.887	121.06
510.103	160.06
510.319	295.06
510.536	1150.06
510.752	4153.06
510.968	1075.06
511.184	223.06
511.401	146.06
511.617	127.06
511.833	116.06
512.049	101.06
512.265	101.06
512.481	97.06
