Data from Circ_1999_H10_HRD10591_00055.txt Node
Date: Wed Jan 03 11:23:23 EST 2024
User: Yrep
Spectrometer: HR+D1059
Trigger mode: 1
Integration Time (sec): 1.000000E-1
Scans to average: 1
Electric dark correction enabled: true
Nonlinearity correction enabled: false
Boxcar width: 0
XAxis mode: Wavelengths
Number of Pixels in Spectrum: 2048
>>>>>Begin Spectral Data<<<<<
223.165	-21.56
223.4	-21.56
223.635	-21.56
223.869	-17.56
224.104	-21.56
224.338	-3.56
224.573	-12.56
224.808	-13.56
225.042	-7.56
225.277	-9.56
225.511	4.44
225.746	-5.56
225.98	6.44
226.215	8.44
226.449	19.44
226.683	9.44
226.918	40.44
227.152	24.44
227.387	35.44
227.621	53.44
227.856	61.44
228.09	43.44
228.324	60.44
228.559	61.44
228.793	56.44
229.027	77.44
229.262	75.44
229.496	89.44
229.73	108.44
229.964	104.44
230.199	77.44
230.433	82.44
230.667	95.44
230.901	80.44
231.136	89.44
231.37	89.44
231.604	87.44
231.838	87.44
232.072	67.44
232.306	94.44
232.541	99.44
232.775	107.44
233.009	85.44
233.243	102.44
233.477	79.44
233.711	94.44
233.945	96.44
234.179	82.44
234.413	91.44
234.647	93.44
234.881	74.44
235.115	86.44
235.349	78.44
235.583	82.44
235.817	78.44
236.051	92.44
236.285	73.44
236.519	79.44
236.753	87.44
236.987	103.44
237.221	98.44
237.455	102.44
237.689	95.44
237.922	95.44
238.156	94.44
238.39	89.44
238.624	78.44
238.858	86.44
239.091	90.44
239.325	93.44
239.559	85.44
239.793	90.44
240.027	92.44
240.26	93.44
240.494	75.44
240.728	93.44
240.961	87.44
241.195	76.44
241.429	98.44
241.662	83.44
241.896	89.44
242.13	79.44
242.363	81.44
242.597	73.44
242.83	85.44
243.064	65.44
243.298	78.44
243.531	83.44
243.765	83.44
243.998	87.44
244.232	87.44
244.465	84.44
244.699	81.44
244.932	85.44
245.166	85.44
245.399	81.44
245.633	83.44
245.866	82.44
246.099	86.44
246.333	93.44
246.566	79.44
246.8	96.44
247.033	85.44
247.266	90.44
247.5	80.44
247.733	81.44
247.966	81.44
248.2	86.44
248.433	93.44
248.666	77.44
248.899	84.44
249.133	100.44
249.366	112.44
249.599	121.44
249.832	90.44
250.066	89.44
250.299	89.44
250.532	90.44
250.765	82.44
250.998	86.44
251.231	97.44
251.465	97.44
251.698	69.44
251.931	100.44
252.164	87.44
252.397	86.44
252.63	86.44
252.863	91.44
253.096	90.44
253.329	88.44
253.562	92.44
253.795	87.44
254.028	93.44
254.261	95.44
254.494	96.44
254.727	85.44
254.96	90.44
255.193	77.44
255.426	84.44
255.659	79.44
255.892	103.44
256.124	106.44
256.357	88.44
256.59	95.44
256.823	83.44
257.056	89.44
257.289	102.44
257.521	102.44
257.754	90.44
257.987	101.44
258.22	103.44
258.452	102.44
258.685	97.44
258.918	86.44
259.151	90.44
259.383	77.44
259.616	84.44
259.849	91.44
260.081	97.44
260.314	79.44
260.547	79.44
260.779	105.44
261.012	115.44
261.244	112.44
261.477	111.44
261.71	107.44
261.942	164.44
262.175	157.44
262.407	97.44
262.64	94.44
262.872	92.44
263.105	85.44
263.337	92.44
263.57	98.44
263.802	96.44
264.035	83.44
264.267	106.44
264.499	79.44
264.732	83.44
264.964	83.44
265.197	90.44
265.429	84.44
265.661	85.44
265.894	94.44
266.126	97.44
266.358	113.44
266.591	94.44
266.823	73.44
267.055	95.44
267.287	91.44
267.52	90.44
267.752	100.44
267.984	87.44
268.216	89.44
268.448	91.44
268.681	86.44
268.913	94.44
269.145	93.44
269.377	89.44
269.609	93.44
269.841	100.44
270.073	107.44
270.306	90.44
270.538	90.44
270.77	85.44
271.002	80.44
271.234	77.44
271.466	97.44
271.698	87.44
271.93	97.44
272.162	97.44
272.394	95.44
272.626	90.44
272.858	92.44
273.09	80.44
273.322	89.44
273.553	100.44
273.785	85.44
274.017	77.44
274.249	93.44
274.481	96.44
274.713	97.44
274.945	110.44
275.176	113.44
275.408	113.44
275.64	123.44
275.872	125.44
276.104	114.44
276.335	106.44
276.567	135.44
276.799	173.44
277.031	198.44
277.262	205.44
277.494	153.44
277.726	117.44
277.957	99.44
278.189	102.44
278.421	87.44
278.652	98.44
278.884	97.44
279.115	95.44
279.347	98.44
279.579	111.44
279.81	153.44
280.042	211.44
280.273	281.44
280.505	201.44
280.736	121.44
280.968	103.44
281.199	92.44
281.431	86.44
281.662	91.44
281.894	102.44
282.125	107.44
282.356	153.44
282.588	207.44
282.819	153.44
283.051	95.44
283.282	98.44
283.513	87.44
283.745	81.44
283.976	87.44
284.207	94.44
284.439	105.44
284.67	97.44
284.901	87.44
285.132	82.44
285.364	81.44
285.595	89.44
285.826	96.44
286.057	108.44
286.288	97.44
286.52	91.44
286.751	77.44
286.982	87.44
287.213	86.44
287.444	69.44
287.675	99.44
287.906	106.44
288.138	95.44
288.369	113.44
288.6	110.44
288.831	91.44
289.062	94.44
289.293	102.44
289.524	94.44
289.755	92.44
289.986	89.44
290.217	72.44
290.448	85.44
290.679	92.44
290.91	97.44
291.141	94.44
291.371	86.44
291.602	75.44
291.833	96.44
292.064	98.44
292.295	98.44
292.526	103.44
292.757	102.44
292.987	76.44
293.218	99.44
293.449	84.44
293.68	95.44
293.91	95.44
294.141	109.44
294.372	93.44
294.603	97.44
294.833	100.44
295.064	102.44
295.295	89.44
295.525	97.44
295.756	114.44
295.987	141.44
296.217	189.44
296.448	182.44
296.679	112.44
296.909	98.44
297.14	100.44
297.37	83.44
297.601	98.44
297.831	91.44
298.062	115.44
298.292	103.44
298.523	101.44
298.753	94.44
298.984	95.44
299.214	91.44
299.445	92.44
299.675	109.44
299.905	107.44
300.136	105.44
300.366	101.44
300.597	91.44
300.827	100.44
301.057	130.44
301.288	130.44
301.518	103.44
301.748	106.44
301.979	118.44
302.209	105.44
302.439	104.44
302.669	99.44
302.9	103.44
303.13	101.44
303.36	138.44
303.59	158.44
303.82	161.44
304.051	123.44
304.281	105.44
304.511	105.44
304.741	91.44
304.971	99.44
305.201	102.44
305.431	90.44
305.661	92.44
305.891	111.44
306.121	109.44
306.352	125.44
306.582	135.44
306.812	125.44
307.042	139.44
307.272	180.44
307.502	221.44
307.731	197.44
307.961	144.44
308.191	117.44
308.421	108.44
308.651	105.44
308.881	106.44
309.111	97.44
309.341	109.44
309.571	114.44
309.8	111.44
310.03	104.44
310.26	109.44
310.49	106.44
310.72	108.44
310.949	134.44
311.179	117.44
311.409	105.44
311.639	109.44
311.868	107.44
312.098	112.44
312.328	118.44
312.557	118.44
312.787	120.44
313.017	140.44
313.246	107.44
313.476	111.44
313.706	102.44
313.935	111.44
314.165	117.44
314.394	127.44
314.624	125.44
314.853	130.44
315.083	119.44
315.312	108.44
315.542	97.44
315.771	92.44
316.001	97.44
316.23	98.44
316.46	115.44
316.689	96.44
316.919	99.44
317.148	101.44
317.377	99.44
317.607	102.44
317.836	109.44
318.065	99.44
318.295	87.44
318.524	102.44
318.753	86.44
318.983	105.44
319.212	121.44
319.441	123.44
319.67	123.44
319.9	113.44
320.129	103.44
320.358	94.44
320.587	105.44
320.816	106.44
321.046	115.44
321.275	118.44
321.504	115.44
321.733	108.44
321.962	115.44
322.191	120.44
322.42	112.44
322.649	142.44
322.878	137.44
323.108	136.44
323.337	161.44
323.566	179.44
323.795	206.44
324.024	258.44
324.253	502.44
324.482	1054.44
324.71	2149.44
324.939	2831.44
325.168	1025.44
325.397	316.44
325.626	175.44
325.855	157.44
326.084	156.44
326.313	158.44
326.542	186.44
326.77	301.44
326.999	544.44
327.228	1075.44
327.457	1964.44
327.686	1591.44
327.914	618.44
328.143	631.44
328.372	777.44
328.6	438.44
328.829	212.44
329.058	203.44
329.287	234.44
329.515	188.44
329.744	292.44
329.972	586.44
330.201	1210.44
330.43	1676.44
330.658	739.44
330.887	345.44
331.115	211.44
331.344	145.44
331.572	133.44
331.801	146.44
332.03	139.44
332.258	130.44
332.486	127.44
332.715	110.44
332.943	110.44
333.172	148.44
333.4	160.44
333.629	187.44
333.857	278.44
334.085	529.44
334.314	1113.44
334.542	2139.44
334.771	1900.44
334.999	500.44
335.227	196.44
335.455	125.44
335.684	123.44
335.912	137.44
336.14	119.44
336.369	124.44
336.597	132.44
336.825	124.44
337.053	98.44
337.281	110.44
337.51	111.44
337.738	110.44
337.966	119.44
338.194	125.44
338.422	122.44
338.65	110.44
338.878	92.44
339.106	82.44
339.334	95.44
339.562	99.44
339.79	113.44
340.018	109.44
340.246	100.44
340.474	106.44
340.702	107.44
340.93	96.44
341.158	108.44
341.386	114.44
341.614	118.44
341.842	100.44
342.07	88.44
342.298	106.44
342.526	110.44
342.754	100.44
342.981	110.44
343.209	89.44
343.437	106.44
343.665	87.44
343.893	98.44
344.12	79.44
344.348	107.44
344.576	90.44
344.804	99.44
345.031	103.44
345.259	121.44
345.487	113.44
345.714	118.44
345.942	103.44
346.17	106.44
346.397	111.44
346.625	106.44
346.853	96.44
347.08	100.44
347.308	95.44
347.535	115.44
347.763	115.44
347.99	121.44
348.218	108.44
348.445	119.44
348.673	104.44
348.9	94.44
349.128	99.44
349.355	106.44
349.583	106.44
349.81	86.44
350.037	94.44
350.265	113.44
350.492	112.44
350.72	102.44
350.947	122.44
351.174	141.44
351.402	138.44
351.629	116.44
351.856	121.44
352.083	121.44
352.311	137.44
352.538	137.44
352.765	121.44
352.992	116.44
353.22	134.44
353.447	129.44
353.674	123.44
353.901	94.44
354.128	90.44
354.355	110.44
354.583	95.44
354.81	107.44
355.037	95.44
355.264	121.44
355.491	100.44
355.718	89.44
355.945	108.44
356.172	102.44
356.399	102.44
356.626	95.44
356.853	107.44
357.08	97.44
357.307	97.44
357.534	92.44
357.761	100.44
357.988	106.44
358.215	113.44
358.441	111.44
358.668	106.44
358.895	100.44
359.122	99.44
359.349	98.44
359.576	113.44
359.802	134.44
360.029	166.44
360.256	158.44
360.483	129.44
360.709	109.44
360.936	98.44
361.163	103.44
361.39	120.44
361.616	123.44
361.843	106.44
362.07	103.44
362.296	121.44
362.523	102.44
362.749	111.44
362.976	99.44
363.203	95.44
363.429	95.44
363.656	87.44
363.882	117.44
364.109	87.44
364.335	100.44
364.562	100.44
364.788	102.44
365.015	109.44
365.241	114.44
365.468	140.44
365.694	138.44
365.92	118.44
366.147	121.44
366.373	84.44
366.599	97.44
366.826	102.44
367.052	106.44
367.278	97.44
367.505	103.44
367.731	95.44
367.957	95.44
368.184	97.44
368.41	138.44
368.636	126.44
368.862	155.44
369.089	131.44
369.315	115.44
369.541	99.44
369.767	96.44
369.993	96.44
370.219	112.44
370.445	92.44
370.672	101.44
370.898	93.44
371.124	93.44
371.35	100.44
371.576	97.44
371.802	109.44
372.028	97.44
372.254	87.44
372.48	88.44
372.706	98.44
372.932	98.44
373.158	102.44
373.384	94.44
373.61	99.44
373.835	100.44
374.061	109.44
374.287	99.44
374.513	89.44
374.739	86.44
374.965	105.44
375.191	95.44
375.416	89.44
375.642	84.44
375.868	105.44
376.094	83.44
376.319	96.44
376.545	92.44
376.771	94.44
376.997	114.44
377.222	97.44
377.448	103.44
377.674	89.44
377.899	99.44
378.125	101.44
378.35	99.44
378.576	90.44
378.802	97.44
379.027	95.44
379.253	76.44
379.478	102.44
379.704	105.44
379.929	116.44
380.155	109.44
380.38	107.44
380.606	100.44
380.831	110.44
381.057	106.44
381.282	94.44
381.507	103.44
381.733	107.44
381.958	86.44
382.184	94.44
382.409	98.44
382.634	123.44
382.86	103.44
383.085	113.44
383.31	104.44
383.535	93.44
383.761	111.44
383.986	107.44
384.211	92.44
384.436	92.44
384.662	100.44
384.887	99.44
385.112	99.44
385.337	111.44
385.562	116.44
385.787	115.44
386.013	125.44
386.238	132.44
386.463	119.44
386.688	116.44
386.913	112.44
387.138	113.44
387.363	104.44
387.588	111.44
387.813	101.44
388.038	123.44
388.263	107.44
388.488	108.44
388.713	110.44
388.938	100.44
389.163	106.44
389.387	104.44
389.612	85.44
389.837	87.44
390.062	103.44
390.287	96.44
390.512	86.44
390.736	99.44
390.961	102.44
391.186	93.44
391.411	98.44
391.636	105.44
391.86	110.44
392.085	94.44
392.31	98.44
392.534	97.44
392.759	89.44
392.984	92.44
393.208	103.44
393.433	107.44
393.658	102.44
393.882	107.44
394.107	88.44
394.331	100.44
394.556	93.44
394.78	98.44
395.005	103.44
395.229	87.44
395.454	108.44
395.678	81.44
395.903	83.44
396.127	87.44
396.352	100.44
396.576	78.44
396.801	99.44
397.025	81.44
397.249	92.44
397.474	98.44
397.698	107.44
397.922	92.44
398.147	99.44
398.371	97.44
398.595	98.44
398.82	89.44
399.044	83.44
399.268	93.44
399.492	100.44
399.717	90.44
399.941	98.44
400.165	91.44
400.389	82.44
400.613	90.44
400.837	87.44
401.062	94.44
401.286	91.44
401.51	106.44
401.734	115.44
401.958	121.44
402.182	185.44
402.406	232.44
402.63	169.44
402.854	106.44
403.078	99.44
403.302	101.44
403.526	109.44
403.75	94.44
403.974	83.44
404.198	97.44
404.422	95.44
404.645	85.44
404.869	117.44
405.093	122.44
405.317	137.44
405.541	153.44
405.765	127.44
405.988	152.44
406.212	264.44
406.436	411.44
406.66	244.44
406.883	123.44
407.107	119.44
407.331	117.44
407.555	128.44
407.778	117.44
408.002	97.44
408.226	106.44
408.449	79.44
408.673	94.44
408.896	97.44
409.12	99.44
409.344	94.44
409.567	103.44
409.791	107.44
410.014	95.44
410.238	96.44
410.461	103.44
410.685	94.44
410.908	118.44
411.132	115.44
411.355	121.44
411.578	98.44
411.802	99.44
412.025	94.44
412.249	99.44
412.472	132.44
412.695	136.44
412.919	111.44
413.142	110.44
413.365	74.44
413.589	112.44
413.812	90.44
414.035	102.44
414.258	101.44
414.482	114.44
414.705	103.44
414.928	94.44
415.151	108.44
415.374	98.44
415.597	82.44
415.821	106.44
416.044	95.44
416.267	95.44
416.49	87.44
416.713	89.44
416.936	94.44
417.159	109.44
417.382	111.44
417.605	104.44
417.828	124.44
418.051	112.44
418.274	107.44
418.497	100.44
418.72	81.44
418.943	90.44
419.166	92.44
419.389	96.44
419.611	99.44
419.834	94.44
420.057	103.44
420.28	104.44
420.503	91.44
420.726	105.44
420.948	101.44
421.171	125.44
421.394	116.44
421.617	89.44
421.839	97.44
422.062	86.44
422.285	99.44
422.507	97.44
422.73	129.44
422.953	104.44
423.175	97.44
423.398	96.44
423.621	96.44
423.843	84.44
424.066	101.44
424.288	98.44
424.511	111.44
424.733	112.44
424.956	118.44
425.178	117.44
425.401	118.44
425.623	117.44
425.846	93.44
426.068	99.44
426.291	115.44
426.513	98.44
426.735	102.44
426.958	118.44
427.18	130.44
427.402	194.44
427.625	285.44
427.847	263.44
428.069	218.44
428.292	125.44
428.514	92.44
428.736	94.44
428.958	99.44
429.181	91.44
429.403	84.44
429.625	101.44
429.847	109.44
430.069	120.44
430.292	113.44
430.514	96.44
430.736	96.44
430.958	95.44
431.18	96.44
431.402	99.44
431.624	76.44
431.846	106.44
432.068	84.44
432.29	101.44
432.512	78.44
432.734	103.44
432.956	110.44
433.178	111.44
433.4	100.44
433.622	89.44
433.844	107.44
434.066	92.44
434.287	109.44
434.509	113.44
434.731	97.44
434.953	85.44
435.175	94.44
435.397	105.44
435.618	101.44
435.84	101.44
436.062	148.44
436.284	141.44
436.505	103.44
436.727	94.44
436.949	107.44
437.17	82.44
437.392	95.44
437.614	97.44
437.835	134.44
438.057	172.44
438.278	122.44
438.5	126.44
438.721	142.44
438.943	107.44
439.165	100.44
439.386	94.44
439.608	91.44
439.829	108.44
440.05	175.44
440.272	204.44
440.493	144.44
440.715	101.44
440.936	94.44
441.158	84.44
441.379	97.44
441.6	100.44
441.822	109.44
442.043	112.44
442.264	130.44
442.486	129.44
442.707	112.44
442.928	149.44
443.149	187.44
443.371	191.44
443.592	143.44
443.813	129.44
444.034	124.44
444.255	105.44
444.476	90.44
444.698	90.44
444.919	89.44
445.14	135.44
445.361	135.44
445.582	133.44
445.803	188.44
446.024	190.44
446.245	167.44
446.466	132.44
446.687	99.44
446.908	100.44
447.129	104.44
447.35	90.44
447.571	100.44
447.792	102.44
448.013	129.44
448.234	146.44
448.455	118.44
448.675	140.44
448.896	149.44
449.117	123.44
449.338	119.44
449.559	150.44
449.779	165.44
450	107.44
450.221	95.44
450.442	103.44
450.662	113.44
450.883	137.44
451.104	179.44
451.324	108.44
451.545	105.44
451.766	106.44
451.986	95.44
452.207	94.44
452.428	109.44
452.648	118.44
452.869	151.44
453.089	166.44
453.31	179.44
453.53	114.44
453.751	116.44
453.971	137.44
454.192	149.44
454.412	126.44
454.633	110.44
454.853	102.44
455.073	92.44
455.294	85.44
455.514	121.44
455.734	111.44
455.955	96.44
456.175	94.44
456.395	87.44
456.616	100.44
456.836	90.44
457.056	89.44
457.276	99.44
457.497	98.44
457.717	91.44
457.937	92.44
458.157	98.44
458.377	115.44
458.598	143.44
458.818	257.44
459.038	270.44
459.258	173.44
459.478	114.44
459.698	110.44
459.918	96.44
460.138	92.44
460.358	86.44
460.578	90.44
460.798	106.44
461.018	108.44
461.238	93.44
461.458	101.44
461.678	95.44
461.898	83.44
462.118	87.44
462.338	96.44
462.558	94.44
462.777	102.44
462.997	124.44
463.217	121.44
463.437	103.44
463.657	102.44
463.876	99.44
464.096	122.44
464.316	105.44
464.536	111.44
464.755	114.44
464.975	160.44
465.195	304.44
465.414	287.44
465.634	122.44
465.854	103.44
466.073	98.44
466.293	91.44
466.512	106.44
466.732	98.44
466.951	108.44
467.171	114.44
467.391	124.44
467.61	183.44
467.829	248.44
468.049	698.44
468.268	1043.44
468.488	241.44
468.707	127.44
468.927	91.44
469.146	95.44
469.365	116.44
469.585	116.44
469.804	121.44
470.023	133.44
470.243	132.44
470.462	132.44
470.681	162.44
470.901	120.44
471.12	112.44
471.339	118.44
471.558	146.44
471.777	167.44
471.997	364.44
472.216	1394.44
472.435	3136.44
472.654	693.44
472.873	191.44
473.092	118.44
473.311	109.44
473.53	88.44
473.749	106.44
473.968	110.44
474.187	132.44
474.406	118.44
474.625	97.44
474.844	88.44
475.063	100.44
475.282	82.44
475.501	97.44
475.72	107.44
475.939	97.44
476.158	83.44
476.377	99.44
476.596	101.44
476.814	105.44
477.033	120.44
477.252	101.44
477.471	116.44
477.69	113.44
477.908	113.44
478.127	118.44
478.346	113.44
478.564	108.44
478.783	136.44
479.002	124.44
479.22	121.44
479.439	146.44
479.658	162.44
479.876	141.44
480.095	134.44
480.313	153.44
480.532	181.44
480.751	336.44
480.969	1241.44
481.188	5343.44
481.406	2952.44
481.624	433.44
481.843	173.44
482.061	125.44
482.28	118.44
482.498	114.44
482.717	108.44
482.935	100.44
483.153	103.44
483.372	92.44
483.59	86.44
483.808	92.44
484.027	103.44
484.245	102.44
484.463	112.44
484.681	114.44
484.9	98.44
485.118	109.44
485.336	96.44
485.554	102.44
485.772	125.44
485.99	125.44
486.209	114.44
486.427	131.44
486.645	154.44
486.863	139.44
487.081	118.44
487.299	111.44
487.517	107.44
487.735	102.44
487.953	87.44
488.171	94.44
488.389	106.44
488.607	119.44
488.825	91.44
489.043	104.44
489.261	96.44
489.479	107.44
489.696	101.44
489.914	89.44
490.132	88.44
490.35	98.44
490.568	124.44
490.786	100.44
491.003	86.44
491.221	88.44
491.439	121.44
491.657	91.44
491.874	97.44
492.092	108.44
492.31	112.44
492.527	108.44
492.745	103.44
492.963	99.44
493.18	109.44
493.398	89.44
493.615	101.44
493.833	98.44
494.05	108.44
494.268	92.44
494.485	114.44
494.703	100.44
494.92	97.44
495.138	98.44
495.355	79.44
495.573	104.44
495.79	107.44
496.008	101.44
496.225	108.44
496.442	96.44
496.66	84.44
496.877	93.44
497.094	110.44
497.312	110.44
497.529	107.44
497.746	109.44
497.963	110.44
498.181	95.44
498.398	108.44
498.615	119.44
498.832	139.44
499.049	106.44
499.267	118.44
499.484	100.44
499.701	93.44
499.918	97.44
500.135	110.44
500.352	100.44
500.569	100.44
500.786	112.44
501.003	92.44
501.22	93.44
501.437	96.44
501.654	112.44
501.871	166.44
502.088	105.44
502.305	97.44
502.522	102.44
502.739	102.44
502.956	103.44
503.172	106.44
503.389	126.44
503.606	131.44
503.823	111.44
504.04	103.44
504.256	93.44
504.473	104.44
504.69	91.44
504.907	97.44
505.123	89.44
505.34	103.44
505.557	105.44
505.773	103.44
505.99	86.44
506.207	100.44
506.423	93.44
506.64	99.44
506.856	109.44
507.073	87.44
507.289	92.44
507.506	107.44
507.722	157.44
507.939	146.44
508.155	116.44
508.372	102.44
508.588	96.44
508.805	106.44
509.021	113.44
509.238	117.44
509.454	121.44
509.67	117.44
