Data from Circ_1999_H10_HRD10591_00030.txt Node
Date: Wed Jan 03 11:23:18 EST 2024
User: Yrep
Spectrometer: HR+D1059
Trigger mode: 1
Integration Time (sec): 1.000000E-1
Scans to average: 1
Electric dark correction enabled: true
Nonlinearity correction enabled: false
Boxcar width: 0
XAxis mode: Wavelengths
Number of Pixels in Spectrum: 2048
>>>>>Begin Spectral Data<<<<<
223.165	-15.12
223.4	-15.12
223.635	-15.12
223.869	-35.12
224.104	-20.12
224.338	-15.12
224.573	-22.12
224.808	-4.12
225.042	-14.12
225.277	-10.12
225.511	-7.12
225.746	-4.12
225.98	4.88
226.215	22.88
226.449	14.88
226.683	25.88
226.918	48.88
227.152	29.88
227.387	31.88
227.621	41.88
227.856	36.88
228.09	41.88
228.324	38.88
228.559	48.88
228.793	57.88
229.027	77.88
229.262	62.88
229.496	84.88
229.73	100.88
229.964	104.88
230.199	81.88
230.433	91.88
230.667	76.88
230.901	79.88
231.136	69.88
231.37	92.88
231.604	81.88
231.838	76.88
232.072	73.88
232.306	73.88
232.541	79.88
232.775	93.88
233.009	70.88
233.243	79.88
233.477	81.88
233.711	82.88
233.945	90.88
234.179	71.88
234.413	75.88
234.647	79.88
234.881	82.88
235.115	91.88
235.349	79.88
235.583	92.88
235.817	94.88
236.051	78.88
236.285	84.88
236.519	76.88
236.753	82.88
236.987	74.88
237.221	91.88
237.455	93.88
237.689	82.88
237.922	84.88
238.156	75.88
238.39	86.88
238.624	81.88
238.858	76.88
239.091	75.88
239.325	89.88
239.559	83.88
239.793	87.88
240.027	86.88
240.26	85.88
240.494	78.88
240.728	76.88
240.961	85.88
241.195	80.88
241.429	70.88
241.662	75.88
241.896	78.88
242.13	88.88
242.363	77.88
242.597	88.88
242.83	73.88
243.064	83.88
243.298	84.88
243.531	74.88
243.765	78.88
243.998	80.88
244.232	77.88
244.465	75.88
244.699	93.88
244.932	88.88
245.166	79.88
245.399	86.88
245.633	72.88
245.866	53.88
246.099	81.88
246.333	70.88
246.566	72.88
246.8	76.88
247.033	86.88
247.266	90.88
247.5	70.88
247.733	79.88
247.966	86.88
248.2	90.88
248.433	80.88
248.666	85.88
248.899	91.88
249.133	105.88
249.366	104.88
249.599	107.88
249.832	70.88
250.066	72.88
250.299	81.88
250.532	102.88
250.765	96.88
250.998	70.88
251.231	88.88
251.465	85.88
251.698	77.88
251.931	90.88
252.164	79.88
252.397	91.88
252.63	72.88
252.863	90.88
253.096	77.88
253.329	88.88
253.562	81.88
253.795	78.88
254.028	89.88
254.261	81.88
254.494	90.88
254.727	88.88
254.96	94.88
255.193	78.88
255.426	87.88
255.659	95.88
255.892	101.88
256.124	99.88
256.357	94.88
256.59	89.88
256.823	101.88
257.056	101.88
257.289	81.88
257.521	76.88
257.754	82.88
257.987	70.88
258.22	84.88
258.452	92.88
258.685	90.88
258.918	93.88
259.151	97.88
259.383	82.88
259.616	76.88
259.849	83.88
260.081	91.88
260.314	92.88
260.547	89.88
260.779	85.88
261.012	109.88
261.244	117.88
261.477	106.88
261.71	111.88
261.942	146.88
262.175	165.88
262.407	94.88
262.64	87.88
262.872	89.88
263.105	90.88
263.337	92.88
263.57	87.88
263.802	91.88
264.035	82.88
264.267	85.88
264.499	83.88
264.732	78.88
264.964	81.88
265.197	92.88
265.429	80.88
265.661	71.88
265.894	89.88
266.126	87.88
266.358	92.88
266.591	95.88
266.823	81.88
267.055	80.88
267.287	80.88
267.52	81.88
267.752	88.88
267.984	69.88
268.216	90.88
268.448	95.88
268.681	87.88
268.913	84.88
269.145	92.88
269.377	82.88
269.609	74.88
269.841	104.88
270.073	88.88
270.306	91.88
270.538	74.88
270.77	82.88
271.002	87.88
271.234	70.88
271.466	86.88
271.698	95.88
271.93	103.88
272.162	93.88
272.394	90.88
272.626	94.88
272.858	96.88
273.09	94.88
273.322	107.88
273.553	95.88
273.785	81.88
274.017	90.88
274.249	80.88
274.481	76.88
274.713	100.88
274.945	94.88
275.176	98.88
275.408	105.88
275.64	119.88
275.872	114.88
276.104	110.88
276.335	105.88
276.567	133.88
276.799	176.88
277.031	196.88
277.262	206.88
277.494	155.88
277.726	95.88
277.957	83.88
278.189	83.88
278.421	90.88
278.652	90.88
278.884	85.88
279.115	86.88
279.347	93.88
279.579	99.88
279.81	122.88
280.042	196.88
280.273	280.88
280.505	196.88
280.736	114.88
280.968	103.88
281.199	104.88
281.431	86.88
281.662	98.88
281.894	94.88
282.125	114.88
282.356	156.88
282.588	200.88
282.819	161.88
283.051	94.88
283.282	98.88
283.513	101.88
283.745	90.88
283.976	79.88
284.207	74.88
284.439	70.88
284.67	91.88
284.901	93.88
285.132	92.88
285.364	76.88
285.595	76.88
285.826	90.88
286.057	80.88
286.288	87.88
286.52	103.88
286.751	81.88
286.982	78.88
287.213	99.88
287.444	98.88
287.675	92.88
287.906	87.88
288.138	89.88
288.369	98.88
288.6	90.88
288.831	103.88
289.062	102.88
289.293	85.88
289.524	94.88
289.755	102.88
289.986	86.88
290.217	94.88
290.448	86.88
290.679	88.88
290.91	90.88
291.141	81.88
291.371	81.88
291.602	83.88
291.833	98.88
292.064	100.88
292.295	81.88
292.526	100.88
292.757	90.88
292.987	81.88
293.218	86.88
293.449	95.88
293.68	91.88
293.91	96.88
294.141	85.88
294.372	96.88
294.603	92.88
294.833	107.88
295.064	91.88
295.295	97.88
295.525	104.88
295.756	98.88
295.987	149.88
296.217	183.88
296.448	169.88
296.679	94.88
296.909	74.88
297.14	91.88
297.37	92.88
297.601	86.88
297.831	96.88
298.062	103.88
298.292	77.88
298.523	112.88
298.753	98.88
298.984	70.88
299.214	90.88
299.445	108.88
299.675	94.88
299.905	94.88
300.136	104.88
300.366	94.88
300.597	93.88
300.827	95.88
301.057	104.88
301.288	139.88
301.518	101.88
301.748	102.88
301.979	117.88
302.209	96.88
302.439	108.88
302.669	106.88
302.9	97.88
303.13	110.88
303.36	127.88
303.59	143.88
303.82	161.88
304.051	108.88
304.281	95.88
304.511	98.88
304.741	99.88
304.971	75.88
305.201	98.88
305.431	104.88
305.661	97.88
305.891	93.88
306.121	109.88
306.352	119.88
306.582	122.88
306.812	118.88
307.042	128.88
307.272	167.88
307.502	193.88
307.731	188.88
307.961	122.88
308.191	90.88
308.421	97.88
308.651	103.88
308.881	92.88
309.111	111.88
309.341	109.88
309.571	104.88
309.8	125.88
310.03	106.88
310.26	107.88
310.49	106.88
310.72	118.88
310.949	120.88
311.179	125.88
311.409	111.88
311.639	109.88
311.868	112.88
312.098	89.88
312.328	98.88
312.557	119.88
312.787	129.88
313.017	122.88
313.246	109.88
313.476	98.88
313.706	108.88
313.935	116.88
314.165	135.88
314.394	129.88
314.624	120.88
314.853	113.88
315.083	91.88
315.312	105.88
315.542	101.88
315.771	92.88
316.001	113.88
316.23	82.88
316.46	101.88
316.689	91.88
316.919	101.88
317.148	112.88
317.377	119.88
317.607	102.88
317.836	112.88
318.065	96.88
318.295	91.88
318.524	94.88
318.753	97.88
318.983	104.88
319.212	117.88
319.441	114.88
319.67	140.88
319.9	111.88
320.129	95.88
320.358	87.88
320.587	100.88
320.816	115.88
321.046	109.88
321.275	106.88
321.504	82.88
321.733	92.88
321.962	110.88
322.191	109.88
322.42	112.88
322.649	124.88
322.878	125.88
323.108	136.88
323.337	168.88
323.566	168.88
323.795	203.88
324.024	257.88
324.253	482.88
324.482	1053.88
324.71	2103.88
324.939	2842.88
325.168	1080.88
325.397	318.88
325.626	174.88
325.855	158.88
326.084	136.88
326.313	142.88
326.542	186.88
326.77	279.88
326.999	529.88
327.228	1039.88
327.457	1896.88
327.686	1578.88
327.914	602.88
328.143	570.88
328.372	689.88
328.6	404.88
328.829	200.88
329.058	225.88
329.287	243.88
329.515	196.88
329.744	265.88
329.972	509.88
330.201	1057.88
330.43	1567.88
330.658	696.88
330.887	328.88
331.115	229.88
331.344	132.88
331.572	135.88
331.801	139.88
332.03	126.88
332.258	121.88
332.486	121.88
332.715	119.88
332.943	122.88
333.172	123.88
333.4	147.88
333.629	177.88
333.857	241.88
334.085	442.88
334.314	952.88
334.542	1869.88
334.771	1757.88
334.999	468.88
335.227	181.88
335.455	154.88
335.684	118.88
335.912	116.88
336.14	110.88
336.369	119.88
336.597	123.88
336.825	127.88
337.053	101.88
337.281	109.88
337.51	101.88
337.738	105.88
337.966	103.88
338.194	126.88
338.422	105.88
338.65	94.88
338.878	97.88
339.106	98.88
339.334	91.88
339.562	107.88
339.79	97.88
340.018	93.88
340.246	106.88
340.474	116.88
340.702	92.88
340.93	80.88
341.158	90.88
341.386	106.88
341.614	113.88
341.842	99.88
342.07	106.88
342.298	91.88
342.526	82.88
342.754	76.88
342.981	98.88
343.209	111.88
343.437	114.88
343.665	87.88
343.893	91.88
344.12	87.88
344.348	86.88
344.576	84.88
344.804	89.88
345.031	117.88
345.259	116.88
345.487	102.88
345.714	105.88
345.942	94.88
346.17	76.88
346.397	87.88
346.625	113.88
346.853	110.88
347.08	79.88
347.308	96.88
347.535	111.88
347.763	125.88
347.99	113.88
348.218	109.88
348.445	127.88
348.673	113.88
348.9	100.88
349.128	104.88
349.355	89.88
349.583	85.88
349.81	100.88
350.037	101.88
350.265	102.88
350.492	94.88
350.72	95.88
350.947	104.88
351.174	114.88
351.402	135.88
351.629	135.88
351.856	114.88
352.083	121.88
352.311	112.88
352.538	129.88
352.765	142.88
352.992	146.88
353.22	119.88
353.447	118.88
353.674	107.88
353.901	96.88
354.128	105.88
354.355	104.88
354.583	98.88
354.81	91.88
355.037	92.88
355.264	82.88
355.491	95.88
355.718	96.88
355.945	84.88
356.172	86.88
356.399	92.88
356.626	84.88
356.853	85.88
357.08	101.88
357.307	102.88
357.534	94.88
357.761	96.88
357.988	85.88
358.215	87.88
358.441	99.88
358.668	93.88
358.895	101.88
359.122	93.88
359.349	102.88
359.576	99.88
359.802	130.88
360.029	154.88
360.256	157.88
360.483	131.88
360.709	100.88
360.936	93.88
361.163	106.88
361.39	113.88
361.616	96.88
361.843	115.88
362.07	105.88
362.296	113.88
362.523	94.88
362.749	108.88
362.976	89.88
363.203	98.88
363.429	92.88
363.656	92.88
363.882	89.88
364.109	86.88
364.335	90.88
364.562	95.88
364.788	92.88
365.015	114.88
365.241	124.88
365.468	123.88
365.694	120.88
365.92	108.88
366.147	105.88
366.373	108.88
366.599	95.88
366.826	104.88
367.052	88.88
367.278	94.88
367.505	112.88
367.731	97.88
367.957	100.88
368.184	96.88
368.41	120.88
368.636	138.88
368.862	151.88
369.089	135.88
369.315	100.88
369.541	110.88
369.767	107.88
369.993	105.88
370.219	110.88
370.445	88.88
370.672	82.88
370.898	78.88
371.124	93.88
371.35	93.88
371.576	79.88
371.802	90.88
372.028	73.88
372.254	87.88
372.48	85.88
372.706	93.88
372.932	93.88
373.158	89.88
373.384	94.88
373.61	101.88
373.835	88.88
374.061	98.88
374.287	96.88
374.513	104.88
374.739	88.88
374.965	96.88
375.191	93.88
375.416	98.88
375.642	93.88
375.868	92.88
376.094	85.88
376.319	87.88
376.545	87.88
376.771	107.88
376.997	87.88
377.222	94.88
377.448	85.88
377.674	89.88
377.899	102.88
378.125	96.88
378.35	92.88
378.576	104.88
378.802	88.88
379.027	81.88
379.253	90.88
379.478	96.88
379.704	97.88
379.929	94.88
380.155	86.88
380.38	81.88
380.606	98.88
380.831	87.88
381.057	102.88
381.282	110.88
381.507	100.88
381.733	101.88
381.958	98.88
382.184	107.88
382.409	97.88
382.634	108.88
382.86	88.88
383.085	97.88
383.31	100.88
383.535	105.88
383.761	104.88
383.986	91.88
384.211	104.88
384.436	107.88
384.662	109.88
384.887	103.88
385.112	111.88
385.337	114.88
385.562	108.88
385.787	123.88
386.013	105.88
386.238	134.88
386.463	116.88
386.688	125.88
386.913	97.88
387.138	114.88
387.363	117.88
387.588	90.88
387.813	101.88
388.038	109.88
388.263	113.88
388.488	134.88
388.713	108.88
388.938	112.88
389.163	94.88
389.387	98.88
389.612	89.88
389.837	87.88
390.062	95.88
390.287	82.88
390.512	86.88
390.736	84.88
390.961	88.88
391.186	87.88
391.411	84.88
391.636	83.88
391.86	93.88
392.085	94.88
392.31	89.88
392.534	97.88
392.759	95.88
392.984	87.88
393.208	89.88
393.433	98.88
393.658	94.88
393.882	85.88
394.107	74.88
394.331	99.88
394.556	98.88
394.78	87.88
395.005	97.88
395.229	96.88
395.454	92.88
395.678	92.88
395.903	99.88
396.127	97.88
396.352	76.88
396.576	86.88
396.801	101.88
397.025	97.88
397.249	95.88
397.474	105.88
397.698	90.88
397.922	101.88
398.147	91.88
398.371	87.88
398.595	93.88
398.82	85.88
399.044	70.88
399.268	84.88
399.492	89.88
399.717	89.88
399.941	100.88
400.165	105.88
400.389	103.88
400.613	93.88
400.837	103.88
401.062	110.88
401.286	86.88
401.51	94.88
401.734	101.88
401.958	107.88
402.182	163.88
402.406	261.88
402.63	184.88
402.854	112.88
403.078	118.88
403.302	98.88
403.526	97.88
403.75	90.88
403.974	90.88
404.198	74.88
404.422	102.88
404.645	76.88
404.869	93.88
405.093	116.88
405.317	138.88
405.541	136.88
405.765	129.88
405.988	144.88
406.212	257.88
406.436	417.88
406.66	268.88
406.883	137.88
407.107	111.88
407.331	126.88
407.555	117.88
407.778	109.88
408.002	108.88
408.226	111.88
408.449	97.88
408.673	95.88
408.896	96.88
409.12	117.88
409.344	107.88
409.567	93.88
409.791	93.88
410.014	111.88
410.238	101.88
410.461	89.88
410.685	95.88
410.908	95.88
411.132	113.88
411.355	116.88
411.578	92.88
411.802	103.88
412.025	101.88
412.249	99.88
412.472	118.88
412.695	132.88
412.919	108.88
413.142	93.88
413.365	97.88
413.589	87.88
413.812	79.88
414.035	94.88
414.258	112.88
414.482	85.88
414.705	94.88
414.928	86.88
415.151	90.88
415.374	104.88
415.597	83.88
415.821	88.88
416.044	89.88
416.267	93.88
416.49	88.88
416.713	84.88
416.936	76.88
417.159	81.88
417.382	97.88
417.605	117.88
417.828	138.88
418.051	115.88
418.274	99.88
418.497	92.88
418.72	95.88
418.943	96.88
419.166	94.88
419.389	92.88
419.611	93.88
419.834	91.88
420.057	102.88
420.28	109.88
420.503	96.88
420.726	102.88
420.948	104.88
421.171	95.88
421.394	100.88
421.617	111.88
421.839	93.88
422.062	98.88
422.285	99.88
422.507	93.88
422.73	117.88
422.953	80.88
423.175	104.88
423.398	79.88
423.621	96.88
423.843	91.88
424.066	88.88
424.288	108.88
424.511	90.88
424.733	98.88
424.956	115.88
425.178	106.88
425.401	125.88
425.623	108.88
425.846	99.88
426.068	88.88
426.291	95.88
426.513	102.88
426.735	104.88
426.958	113.88
427.18	136.88
427.402	197.88
427.625	290.88
427.847	247.88
428.069	200.88
428.292	120.88
428.514	107.88
428.736	94.88
428.958	97.88
429.181	91.88
429.403	88.88
429.625	90.88
429.847	110.88
430.069	122.88
430.292	108.88
430.514	86.88
430.736	104.88
430.958	88.88
431.18	72.88
431.402	86.88
431.624	73.88
431.846	87.88
432.068	84.88
432.29	92.88
432.512	94.88
432.734	84.88
432.956	107.88
433.178	96.88
433.4	102.88
433.622	102.88
433.844	97.88
434.066	98.88
434.287	98.88
434.509	104.88
434.731	99.88
434.953	97.88
435.175	97.88
435.397	98.88
435.618	112.88
435.84	123.88
436.062	134.88
436.284	123.88
436.505	100.88
436.727	104.88
436.949	91.88
437.17	91.88
437.392	96.88
437.614	113.88
437.835	154.88
438.057	170.88
438.278	140.88
438.5	124.88
438.721	142.88
438.943	124.88
439.165	92.88
439.386	94.88
439.608	106.88
439.829	116.88
440.05	157.88
440.272	202.88
440.493	126.88
440.715	94.88
440.936	84.88
441.158	104.88
441.379	85.88
441.6	101.88
441.822	123.88
442.043	103.88
442.264	122.88
442.486	136.88
442.707	104.88
442.928	148.88
443.149	188.88
443.371	191.88
443.592	150.88
443.813	122.88
444.034	120.88
444.255	95.88
444.476	98.88
444.698	90.88
444.919	90.88
445.14	132.88
445.361	134.88
445.582	156.88
445.803	212.88
446.024	184.88
446.245	174.88
446.466	134.88
446.687	95.88
446.908	89.88
447.129	98.88
447.35	101.88
447.571	104.88
447.792	107.88
448.013	116.88
448.234	124.88
448.455	109.88
448.675	151.88
448.896	154.88
449.117	112.88
449.338	113.88
449.559	145.88
449.779	145.88
450	112.88
450.221	97.88
450.442	106.88
450.662	106.88
450.883	145.88
451.104	170.88
451.324	112.88
451.545	92.88
451.766	100.88
451.986	79.88
452.207	82.88
452.428	112.88
452.648	105.88
452.869	137.88
453.089	145.88
453.31	170.88
453.53	110.88
453.751	114.88
453.971	148.88
454.192	143.88
454.412	107.88
454.633	106.88
454.853	88.88
455.073	88.88
455.294	94.88
455.514	120.88
455.734	113.88
455.955	98.88
456.175	97.88
456.395	80.88
456.616	81.88
456.836	92.88
457.056	96.88
457.276	97.88
457.497	96.88
457.717	95.88
457.937	89.88
458.157	92.88
458.377	99.88
458.598	145.88
458.818	243.88
459.038	272.88
459.258	168.88
459.478	97.88
459.698	92.88
459.918	93.88
460.138	103.88
460.358	92.88
460.578	87.88
460.798	106.88
461.018	93.88
461.238	94.88
461.458	85.88
461.678	89.88
461.898	90.88
462.118	91.88
462.338	85.88
462.558	103.88
462.777	106.88
462.997	101.88
463.217	113.88
463.437	88.88
463.657	92.88
463.876	96.88
464.096	100.88
464.316	113.88
464.536	121.88
464.755	121.88
464.975	146.88
465.195	297.88
465.414	311.88
465.634	117.88
465.854	94.88
466.073	86.88
466.293	97.88
466.512	100.88
466.732	94.88
466.951	86.88
467.171	110.88
467.391	112.88
467.61	157.88
467.829	226.88
468.049	625.88
468.268	912.88
468.488	232.88
468.707	122.88
468.927	117.88
469.146	85.88
469.365	85.88
469.585	97.88
469.804	127.88
470.023	120.88
470.243	109.88
470.462	140.88
470.681	162.88
470.901	116.88
471.12	108.88
471.339	107.88
471.558	123.88
471.777	168.88
471.997	344.88
472.216	1215.88
472.435	2750.88
472.654	629.88
472.873	160.88
473.092	116.88
473.311	101.88
473.53	99.88
473.749	98.88
473.968	113.88
474.187	133.88
474.406	124.88
474.625	100.88
474.844	95.88
475.063	87.88
475.282	103.88
475.501	99.88
475.72	95.88
475.939	96.88
476.158	94.88
476.377	91.88
476.596	103.88
476.814	109.88
477.033	114.88
477.252	109.88
477.471	97.88
477.69	93.88
477.908	96.88
478.127	111.88
478.346	96.88
478.564	105.88
478.783	123.88
479.002	104.88
479.22	121.88
479.439	122.88
479.658	142.88
479.876	130.88
480.095	143.88
480.313	132.88
480.532	173.88
480.751	299.88
480.969	1071.88
481.188	4700.88
481.406	2691.88
481.624	375.88
481.843	148.88
482.061	121.88
482.28	102.88
482.498	104.88
482.717	80.88
482.935	94.88
483.153	95.88
483.372	84.88
483.59	91.88
483.808	94.88
484.027	105.88
484.245	89.88
484.463	100.88
484.681	120.88
484.9	98.88
485.118	114.88
485.336	110.88
485.554	108.88
485.772	91.88
485.99	124.88
486.209	116.88
486.427	110.88
486.645	134.88
486.863	135.88
487.081	130.88
487.299	108.88
487.517	100.88
487.735	104.88
487.953	99.88
488.171	97.88
488.389	100.88
488.607	109.88
488.825	104.88
489.043	84.88
489.261	102.88
489.479	90.88
489.696	103.88
489.914	96.88
490.132	104.88
490.35	93.88
490.568	94.88
490.786	101.88
491.003	94.88
491.221	100.88
491.439	119.88
491.657	88.88
491.874	87.88
492.092	94.88
492.31	94.88
492.527	94.88
492.745	99.88
492.963	80.88
493.18	97.88
493.398	95.88
493.615	109.88
493.833	98.88
494.05	90.88
494.268	98.88
494.485	109.88
494.703	98.88
494.92	94.88
495.138	97.88
495.355	102.88
495.573	93.88
495.79	90.88
496.008	97.88
496.225	103.88
496.442	87.88
496.66	85.88
496.877	91.88
497.094	105.88
497.312	102.88
497.529	93.88
497.746	110.88
497.963	97.88
498.181	90.88
498.398	100.88
498.615	103.88
498.832	91.88
499.049	81.88
499.267	94.88
499.484	83.88
499.701	94.88
499.918	92.88
500.135	96.88
500.352	97.88
500.569	94.88
500.786	97.88
501.003	72.88
501.22	100.88
501.437	87.88
501.654	113.88
501.871	143.88
502.088	126.88
502.305	92.88
502.522	92.88
502.739	88.88
502.956	100.88
503.172	94.88
503.389	122.88
503.606	157.88
503.823	111.88
504.04	103.88
504.256	87.88
504.473	110.88
504.69	93.88
504.907	97.88
505.123	92.88
505.34	104.88
505.557	92.88
505.773	94.88
505.99	85.88
506.207	97.88
506.423	84.88
506.64	86.88
506.856	98.88
507.073	98.88
507.289	102.88
507.506	123.88
507.722	138.88
507.939	150.88
508.155	110.88
508.372	103.88
508.588	84.88
508.805	94.88
509.021	102.88
509.238	110.88
509.454	99.88
509.67	118.88
509.887	142.88
510.103	170.88
510.319	300.88
510.536	1257.88
510.752	4575.88
510.968	1186.88
511.184	207.88
511.401	149.88
