Data from Circ_1999_H10_HRD10591_00100.txt Node
Date: Wed Jan 03 11:23:32 EST 2024
User: Yrep
Spectrometer: HR+D1059
Trigger mode: 1
Integration Time (sec): 1.000000E-1
Scans to average: 1
Electric dark correction enabled: true
Nonlinearity correction enabled: false
Boxcar width: 0
XAxis mode: Wavelengths
Number of Pixels in Spectrum: 2048
>>>>>Begin Spectral Data<<<<<
223.165	-24.62
223.4	-24.62
223.635	-24.62
223.869	-13.62
224.104	-21.62
224.338	-20.62
224.573	-7.62
224.808	-21.62
225.042	-9.62
225.277	3.38
225.511	4.38
225.746	-1.62
225.98	4.38
226.215	0.38
226.449	20.38
226.683	27.38
226.918	26.38
227.152	34.38
227.387	43.38
227.621	56.38
227.856	49.38
228.09	42.38
228.324	44.38
228.559	48.38
228.793	51.38
229.027	66.38
229.262	67.38
229.496	85.38
229.73	119.38
229.964	99.38
230.199	75.38
230.433	78.38
230.667	73.38
230.901	70.38
231.136	82.38
231.37	93.38
231.604	74.38
231.838	84.38
232.072	81.38
232.306	73.38
232.541	61.38
232.775	90.38
233.009	67.38
233.243	72.38
233.477	82.38
233.711	71.38
233.945	80.38
234.179	70.38
234.413	80.38
234.647	84.38
234.881	89.38
235.115	69.38
235.349	83.38
235.583	83.38
235.817	84.38
236.051	74.38
236.285	72.38
236.519	54.38
236.753	85.38
236.987	72.38
237.221	94.38
237.455	92.38
237.689	93.38
237.922	74.38
238.156	75.38
238.39	66.38
238.624	72.38
238.858	70.38
239.091	89.38
239.325	69.38
239.559	79.38
239.793	81.38
240.027	78.38
240.26	88.38
240.494	78.38
240.728	92.38
240.961	78.38
241.195	65.38
241.429	83.38
241.662	86.38
241.896	77.38
242.13	76.38
242.363	80.38
242.597	70.38
242.83	83.38
243.064	71.38
243.298	75.38
243.531	77.38
243.765	74.38
243.998	86.38
244.232	89.38
244.465	77.38
244.699	93.38
244.932	74.38
245.166	68.38
245.399	82.38
245.633	77.38
245.866	86.38
246.099	68.38
246.333	84.38
246.566	76.38
246.8	79.38
247.033	75.38
247.266	83.38
247.5	75.38
247.733	78.38
247.966	83.38
248.2	87.38
248.433	86.38
248.666	85.38
248.899	87.38
249.133	86.38
249.366	116.38
249.599	116.38
249.832	79.38
250.066	83.38
250.299	94.38
250.532	91.38
250.765	78.38
250.998	76.38
251.231	91.38
251.465	80.38
251.698	84.38
251.931	96.38
252.164	70.38
252.397	62.38
252.63	67.38
252.863	74.38
253.096	85.38
253.329	93.38
253.562	77.38
253.795	69.38
254.028	78.38
254.261	75.38
254.494	87.38
254.727	90.38
254.96	85.38
255.193	75.38
255.426	76.38
255.659	80.38
255.892	109.38
256.124	94.38
256.357	78.38
256.59	81.38
256.823	92.38
257.056	84.38
257.289	92.38
257.521	80.38
257.754	71.38
257.987	87.38
258.22	93.38
258.452	105.38
258.685	113.38
258.918	77.38
259.151	86.38
259.383	72.38
259.616	68.38
259.849	80.38
260.081	85.38
260.314	83.38
260.547	94.38
260.779	103.38
261.012	137.38
261.244	129.38
261.477	111.38
261.71	120.38
261.942	173.38
262.175	188.38
262.407	118.38
262.64	98.38
262.872	82.38
263.105	94.38
263.337	83.38
263.57	96.38
263.802	80.38
264.035	84.38
264.267	74.38
264.499	87.38
264.732	90.38
264.964	93.38
265.197	79.38
265.429	93.38
265.661	84.38
265.894	82.38
266.126	90.38
266.358	73.38
266.591	85.38
266.823	76.38
267.055	81.38
267.287	86.38
267.52	86.38
267.752	72.38
267.984	92.38
268.216	84.38
268.448	99.38
268.681	94.38
268.913	96.38
269.145	83.38
269.377	75.38
269.609	64.38
269.841	73.38
270.073	79.38
270.306	88.38
270.538	100.38
270.77	66.38
271.002	83.38
271.234	88.38
271.466	97.38
271.698	77.38
271.93	84.38
272.162	85.38
272.394	79.38
272.626	82.38
272.858	97.38
273.09	92.38
273.322	73.38
273.553	85.38
273.785	76.38
274.017	73.38
274.249	88.38
274.481	81.38
274.713	91.38
274.945	87.38
275.176	109.38
275.408	112.38
275.64	144.38
275.872	158.38
276.104	127.38
276.335	112.38
276.567	145.38
276.799	211.38
277.031	264.38
277.262	311.38
277.494	217.38
277.726	114.38
277.957	113.38
278.189	89.38
278.421	98.38
278.652	92.38
278.884	101.38
279.115	94.38
279.347	78.38
279.579	112.38
279.81	176.38
280.042	306.38
280.273	459.38
280.505	283.38
280.736	136.38
280.968	95.38
281.199	115.38
281.431	90.38
281.662	92.38
281.894	108.38
282.125	114.38
282.356	164.38
282.588	227.38
282.819	169.38
283.051	92.38
283.282	82.38
283.513	87.38
283.745	80.38
283.976	78.38
284.207	83.38
284.439	93.38
284.67	92.38
284.901	87.38
285.132	73.38
285.364	91.38
285.595	93.38
285.826	98.38
286.057	92.38
286.288	82.38
286.52	95.38
286.751	90.38
286.982	92.38
287.213	90.38
287.444	88.38
287.675	89.38
287.906	99.38
288.138	84.38
288.369	102.38
288.6	95.38
288.831	77.38
289.062	99.38
289.293	108.38
289.524	88.38
289.755	93.38
289.986	79.38
290.217	87.38
290.448	88.38
290.679	84.38
290.91	96.38
291.141	77.38
291.371	105.38
291.602	100.38
291.833	99.38
292.064	91.38
292.295	77.38
292.526	104.38
292.757	105.38
292.987	94.38
293.218	93.38
293.449	82.38
293.68	92.38
293.91	87.38
294.141	96.38
294.372	93.38
294.603	87.38
294.833	90.38
295.064	94.38
295.295	92.38
295.525	81.38
295.756	124.38
295.987	152.38
296.217	219.38
296.448	187.38
296.679	99.38
296.909	93.38
297.14	96.38
297.37	80.38
297.601	83.38
297.831	105.38
298.062	99.38
298.292	90.38
298.523	89.38
298.753	92.38
298.984	91.38
299.214	104.38
299.445	97.38
299.675	92.38
299.905	112.38
300.136	93.38
300.366	88.38
300.597	94.38
300.827	108.38
301.057	124.38
301.288	132.38
301.518	108.38
301.748	107.38
301.979	124.38
302.209	99.38
302.439	102.38
302.669	100.38
302.9	91.38
303.13	97.38
303.36	132.38
303.59	182.38
303.82	203.38
304.051	131.38
304.281	104.38
304.511	94.38
304.741	100.38
304.971	86.38
305.201	102.38
305.431	99.38
305.661	99.38
305.891	84.38
306.121	99.38
306.352	129.38
306.582	142.38
306.812	123.38
307.042	156.38
307.272	225.38
307.502	275.38
307.731	230.38
307.961	149.38
308.191	99.38
308.421	95.38
308.651	102.38
308.881	105.38
309.111	91.38
309.341	96.38
309.571	118.38
309.8	101.38
310.03	123.38
310.26	105.38
310.49	93.38
310.72	128.38
310.949	145.38
311.179	132.38
311.409	107.38
311.639	111.38
311.868	96.38
312.098	105.38
312.328	119.38
312.557	120.38
312.787	142.38
313.017	128.38
313.246	106.38
313.476	96.38
313.706	109.38
313.935	121.38
314.165	120.38
314.394	134.38
314.624	123.38
314.853	110.38
315.083	92.38
315.312	106.38
315.542	90.38
315.771	89.38
316.001	104.38
316.23	95.38
316.46	88.38
316.689	92.38
316.919	95.38
317.148	101.38
317.377	105.38
317.607	94.38
317.836	106.38
318.065	96.38
318.295	82.38
318.524	74.38
318.753	98.38
318.983	102.38
319.212	111.38
319.441	146.38
319.67	149.38
319.9	89.38
320.129	99.38
320.358	105.38
320.587	113.38
320.816	125.38
321.046	125.38
321.275	120.38
321.504	93.38
321.733	108.38
321.962	103.38
322.191	112.38
322.42	121.38
322.649	124.38
322.878	148.38
323.108	162.38
323.337	189.38
323.566	178.38
323.795	235.38
324.024	321.38
324.253	657.38
324.482	1422.38
324.71	3008.38
324.939	3925.38
325.168	1448.38
325.397	413.38
325.626	218.38
325.855	156.38
326.084	177.38
326.313	169.38
326.542	222.38
326.77	344.38
326.999	704.38
327.228	1464.38
327.457	2791.38
327.686	2212.38
327.914	870.38
328.143	915.38
328.372	1222.38
328.6	625.38
328.829	274.38
329.058	286.38
329.287	305.38
329.515	260.38
329.744	426.38
329.972	853.38
330.201	1877.38
330.43	2729.38
330.658	1137.38
330.887	497.38
331.115	281.38
331.344	165.38
331.572	145.38
331.801	168.38
332.03	175.38
332.258	146.38
332.486	116.38
332.715	126.38
332.943	137.38
333.172	149.38
333.4	169.38
333.629	224.38
333.857	336.38
334.085	761.38
334.314	1635.38
334.542	3274.38
334.771	2977.38
334.999	718.38
335.227	242.38
335.455	153.38
335.684	142.38
335.912	125.38
336.14	119.38
336.369	123.38
336.597	144.38
336.825	108.38
337.053	116.38
337.281	89.38
337.51	97.38
337.738	110.38
337.966	111.38
338.194	129.38
338.422	112.38
338.65	98.38
338.878	107.38
339.106	96.38
339.334	80.38
339.562	95.38
339.79	82.38
340.018	98.38
340.246	118.38
340.474	115.38
340.702	96.38
340.93	100.38
341.158	105.38
341.386	111.38
341.614	112.38
341.842	99.38
342.07	99.38
342.298	109.38
342.526	100.38
342.754	79.38
342.981	89.38
343.209	94.38
343.437	110.38
343.665	92.38
343.893	91.38
344.12	85.38
344.348	81.38
344.576	98.38
344.804	98.38
345.031	111.38
345.259	120.38
345.487	115.38
345.714	88.38
345.942	98.38
346.17	101.38
346.397	96.38
346.625	107.38
346.853	108.38
347.08	91.38
347.308	100.38
347.535	111.38
347.763	124.38
347.99	105.38
348.218	131.38
348.445	150.38
348.673	134.38
348.9	96.38
349.128	96.38
349.355	82.38
349.583	89.38
349.81	97.38
350.037	100.38
350.265	97.38
350.492	86.38
350.72	105.38
350.947	118.38
351.174	133.38
351.402	150.38
351.629	120.38
351.856	119.38
352.083	123.38
352.311	126.38
352.538	154.38
352.765	143.38
352.992	146.38
353.22	131.38
353.447	130.38
353.674	104.38
353.901	80.38
354.128	92.38
354.355	104.38
354.583	92.38
354.81	109.38
355.037	95.38
355.264	95.38
355.491	81.38
355.718	85.38
355.945	89.38
356.172	73.38
356.399	93.38
356.626	94.38
356.853	85.38
357.08	82.38
357.307	92.38
357.534	92.38
357.761	77.38
357.988	100.38
358.215	98.38
358.441	89.38
358.668	93.38
358.895	88.38
359.122	82.38
359.349	86.38
359.576	99.38
359.802	141.38
360.029	200.38
360.256	196.38
360.483	141.38
360.709	98.38
360.936	99.38
361.163	114.38
361.39	108.38
361.616	112.38
361.843	94.38
362.07	113.38
362.296	116.38
362.523	117.38
362.749	120.38
362.976	97.38
363.203	100.38
363.429	100.38
363.656	98.38
363.882	84.38
364.109	110.38
364.335	98.38
364.562	86.38
364.788	107.38
365.015	103.38
365.241	119.38
365.468	153.38
365.694	137.38
365.92	128.38
366.147	105.38
366.373	91.38
366.599	66.38
366.826	92.38
367.052	84.38
367.278	108.38
367.505	90.38
367.731	104.38
367.957	97.38
368.184	132.38
368.41	119.38
368.636	118.38
368.862	154.38
369.089	145.38
369.315	118.38
369.541	111.38
369.767	107.38
369.993	89.38
370.219	105.38
370.445	91.38
370.672	80.38
370.898	89.38
371.124	86.38
371.35	90.38
371.576	80.38
371.802	81.38
372.028	84.38
372.254	91.38
372.48	83.38
372.706	77.38
372.932	94.38
373.158	96.38
373.384	81.38
373.61	94.38
373.835	92.38
374.061	88.38
374.287	98.38
374.513	83.38
374.739	89.38
374.965	93.38
375.191	90.38
375.416	72.38
375.642	78.38
375.868	92.38
376.094	107.38
376.319	81.38
376.545	100.38
376.771	85.38
376.997	92.38
377.222	102.38
377.448	75.38
377.674	91.38
377.899	93.38
378.125	75.38
378.35	82.38
378.576	98.38
378.802	76.38
379.027	91.38
379.253	101.38
379.478	90.38
379.704	81.38
379.929	93.38
380.155	97.38
380.38	92.38
380.606	88.38
380.831	73.38
381.057	80.38
381.282	94.38
381.507	93.38
381.733	94.38
381.958	85.38
382.184	100.38
382.409	109.38
382.634	98.38
382.86	94.38
383.085	99.38
383.31	104.38
383.535	92.38
383.761	94.38
383.986	88.38
384.211	87.38
384.436	98.38
384.662	108.38
384.887	98.38
385.112	80.38
385.337	98.38
385.562	95.38
385.787	99.38
386.013	109.38
386.238	135.38
386.463	114.38
386.688	102.38
386.913	105.38
387.138	87.38
387.363	82.38
387.588	92.38
387.813	84.38
388.038	89.38
388.263	98.38
388.488	99.38
388.713	94.38
388.938	96.38
389.163	82.38
389.387	89.38
389.612	88.38
389.837	81.38
390.062	89.38
390.287	80.38
390.512	79.38
390.736	80.38
390.961	104.38
391.186	87.38
391.411	104.38
391.636	101.38
391.86	92.38
392.085	100.38
392.31	91.38
392.534	90.38
392.759	76.38
392.984	96.38
393.208	88.38
393.433	82.38
393.658	96.38
393.882	77.38
394.107	86.38
394.331	70.38
394.556	70.38
394.78	103.38
395.005	88.38
395.229	78.38
395.454	84.38
395.678	80.38
395.903	85.38
396.127	87.38
396.352	74.38
396.576	86.38
396.801	75.38
397.025	90.38
397.249	91.38
397.474	91.38
397.698	83.38
397.922	99.38
398.147	98.38
398.371	84.38
398.595	79.38
398.82	85.38
399.044	84.38
399.268	91.38
399.492	89.38
399.717	89.38
399.941	83.38
400.165	109.38
400.389	85.38
400.613	82.38
400.837	92.38
401.062	92.38
401.286	84.38
401.51	93.38
401.734	105.38
401.958	114.38
402.182	194.38
402.406	283.38
402.63	200.38
402.854	114.38
403.078	102.38
403.302	80.38
403.526	91.38
403.75	81.38
403.974	88.38
404.198	84.38
404.422	90.38
404.645	102.38
404.869	114.38
405.093	136.38
405.317	176.38
405.541	178.38
405.765	148.38
405.988	169.38
406.212	306.38
406.436	495.38
406.66	305.38
406.883	159.38
407.107	122.38
407.331	112.38
407.555	121.38
407.778	126.38
408.002	93.38
408.226	85.38
408.449	99.38
408.673	82.38
408.896	97.38
409.12	114.38
409.344	99.38
409.567	91.38
409.791	81.38
410.014	92.38
410.238	98.38
410.461	94.38
410.685	100.38
410.908	107.38
411.132	113.38
411.355	124.38
411.578	92.38
411.802	90.38
412.025	97.38
412.249	98.38
412.472	124.38
412.695	162.38
412.919	123.38
413.142	91.38
413.365	97.38
413.589	93.38
413.812	91.38
414.035	102.38
414.258	93.38
414.482	100.38
414.705	91.38
414.928	89.38
415.151	87.38
415.374	95.38
415.597	89.38
415.821	108.38
416.044	101.38
416.267	89.38
416.49	86.38
416.713	89.38
416.936	87.38
417.159	80.38
417.382	99.38
417.605	117.38
417.828	136.38
418.051	122.38
418.274	92.38
418.497	91.38
418.72	79.38
418.943	85.38
419.166	84.38
419.389	82.38
419.611	80.38
419.834	90.38
420.057	85.38
420.28	109.38
420.503	96.38
420.726	93.38
420.948	87.38
421.171	125.38
421.394	97.38
421.617	78.38
421.839	87.38
422.062	88.38
422.285	90.38
422.507	109.38
422.73	107.38
422.953	105.38
423.175	80.38
423.398	89.38
423.621	108.38
423.843	77.38
424.066	95.38
424.288	79.38
424.511	90.38
424.733	125.38
424.956	135.38
425.178	124.38
425.401	108.38
425.623	114.38
425.846	91.38
426.068	115.38
426.291	105.38
426.513	101.38
426.735	91.38
426.958	116.38
427.18	141.38
427.402	221.38
427.625	405.38
427.847	342.38
428.069	259.38
428.292	167.38
428.514	99.38
428.736	100.38
428.958	90.38
429.181	77.38
429.403	93.38
429.625	87.38
429.847	94.38
430.069	106.38
430.292	105.38
430.514	71.38
430.736	85.38
430.958	88.38
431.18	84.38
431.402	84.38
431.624	102.38
431.846	86.38
432.068	88.38
432.29	82.38
432.512	89.38
432.734	93.38
432.956	93.38
433.178	90.38
433.4	100.38
433.622	88.38
433.844	78.38
434.066	84.38
434.287	96.38
434.509	80.38
434.731	87.38
434.953	104.38
435.175	77.38
435.397	94.38
435.618	97.38
435.84	104.38
436.062	162.38
436.284	146.38
436.505	117.38
436.727	92.38
436.949	84.38
437.17	84.38
437.392	102.38
437.614	104.38
437.835	148.38
438.057	197.38
438.278	152.38
438.5	116.38
438.721	166.38
438.943	125.38
439.165	87.38
439.386	92.38
439.608	93.38
439.829	123.38
440.05	176.38
440.272	240.38
440.493	131.38
440.715	93.38
440.936	96.38
441.158	103.38
441.379	100.38
441.6	104.38
441.822	113.38
442.043	117.38
442.264	127.38
442.486	125.38
442.707	117.38
442.928	151.38
443.149	220.38
443.371	211.38
443.592	158.38
443.813	144.38
444.034	123.38
444.255	99.38
444.476	91.38
444.698	79.38
444.919	97.38
445.14	148.38
445.361	155.38
445.582	166.38
445.803	245.38
446.024	221.38
446.245	202.38
446.466	145.38
446.687	106.38
446.908	90.38
447.129	108.38
447.35	101.38
447.571	109.38
447.792	109.38
448.013	110.38
448.234	155.38
448.455	129.38
448.675	145.38
448.896	136.38
449.117	107.38
449.338	126.38
449.559	168.38
449.779	150.38
450	103.38
450.221	100.38
450.442	105.38
450.662	116.38
450.883	169.38
451.104	178.38
451.324	121.38
451.545	84.38
451.766	93.38
451.986	90.38
452.207	94.38
452.428	107.38
452.648	117.38
452.869	153.38
453.089	174.38
453.31	197.38
453.53	119.38
453.751	122.38
453.971	159.38
454.192	202.38
454.412	114.38
454.633	100.38
454.853	99.38
455.073	97.38
455.294	98.38
455.514	114.38
455.734	89.38
455.955	76.38
456.175	82.38
456.395	90.38
456.616	94.38
456.836	88.38
457.056	77.38
457.276	91.38
457.497	101.38
457.717	78.38
457.937	88.38
458.157	86.38
458.377	108.38
458.598	179.38
458.818	311.38
459.038	337.38
459.258	196.38
459.478	116.38
459.698	87.38
459.918	101.38
460.138	98.38
460.358	94.38
460.578	96.38
460.798	97.38
461.018	81.38
461.238	79.38
461.458	92.38
461.678	93.38
461.898	94.38
462.118	87.38
462.338	79.38
462.558	103.38
462.777	80.38
462.997	103.38
463.217	133.38
463.437	102.38
463.657	95.38
463.876	104.38
464.096	90.38
464.316	106.38
464.536	117.38
464.755	112.38
464.975	147.38
465.195	385.38
465.414	380.38
465.634	138.38
465.854	91.38
466.073	96.38
466.293	82.38
466.512	103.38
466.732	96.38
466.951	102.38
467.171	108.38
467.391	156.38
467.61	206.38
467.829	337.38
468.049	1083.38
468.268	1637.38
468.488	366.38
468.707	134.38
468.927	102.38
469.146	96.38
469.365	99.38
469.585	100.38
469.804	120.38
470.023	135.38
470.243	121.38
470.462	162.38
470.681	196.38
470.901	125.38
471.12	120.38
471.339	120.38
471.558	152.38
471.777	228.38
471.997	490.38
472.216	2034.38
472.435	4812.38
472.654	1027.38
472.873	239.38
473.092	118.38
473.311	108.38
473.53	110.38
473.749	88.38
473.968	110.38
474.187	136.38
474.406	105.38
474.625	101.38
474.844	81.38
475.063	98.38
475.282	81.38
475.501	96.38
475.72	90.38
475.939	98.38
476.158	89.38
476.377	102.38
476.596	99.38
476.814	103.38
477.033	124.38
477.252	112.38
477.471	100.38
477.69	94.38
477.908	99.38
478.127	84.38
478.346	87.38
478.564	95.38
478.783	111.38
479.002	111.38
479.22	136.38
479.439	148.38
479.658	173.38
479.876	148.38
480.095	154.38
480.313	165.38
480.532	228.38
480.751	455.38
480.969	1812.38
481.188	8000.38
481.406	4487.38
481.624	593.38
481.843	185.38
482.061	128.38
482.28	116.38
482.498	101.38
482.717	106.38
482.935	99.38
483.153	96.38
483.372	109.38
483.59	92.38
483.808	94.38
484.027	93.38
484.245	104.38
484.463	116.38
484.681	106.38
484.9	90.38
485.118	90.38
485.336	102.38
485.554	106.38
485.772	104.38
485.99	106.38
486.209	126.38
486.427	115.38
486.645	130.38
486.863	165.38
487.081	125.38
487.299	106.38
487.517	97.38
487.735	99.38
487.953	94.38
488.171	84.38
488.389	103.38
488.607	129.38
488.825	90.38
489.043	83.38
489.261	87.38
489.479	100.38
489.696	89.38
489.914	88.38
490.132	84.38
490.35	95.38
490.568	76.38
490.786	92.38
491.003	86.38
491.221	98.38
491.439	103.38
491.657	87.38
491.874	76.38
492.092	102.38
492.31	92.38
492.527	99.38
492.745	92.38
492.963	87.38
493.18	92.38
493.398	84.38
493.615	85.38
493.833	94.38
494.05	86.38
494.268	89.38
494.485	88.38
494.703	93.38
494.92	77.38
495.138	76.38
495.355	81.38
495.573	91.38
495.79	97.38
496.008	109.38
496.225	102.38
496.442	87.38
496.66	91.38
496.877	98.38
497.094	101.38
497.312	90.38
497.529	92.38
497.746	93.38
497.963	95.38
498.181	113.38
498.398	106.38
498.615	135.38
498.832	100.38
499.049	89.38
499.267	96.38
499.484	94.38
499.701	81.38
499.918	91.38
500.135	100.38
500.352	93.38
500.569	108.38
500.786	93.38
501.003	94.38
501.22	94.38
501.437	107.38
501.654	123.38
501.871	171.38
502.088	117.38
502.305	89.38
502.522	88.38
502.739	90.38
502.956	99.38
503.172	90.38
503.389	123.38
503.606	174.38
503.823	115.38
504.04	102.38
504.256	99.38
504.473	84.38
504.69	87.38
504.907	91.38
505.123	80.38
505.34	87.38
505.557	104.38
505.773	94.38
505.99	93.38
506.207	102.38
506.423	97.38
506.64	94.38
506.856	95.38
507.073	92.38
507.289	96.38
507.506	110.38
507.722	180.38
507.939	162.38
508.155	107.38
508.372	111.38
508.588	107.38
508.805	110.38
509.021	106.38
509.238	115.38
509.454	115.38
509.67	122.38
509.887	145.38
510.103	190.38
510.319	333.38
510.536	1392.38
510.752	5355.38
510.968	1347.38
511.184	242.38
511.401	150.38
511.617	127.38
511.833	121.38
