Data from Circ_1999_H10_HRD10591_00044.txt Node
Date: Wed Jan 03 11:23:21 EST 2024
User: Yrep
Spectrometer: HR+D1059
Trigger mode: 1
Integration Time (sec): 1.000000E-1
Scans to average: 1
Electric dark correction enabled: true
Nonlinearity correction enabled: false
Boxcar width: 0
XAxis mode: Wavelengths
Number of Pixels in Spectrum: 2048
>>>>>Begin Spectral Data<<<<<
223.165	-8.88
223.4	-8.88
223.635	-8.88
223.869	-20.88
224.104	-20.88
224.338	-12.88
224.573	-19.88
224.808	-15.88
225.042	-8.88
225.277	-16.88
225.511	-0.88
225.746	-0.88
225.98	14.12
226.215	22.12
226.449	32.12
226.683	6.12
226.918	32.12
227.152	20.12
227.387	35.12
227.621	44.12
227.856	30.12
228.09	44.12
228.324	59.12
228.559	48.12
228.793	58.12
229.027	70.12
229.262	74.12
229.496	94.12
229.73	102.12
229.964	112.12
230.199	98.12
230.433	82.12
230.667	89.12
230.901	84.12
231.136	81.12
231.37	84.12
231.604	84.12
231.838	91.12
232.072	78.12
232.306	91.12
232.541	86.12
232.775	75.12
233.009	82.12
233.243	70.12
233.477	84.12
233.711	86.12
233.945	66.12
234.179	74.12
234.413	97.12
234.647	82.12
234.881	81.12
235.115	90.12
235.349	79.12
235.583	97.12
235.817	86.12
236.051	87.12
236.285	84.12
236.519	74.12
236.753	76.12
236.987	86.12
237.221	107.12
237.455	91.12
237.689	93.12
237.922	82.12
238.156	78.12
238.39	76.12
238.624	66.12
238.858	97.12
239.091	67.12
239.325	75.12
239.559	89.12
239.793	79.12
240.027	93.12
240.26	92.12
240.494	89.12
240.728	85.12
240.961	90.12
241.195	82.12
241.429	77.12
241.662	76.12
241.896	71.12
242.13	65.12
242.363	86.12
242.597	89.12
242.83	78.12
243.064	84.12
243.298	81.12
243.531	87.12
243.765	80.12
243.998	94.12
244.232	92.12
244.465	84.12
244.699	95.12
244.932	82.12
245.166	91.12
245.399	90.12
245.633	84.12
245.866	74.12
246.099	102.12
246.333	92.12
246.566	91.12
246.8	85.12
247.033	83.12
247.266	78.12
247.5	86.12
247.733	80.12
247.966	81.12
248.2	104.12
248.433	84.12
248.666	86.12
248.899	94.12
249.133	88.12
249.366	124.12
249.599	111.12
249.832	94.12
250.066	82.12
250.299	92.12
250.532	102.12
250.765	86.12
250.998	83.12
251.231	100.12
251.465	84.12
251.698	85.12
251.931	94.12
252.164	92.12
252.397	92.12
252.63	92.12
252.863	75.12
253.096	89.12
253.329	86.12
253.562	87.12
253.795	94.12
254.028	90.12
254.261	71.12
254.494	93.12
254.727	78.12
254.96	101.12
255.193	96.12
255.426	89.12
255.659	92.12
255.892	111.12
256.124	112.12
256.357	88.12
256.59	97.12
256.823	87.12
257.056	104.12
257.289	97.12
257.521	94.12
257.754	80.12
257.987	100.12
258.22	116.12
258.452	95.12
258.685	96.12
258.918	92.12
259.151	68.12
259.383	84.12
259.616	87.12
259.849	87.12
260.081	93.12
260.314	83.12
260.547	97.12
260.779	110.12
261.012	134.12
261.244	119.12
261.477	112.12
261.71	107.12
261.942	172.12
262.175	188.12
262.407	110.12
262.64	86.12
262.872	88.12
263.105	92.12
263.337	95.12
263.57	105.12
263.802	108.12
264.035	84.12
264.267	90.12
264.499	91.12
264.732	102.12
264.964	85.12
265.197	88.12
265.429	74.12
265.661	88.12
265.894	87.12
266.126	90.12
266.358	81.12
266.591	91.12
266.823	84.12
267.055	82.12
267.287	85.12
267.52	88.12
267.752	76.12
267.984	92.12
268.216	96.12
268.448	94.12
268.681	98.12
268.913	87.12
269.145	96.12
269.377	102.12
269.609	65.12
269.841	88.12
270.073	78.12
270.306	109.12
270.538	94.12
270.77	100.12
271.002	102.12
271.234	93.12
271.466	102.12
271.698	98.12
271.93	94.12
272.162	107.12
272.394	90.12
272.626	94.12
272.858	97.12
273.09	96.12
273.322	98.12
273.553	87.12
273.785	90.12
274.017	115.12
274.249	82.12
274.481	88.12
274.713	80.12
274.945	85.12
275.176	100.12
275.408	112.12
275.64	129.12
275.872	142.12
276.104	126.12
276.335	118.12
276.567	143.12
276.799	197.12
277.031	235.12
277.262	264.12
277.494	200.12
277.726	107.12
277.957	99.12
278.189	91.12
278.421	109.12
278.652	92.12
278.884	92.12
279.115	104.12
279.347	109.12
279.579	102.12
279.81	155.12
280.042	264.12
280.273	348.12
280.505	230.12
280.736	125.12
280.968	98.12
281.199	113.12
281.431	88.12
281.662	104.12
281.894	95.12
282.125	117.12
282.356	164.12
282.588	235.12
282.819	145.12
283.051	100.12
283.282	95.12
283.513	95.12
283.745	84.12
283.976	101.12
284.207	85.12
284.439	96.12
284.67	107.12
284.901	111.12
285.132	94.12
285.364	96.12
285.595	106.12
285.826	90.12
286.057	95.12
286.288	80.12
286.52	89.12
286.751	103.12
286.982	84.12
287.213	98.12
287.444	112.12
287.675	100.12
287.906	99.12
288.138	98.12
288.369	114.12
288.6	105.12
288.831	86.12
289.062	98.12
289.293	88.12
289.524	86.12
289.755	110.12
289.986	91.12
290.217	88.12
290.448	100.12
290.679	85.12
290.91	86.12
291.141	81.12
291.371	90.12
291.602	86.12
291.833	108.12
292.064	89.12
292.295	97.12
292.526	94.12
292.757	107.12
292.987	106.12
293.218	104.12
293.449	107.12
293.68	84.12
293.91	96.12
294.141	88.12
294.372	84.12
294.603	98.12
294.833	99.12
295.064	86.12
295.295	95.12
295.525	98.12
295.756	104.12
295.987	177.12
296.217	225.12
296.448	184.12
296.679	120.12
296.909	102.12
297.14	97.12
297.37	110.12
297.601	95.12
297.831	92.12
298.062	117.12
298.292	102.12
298.523	109.12
298.753	107.12
298.984	104.12
299.214	90.12
299.445	110.12
299.675	106.12
299.905	123.12
300.136	113.12
300.366	100.12
300.597	100.12
300.827	99.12
301.057	138.12
301.288	133.12
301.518	108.12
301.748	121.12
301.979	118.12
302.209	118.12
302.439	105.12
302.669	108.12
302.9	107.12
303.13	106.12
303.36	131.12
303.59	169.12
303.82	186.12
304.051	115.12
304.281	98.12
304.511	103.12
304.741	88.12
304.971	99.12
305.201	96.12
305.431	93.12
305.661	96.12
305.891	92.12
306.121	109.12
306.352	121.12
306.582	137.12
306.812	118.12
307.042	147.12
307.272	192.12
307.502	235.12
307.731	210.12
307.961	158.12
308.191	99.12
308.421	93.12
308.651	98.12
308.881	97.12
309.111	105.12
309.341	110.12
309.571	122.12
309.8	114.12
310.03	115.12
310.26	123.12
310.49	115.12
310.72	116.12
310.949	159.12
311.179	130.12
311.409	125.12
311.639	107.12
311.868	98.12
312.098	110.12
312.328	106.12
312.557	138.12
312.787	158.12
313.017	143.12
313.246	107.12
313.476	106.12
313.706	104.12
313.935	107.12
314.165	129.12
314.394	158.12
314.624	117.12
314.853	118.12
315.083	112.12
315.312	94.12
315.542	100.12
315.771	87.12
316.001	104.12
316.23	101.12
316.46	89.12
316.689	101.12
316.919	111.12
317.148	121.12
317.377	109.12
317.607	107.12
317.836	114.12
318.065	114.12
318.295	98.12
318.524	104.12
318.753	103.12
318.983	105.12
319.212	122.12
319.441	146.12
319.67	138.12
319.9	118.12
320.129	116.12
320.358	118.12
320.587	125.12
320.816	119.12
321.046	131.12
321.275	116.12
321.504	104.12
321.733	97.12
321.962	112.12
322.191	128.12
322.42	124.12
322.649	142.12
322.878	151.12
323.108	158.12
323.337	179.12
323.566	186.12
323.795	218.12
324.024	304.12
324.253	602.12
324.482	1298.12
324.71	2698.12
324.939	3601.12
325.168	1295.12
325.397	378.12
325.626	200.12
325.855	170.12
326.084	159.12
326.313	158.12
326.542	226.12
326.77	327.12
326.999	614.12
327.228	1308.12
327.457	2411.12
327.686	1972.12
327.914	744.12
328.143	798.12
328.372	996.12
328.6	538.12
328.829	270.12
329.058	263.12
329.287	284.12
329.515	239.12
329.744	360.12
329.972	726.12
330.201	1558.12
330.43	2212.12
330.658	982.12
330.887	438.12
331.115	274.12
331.344	167.12
331.572	154.12
331.801	170.12
332.03	156.12
332.258	118.12
332.486	111.12
332.715	128.12
332.943	137.12
333.172	149.12
333.4	167.12
333.629	219.12
333.857	317.12
334.085	639.12
334.314	1360.12
334.542	2783.12
334.771	2557.12
334.999	633.12
335.227	243.12
335.455	155.12
335.684	126.12
335.912	126.12
336.14	141.12
336.369	145.12
336.597	114.12
336.825	127.12
337.053	113.12
337.281	125.12
337.51	111.12
337.738	107.12
337.966	119.12
338.194	132.12
338.422	114.12
338.65	107.12
338.878	100.12
339.106	103.12
339.334	98.12
339.562	104.12
339.79	97.12
340.018	95.12
340.246	107.12
340.474	133.12
340.702	116.12
340.93	107.12
341.158	115.12
341.386	126.12
341.614	121.12
341.842	128.12
342.07	106.12
342.298	112.12
342.526	105.12
342.754	102.12
342.981	93.12
343.209	92.12
343.437	107.12
343.665	98.12
343.893	88.12
344.12	101.12
344.348	94.12
344.576	106.12
344.804	104.12
345.031	150.12
345.259	136.12
345.487	113.12
345.714	116.12
345.942	111.12
346.17	99.12
346.397	123.12
346.625	106.12
346.853	94.12
347.08	106.12
347.308	117.12
347.535	115.12
347.763	124.12
347.99	121.12
348.218	113.12
348.445	161.12
348.673	136.12
348.9	115.12
349.128	113.12
349.355	100.12
349.583	104.12
349.81	119.12
350.037	114.12
350.265	101.12
350.492	110.12
350.72	106.12
350.947	112.12
351.174	147.12
351.402	138.12
351.629	125.12
351.856	117.12
352.083	127.12
352.311	134.12
352.538	130.12
352.765	143.12
352.992	136.12
353.22	133.12
353.447	125.12
353.674	108.12
353.901	92.12
354.128	99.12
354.355	99.12
354.583	109.12
354.81	102.12
355.037	99.12
355.264	102.12
355.491	93.12
355.718	114.12
355.945	89.12
356.172	82.12
356.399	87.12
356.626	105.12
356.853	96.12
357.08	92.12
357.307	88.12
357.534	103.12
357.761	90.12
357.988	92.12
358.215	95.12
358.441	108.12
358.668	98.12
358.895	91.12
359.122	94.12
359.349	100.12
359.576	103.12
359.802	157.12
360.029	194.12
360.256	182.12
360.483	156.12
360.709	116.12
360.936	114.12
361.163	108.12
361.39	131.12
361.616	123.12
361.843	110.12
362.07	116.12
362.296	125.12
362.523	113.12
362.749	119.12
362.976	99.12
363.203	104.12
363.429	79.12
363.656	92.12
363.882	96.12
364.109	90.12
364.335	105.12
364.562	108.12
364.788	100.12
365.015	112.12
365.241	112.12
365.468	135.12
365.694	152.12
365.92	124.12
366.147	115.12
366.373	111.12
366.599	96.12
366.826	90.12
367.052	100.12
367.278	108.12
367.505	95.12
367.731	105.12
367.957	112.12
368.184	129.12
368.41	135.12
368.636	156.12
368.862	167.12
369.089	148.12
369.315	124.12
369.541	115.12
369.767	105.12
369.993	121.12
370.219	114.12
370.445	100.12
370.672	87.12
370.898	109.12
371.124	112.12
371.35	109.12
371.576	99.12
371.802	94.12
372.028	93.12
372.254	87.12
372.48	92.12
372.706	104.12
372.932	80.12
373.158	81.12
373.384	109.12
373.61	90.12
373.835	106.12
374.061	93.12
374.287	94.12
374.513	94.12
374.739	109.12
374.965	110.12
375.191	96.12
375.416	96.12
375.642	95.12
375.868	92.12
376.094	89.12
376.319	92.12
376.545	104.12
376.771	86.12
376.997	97.12
377.222	109.12
377.448	104.12
377.674	79.12
377.899	89.12
378.125	96.12
378.35	95.12
378.576	83.12
378.802	96.12
379.027	94.12
379.253	92.12
379.478	83.12
379.704	106.12
379.929	96.12
380.155	102.12
380.38	105.12
380.606	98.12
380.831	113.12
381.057	111.12
381.282	96.12
381.507	98.12
381.733	88.12
381.958	107.12
382.184	103.12
382.409	99.12
382.634	101.12
382.86	98.12
383.085	110.12
383.31	93.12
383.535	108.12
383.761	102.12
383.986	103.12
384.211	99.12
384.436	107.12
384.662	93.12
384.887	98.12
385.112	90.12
385.337	112.12
385.562	100.12
385.787	113.12
386.013	131.12
386.238	144.12
386.463	132.12
386.688	119.12
386.913	103.12
387.138	98.12
387.363	97.12
387.588	90.12
387.813	118.12
388.038	104.12
388.263	107.12
388.488	119.12
388.713	78.12
388.938	83.12
389.163	99.12
389.387	86.12
389.612	98.12
389.837	91.12
390.062	75.12
390.287	91.12
390.512	97.12
390.736	88.12
390.961	97.12
391.186	91.12
391.411	99.12
391.636	88.12
391.86	88.12
392.085	95.12
392.31	82.12
392.534	95.12
392.759	86.12
392.984	92.12
393.208	88.12
393.433	91.12
393.658	97.12
393.882	86.12
394.107	84.12
394.331	92.12
394.556	99.12
394.78	115.12
395.005	86.12
395.229	105.12
395.454	77.12
395.678	82.12
395.903	92.12
396.127	113.12
396.352	86.12
396.576	80.12
396.801	96.12
397.025	91.12
397.249	84.12
397.474	107.12
397.698	93.12
397.922	97.12
398.147	94.12
398.371	94.12
398.595	91.12
398.82	95.12
399.044	85.12
399.268	75.12
399.492	102.12
399.717	96.12
399.941	104.12
400.165	102.12
400.389	88.12
400.613	98.12
400.837	106.12
401.062	95.12
401.286	105.12
401.51	98.12
401.734	112.12
401.958	123.12
402.182	201.12
402.406	282.12
402.63	179.12
402.854	129.12
403.078	104.12
403.302	91.12
403.526	93.12
403.75	95.12
403.974	106.12
404.198	99.12
404.422	94.12
404.645	93.12
404.869	102.12
405.093	139.12
405.317	161.12
405.541	163.12
405.765	135.12
405.988	177.12
406.212	300.12
406.436	499.12
406.66	296.12
406.883	166.12
407.107	126.12
407.331	139.12
407.555	120.12
407.778	112.12
408.002	101.12
408.226	97.12
408.449	86.12
408.673	88.12
408.896	100.12
409.12	106.12
409.344	99.12
409.567	94.12
409.791	82.12
410.014	84.12
410.238	90.12
410.461	101.12
410.685	94.12
410.908	101.12
411.132	114.12
411.355	103.12
411.578	94.12
411.802	95.12
412.025	94.12
412.249	115.12
412.472	130.12
412.695	146.12
412.919	119.12
413.142	108.12
413.365	97.12
413.589	82.12
413.812	99.12
414.035	98.12
414.258	91.12
414.482	95.12
414.705	92.12
414.928	98.12
415.151	91.12
415.374	84.12
415.597	98.12
415.821	104.12
416.044	100.12
416.267	104.12
416.49	100.12
416.713	89.12
416.936	84.12
417.159	101.12
417.382	108.12
417.605	124.12
417.828	134.12
418.051	109.12
418.274	98.12
418.497	100.12
418.72	92.12
418.943	92.12
419.166	96.12
419.389	94.12
419.611	98.12
419.834	104.12
420.057	112.12
420.28	95.12
420.503	98.12
420.726	104.12
420.948	82.12
421.171	123.12
421.394	106.12
421.617	106.12
421.839	96.12
422.062	90.12
422.285	92.12
422.507	100.12
422.73	109.12
422.953	107.12
423.175	96.12
423.398	93.12
423.621	96.12
423.843	91.12
424.066	92.12
424.288	89.12
424.511	115.12
424.733	119.12
424.956	136.12
425.178	121.12
425.401	121.12
425.623	122.12
425.846	108.12
426.068	111.12
426.291	110.12
426.513	111.12
426.735	108.12
426.958	129.12
427.18	146.12
427.402	232.12
427.625	379.12
427.847	311.12
428.069	259.12
428.292	149.12
428.514	108.12
428.736	108.12
428.958	76.12
429.181	77.12
429.403	95.12
429.625	91.12
429.847	96.12
430.069	122.12
430.292	105.12
430.514	84.12
430.736	98.12
430.958	86.12
431.18	79.12
431.402	92.12
431.624	91.12
431.846	81.12
432.068	99.12
432.29	85.12
432.512	97.12
432.734	88.12
432.956	104.12
433.178	104.12
433.4	103.12
433.622	99.12
433.844	104.12
434.066	113.12
434.287	104.12
434.509	111.12
434.731	97.12
434.953	99.12
435.175	95.12
435.397	103.12
435.618	102.12
435.84	98.12
436.062	161.12
436.284	146.12
436.505	123.12
436.727	109.12
436.949	95.12
437.17	92.12
437.392	95.12
437.614	112.12
437.835	167.12
438.057	202.12
438.278	150.12
438.5	146.12
438.721	159.12
438.943	118.12
439.165	96.12
439.386	105.12
439.608	93.12
439.829	122.12
440.05	179.12
440.272	222.12
440.493	137.12
440.715	101.12
440.936	99.12
441.158	97.12
441.379	107.12
441.6	119.12
441.822	121.12
442.043	131.12
442.264	140.12
442.486	136.12
442.707	128.12
442.928	150.12
443.149	228.12
443.371	238.12
443.592	168.12
443.813	147.12
444.034	138.12
444.255	105.12
444.476	102.12
444.698	99.12
444.919	105.12
445.14	142.12
445.361	124.12
445.582	142.12
445.803	225.12
446.024	208.12
446.245	219.12
446.466	136.12
446.687	92.12
446.908	101.12
447.129	99.12
447.35	94.12
447.571	101.12
447.792	110.12
448.013	131.12
448.234	178.12
448.455	122.12
448.675	150.12
448.896	142.12
449.117	124.12
449.338	154.12
449.559	161.12
449.779	184.12
450	91.12
450.221	111.12
450.442	113.12
450.662	114.12
450.883	162.12
451.104	161.12
451.324	121.12
451.545	103.12
451.766	104.12
451.986	95.12
452.207	104.12
452.428	106.12
452.648	110.12
452.869	158.12
453.089	182.12
453.31	186.12
453.53	123.12
453.751	108.12
453.971	131.12
454.192	195.12
454.412	109.12
454.633	94.12
454.853	97.12
455.073	110.12
455.294	99.12
455.514	120.12
455.734	108.12
455.955	99.12
456.175	89.12
456.395	90.12
456.616	90.12
456.836	83.12
457.056	83.12
457.276	96.12
457.497	90.12
457.717	87.12
457.937	90.12
458.157	95.12
458.377	115.12
458.598	155.12
458.818	300.12
459.038	322.12
459.258	192.12
459.478	107.12
459.698	118.12
459.918	98.12
460.138	102.12
460.358	100.12
460.578	90.12
460.798	103.12
461.018	94.12
461.238	96.12
461.458	98.12
461.678	88.12
461.898	98.12
462.118	100.12
462.338	103.12
462.558	104.12
462.777	79.12
462.997	106.12
463.217	122.12
463.437	111.12
463.657	103.12
463.876	98.12
464.096	95.12
464.316	116.12
464.536	112.12
464.755	119.12
464.975	154.12
465.195	370.12
465.414	359.12
465.634	134.12
465.854	106.12
466.073	88.12
466.293	91.12
466.512	94.12
466.732	100.12
466.951	103.12
467.171	115.12
467.391	163.12
467.61	211.12
467.829	290.12
468.049	838.12
468.268	1296.12
468.488	296.12
468.707	125.12
468.927	116.12
469.146	95.12
469.365	102.12
469.585	104.12
469.804	130.12
470.023	142.12
470.243	112.12
470.462	150.12
470.681	194.12
470.901	134.12
471.12	122.12
471.339	122.12
471.558	144.12
471.777	203.12
471.997	421.12
472.216	1744.12
472.435	3916.12
472.654	868.12
472.873	223.12
473.092	133.12
473.311	98.12
473.53	107.12
473.749	118.12
473.968	118.12
474.187	134.12
474.406	120.12
474.625	105.12
474.844	82.12
475.063	103.12
475.282	87.12
475.501	91.12
475.72	94.12
475.939	90.12
476.158	95.12
476.377	100.12
476.596	107.12
476.814	114.12
477.033	112.12
477.252	88.12
477.471	100.12
477.69	118.12
477.908	112.12
478.127	97.12
478.346	104.12
478.564	119.12
478.783	118.12
479.002	125.12
479.22	138.12
479.439	162.12
479.658	162.12
479.876	151.12
480.095	144.12
480.313	167.12
480.532	210.12
480.751	412.12
480.969	1505.12
481.188	6679.12
481.406	3749.12
481.624	510.12
481.843	180.12
482.061	123.12
482.28	103.12
482.498	104.12
482.717	97.12
482.935	91.12
483.153	100.12
483.372	98.12
483.59	105.12
483.808	94.12
484.027	107.12
484.245	105.12
484.463	102.12
484.681	118.12
484.9	105.12
485.118	99.12
485.336	97.12
485.554	102.12
485.772	113.12
485.99	124.12
486.209	125.12
486.427	132.12
486.645	142.12
486.863	146.12
487.081	134.12
487.299	120.12
487.517	103.12
487.735	99.12
487.953	103.12
488.171	119.12
488.389	105.12
488.607	121.12
488.825	94.12
489.043	108.12
489.261	80.12
489.479	86.12
489.696	90.12
489.914	97.12
490.132	97.12
490.35	95.12
490.568	94.12
490.786	101.12
491.003	92.12
491.221	100.12
491.439	119.12
491.657	108.12
491.874	110.12
492.092	109.12
492.31	111.12
492.527	105.12
492.745	113.12
492.963	103.12
493.18	107.12
493.398	97.12
493.615	107.12
493.833	108.12
494.05	96.12
494.268	104.12
494.485	103.12
494.703	87.12
494.92	92.12
495.138	93.12
495.355	100.12
495.573	95.12
495.79	99.12
496.008	104.12
496.225	100.12
496.442	83.12
496.66	95.12
496.877	91.12
497.094	104.12
497.312	96.12
497.529	109.12
497.746	94.12
497.963	97.12
498.181	96.12
498.398	112.12
498.615	116.12
498.832	136.12
499.049	106.12
499.267	99.12
499.484	97.12
499.701	84.12
499.918	83.12
500.135	82.12
500.352	90.12
500.569	106.12
500.786	90.12
501.003	101.12
501.22	106.12
501.437	94.12
501.654	119.12
501.871	165.12
502.088	115.12
502.305	104.12
502.522	105.12
502.739	98.12
502.956	121.12
503.172	105.12
503.389	118.12
503.606	165.12
503.823	121.12
504.04	106.12
504.256	104.12
504.473	107.12
504.69	99.12
504.907	105.12
505.123	102.12
505.34	92.12
505.557	104.12
505.773	120.12
505.99	104.12
506.207	107.12
506.423	91.12
506.64	92.12
506.856	96.12
507.073	88.12
507.289	101.12
507.506	118.12
507.722	183.12
507.939	192.12
508.155	115.12
508.372	93.12
508.588	98.12
508.805	118.12
509.021	109.12
509.238	121.12
509.454	119.12
509.67	127.12
