Data from Circ_1999_H10_HRD10591_00036.txt Node
Date: Wed Jan 03 11:23:19 EST 2024
User: Yrep
Spectrometer: HR+D1059
Trigger mode: 1
Integration Time (sec): 1.000000E-1
Scans to average: 1
Electric dark correction enabled: true
Nonlinearity correction enabled: false
Boxcar width: 0
XAxis mode: Wavelengths
Number of Pixels in Spectrum: 2048
>>>>>Begin Spectral Data<<<<<
223.165	-19.19
223.4	-19.19
223.635	-19.19
223.869	-19.19
224.104	-20.19
224.338	-23.19
224.573	-23.19
224.808	-9.19
225.042	5.81
225.277	-11.19
225.511	-3.19
225.746	-1.19
225.98	-9.19
226.215	15.81
226.449	20.81
226.683	33.81
226.918	20.81
227.152	41.81
227.387	39.81
227.621	40.81
227.856	45.81
228.09	47.81
228.324	52.81
228.559	56.81
228.793	58.81
229.027	56.81
229.262	74.81
229.496	81.81
229.73	94.81
229.964	92.81
230.199	74.81
230.433	74.81
230.667	78.81
230.901	87.81
231.136	70.81
231.37	95.81
231.604	77.81
231.838	78.81
232.072	75.81
232.306	82.81
232.541	79.81
232.775	85.81
233.009	86.81
233.243	82.81
233.477	81.81
233.711	84.81
233.945	81.81
234.179	74.81
234.413	79.81
234.647	76.81
234.881	78.81
235.115	77.81
235.349	73.81
235.583	84.81
235.817	83.81
236.051	88.81
236.285	98.81
236.519	80.81
236.753	71.81
236.987	82.81
237.221	102.81
237.455	94.81
237.689	89.81
237.922	79.81
238.156	83.81
238.39	87.81
238.624	73.81
238.858	75.81
239.091	81.81
239.325	81.81
239.559	84.81
239.793	80.81
240.027	76.81
240.26	65.81
240.494	71.81
240.728	87.81
240.961	70.81
241.195	88.81
241.429	81.81
241.662	77.81
241.896	84.81
242.13	75.81
242.363	84.81
242.597	87.81
242.83	84.81
243.064	74.81
243.298	65.81
243.531	76.81
243.765	68.81
243.998	74.81
244.232	91.81
244.465	90.81
244.699	84.81
244.932	87.81
245.166	78.81
245.399	62.81
245.633	74.81
245.866	78.81
246.099	76.81
246.333	91.81
246.566	70.81
246.8	87.81
247.033	80.81
247.266	91.81
247.5	81.81
247.733	89.81
247.966	94.81
248.2	78.81
248.433	80.81
248.666	93.81
248.899	74.81
249.133	94.81
249.366	116.81
249.599	111.81
249.832	84.81
250.066	92.81
250.299	95.81
250.532	88.81
250.765	85.81
250.998	76.81
251.231	66.81
251.465	88.81
251.698	89.81
251.931	101.81
252.164	74.81
252.397	78.81
252.63	86.81
252.863	73.81
253.096	85.81
253.329	90.81
253.562	85.81
253.795	76.81
254.028	82.81
254.261	92.81
254.494	77.81
254.727	97.81
254.96	83.81
255.193	96.81
255.426	74.81
255.659	97.81
255.892	95.81
256.124	104.81
256.357	95.81
256.59	89.81
256.823	96.81
257.056	102.81
257.289	79.81
257.521	84.81
257.754	98.81
257.987	83.81
258.22	69.81
258.452	104.81
258.685	100.81
258.918	87.81
259.151	95.81
259.383	93.81
259.616	86.81
259.849	87.81
260.081	88.81
260.314	85.81
260.547	103.81
260.779	96.81
261.012	105.81
261.244	111.81
261.477	98.81
261.71	104.81
261.942	163.81
262.175	174.81
262.407	98.81
262.64	78.81
262.872	105.81
263.105	98.81
263.337	90.81
263.57	80.81
263.802	93.81
264.035	79.81
264.267	70.81
264.499	74.81
264.732	81.81
264.964	80.81
265.197	94.81
265.429	91.81
265.661	87.81
265.894	85.81
266.126	81.81
266.358	91.81
266.591	84.81
266.823	73.81
267.055	64.81
267.287	92.81
267.52	88.81
267.752	87.81
267.984	78.81
268.216	89.81
268.448	92.81
268.681	86.81
268.913	77.81
269.145	86.81
269.377	94.81
269.609	78.81
269.841	89.81
270.073	82.81
270.306	83.81
270.538	88.81
270.77	88.81
271.002	93.81
271.234	96.81
271.466	101.81
271.698	98.81
271.93	95.81
272.162	86.81
272.394	98.81
272.626	90.81
272.858	98.81
273.09	99.81
273.322	84.81
273.553	92.81
273.785	82.81
274.017	93.81
274.249	87.81
274.481	91.81
274.713	94.81
274.945	88.81
275.176	82.81
275.408	110.81
275.64	120.81
275.872	121.81
276.104	113.81
276.335	107.81
276.567	123.81
276.799	183.81
277.031	202.81
277.262	225.81
277.494	165.81
277.726	112.81
277.957	84.81
278.189	92.81
278.421	94.81
278.652	76.81
278.884	92.81
279.115	108.81
279.347	89.81
279.579	118.81
279.81	146.81
280.042	219.81
280.273	300.81
280.505	196.81
280.736	124.81
280.968	95.81
281.199	88.81
281.431	97.81
281.662	96.81
281.894	100.81
282.125	108.81
282.356	146.81
282.588	208.81
282.819	138.81
283.051	84.81
283.282	75.81
283.513	89.81
283.745	99.81
283.976	86.81
284.207	89.81
284.439	95.81
284.67	89.81
284.901	74.81
285.132	84.81
285.364	95.81
285.595	78.81
285.826	86.81
286.057	90.81
286.288	99.81
286.52	84.81
286.751	88.81
286.982	76.81
287.213	81.81
287.444	87.81
287.675	91.81
287.906	93.81
288.138	108.81
288.369	94.81
288.6	95.81
288.831	92.81
289.062	89.81
289.293	97.81
289.524	86.81
289.755	87.81
289.986	88.81
290.217	85.81
290.448	87.81
290.679	72.81
290.91	98.81
291.141	76.81
291.371	83.81
291.602	99.81
291.833	94.81
292.064	78.81
292.295	81.81
292.526	97.81
292.757	98.81
292.987	93.81
293.218	80.81
293.449	90.81
293.68	89.81
293.91	80.81
294.141	96.81
294.372	93.81
294.603	99.81
294.833	71.81
295.064	95.81
295.295	83.81
295.525	96.81
295.756	115.81
295.987	142.81
296.217	183.81
296.448	174.81
296.679	106.81
296.909	86.81
297.14	88.81
297.37	88.81
297.601	102.81
297.831	87.81
298.062	92.81
298.292	90.81
298.523	106.81
298.753	88.81
298.984	80.81
299.214	87.81
299.445	113.81
299.675	100.81
299.905	108.81
300.136	92.81
300.366	90.81
300.597	93.81
300.827	114.81
301.057	113.81
301.288	128.81
301.518	108.81
301.748	110.81
301.979	99.81
302.209	108.81
302.439	103.81
302.669	98.81
302.9	100.81
303.13	105.81
303.36	121.81
303.59	157.81
303.82	161.81
304.051	130.81
304.281	102.81
304.511	103.81
304.741	74.81
304.971	91.81
305.201	96.81
305.431	89.81
305.661	98.81
305.891	95.81
306.121	103.81
306.352	111.81
306.582	123.81
306.812	118.81
307.042	145.81
307.272	170.81
307.502	208.81
307.731	182.81
307.961	148.81
308.191	118.81
308.421	97.81
308.651	95.81
308.881	109.81
309.111	98.81
309.341	121.81
309.571	118.81
309.8	114.81
310.03	116.81
310.26	125.81
310.49	100.81
310.72	97.81
310.949	110.81
311.179	118.81
311.409	108.81
311.639	109.81
311.868	112.81
312.098	109.81
312.328	106.81
312.557	114.81
312.787	133.81
313.017	104.81
313.246	103.81
313.476	100.81
313.706	105.81
313.935	115.81
314.165	118.81
314.394	113.81
314.624	105.81
314.853	104.81
315.083	90.81
315.312	102.81
315.542	99.81
315.771	95.81
316.001	88.81
316.23	102.81
316.46	101.81
316.689	107.81
316.919	101.81
317.148	108.81
317.377	88.81
317.607	104.81
317.836	103.81
318.065	101.81
318.295	87.81
318.524	90.81
318.753	80.81
318.983	110.81
319.212	108.81
319.441	134.81
319.67	137.81
319.9	114.81
320.129	86.81
320.358	94.81
320.587	103.81
320.816	116.81
321.046	118.81
321.275	100.81
321.504	112.81
321.733	98.81
321.962	119.81
322.191	119.81
322.42	126.81
322.649	146.81
322.878	125.81
323.108	137.81
323.337	150.81
323.566	170.81
323.795	198.81
324.024	289.81
324.253	587.81
324.482	1180.81
324.71	2457.81
324.939	3266.81
325.168	1226.81
325.397	362.81
325.626	203.81
325.855	170.81
326.084	154.81
326.313	169.81
326.542	197.81
326.77	297.81
326.999	588.81
327.228	1243.81
327.457	2286.81
327.686	1756.81
327.914	640.81
328.143	645.81
328.372	792.81
328.6	433.81
328.829	218.81
329.058	225.81
329.287	239.81
329.515	219.81
329.744	281.81
329.972	573.81
330.201	1170.81
330.43	1735.81
330.658	783.81
330.887	366.81
331.115	236.81
331.344	138.81
331.572	145.81
331.801	153.81
332.03	151.81
332.258	133.81
332.486	113.81
332.715	107.81
332.943	122.81
333.172	140.81
333.4	156.81
333.629	180.81
333.857	270.81
334.085	513.81
334.314	1068.81
334.542	2136.81
334.771	1994.81
334.999	512.81
335.227	193.81
335.455	127.81
335.684	111.81
335.912	121.81
336.14	116.81
336.369	117.81
336.597	113.81
336.825	119.81
337.053	86.81
337.281	94.81
337.51	112.81
337.738	103.81
337.966	102.81
338.194	116.81
338.422	116.81
338.65	106.81
338.878	105.81
339.106	86.81
339.334	111.81
339.562	106.81
339.79	106.81
340.018	94.81
340.246	119.81
340.474	116.81
340.702	104.81
340.93	86.81
341.158	102.81
341.386	98.81
341.614	107.81
341.842	108.81
342.07	97.81
342.298	118.81
342.526	93.81
342.754	108.81
342.981	104.81
343.209	93.81
343.437	98.81
343.665	95.81
343.893	96.81
344.12	86.81
344.348	88.81
344.576	102.81
344.804	114.81
345.031	111.81
345.259	127.81
345.487	104.81
345.714	93.81
345.942	112.81
346.17	99.81
346.397	89.81
346.625	108.81
346.853	100.81
347.08	96.81
347.308	104.81
347.535	113.81
347.763	127.81
347.99	112.81
348.218	112.81
348.445	135.81
348.673	113.81
348.9	95.81
349.128	93.81
349.355	90.81
349.583	94.81
349.81	89.81
350.037	106.81
350.265	103.81
350.492	109.81
350.72	96.81
350.947	116.81
351.174	136.81
351.402	142.81
351.629	138.81
351.856	116.81
352.083	122.81
352.311	125.81
352.538	133.81
352.765	120.81
352.992	149.81
353.22	117.81
353.447	111.81
353.674	113.81
353.901	93.81
354.128	92.81
354.355	98.81
354.583	106.81
354.81	98.81
355.037	99.81
355.264	106.81
355.491	90.81
355.718	98.81
355.945	93.81
356.172	94.81
356.399	104.81
356.626	96.81
356.853	95.81
357.08	84.81
357.307	99.81
357.534	82.81
357.761	106.81
357.988	89.81
358.215	97.81
358.441	100.81
358.668	87.81
358.895	100.81
359.122	101.81
359.349	91.81
359.576	106.81
359.802	138.81
360.029	169.81
360.256	170.81
360.483	109.81
360.709	78.81
360.936	87.81
361.163	101.81
361.39	105.81
361.616	117.81
361.843	97.81
362.07	103.81
362.296	121.81
362.523	114.81
362.749	116.81
362.976	102.81
363.203	101.81
363.429	92.81
363.656	118.81
363.882	81.81
364.109	93.81
364.335	88.81
364.562	111.81
364.788	90.81
365.015	104.81
365.241	127.81
365.468	124.81
365.694	140.81
365.92	102.81
366.147	89.81
366.373	90.81
366.599	94.81
366.826	89.81
367.052	94.81
367.278	79.81
367.505	93.81
367.731	82.81
367.957	109.81
368.184	108.81
368.41	116.81
368.636	136.81
368.862	143.81
369.089	128.81
369.315	120.81
369.541	114.81
369.767	101.81
369.993	108.81
370.219	94.81
370.445	86.81
370.672	90.81
370.898	88.81
371.124	89.81
371.35	82.81
371.576	81.81
371.802	81.81
372.028	85.81
372.254	88.81
372.48	102.81
372.706	93.81
372.932	90.81
373.158	76.81
373.384	95.81
373.61	97.81
373.835	75.81
374.061	91.81
374.287	88.81
374.513	90.81
374.739	91.81
374.965	76.81
375.191	92.81
375.416	85.81
375.642	105.81
375.868	99.81
376.094	92.81
376.319	100.81
376.545	91.81
376.771	97.81
376.997	104.81
377.222	85.81
377.448	97.81
377.674	94.81
377.899	94.81
378.125	90.81
378.35	91.81
378.576	88.81
378.802	90.81
379.027	91.81
379.253	94.81
379.478	88.81
379.704	106.81
379.929	88.81
380.155	98.81
380.38	90.81
380.606	98.81
380.831	104.81
381.057	94.81
381.282	98.81
381.507	86.81
381.733	90.81
381.958	90.81
382.184	114.81
382.409	110.81
382.634	89.81
382.86	99.81
383.085	100.81
383.31	107.81
383.535	82.81
383.761	101.81
383.986	87.81
384.211	103.81
384.436	99.81
384.662	103.81
384.887	116.81
385.112	90.81
385.337	107.81
385.562	122.81
385.787	111.81
386.013	120.81
386.238	125.81
386.463	104.81
386.688	117.81
386.913	105.81
387.138	108.81
387.363	107.81
387.588	104.81
387.813	108.81
388.038	97.81
388.263	120.81
388.488	106.81
388.713	102.81
388.938	95.81
389.163	97.81
389.387	101.81
389.612	96.81
389.837	97.81
390.062	97.81
390.287	95.81
390.512	88.81
390.736	75.81
390.961	95.81
391.186	80.81
391.411	87.81
391.636	78.81
391.86	82.81
392.085	72.81
392.31	86.81
392.534	75.81
392.759	97.81
392.984	102.81
393.208	90.81
393.433	90.81
393.658	94.81
393.882	81.81
394.107	88.81
394.331	88.81
394.556	79.81
394.78	98.81
395.005	88.81
395.229	77.81
395.454	93.81
395.678	85.81
395.903	92.81
396.127	93.81
396.352	94.81
396.576	87.81
396.801	85.81
397.025	94.81
397.249	86.81
397.474	92.81
397.698	92.81
397.922	96.81
398.147	106.81
398.371	79.81
398.595	86.81
398.82	91.81
399.044	81.81
399.268	85.81
399.492	82.81
399.717	88.81
399.941	91.81
400.165	92.81
400.389	97.81
400.613	95.81
400.837	84.81
401.062	103.81
401.286	84.81
401.51	113.81
401.734	102.81
401.958	119.81
402.182	169.81
402.406	264.81
402.63	187.81
402.854	117.81
403.078	88.81
403.302	92.81
403.526	96.81
403.75	83.81
403.974	77.81
404.198	91.81
404.422	92.81
404.645	105.81
404.869	106.81
405.093	123.81
405.317	141.81
405.541	135.81
405.765	142.81
405.988	164.81
406.212	272.81
406.436	436.81
406.66	257.81
406.883	132.81
407.107	125.81
407.331	125.81
407.555	119.81
407.778	127.81
408.002	97.81
408.226	100.81
408.449	98.81
408.673	93.81
408.896	96.81
409.12	102.81
409.344	84.81
409.567	94.81
409.791	99.81
410.014	93.81
410.238	99.81
410.461	104.81
410.685	100.81
410.908	103.81
411.132	94.81
411.355	104.81
411.578	105.81
411.802	92.81
412.025	92.81
412.249	97.81
412.472	121.81
412.695	125.81
412.919	102.81
413.142	91.81
413.365	78.81
413.589	95.81
413.812	72.81
414.035	100.81
414.258	99.81
414.482	93.81
414.705	102.81
414.928	80.81
415.151	78.81
415.374	90.81
415.597	90.81
415.821	93.81
416.044	95.81
416.267	87.81
416.49	89.81
416.713	75.81
416.936	104.81
417.159	94.81
417.382	94.81
417.605	105.81
417.828	114.81
418.051	102.81
418.274	93.81
418.497	81.81
418.72	82.81
418.943	99.81
419.166	94.81
419.389	100.81
419.611	97.81
419.834	89.81
420.057	91.81
420.28	92.81
420.503	104.81
420.726	79.81
420.948	99.81
421.171	115.81
421.394	97.81
421.617	93.81
421.839	98.81
422.062	85.81
422.285	99.81
422.507	111.81
422.73	118.81
422.953	98.81
423.175	110.81
423.398	84.81
423.621	86.81
423.843	81.81
424.066	93.81
424.288	80.81
424.511	102.81
424.733	112.81
424.956	121.81
425.178	115.81
425.401	110.81
425.623	115.81
425.846	104.81
426.068	122.81
426.291	109.81
426.513	92.81
426.735	94.81
426.958	101.81
427.18	119.81
427.402	200.81
427.625	322.81
427.847	269.81
428.069	232.81
428.292	132.81
428.514	121.81
428.736	95.81
428.958	82.81
429.181	91.81
429.403	99.81
429.625	113.81
429.847	108.81
430.069	116.81
430.292	94.81
430.514	101.81
430.736	81.81
430.958	100.81
431.18	78.81
431.402	84.81
431.624	78.81
431.846	88.81
432.068	102.81
432.29	89.81
432.512	96.81
432.734	82.81
432.956	85.81
433.178	116.81
433.4	105.81
433.622	85.81
433.844	93.81
434.066	95.81
434.287	99.81
434.509	97.81
434.731	106.81
434.953	84.81
435.175	83.81
435.397	88.81
435.618	106.81
435.84	111.81
436.062	135.81
436.284	119.81
436.505	116.81
436.727	100.81
436.949	92.81
437.17	87.81
437.392	91.81
437.614	120.81
437.835	137.81
438.057	193.81
438.278	148.81
438.5	117.81
438.721	154.81
438.943	99.81
439.165	88.81
439.386	101.81
439.608	106.81
439.829	132.81
440.05	182.81
440.272	183.81
440.493	120.81
440.715	90.81
440.936	83.81
441.158	81.81
441.379	92.81
441.6	117.81
441.822	109.81
442.043	104.81
442.264	129.81
442.486	126.81
442.707	112.81
442.928	122.81
443.149	205.81
443.371	197.81
443.592	171.81
443.813	147.81
444.034	153.81
444.255	98.81
444.476	106.81
444.698	87.81
444.919	100.81
445.14	139.81
445.361	148.81
445.582	148.81
445.803	209.81
446.024	204.81
446.245	167.81
446.466	124.81
446.687	89.81
446.908	108.81
447.129	103.81
447.35	88.81
447.571	116.81
447.792	107.81
448.013	106.81
448.234	128.81
448.455	128.81
448.675	147.81
448.896	130.81
449.117	113.81
449.338	117.81
449.559	158.81
449.779	154.81
450	93.81
450.221	93.81
450.442	89.81
450.662	112.81
450.883	138.81
451.104	163.81
451.324	113.81
451.545	89.81
451.766	88.81
451.986	90.81
452.207	93.81
452.428	103.81
452.648	124.81
452.869	156.81
453.089	170.81
453.31	162.81
453.53	110.81
453.751	122.81
453.971	147.81
454.192	156.81
454.412	109.81
454.633	94.81
454.853	98.81
455.073	99.81
455.294	97.81
455.514	113.81
455.734	112.81
455.955	85.81
456.175	90.81
456.395	86.81
456.616	93.81
456.836	84.81
457.056	80.81
457.276	80.81
457.497	103.81
457.717	100.81
457.937	85.81
458.157	103.81
458.377	108.81
458.598	169.81
458.818	263.81
459.038	276.81
459.258	180.81
459.478	104.81
459.698	92.81
459.918	101.81
460.138	94.81
460.358	92.81
460.578	94.81
460.798	89.81
461.018	86.81
461.238	93.81
461.458	84.81
461.678	85.81
461.898	92.81
462.118	96.81
462.338	93.81
462.558	92.81
462.777	94.81
462.997	117.81
463.217	117.81
463.437	94.81
463.657	100.81
463.876	94.81
464.096	94.81
464.316	105.81
464.536	101.81
464.755	104.81
464.975	151.81
465.195	312.81
465.414	307.81
465.634	111.81
465.854	89.81
466.073	84.81
466.293	92.81
466.512	82.81
466.732	92.81
466.951	85.81
467.171	97.81
467.391	123.81
467.61	169.81
467.829	243.81
468.049	688.81
468.268	1062.81
468.488	271.81
468.707	129.81
468.927	112.81
469.146	98.81
469.365	87.81
469.585	106.81
469.804	117.81
470.023	126.81
470.243	126.81
470.462	126.81
470.681	165.81
470.901	133.81
471.12	122.81
471.339	105.81
471.558	126.81
471.777	179.81
471.997	352.81
472.216	1374.81
472.435	3183.81
472.654	712.81
472.873	183.81
473.092	118.81
473.311	116.81
473.53	86.81
473.749	109.81
473.968	115.81
474.187	134.81
474.406	118.81
474.625	104.81
474.844	101.81
475.063	99.81
475.282	105.81
475.501	95.81
475.72	99.81
475.939	92.81
476.158	86.81
476.377	93.81
476.596	97.81
476.814	108.81
477.033	95.81
477.252	84.81
477.471	93.81
477.69	110.81
477.908	99.81
478.127	116.81
478.346	99.81
478.564	106.81
478.783	109.81
479.002	130.81
479.22	109.81
479.439	142.81
479.658	157.81
479.876	129.81
480.095	124.81
480.313	159.81
480.532	191.81
480.751	334.81
480.969	1239.81
481.188	5332.81
481.406	3004.81
481.624	424.81
481.843	160.81
482.061	114.81
482.28	106.81
482.498	97.81
482.717	95.81
482.935	97.81
483.153	91.81
483.372	99.81
483.59	76.81
483.808	84.81
484.027	101.81
484.245	95.81
484.463	99.81
484.681	97.81
484.9	92.81
485.118	93.81
485.336	98.81
485.554	107.81
485.772	102.81
485.99	110.81
486.209	128.81
486.427	124.81
486.645	123.81
486.863	144.81
487.081	127.81
487.299	113.81
487.517	109.81
487.735	107.81
487.953	90.81
488.171	114.81
488.389	84.81
488.607	113.81
488.825	87.81
489.043	94.81
489.261	89.81
489.479	97.81
489.696	96.81
489.914	96.81
490.132	92.81
490.35	89.81
490.568	89.81
490.786	82.81
491.003	90.81
491.221	96.81
491.439	96.81
491.657	106.81
491.874	105.81
492.092	102.81
492.31	107.81
492.527	104.81
492.745	111.81
492.963	98.81
493.18	92.81
493.398	95.81
493.615	77.81
493.833	90.81
494.05	88.81
494.268	97.81
494.485	94.81
494.703	73.81
494.92	98.81
495.138	101.81
495.355	102.81
495.573	97.81
495.79	94.81
496.008	83.81
496.225	88.81
496.442	109.81
496.66	92.81
496.877	98.81
497.094	100.81
497.312	99.81
497.529	105.81
497.746	85.81
497.963	87.81
498.181	97.81
498.398	107.81
498.615	113.81
498.832	117.81
499.049	87.81
499.267	94.81
499.484	99.81
499.701	81.81
499.918	86.81
500.135	84.81
500.352	92.81
500.569	107.81
500.786	93.81
501.003	98.81
501.22	83.81
501.437	109.81
501.654	102.81
501.871	144.81
502.088	95.81
502.305	93.81
502.522	91.81
502.739	84.81
502.956	77.81
503.172	95.81
503.389	115.81
503.606	143.81
503.823	117.81
504.04	91.81
504.256	79.81
504.473	80.81
504.69	90.81
504.907	98.81
505.123	97.81
505.34	90.81
505.557	91.81
505.773	101.81
505.99	97.81
506.207	77.81
506.423	95.81
506.64	99.81
506.856	91.81
507.073	92.81
507.289	93.81
507.506	128.81
507.722	155.81
507.939	144.81
508.155	115.81
508.372	109.81
508.588	113.81
508.805	97.81
509.021	104.81
509.238	110.81
509.454	112.81
509.67	129.81
509.887	127.81
510.103	165.81
510.319	317.81
510.536	1313.81
510.752	4922.81
510.968	1243.81
511.184	217.81
511.401	161.81
511.617	129.81
