Data from Circ_1999_H10_HRD10591_00040.txt Node
Date: Wed Jan 03 11:23:20 EST 2024
User: Yrep
Spectrometer: HR+D1059
Trigger mode: 1
Integration Time (sec): 1.000000E-1
Scans to average: 1
Electric dark correction enabled: true
Nonlinearity correction enabled: false
Boxcar width: 0
XAxis mode: Wavelengths
Number of Pixels in Spectrum: 2048
>>>>>Begin Spectral Data<<<<<
223.165	-24
223.4	-24
223.635	-24
223.869	-30
224.104	-13
224.338	-13
224.573	-18
224.808	-17
225.042	-9
225.277	-10
225.511	-5
225.746	3
225.98	5
226.215	11
226.449	29
226.683	31
226.918	29
227.152	31
227.387	38
227.621	25
227.856	44
228.09	32
228.324	51
228.559	52
228.793	47
229.027	50
229.262	78
229.496	63
229.73	104
229.964	99
230.199	71
230.433	75
230.667	100
230.901	92
231.136	78
231.37	89
231.604	85
231.838	94
232.072	92
232.306	85
232.541	95
232.775	80
233.009	79
233.243	89
233.477	80
233.711	71
233.945	80
234.179	88
234.413	94
234.647	70
234.881	87
235.115	74
235.349	69
235.583	88
235.817	76
236.051	80
236.285	80
236.519	74
236.753	77
236.987	83
237.221	89
237.455	89
237.689	75
237.922	85
238.156	86
238.39	89
238.624	71
238.858	68
239.091	71
239.325	78
239.559	86
239.793	87
240.027	81
240.26	78
240.494	64
240.728	69
240.961	83
241.195	74
241.429	75
241.662	86
241.896	77
242.13	84
242.363	99
242.597	93
242.83	64
243.064	85
243.298	79
243.531	79
243.765	70
243.998	67
244.232	95
244.465	90
244.699	83
244.932	93
245.166	67
245.399	73
245.633	70
245.866	78
246.099	77
246.333	85
246.566	83
246.8	95
247.033	85
247.266	76
247.5	81
247.733	78
247.966	102
248.2	92
248.433	80
248.666	97
248.899	81
249.133	102
249.366	109
249.599	92
249.832	91
250.066	89
250.299	86
250.532	89
250.765	78
250.998	81
251.231	70
251.465	80
251.698	71
251.931	95
252.164	81
252.397	73
252.63	81
252.863	85
253.096	75
253.329	87
253.562	77
253.795	70
254.028	95
254.261	86
254.494	90
254.727	73
254.96	79
255.193	78
255.426	82
255.659	85
255.892	87
256.124	97
256.357	76
256.59	88
256.823	81
257.056	99
257.289	93
257.521	75
257.754	94
257.987	103
258.22	93
258.452	95
258.685	91
258.918	80
259.151	88
259.383	93
259.616	94
259.849	76
260.081	84
260.314	87
260.547	84
260.779	110
261.012	97
261.244	108
261.477	101
261.71	100
261.942	139
262.175	161
262.407	100
262.64	83
262.872	83
263.105	89
263.337	97
263.57	82
263.802	69
264.035	88
264.267	77
264.499	75
264.732	83
264.964	88
265.197	83
265.429	94
265.661	89
265.894	83
266.126	88
266.358	89
266.591	86
266.823	96
267.055	75
267.287	87
267.52	78
267.752	87
267.984	79
268.216	84
268.448	96
268.681	90
268.913	86
269.145	96
269.377	79
269.609	81
269.841	99
270.073	82
270.306	93
270.538	85
270.77	97
271.002	83
271.234	100
271.466	90
271.698	93
271.93	79
272.162	105
272.394	91
272.626	87
272.858	87
273.09	78
273.322	89
273.553	100
273.785	73
274.017	86
274.249	85
274.481	72
274.713	79
274.945	97
275.176	94
275.408	112
275.64	133
275.872	126
276.104	112
276.335	114
276.567	136
276.799	181
277.031	206
277.262	240
277.494	169
277.726	108
277.957	96
278.189	94
278.421	87
278.652	104
278.884	83
279.115	91
279.347	95
279.579	112
279.81	126
280.042	228
280.273	322
280.505	215
280.736	122
280.968	97
281.199	89
281.431	89
281.662	72
281.894	91
282.125	112
282.356	161
282.588	222
282.819	147
283.051	101
283.282	86
283.513	96
283.745	83
283.976	75
284.207	84
284.439	73
284.67	80
284.901	87
285.132	92
285.364	84
285.595	93
285.826	99
286.057	80
286.288	92
286.52	93
286.751	77
286.982	93
287.213	85
287.444	97
287.675	90
287.906	105
288.138	87
288.369	102
288.6	94
288.831	83
289.062	92
289.293	96
289.524	95
289.755	95
289.986	91
290.217	80
290.448	81
290.679	84
290.91	90
291.141	94
291.371	91
291.602	95
291.833	89
292.064	77
292.295	80
292.526	100
292.757	93
292.987	83
293.218	87
293.449	97
293.68	104
293.91	81
294.141	93
294.372	89
294.603	73
294.833	87
295.064	97
295.295	100
295.525	97
295.756	108
295.987	147
296.217	227
296.448	189
296.679	111
296.909	97
297.14	95
297.37	87
297.601	94
297.831	91
298.062	92
298.292	86
298.523	95
298.753	79
298.984	102
299.214	91
299.445	92
299.675	87
299.905	105
300.136	100
300.366	86
300.597	94
300.827	91
301.057	129
301.288	136
301.518	123
301.748	107
301.979	126
302.209	116
302.439	107
302.669	99
302.9	96
303.13	98
303.36	119
303.59	152
303.82	179
304.051	115
304.281	96
304.511	87
304.741	80
304.971	85
305.201	77
305.431	97
305.661	88
305.891	88
306.121	100
306.352	122
306.582	158
306.812	124
307.042	142
307.272	201
307.502	203
307.731	199
307.961	132
308.191	96
308.421	95
308.651	106
308.881	102
309.111	94
309.341	114
309.571	97
309.8	112
310.03	113
310.26	120
310.49	107
310.72	100
310.949	132
311.179	110
311.409	102
311.639	118
311.868	121
312.098	119
312.328	117
312.557	137
312.787	147
313.017	147
313.246	116
313.476	95
313.706	102
313.935	104
314.165	123
314.394	138
314.624	115
314.853	114
315.083	106
315.312	88
315.542	104
315.771	103
316.001	116
316.23	97
316.46	106
316.689	102
316.919	102
317.148	112
317.377	121
317.607	107
317.836	109
318.065	91
318.295	101
318.524	86
318.753	102
318.983	97
319.212	118
319.441	141
319.67	140
319.9	110
320.129	107
320.358	112
320.587	92
320.816	118
321.046	114
321.275	111
321.504	106
321.733	108
321.962	102
322.191	108
322.42	134
322.649	137
322.878	132
323.108	142
323.337	171
323.566	167
323.795	209
324.024	281
324.253	556
324.482	1187
324.71	2411
324.939	3103
325.168	1159
325.397	342
325.626	179
325.855	171
326.084	164
326.313	164
326.542	185
326.77	301
326.999	576
327.228	1148
327.457	2138
327.686	1743
327.914	659
328.143	719
328.372	865
328.6	486
328.829	243
329.058	260
329.287	269
329.515	237
329.744	311
329.972	616
330.201	1308
330.43	1888
330.658	825
330.887	394
331.115	237
331.344	151
331.572	140
331.801	150
332.03	144
332.258	147
332.486	115
332.715	113
332.943	117
333.172	134
333.4	146
333.629	188
333.857	292
334.085	560
334.314	1185
334.542	2331
334.771	2150
334.999	544
335.227	211
335.455	127
335.684	120
335.912	123
336.14	114
336.369	122
336.597	133
336.825	109
337.053	107
337.281	120
337.51	95
337.738	94
337.966	116
338.194	117
338.422	106
338.65	116
338.878	93
339.106	104
339.334	95
339.562	107
339.79	101
340.018	101
340.246	103
340.474	108
340.702	113
340.93	107
341.158	113
341.386	110
341.614	124
341.842	115
342.07	103
342.298	103
342.526	111
342.754	101
342.981	78
343.209	94
343.437	110
343.665	101
343.893	101
344.12	81
344.348	95
344.576	96
344.804	94
345.031	128
345.259	120
345.487	115
345.714	103
345.942	89
346.17	96
346.397	99
346.625	118
346.853	112
347.08	94
347.308	97
347.535	108
347.763	126
347.99	106
348.218	107
348.445	131
348.673	122
348.9	108
349.128	110
349.355	104
349.583	119
349.81	97
350.037	90
350.265	106
350.492	100
350.72	111
350.947	120
351.174	143
351.402	140
351.629	135
351.856	119
352.083	125
352.311	129
352.538	150
352.765	138
352.992	131
353.22	143
353.447	116
353.674	112
353.901	101
354.128	79
354.355	99
354.583	107
354.81	105
355.037	107
355.264	102
355.491	78
355.718	94
355.945	98
356.172	79
356.399	93
356.626	103
356.853	93
357.08	83
357.307	111
357.534	99
357.761	105
357.988	91
358.215	96
358.441	109
358.668	96
358.895	80
359.122	89
359.349	91
359.576	114
359.802	121
360.029	159
360.256	175
360.483	133
360.709	96
360.936	101
361.163	112
361.39	113
361.616	109
361.843	107
362.07	122
362.296	114
362.523	108
362.749	117
362.976	93
363.203	106
363.429	88
363.656	108
363.882	88
364.109	100
364.335	76
364.562	106
364.788	114
365.015	103
365.241	122
365.468	136
365.694	130
365.92	111
366.147	111
366.373	92
366.599	87
366.826	95
367.052	95
367.278	77
367.505	104
367.731	104
367.957	95
368.184	92
368.41	120
368.636	159
368.862	152
369.089	145
369.315	116
369.541	104
369.767	102
369.993	96
370.219	109
370.445	86
370.672	77
370.898	97
371.124	101
371.35	93
371.576	73
371.802	97
372.028	89
372.254	85
372.48	83
372.706	84
372.932	93
373.158	105
373.384	95
373.61	94
373.835	85
374.061	97
374.287	99
374.513	89
374.739	85
374.965	75
375.191	92
375.416	95
375.642	97
375.868	94
376.094	92
376.319	91
376.545	89
376.771	91
376.997	88
377.222	88
377.448	100
377.674	96
377.899	86
378.125	84
378.35	90
378.576	82
378.802	88
379.027	87
379.253	97
379.478	83
379.704	97
379.929	107
380.155	94
380.38	97
380.606	103
380.831	107
381.057	79
381.282	91
381.507	89
381.733	98
381.958	96
382.184	107
382.409	107
382.634	103
382.86	100
383.085	104
383.31	102
383.535	103
383.761	89
383.986	77
384.211	88
384.436	118
384.662	97
384.887	110
385.112	105
385.337	118
385.562	120
385.787	104
386.013	117
386.238	128
386.463	118
386.688	109
386.913	123
387.138	102
387.363	104
387.588	107
387.813	95
388.038	96
388.263	106
388.488	112
388.713	84
388.938	88
389.163	92
389.387	105
389.612	88
389.837	89
390.062	86
390.287	96
390.512	96
390.736	93
390.961	100
391.186	104
391.411	92
391.636	103
391.86	83
392.085	86
392.31	99
392.534	85
392.759	94
392.984	92
393.208	83
393.433	98
393.658	91
393.882	84
394.107	80
394.331	102
394.556	104
394.78	89
395.005	99
395.229	89
395.454	88
395.678	84
395.903	89
396.127	91
396.352	90
396.576	80
396.801	68
397.025	95
397.249	77
397.474	79
397.698	90
397.922	93
398.147	90
398.371	96
398.595	71
398.82	83
399.044	90
399.268	79
399.492	79
399.717	87
399.941	75
400.165	96
400.389	91
400.613	105
400.837	83
401.062	99
401.286	92
401.51	112
401.734	110
401.958	139
402.182	181
402.406	278
402.63	184
402.854	118
403.078	105
403.302	87
403.526	96
403.75	106
403.974	88
404.198	87
404.422	100
404.645	88
404.869	111
405.093	144
405.317	170
405.541	175
405.765	140
405.988	161
406.212	294
406.436	444
406.66	275
406.883	135
407.107	107
407.331	116
407.555	113
407.778	113
408.002	95
408.226	98
408.449	81
408.673	97
408.896	100
409.12	90
409.344	98
409.567	94
409.791	89
410.014	100
410.238	97
410.461	98
410.685	83
410.908	104
411.132	95
411.355	99
411.578	92
411.802	103
412.025	104
412.249	110
412.472	123
412.695	129
412.919	121
413.142	96
413.365	88
413.589	110
413.812	105
414.035	95
414.258	100
414.482	99
414.705	98
414.928	91
415.151	73
415.374	77
415.597	83
415.821	85
416.044	91
416.267	100
416.49	84
416.713	92
416.936	91
417.159	87
417.382	94
417.605	119
417.828	123
418.051	100
418.274	95
418.497	95
418.72	76
418.943	87
419.166	75
419.389	102
419.611	104
419.834	91
420.057	101
420.28	96
420.503	91
420.726	84
420.948	89
421.171	104
421.394	105
421.617	92
421.839	86
422.062	88
422.285	109
422.507	107
422.73	99
422.953	105
423.175	83
423.398	98
423.621	92
423.843	91
424.066	90
424.288	91
424.511	104
424.733	113
424.956	128
425.178	120
425.401	119
425.623	113
425.846	94
426.068	108
426.291	97
426.513	85
426.735	111
426.958	103
427.18	118
427.402	196
427.625	333
427.847	278
428.069	218
428.292	131
428.514	103
428.736	93
428.958	99
429.181	91
429.403	92
429.625	79
429.847	95
430.069	124
430.292	103
430.514	100
430.736	83
430.958	87
431.18	90
431.402	78
431.624	77
431.846	87
432.068	103
432.29	89
432.512	93
432.734	92
432.956	84
433.178	96
433.4	99
433.622	112
433.844	79
434.066	97
434.287	106
434.509	92
434.731	97
434.953	94
435.175	99
435.397	92
435.618	102
435.84	102
436.062	143
436.284	124
436.505	91
436.727	107
436.949	94
437.17	87
437.392	102
437.614	118
437.835	153
438.057	184
438.278	128
438.5	124
438.721	137
438.943	117
439.165	86
439.386	104
439.608	101
439.829	125
440.05	164
440.272	209
440.493	121
440.715	96
440.936	79
441.158	76
441.379	91
441.6	112
441.822	123
442.043	100
442.264	127
442.486	123
442.707	111
442.928	140
443.149	195
443.371	195
443.592	141
443.813	132
444.034	131
444.255	105
444.476	94
444.698	81
444.919	99
445.14	133
445.361	126
445.582	149
445.803	197
446.024	184
446.245	172
446.466	145
446.687	98
446.908	98
447.129	84
447.35	96
447.571	108
447.792	99
448.013	119
448.234	132
448.455	119
448.675	130
448.896	151
449.117	113
449.338	129
449.559	147
449.779	145
450	95
450.221	88
450.442	109
450.662	128
450.883	156
451.104	168
451.324	142
451.545	113
451.766	77
451.986	88
452.207	113
452.428	113
452.648	123
452.869	157
453.089	175
453.31	179
453.53	111
453.751	102
453.971	139
454.192	148
454.412	117
454.633	112
454.853	97
455.073	93
455.294	91
455.514	108
455.734	82
455.955	89
456.175	104
456.395	89
456.616	79
456.836	96
457.056	85
457.276	86
457.497	85
457.717	86
457.937	93
458.157	103
458.377	100
458.598	152
458.818	275
459.038	299
459.258	180
459.478	105
459.698	89
459.918	86
460.138	88
460.358	87
460.578	84
460.798	100
461.018	96
461.238	80
461.458	97
461.678	102
461.898	81
462.118	89
462.338	91
462.558	88
462.777	97
462.997	120
463.217	119
463.437	94
463.657	92
463.876	95
464.096	93
464.316	108
464.536	109
464.755	110
464.975	162
465.195	347
465.414	346
465.634	125
465.854	90
466.073	93
466.293	101
466.512	96
466.732	102
466.951	93
467.171	106
467.391	123
467.61	189
467.829	267
468.049	756
468.268	1173
468.488	266
468.707	114
468.927	108
469.146	83
469.365	79
469.585	101
469.804	115
470.023	116
470.243	117
470.462	150
470.681	172
470.901	104
471.12	94
471.339	104
471.558	126
471.777	186
471.997	391
472.216	1485
472.435	3378
472.654	735
472.873	186
473.092	99
473.311	109
473.53	91
473.749	95
473.968	115
474.187	136
474.406	128
474.625	94
474.844	90
475.063	98
475.282	81
475.501	86
475.72	101
475.939	81
476.158	97
476.377	100
476.596	90
476.814	117
477.033	104
477.252	91
477.471	96
477.69	104
477.908	97
478.127	88
478.346	92
478.564	108
478.783	118
479.002	119
479.22	119
479.439	144
479.658	161
479.876	147
480.095	124
480.313	158
480.532	182
480.751	359
480.969	1315
481.188	5808
481.406	3216
481.624	446
481.843	161
482.061	118
482.28	104
482.498	95
482.717	103
482.935	99
483.153	85
483.372	94
483.59	111
483.808	94
484.027	101
484.245	94
484.463	86
484.681	95
484.9	104
485.118	102
485.336	98
485.554	103
485.772	97
485.99	100
486.209	117
486.427	111
486.645	124
486.863	132
487.081	124
487.299	113
487.517	115
487.735	105
487.953	89
488.171	103
488.389	115
488.607	104
488.825	110
489.043	85
489.261	103
489.479	88
489.696	101
489.914	84
490.132	96
490.35	100
490.568	86
490.786	85
491.003	105
491.221	103
491.439	108
491.657	89
491.874	109
492.092	97
492.31	94
492.527	109
492.745	93
492.963	100
493.18	89
493.398	92
493.615	93
493.833	95
494.05	97
494.268	88
494.485	89
494.703	82
494.92	80
495.138	83
495.355	89
495.573	109
495.79	87
496.008	104
496.225	100
496.442	86
496.66	77
496.877	87
497.094	92
497.312	102
497.529	91
497.746	88
497.963	97
498.181	100
498.398	114
498.615	126
498.832	115
499.049	94
499.267	80
499.484	102
499.701	98
499.918	86
500.135	81
500.352	83
500.569	104
500.786	99
501.003	110
501.22	110
501.437	102
501.654	110
501.871	155
502.088	115
502.305	97
502.522	90
502.739	91
502.956	109
503.172	85
503.389	113
503.606	144
503.823	114
504.04	98
504.256	94
504.473	107
504.69	102
504.907	110
505.123	93
505.34	97
505.557	91
505.773	91
505.99	96
506.207	96
506.423	84
506.64	91
506.856	85
507.073	95
507.289	101
507.506	126
507.722	169
507.939	164
508.155	115
508.372	101
508.588	87
508.805	118
509.021	94
509.238	105
509.454	116
509.67	105
509.887	126
510.103	178
510.319	344
510.536	1381
510.752	5088
510.968	1291
511.184	247
511.401	147
511.617	133
511.833	124
512.049	114
512.265	98
512.481	102
512.698	97
512.914	95
513.13	98
513.346	120
513.562	114
513.778	114
513.994	128
514.21	152
514.426	193
514.642	254
514.858	201
515.074	315
515.29	1142
515.506	4257
515.721	1400
515.937	286
516.153	169
516.369	136
516.585	103
516.801	104
517.016	109
517.232	103
517.448	93
517.664	97
517.879	103
518.095	104
518.311	117
518.527	116
518.742	83
518.958	90
519.173	107
519.389	112
519.605	101
519.82	111
520.036	134
520.251	179
520.467	166
520.682	134
520.898	129
521.113	174
521.329	259
521.544	460
521.76	1488
521.975	7079
522.19	4157
522.406	753
522.621	214
522.836	140
523.052	109
523.267	104
523.482	121
523.698	116
523.913	176
524.128	136
524.343	111
524.559	107
524.774	87
524.989	110
525.204	142
525.419	107
525.634	97
525.849	93
526.064	95
526.28	98
526.495	88
526.71	84
526.925	94
527.14	99
527.355	102
527.57	92
527.785	88
527.999	85
528.214	103
528.429	97
528.644	100
528.859	105
529.074	108
529.289	194
529.503	373
529.718	135
529.933	96
530.148	95
530.363	98
530.577	98
530.792	97
531.007	85
531.221	94
531.436	101
531.651	108
531.865	108
532.08	84
532.295	94
532.509	90
532.724	93
532.938	97
533.153	98
533.367	81
533.582	92
533.796	88
534.011	109
534.225	94
534.44	97
534.654	92
534.868	85
535.083	99
535.297	112
535.511	116
535.726	128
535.94	110
536.154	91
536.369	96
536.583	96
536.797	88
537.011	95
537.225	81
537.44	90
537.654	95
537.868	96
538.082	106
538.296	101
538.51	97
538.724	84
538.938	99
539.153	87
539.367	135
539.581	106
539.795	89
540.009	97
540.222	96
540.436	97
540.65	91
540.864	95
541.078	102
541.292	92
541.506	100
541.72	87
541.934	89
542.147	103
542.361	95
542.575	76
542.789	92
543.002	93
543.216	91
543.43	127
543.644	94
543.857	94
544.071	86
544.285	89
544.498	90
544.712	95
544.925	97
545.139	94
545.352	106
545.566	87
545.779	93
545.993	84
546.206	77
546.42	84
546.633	120
546.847	92
547.06	95
547.274	76
547.487	94
547.7	89
547.914	82
548.127	105
548.34	85
548.554	88
548.767	94
548.98	88
549.193	82
549.407	86
549.62	91
549.833	96
550.046	86
550.259	88
550.473	102
550.686	99
550.899	91
551.112	96
551.325	88
551.538	117
551.751	93
551.964	115
552.177	102
552.39	79
552.603	80
552.816	94
553.029	93
553.242	90
553.455	110
553.667	127
553.88	139
554.093	106
554.306	133
554.519	118
554.732	111
554.944	95
555.157	84
555.37	91
555.583	90
555.795	103
556.008	99
556.221	89
556.433	91
556.646	83
556.859	108
557.071	93
557.284	84
557.496	84
557.709	92
557.921	100
558.134	103
558.346	104
558.559	98
558.771	100
558.984	84
559.196	90
559.409	99
559.621	95
559.833	99
560.046	93
560.258	108
560.47	149
560.683	117
560.895	96
561.107	81
561.32	83
561.532	83
561.744	91
561.956	97
562.168	88
562.381	94
562.593	101
562.805	84
563.017	105
563.229	88
563.441	85
563.653	99
563.865	87
564.077	85
564.289	95
564.501	76
564.713	94
564.925	105
565.137	128
565.349	97
565.561	91
565.773	88
565.985	76
566.197	75
566.408	91
566.62	98
566.832	85
567.044	92
567.255	90
567.467	91
567.679	87
567.891	91
568.102	100
568.314	92
568.526	87
568.737	93
568.949	96
569.161	80
569.372	84
569.584	96
569.795	91
570.007	131
570.218	451
570.43	208
570.641	101
570.853	89
571.064	78
571.276	88
571.487	97
571.698	81
571.91	89
572.121	87
572.333	81
572.544	89
572.755	79
572.966	104
573.178	96
573.389	91
573.6	99
573.811	88
574.023	96
574.234	81
574.445	94
574.656	75
574.867	75
575.078	87
575.289	85
575.501	77
575.712	96
575.923	98
576.134	89
576.345	88
576.556	84
576.767	115
576.978	102
577.188	103
577.399	86
577.61	117
577.821	113
