Data from Circ_1999_H10_HRD10591_00092.txt Node
Date: Wed Jan 03 11:23:31 EST 2024
User: Yrep
Spectrometer: HR+D1059
Trigger mode: 1
Integration Time (sec): 1.000000E-1
Scans to average: 1
Electric dark correction enabled: true
Nonlinearity correction enabled: false
Boxcar width: 0
XAxis mode: Wavelengths
Number of Pixels in Spectrum: 2048
>>>>>Begin Spectral Data<<<<<
223.165	-18.62
223.4	-18.62
223.635	-18.62
223.869	-24.62
224.104	-14.62
224.338	-3.62
224.573	-19.62
224.808	-21.62
225.042	-13.62
225.277	-10.62
225.511	-0.62
225.746	7.38
225.98	7.38
226.215	17.38
226.449	18.38
226.683	14.38
226.918	27.38
227.152	35.38
227.387	20.38
227.621	33.38
227.856	40.38
228.09	41.38
228.324	34.38
228.559	47.38
228.793	84.38
229.027	58.38
229.262	73.38
229.496	75.38
229.73	108.38
229.964	98.38
230.199	93.38
230.433	82.38
230.667	79.38
230.901	79.38
231.136	77.38
231.37	81.38
231.604	73.38
231.838	66.38
232.072	81.38
232.306	70.38
232.541	89.38
232.775	83.38
233.009	73.38
233.243	73.38
233.477	70.38
233.711	82.38
233.945	77.38
234.179	89.38
234.413	84.38
234.647	84.38
234.881	79.38
235.115	87.38
235.349	81.38
235.583	85.38
235.817	78.38
236.051	70.38
236.285	90.38
236.519	76.38
236.753	87.38
236.987	78.38
237.221	88.38
237.455	93.38
237.689	75.38
237.922	83.38
238.156	86.38
238.39	87.38
238.624	84.38
238.858	78.38
239.091	75.38
239.325	80.38
239.559	92.38
239.793	94.38
240.027	72.38
240.26	76.38
240.494	83.38
240.728	77.38
240.961	85.38
241.195	69.38
241.429	82.38
241.662	75.38
241.896	65.38
242.13	85.38
242.363	72.38
242.597	79.38
242.83	69.38
243.064	78.38
243.298	82.38
243.531	84.38
243.765	92.38
243.998	67.38
244.232	78.38
244.465	101.38
244.699	84.38
244.932	81.38
245.166	86.38
245.399	62.38
245.633	79.38
245.866	92.38
246.099	83.38
246.333	78.38
246.566	99.38
246.8	86.38
247.033	66.38
247.266	83.38
247.5	77.38
247.733	81.38
247.966	85.38
248.2	78.38
248.433	89.38
248.666	76.38
248.899	72.38
249.133	102.38
249.366	115.38
249.599	101.38
249.832	98.38
250.066	88.38
250.299	86.38
250.532	85.38
250.765	91.38
250.998	85.38
251.231	89.38
251.465	101.38
251.698	82.38
251.931	93.38
252.164	82.38
252.397	74.38
252.63	83.38
252.863	65.38
253.096	86.38
253.329	78.38
253.562	74.38
253.795	79.38
254.028	85.38
254.261	78.38
254.494	85.38
254.727	77.38
254.96	79.38
255.193	77.38
255.426	86.38
255.659	97.38
255.892	98.38
256.124	90.38
256.357	90.38
256.59	73.38
256.823	91.38
257.056	83.38
257.289	90.38
257.521	78.38
257.754	86.38
257.987	99.38
258.22	103.38
258.452	104.38
258.685	102.38
258.918	88.38
259.151	91.38
259.383	94.38
259.616	82.38
259.849	94.38
260.081	81.38
260.314	76.38
260.547	85.38
260.779	93.38
261.012	98.38
261.244	115.38
261.477	109.38
261.71	123.38
261.942	170.38
262.175	184.38
262.407	106.38
262.64	83.38
262.872	77.38
263.105	88.38
263.337	90.38
263.57	88.38
263.802	92.38
264.035	78.38
264.267	79.38
264.499	90.38
264.732	82.38
264.964	88.38
265.197	92.38
265.429	84.38
265.661	81.38
265.894	87.38
266.126	86.38
266.358	90.38
266.591	78.38
266.823	77.38
267.055	74.38
267.287	73.38
267.52	83.38
267.752	94.38
267.984	94.38
268.216	87.38
268.448	89.38
268.681	89.38
268.913	84.38
269.145	85.38
269.377	86.38
269.609	84.38
269.841	95.38
270.073	78.38
270.306	82.38
270.538	80.38
270.77	78.38
271.002	84.38
271.234	103.38
271.466	98.38
271.698	91.38
271.93	92.38
272.162	84.38
272.394	84.38
272.626	102.38
272.858	84.38
273.09	77.38
273.322	88.38
273.553	91.38
273.785	80.38
274.017	95.38
274.249	99.38
274.481	95.38
274.713	85.38
274.945	89.38
275.176	105.38
275.408	117.38
275.64	137.38
275.872	155.38
276.104	124.38
276.335	110.38
276.567	152.38
276.799	214.38
277.031	242.38
277.262	298.38
277.494	201.38
277.726	108.38
277.957	99.38
278.189	102.38
278.421	92.38
278.652	77.38
278.884	75.38
279.115	98.38
279.347	100.38
279.579	119.38
279.81	168.38
280.042	279.38
280.273	407.38
280.505	263.38
280.736	131.38
280.968	105.38
281.199	104.38
281.431	88.38
281.662	97.38
281.894	111.38
282.125	121.38
282.356	180.38
282.588	218.38
282.819	153.38
283.051	101.38
283.282	83.38
283.513	83.38
283.745	99.38
283.976	94.38
284.207	91.38
284.439	80.38
284.67	83.38
284.901	86.38
285.132	82.38
285.364	96.38
285.595	87.38
285.826	78.38
286.057	93.38
286.288	86.38
286.52	88.38
286.751	89.38
286.982	79.38
287.213	84.38
287.444	85.38
287.675	105.38
287.906	98.38
288.138	67.38
288.369	76.38
288.6	100.38
288.831	94.38
289.062	98.38
289.293	93.38
289.524	87.38
289.755	85.38
289.986	75.38
290.217	91.38
290.448	82.38
290.679	85.38
290.91	99.38
291.141	87.38
291.371	90.38
291.602	86.38
291.833	81.38
292.064	73.38
292.295	93.38
292.526	90.38
292.757	92.38
292.987	83.38
293.218	88.38
293.449	83.38
293.68	83.38
293.91	85.38
294.141	89.38
294.372	116.38
294.603	97.38
294.833	95.38
295.064	100.38
295.295	95.38
295.525	99.38
295.756	122.38
295.987	178.38
296.217	213.38
296.448	189.38
296.679	107.38
296.909	83.38
297.14	88.38
297.37	79.38
297.601	84.38
297.831	89.38
298.062	86.38
298.292	96.38
298.523	87.38
298.753	93.38
298.984	103.38
299.214	100.38
299.445	96.38
299.675	106.38
299.905	115.38
300.136	101.38
300.366	104.38
300.597	98.38
300.827	105.38
301.057	107.38
301.288	134.38
301.518	103.38
301.748	110.38
301.979	126.38
302.209	119.38
302.439	91.38
302.669	93.38
302.9	90.38
303.13	101.38
303.36	124.38
303.59	187.38
303.82	192.38
304.051	129.38
304.281	115.38
304.511	98.38
304.741	83.38
304.971	85.38
305.201	89.38
305.431	92.38
305.661	102.38
305.891	111.38
306.121	119.38
306.352	139.38
306.582	134.38
306.812	117.38
307.042	149.38
307.272	201.38
307.502	267.38
307.731	238.38
307.961	159.38
308.191	100.38
308.421	96.38
308.651	111.38
308.881	103.38
309.111	102.38
309.341	98.38
309.571	120.38
309.8	113.38
310.03	118.38
310.26	137.38
310.49	118.38
310.72	110.38
310.949	134.38
311.179	112.38
311.409	111.38
311.639	96.38
311.868	107.38
312.098	101.38
312.328	119.38
312.557	135.38
312.787	155.38
313.017	143.38
313.246	101.38
313.476	107.38
313.706	95.38
313.935	112.38
314.165	125.38
314.394	139.38
314.624	120.38
314.853	115.38
315.083	105.38
315.312	89.38
315.542	105.38
315.771	105.38
316.001	103.38
316.23	107.38
316.46	78.38
316.689	97.38
316.919	108.38
317.148	116.38
317.377	116.38
317.607	108.38
317.836	111.38
318.065	91.38
318.295	103.38
318.524	111.38
318.753	101.38
318.983	106.38
319.212	113.38
319.441	138.38
319.67	134.38
319.9	112.38
320.129	105.38
320.358	108.38
320.587	114.38
320.816	106.38
321.046	116.38
321.275	118.38
321.504	97.38
321.733	113.38
321.962	110.38
322.191	127.38
322.42	141.38
322.649	135.38
322.878	143.38
323.108	152.38
323.337	163.38
323.566	187.38
323.795	235.38
324.024	301.38
324.253	589.38
324.482	1276.38
324.71	2564.38
324.939	3319.38
325.168	1250.38
325.397	371.38
325.626	206.38
325.855	178.38
326.084	171.38
326.313	169.38
326.542	210.38
326.77	317.38
326.999	625.38
327.228	1289.38
327.457	2310.38
327.686	1890.38
327.914	789.38
328.143	862.38
328.372	1137.38
328.6	609.38
328.829	263.38
329.058	255.38
329.287	263.38
329.515	235.38
329.744	382.38
329.972	830.38
330.201	1789.38
330.43	2601.38
330.658	1061.38
330.887	443.38
331.115	274.38
331.344	157.38
331.572	149.38
331.801	130.38
332.03	160.38
332.258	140.38
332.486	122.38
332.715	142.38
332.943	126.38
333.172	151.38
333.4	173.38
333.629	228.38
333.857	335.38
334.085	727.38
334.314	1575.38
334.542	3104.38
334.771	2874.38
334.999	686.38
335.227	232.38
335.455	139.38
335.684	126.38
335.912	122.38
336.14	138.38
336.369	126.38
336.597	142.38
336.825	126.38
337.053	100.38
337.281	109.38
337.51	92.38
337.738	101.38
337.966	111.38
338.194	117.38
338.422	123.38
338.65	100.38
338.878	104.38
339.106	101.38
339.334	94.38
339.562	95.38
339.79	107.38
340.018	111.38
340.246	101.38
340.474	117.38
340.702	125.38
340.93	92.38
341.158	103.38
341.386	124.38
341.614	123.38
341.842	116.38
342.07	114.38
342.298	93.38
342.526	103.38
342.754	101.38
342.981	87.38
343.209	100.38
343.437	104.38
343.665	91.38
343.893	103.38
344.12	102.38
344.348	99.38
344.576	93.38
344.804	97.38
345.031	116.38
345.259	141.38
345.487	104.38
345.714	106.38
345.942	84.38
346.17	97.38
346.397	83.38
346.625	110.38
346.853	111.38
347.08	80.38
347.308	121.38
347.535	116.38
347.763	135.38
347.99	107.38
348.218	124.38
348.445	145.38
348.673	120.38
348.9	115.38
349.128	98.38
349.355	93.38
349.583	94.38
349.81	89.38
350.037	98.38
350.265	91.38
350.492	99.38
350.72	111.38
350.947	104.38
351.174	141.38
351.402	139.38
351.629	116.38
351.856	112.38
352.083	131.38
352.311	160.38
352.538	147.38
352.765	134.38
352.992	147.38
353.22	131.38
353.447	121.38
353.674	113.38
353.901	107.38
354.128	86.38
354.355	97.38
354.583	95.38
354.81	106.38
355.037	93.38
355.264	91.38
355.491	98.38
355.718	96.38
355.945	92.38
356.172	89.38
356.399	91.38
356.626	91.38
356.853	86.38
357.08	87.38
357.307	87.38
357.534	99.38
357.761	109.38
357.988	86.38
358.215	85.38
358.441	96.38
358.668	74.38
358.895	89.38
359.122	92.38
359.349	92.38
359.576	108.38
359.802	143.38
360.029	206.38
360.256	186.38
360.483	134.38
360.709	97.38
360.936	83.38
361.163	111.38
361.39	111.38
361.616	114.38
361.843	101.38
362.07	110.38
362.296	118.38
362.523	111.38
362.749	113.38
362.976	97.38
363.203	99.38
363.429	96.38
363.656	93.38
363.882	85.38
364.109	84.38
364.335	91.38
364.562	90.38
364.788	88.38
365.015	99.38
365.241	100.38
365.468	141.38
365.694	143.38
365.92	116.38
366.147	117.38
366.373	81.38
366.599	97.38
366.826	102.38
367.052	99.38
367.278	100.38
367.505	95.38
367.731	87.38
367.957	95.38
368.184	107.38
368.41	126.38
368.636	141.38
368.862	169.38
369.089	155.38
369.315	115.38
369.541	100.38
369.767	89.38
369.993	104.38
370.219	117.38
370.445	94.38
370.672	70.38
370.898	84.38
371.124	99.38
371.35	81.38
371.576	84.38
371.802	74.38
372.028	83.38
372.254	104.38
372.48	83.38
372.706	77.38
372.932	89.38
373.158	107.38
373.384	94.38
373.61	91.38
373.835	98.38
374.061	89.38
374.287	106.38
374.513	93.38
374.739	88.38
374.965	101.38
375.191	94.38
375.416	95.38
375.642	81.38
375.868	84.38
376.094	85.38
376.319	97.38
376.545	87.38
376.771	83.38
376.997	98.38
377.222	91.38
377.448	94.38
377.674	95.38
377.899	108.38
378.125	99.38
378.35	79.38
378.576	94.38
378.802	83.38
379.027	94.38
379.253	91.38
379.478	84.38
379.704	102.38
379.929	98.38
380.155	100.38
380.38	105.38
380.606	98.38
380.831	84.38
381.057	95.38
381.282	93.38
381.507	97.38
381.733	108.38
381.958	101.38
382.184	91.38
382.409	108.38
382.634	97.38
382.86	98.38
383.085	103.38
383.31	107.38
383.535	110.38
383.761	109.38
383.986	113.38
384.211	91.38
384.436	81.38
384.662	106.38
384.887	104.38
385.112	89.38
385.337	115.38
385.562	101.38
385.787	107.38
386.013	129.38
386.238	117.38
386.463	110.38
386.688	104.38
386.913	106.38
387.138	93.38
387.363	85.38
387.588	101.38
387.813	97.38
388.038	105.38
388.263	98.38
388.488	88.38
388.713	97.38
388.938	95.38
389.163	76.38
389.387	103.38
389.612	96.38
389.837	85.38
390.062	95.38
390.287	96.38
390.512	87.38
390.736	86.38
390.961	85.38
391.186	78.38
391.411	86.38
391.636	92.38
391.86	93.38
392.085	89.38
392.31	85.38
392.534	96.38
392.759	99.38
392.984	95.38
393.208	86.38
393.433	83.38
393.658	81.38
393.882	94.38
394.107	92.38
394.331	84.38
394.556	91.38
394.78	95.38
395.005	93.38
395.229	85.38
395.454	93.38
395.678	87.38
395.903	94.38
396.127	92.38
396.352	94.38
396.576	84.38
396.801	89.38
397.025	89.38
397.249	94.38
397.474	88.38
397.698	84.38
397.922	96.38
398.147	85.38
398.371	79.38
398.595	84.38
398.82	85.38
399.044	78.38
399.268	84.38
399.492	86.38
399.717	100.38
399.941	95.38
400.165	98.38
400.389	87.38
400.613	95.38
400.837	81.38
401.062	80.38
401.286	94.38
401.51	100.38
401.734	110.38
401.958	130.38
402.182	193.38
402.406	293.38
402.63	198.38
402.854	123.38
403.078	90.38
403.302	90.38
403.526	90.38
403.75	90.38
403.974	90.38
404.198	89.38
404.422	86.38
404.645	103.38
404.869	119.38
405.093	122.38
405.317	162.38
405.541	171.38
405.765	136.38
405.988	173.38
406.212	307.38
406.436	501.38
406.66	308.38
406.883	153.38
407.107	114.38
407.331	125.38
407.555	127.38
407.778	108.38
408.002	87.38
408.226	91.38
408.449	94.38
408.673	90.38
408.896	98.38
409.12	101.38
409.344	111.38
409.567	93.38
409.791	79.38
410.014	101.38
410.238	85.38
410.461	80.38
410.685	97.38
410.908	92.38
411.132	109.38
411.355	101.38
411.578	97.38
411.802	68.38
412.025	98.38
412.249	96.38
412.472	119.38
412.695	153.38
412.919	133.38
413.142	90.38
413.365	108.38
413.589	92.38
413.812	91.38
414.035	92.38
414.258	89.38
414.482	91.38
414.705	84.38
414.928	94.38
415.151	71.38
415.374	90.38
415.597	78.38
415.821	86.38
416.044	93.38
416.267	97.38
416.49	93.38
416.713	92.38
416.936	98.38
417.159	85.38
417.382	103.38
417.605	117.38
417.828	118.38
418.051	101.38
418.274	81.38
418.497	81.38
418.72	86.38
418.943	91.38
419.166	90.38
419.389	83.38
419.611	97.38
419.834	92.38
420.057	97.38
420.28	97.38
420.503	91.38
420.726	89.38
420.948	97.38
421.171	94.38
421.394	99.38
421.617	95.38
421.839	90.38
422.062	93.38
422.285	94.38
422.507	108.38
422.73	118.38
422.953	104.38
423.175	86.38
423.398	90.38
423.621	98.38
423.843	97.38
424.066	89.38
424.288	86.38
424.511	106.38
424.733	113.38
424.956	134.38
425.178	114.38
425.401	122.38
425.623	116.38
425.846	97.38
426.068	100.38
426.291	98.38
426.513	101.38
426.735	106.38
426.958	110.38
427.18	125.38
427.402	219.38
427.625	365.38
427.847	302.38
428.069	238.38
428.292	150.38
428.514	95.38
428.736	94.38
428.958	98.38
429.181	87.38
429.403	90.38
429.625	90.38
429.847	98.38
430.069	123.38
430.292	120.38
430.514	103.38
430.736	73.38
430.958	91.38
431.18	90.38
431.402	70.38
431.624	82.38
431.846	86.38
432.068	92.38
432.29	76.38
432.512	83.38
432.734	82.38
432.956	87.38
433.178	102.38
433.4	109.38
433.622	98.38
433.844	83.38
434.066	88.38
434.287	91.38
434.509	101.38
434.731	91.38
434.953	92.38
435.175	99.38
435.397	101.38
435.618	85.38
435.84	106.38
436.062	135.38
436.284	124.38
436.505	116.38
436.727	102.38
436.949	93.38
437.17	85.38
437.392	93.38
437.614	93.38
437.835	148.38
438.057	186.38
438.278	145.38
438.5	138.38
438.721	142.38
438.943	103.38
439.165	88.38
439.386	98.38
439.608	95.38
439.829	120.38
440.05	189.38
440.272	197.38
440.493	122.38
440.715	90.38
440.936	83.38
441.158	95.38
441.379	107.38
441.6	114.38
441.822	121.38
442.043	106.38
442.264	120.38
442.486	124.38
442.707	104.38
442.928	143.38
443.149	210.38
443.371	216.38
443.592	146.38
443.813	147.38
444.034	126.38
444.255	94.38
444.476	83.38
444.698	97.38
444.919	95.38
445.14	130.38
445.361	147.38
445.582	136.38
445.803	201.38
446.024	186.38
446.245	182.38
446.466	133.38
446.687	87.38
446.908	79.38
447.129	84.38
447.35	87.38
447.571	103.38
447.792	108.38
448.013	120.38
448.234	139.38
448.455	121.38
448.675	120.38
448.896	147.38
449.117	108.38
449.338	115.38
449.559	141.38
449.779	149.38
450	100.38
450.221	91.38
450.442	91.38
450.662	134.38
450.883	169.38
451.104	180.38
451.324	108.38
451.545	91.38
451.766	96.38
451.986	102.38
452.207	96.38
452.428	90.38
452.648	121.38
452.869	156.38
453.089	183.38
453.31	178.38
453.53	123.38
453.751	100.38
453.971	146.38
454.192	180.38
454.412	128.38
454.633	108.38
454.853	85.38
455.073	81.38
455.294	98.38
455.514	108.38
455.734	98.38
455.955	75.38
456.175	93.38
456.395	74.38
456.616	87.38
456.836	78.38
457.056	86.38
457.276	90.38
457.497	94.38
457.717	89.38
457.937	94.38
458.157	98.38
458.377	109.38
458.598	169.38
458.818	283.38
459.038	317.38
459.258	188.38
459.478	103.38
459.698	89.38
459.918	99.38
460.138	86.38
460.358	84.38
460.578	75.38
460.798	91.38
461.018	100.38
461.238	90.38
461.458	83.38
461.678	68.38
461.898	93.38
462.118	95.38
462.338	90.38
462.558	87.38
462.777	97.38
462.997	110.38
463.217	124.38
463.437	111.38
463.657	98.38
463.876	104.38
464.096	111.38
464.316	103.38
464.536	97.38
464.755	115.38
464.975	167.38
465.195	352.38
465.414	361.38
465.634	112.38
465.854	89.38
466.073	102.38
466.293	93.38
466.512	86.38
466.732	93.38
466.951	96.38
467.171	107.38
467.391	143.38
467.61	195.38
467.829	347.38
468.049	1037.38
468.268	1565.38
468.488	353.38
468.707	147.38
468.927	100.38
469.146	83.38
469.365	111.38
469.585	100.38
469.804	122.38
470.023	148.38
470.243	116.38
470.462	158.38
470.681	183.38
470.901	120.38
471.12	105.38
471.339	122.38
471.558	141.38
471.777	221.38
471.997	473.38
472.216	2057.38
472.435	4780.38
472.654	1002.38
472.873	221.38
473.092	117.38
473.311	101.38
473.53	95.38
473.749	92.38
473.968	116.38
474.187	122.38
474.406	117.38
474.625	99.38
474.844	97.38
475.063	89.38
475.282	97.38
475.501	94.38
475.72	98.38
475.939	86.38
476.158	97.38
476.377	95.38
476.596	83.38
476.814	111.38
477.033	109.38
477.252	95.38
477.471	100.38
477.69	99.38
477.908	106.38
478.127	99.38
478.346	89.38
478.564	111.38
478.783	134.38
479.002	119.38
479.22	110.38
479.439	151.38
479.658	169.38
479.876	151.38
480.095	136.38
480.313	188.38
480.532	230.38
480.751	441.38
480.969	1787.38
481.188	8025.38
481.406	4390.38
481.624	564.38
481.843	185.38
482.061	135.38
482.28	120.38
482.498	95.38
482.717	105.38
482.935	89.38
483.153	103.38
483.372	97.38
483.59	87.38
483.808	102.38
484.027	92.38
484.245	105.38
484.463	95.38
484.681	108.38
484.9	104.38
485.118	101.38
485.336	101.38
485.554	106.38
485.772	101.38
485.99	107.38
486.209	119.38
486.427	130.38
486.645	144.38
486.863	152.38
487.081	120.38
487.299	94.38
487.517	112.38
487.735	103.38
487.953	103.38
488.171	101.38
488.389	106.38
488.607	114.38
488.825	86.38
489.043	103.38
489.261	87.38
489.479	92.38
489.696	93.38
489.914	93.38
490.132	84.38
490.35	92.38
490.568	91.38
490.786	91.38
491.003	86.38
491.221	109.38
491.439	114.38
491.657	93.38
491.874	99.38
492.092	95.38
492.31	99.38
492.527	114.38
492.745	90.38
492.963	84.38
493.18	91.38
493.398	105.38
493.615	95.38
493.833	84.38
494.05	90.38
494.268	105.38
494.485	97.38
494.703	90.38
494.92	87.38
495.138	86.38
495.355	97.38
495.573	88.38
495.79	81.38
496.008	93.38
496.225	90.38
496.442	77.38
496.66	100.38
496.877	96.38
497.094	101.38
497.312	93.38
497.529	100.38
497.746	96.38
497.963	102.38
498.181	95.38
498.398	102.38
498.615	129.38
498.832	119.38
499.049	97.38
499.267	93.38
499.484	76.38
499.701	95.38
499.918	91.38
500.135	96.38
500.352	90.38
500.569	117.38
500.786	108.38
501.003	95.38
501.22	89.38
501.437	104.38
501.654	108.38
501.871	162.38
502.088	111.38
502.305	92.38
502.522	87.38
502.739	110.38
502.956	95.38
503.172	92.38
503.389	105.38
503.606	139.38
503.823	113.38
504.04	106.38
504.256	85.38
504.473	97.38
504.69	94.38
504.907	91.38
505.123	85.38
505.34	94.38
505.557	96.38
505.773	91.38
505.99	105.38
506.207	89.38
506.423	93.38
506.64	98.38
506.856	79.38
507.073	100.38
507.289	99.38
507.506	109.38
507.722	170.38
507.939	172.38
508.155	100.38
508.372	99.38
508.588	102.38
508.805	109.38
509.021	98.38
509.238	101.38
509.454	108.38
509.67	112.38
509.887	127.38
510.103	185.38
510.319	359.38
510.536	1542.38
510.752	5782.38
510.968	1406.38
511.184	261.38
511.401	158.38
