Data from Circ_1999_H10_HRD10591_00046.txt Node
Date: Wed Jan 03 11:23:21 EST 2024
User: Yrep
Spectrometer: HR+D1059
Trigger mode: 1
Integration Time (sec): 1.000000E-1
Scans to average: 1
Electric dark correction enabled: true
Nonlinearity correction enabled: false
Boxcar width: 0
XAxis mode: Wavelengths
Number of Pixels in Spectrum: 2048
>>>>>Begin Spectral Data<<<<<
223.165	-18.5
223.4	-18.5
223.635	-18.5
223.869	-19.5
224.104	-19.5
224.338	-5.5
224.573	-7.5
224.808	-13.5
225.042	-5.5
225.277	-3.5
225.511	9.5
225.746	3.5
225.98	14.5
226.215	-3.5
226.449	9.5
226.683	12.5
226.918	20.5
227.152	26.5
227.387	39.5
227.621	50.5
227.856	44.5
228.09	61.5
228.324	41.5
228.559	45.5
228.793	64.5
229.027	57.5
229.262	74.5
229.496	81.5
229.73	106.5
229.964	112.5
230.199	85.5
230.433	70.5
230.667	76.5
230.901	85.5
231.136	77.5
231.37	88.5
231.604	75.5
231.838	88.5
232.072	80.5
232.306	82.5
232.541	74.5
232.775	70.5
233.009	74.5
233.243	84.5
233.477	79.5
233.711	77.5
233.945	77.5
234.179	83.5
234.413	84.5
234.647	77.5
234.881	76.5
235.115	80.5
235.349	87.5
235.583	87.5
235.817	82.5
236.051	85.5
236.285	68.5
236.519	79.5
236.753	76.5
236.987	95.5
237.221	92.5
237.455	88.5
237.689	83.5
237.922	87.5
238.156	78.5
238.39	71.5
238.624	75.5
238.858	83.5
239.091	70.5
239.325	89.5
239.559	87.5
239.793	82.5
240.027	82.5
240.26	83.5
240.494	85.5
240.728	72.5
240.961	93.5
241.195	83.5
241.429	74.5
241.662	87.5
241.896	73.5
242.13	69.5
242.363	79.5
242.597	72.5
242.83	87.5
243.064	84.5
243.298	70.5
243.531	84.5
243.765	72.5
243.998	74.5
244.232	91.5
244.465	96.5
244.699	85.5
244.932	83.5
245.166	72.5
245.399	69.5
245.633	68.5
245.866	76.5
246.099	71.5
246.333	73.5
246.566	80.5
246.8	67.5
247.033	71.5
247.266	74.5
247.5	83.5
247.733	78.5
247.966	83.5
248.2	68.5
248.433	74.5
248.666	79.5
248.899	90.5
249.133	102.5
249.366	105.5
249.599	123.5
249.832	91.5
250.066	85.5
250.299	83.5
250.532	99.5
250.765	83.5
250.998	91.5
251.231	88.5
251.465	81.5
251.698	80.5
251.931	90.5
252.164	93.5
252.397	85.5
252.63	73.5
252.863	80.5
253.096	78.5
253.329	80.5
253.562	79.5
253.795	73.5
254.028	78.5
254.261	79.5
254.494	94.5
254.727	73.5
254.96	66.5
255.193	66.5
255.426	66.5
255.659	75.5
255.892	102.5
256.124	99.5
256.357	83.5
256.59	94.5
256.823	98.5
257.056	111.5
257.289	86.5
257.521	85.5
257.754	73.5
257.987	86.5
258.22	91.5
258.452	103.5
258.685	101.5
258.918	86.5
259.151	84.5
259.383	78.5
259.616	75.5
259.849	83.5
260.081	88.5
260.314	89.5
260.547	102.5
260.779	94.5
261.012	129.5
261.244	124.5
261.477	120.5
261.71	115.5
261.942	175.5
262.175	187.5
262.407	106.5
262.64	94.5
262.872	96.5
263.105	83.5
263.337	96.5
263.57	79.5
263.802	74.5
264.035	94.5
264.267	96.5
264.499	86.5
264.732	86.5
264.964	84.5
265.197	87.5
265.429	86.5
265.661	90.5
265.894	83.5
266.126	80.5
266.358	83.5
266.591	79.5
266.823	89.5
267.055	97.5
267.287	92.5
267.52	75.5
267.752	88.5
267.984	81.5
268.216	85.5
268.448	76.5
268.681	89.5
268.913	84.5
269.145	82.5
269.377	94.5
269.609	68.5
269.841	68.5
270.073	85.5
270.306	91.5
270.538	90.5
270.77	99.5
271.002	91.5
271.234	86.5
271.466	108.5
271.698	89.5
271.93	88.5
272.162	82.5
272.394	97.5
272.626	95.5
272.858	82.5
273.09	95.5
273.322	79.5
273.553	88.5
273.785	89.5
274.017	84.5
274.249	74.5
274.481	108.5
274.713	86.5
274.945	94.5
275.176	119.5
275.408	129.5
275.64	126.5
275.872	150.5
276.104	129.5
276.335	115.5
276.567	160.5
276.799	209.5
277.031	247.5
277.262	293.5
277.494	195.5
277.726	122.5
277.957	105.5
278.189	104.5
278.421	106.5
278.652	102.5
278.884	92.5
279.115	100.5
279.347	105.5
279.579	108.5
279.81	174.5
280.042	279.5
280.273	404.5
280.505	263.5
280.736	132.5
280.968	111.5
281.199	94.5
281.431	91.5
281.662	99.5
281.894	93.5
282.125	123.5
282.356	184.5
282.588	243.5
282.819	168.5
283.051	96.5
283.282	91.5
283.513	94.5
283.745	98.5
283.976	84.5
284.207	95.5
284.439	99.5
284.67	93.5
284.901	104.5
285.132	76.5
285.364	87.5
285.595	85.5
285.826	80.5
286.057	103.5
286.288	90.5
286.52	100.5
286.751	89.5
286.982	77.5
287.213	93.5
287.444	77.5
287.675	91.5
287.906	88.5
288.138	102.5
288.369	101.5
288.6	94.5
288.831	106.5
289.062	84.5
289.293	102.5
289.524	84.5
289.755	87.5
289.986	101.5
290.217	110.5
290.448	88.5
290.679	92.5
290.91	83.5
291.141	90.5
291.371	83.5
291.602	85.5
291.833	93.5
292.064	82.5
292.295	91.5
292.526	96.5
292.757	86.5
292.987	89.5
293.218	83.5
293.449	72.5
293.68	87.5
293.91	90.5
294.141	89.5
294.372	88.5
294.603	95.5
294.833	85.5
295.064	91.5
295.295	100.5
295.525	103.5
295.756	118.5
295.987	169.5
296.217	239.5
296.448	204.5
296.679	110.5
296.909	102.5
297.14	102.5
297.37	85.5
297.601	79.5
297.831	92.5
298.062	101.5
298.292	90.5
298.523	93.5
298.753	95.5
298.984	90.5
299.214	79.5
299.445	85.5
299.675	106.5
299.905	106.5
300.136	102.5
300.366	94.5
300.597	89.5
300.827	108.5
301.057	124.5
301.288	149.5
301.518	114.5
301.748	102.5
301.979	126.5
302.209	118.5
302.439	109.5
302.669	92.5
302.9	104.5
303.13	120.5
303.36	133.5
303.59	175.5
303.82	197.5
304.051	121.5
304.281	116.5
304.511	103.5
304.741	102.5
304.971	92.5
305.201	98.5
305.431	99.5
305.661	106.5
305.891	86.5
306.121	107.5
306.352	133.5
306.582	157.5
306.812	121.5
307.042	161.5
307.272	221.5
307.502	259.5
307.731	236.5
307.961	157.5
308.191	115.5
308.421	89.5
308.651	94.5
308.881	108.5
309.111	100.5
309.341	119.5
309.571	127.5
309.8	110.5
310.03	119.5
310.26	126.5
310.49	111.5
310.72	123.5
310.949	167.5
311.179	132.5
311.409	111.5
311.639	99.5
311.868	106.5
312.098	113.5
312.328	119.5
312.557	127.5
312.787	160.5
313.017	151.5
313.246	99.5
313.476	97.5
313.706	102.5
313.935	112.5
314.165	136.5
314.394	149.5
314.624	143.5
314.853	117.5
315.083	132.5
315.312	100.5
315.542	94.5
315.771	108.5
316.001	88.5
316.23	85.5
316.46	93.5
316.689	95.5
316.919	111.5
317.148	108.5
317.377	110.5
317.607	120.5
317.836	116.5
318.065	102.5
318.295	93.5
318.524	105.5
318.753	117.5
318.983	118.5
319.212	124.5
319.441	148.5
319.67	139.5
319.9	112.5
320.129	90.5
320.358	103.5
320.587	110.5
320.816	132.5
321.046	124.5
321.275	104.5
321.504	102.5
321.733	113.5
321.962	109.5
322.191	104.5
322.42	136.5
322.649	166.5
322.878	145.5
323.108	172.5
323.337	190.5
323.566	207.5
323.795	246.5
324.024	310.5
324.253	677.5
324.482	1487.5
324.71	3022.5
324.939	4110.5
325.168	1481.5
325.397	421.5
325.626	238.5
325.855	180.5
326.084	177.5
326.313	183.5
326.542	222.5
326.77	349.5
326.999	690.5
327.228	1460.5
327.457	2741.5
327.686	2271.5
327.914	838.5
328.143	858.5
328.372	1176.5
328.6	597.5
328.829	266.5
329.058	297.5
329.287	328.5
329.515	254.5
329.744	378.5
329.972	767.5
330.201	1710.5
330.43	2516.5
330.658	1063.5
330.887	495.5
331.115	292.5
331.344	166.5
331.572	158.5
331.801	171.5
332.03	170.5
332.258	151.5
332.486	117.5
332.715	119.5
332.943	138.5
333.172	150.5
333.4	178.5
333.629	227.5
333.857	333.5
334.085	672.5
334.314	1463.5
334.542	3016.5
334.771	2783.5
334.999	690.5
335.227	244.5
335.455	175.5
335.684	127.5
335.912	119.5
336.14	119.5
336.369	142.5
336.597	146.5
336.825	135.5
337.053	106.5
337.281	108.5
337.51	109.5
337.738	102.5
337.966	118.5
338.194	121.5
338.422	125.5
338.65	98.5
338.878	107.5
339.106	110.5
339.334	96.5
339.562	101.5
339.79	101.5
340.018	86.5
340.246	112.5
340.474	109.5
340.702	111.5
340.93	114.5
341.158	109.5
341.386	105.5
341.614	116.5
341.842	120.5
342.07	108.5
342.298	114.5
342.526	97.5
342.754	91.5
342.981	87.5
343.209	99.5
343.437	106.5
343.665	104.5
343.893	80.5
344.12	94.5
344.348	98.5
344.576	77.5
344.804	104.5
345.031	122.5
345.259	123.5
345.487	114.5
345.714	107.5
345.942	102.5
346.17	91.5
346.397	108.5
346.625	104.5
346.853	102.5
347.08	102.5
347.308	115.5
347.535	124.5
347.763	147.5
347.99	126.5
348.218	119.5
348.445	160.5
348.673	114.5
348.9	111.5
349.128	100.5
349.355	100.5
349.583	101.5
349.81	116.5
350.037	102.5
350.265	105.5
350.492	109.5
350.72	109.5
350.947	127.5
351.174	133.5
351.402	173.5
351.629	122.5
351.856	132.5
352.083	134.5
352.311	122.5
352.538	136.5
352.765	150.5
352.992	142.5
353.22	157.5
353.447	139.5
353.674	90.5
353.901	95.5
354.128	99.5
354.355	96.5
354.583	99.5
354.81	104.5
355.037	94.5
355.264	80.5
355.491	98.5
355.718	82.5
355.945	95.5
356.172	90.5
356.399	84.5
356.626	95.5
356.853	88.5
357.08	95.5
357.307	88.5
357.534	93.5
357.761	95.5
357.988	84.5
358.215	95.5
358.441	104.5
358.668	112.5
358.895	103.5
359.122	98.5
359.349	99.5
359.576	104.5
359.802	133.5
360.029	209.5
360.256	195.5
360.483	150.5
360.709	94.5
360.936	104.5
361.163	112.5
361.39	124.5
361.616	142.5
361.843	115.5
362.07	113.5
362.296	134.5
362.523	111.5
362.749	123.5
362.976	120.5
363.203	120.5
363.429	101.5
363.656	90.5
363.882	99.5
364.109	99.5
364.335	102.5
364.562	96.5
364.788	102.5
365.015	118.5
365.241	142.5
365.468	163.5
365.694	156.5
365.92	137.5
366.147	99.5
366.373	88.5
366.599	103.5
366.826	93.5
367.052	107.5
367.278	93.5
367.505	103.5
367.731	103.5
367.957	111.5
368.184	104.5
368.41	133.5
368.636	148.5
368.862	163.5
369.089	155.5
369.315	117.5
369.541	108.5
369.767	100.5
369.993	101.5
370.219	104.5
370.445	100.5
370.672	88.5
370.898	95.5
371.124	74.5
371.35	96.5
371.576	85.5
371.802	88.5
372.028	87.5
372.254	92.5
372.48	83.5
372.706	102.5
372.932	93.5
373.158	93.5
373.384	96.5
373.61	106.5
373.835	95.5
374.061	97.5
374.287	110.5
374.513	95.5
374.739	100.5
374.965	86.5
375.191	84.5
375.416	94.5
375.642	98.5
375.868	88.5
376.094	88.5
376.319	95.5
376.545	104.5
376.771	94.5
376.997	96.5
377.222	92.5
377.448	96.5
377.674	100.5
377.899	88.5
378.125	96.5
378.35	84.5
378.576	100.5
378.802	103.5
379.027	90.5
379.253	99.5
379.478	77.5
379.704	89.5
379.929	103.5
380.155	108.5
380.38	99.5
380.606	93.5
380.831	95.5
381.057	97.5
381.282	116.5
381.507	90.5
381.733	105.5
381.958	95.5
382.184	115.5
382.409	119.5
382.634	111.5
382.86	94.5
383.085	75.5
383.31	93.5
383.535	98.5
383.761	101.5
383.986	77.5
384.211	98.5
384.436	101.5
384.662	105.5
384.887	104.5
385.112	116.5
385.337	99.5
385.562	107.5
385.787	103.5
386.013	124.5
386.238	147.5
386.463	109.5
386.688	112.5
386.913	116.5
387.138	103.5
387.363	113.5
387.588	111.5
387.813	100.5
388.038	110.5
388.263	103.5
388.488	107.5
388.713	88.5
388.938	102.5
389.163	104.5
389.387	83.5
389.612	93.5
389.837	78.5
390.062	82.5
390.287	102.5
390.512	75.5
390.736	80.5
390.961	90.5
391.186	93.5
391.411	80.5
391.636	89.5
391.86	93.5
392.085	81.5
392.31	92.5
392.534	88.5
392.759	90.5
392.984	75.5
393.208	103.5
393.433	92.5
393.658	84.5
393.882	96.5
394.107	84.5
394.331	93.5
394.556	73.5
394.78	83.5
395.005	81.5
395.229	104.5
395.454	91.5
395.678	81.5
395.903	91.5
396.127	92.5
396.352	92.5
396.576	87.5
396.801	102.5
397.025	94.5
397.249	84.5
397.474	102.5
397.698	93.5
397.922	82.5
398.147	88.5
398.371	83.5
398.595	96.5
398.82	83.5
399.044	88.5
399.268	90.5
399.492	83.5
399.717	86.5
399.941	78.5
400.165	96.5
400.389	103.5
400.613	99.5
400.837	86.5
401.062	101.5
401.286	94.5
401.51	112.5
401.734	120.5
401.958	137.5
402.182	204.5
402.406	296.5
402.63	220.5
402.854	136.5
403.078	99.5
403.302	96.5
403.526	99.5
403.75	92.5
403.974	84.5
404.198	102.5
404.422	91.5
404.645	115.5
404.869	108.5
405.093	131.5
405.317	181.5
405.541	183.5
405.765	149.5
405.988	185.5
406.212	356.5
406.436	520.5
406.66	338.5
406.883	172.5
407.107	150.5
407.331	120.5
407.555	119.5
407.778	112.5
408.002	94.5
408.226	100.5
408.449	96.5
408.673	89.5
408.896	102.5
409.12	110.5
409.344	75.5
409.567	94.5
409.791	95.5
410.014	91.5
410.238	100.5
410.461	108.5
410.685	88.5
410.908	105.5
411.132	105.5
411.355	104.5
411.578	113.5
411.802	93.5
412.025	95.5
412.249	122.5
412.472	138.5
412.695	145.5
412.919	122.5
413.142	96.5
413.365	86.5
413.589	91.5
413.812	78.5
414.035	95.5
414.258	88.5
414.482	83.5
414.705	92.5
414.928	96.5
415.151	91.5
415.374	95.5
415.597	95.5
415.821	88.5
416.044	100.5
416.267	95.5
416.49	85.5
416.713	96.5
416.936	93.5
417.159	99.5
417.382	121.5
417.605	119.5
417.828	133.5
418.051	117.5
418.274	96.5
418.497	105.5
418.72	70.5
418.943	96.5
419.166	87.5
419.389	83.5
419.611	80.5
419.834	91.5
420.057	87.5
420.28	93.5
420.503	87.5
420.726	86.5
420.948	89.5
421.171	109.5
421.394	101.5
421.617	89.5
421.839	91.5
422.062	84.5
422.285	85.5
422.507	105.5
422.73	115.5
422.953	99.5
423.175	94.5
423.398	102.5
423.621	98.5
423.843	96.5
424.066	90.5
424.288	96.5
424.511	104.5
424.733	121.5
424.956	125.5
425.178	121.5
425.401	118.5
425.623	114.5
425.846	95.5
426.068	115.5
426.291	110.5
426.513	95.5
426.735	104.5
426.958	98.5
427.18	132.5
427.402	227.5
427.625	372.5
427.847	338.5
428.069	273.5
428.292	143.5
428.514	117.5
428.736	92.5
428.958	95.5
429.181	102.5
429.403	91.5
429.625	105.5
429.847	116.5
430.069	127.5
430.292	106.5
430.514	96.5
430.736	82.5
430.958	84.5
431.18	83.5
431.402	84.5
431.624	82.5
431.846	99.5
432.068	94.5
432.29	92.5
432.512	95.5
432.734	95.5
432.956	108.5
433.178	107.5
433.4	113.5
433.622	94.5
433.844	96.5
434.066	91.5
434.287	103.5
434.509	101.5
434.731	104.5
434.953	94.5
435.175	92.5
435.397	98.5
435.618	101.5
435.84	132.5
436.062	159.5
436.284	150.5
436.505	118.5
436.727	123.5
436.949	94.5
437.17	95.5
437.392	110.5
437.614	121.5
437.835	149.5
438.057	196.5
438.278	141.5
438.5	124.5
438.721	172.5
438.943	130.5
439.165	99.5
439.386	97.5
439.608	90.5
439.829	118.5
440.05	192.5
440.272	238.5
440.493	133.5
440.715	107.5
440.936	94.5
441.158	89.5
441.379	104.5
441.6	113.5
441.822	119.5
442.043	109.5
442.264	137.5
442.486	130.5
442.707	116.5
442.928	148.5
443.149	229.5
443.371	239.5
443.592	175.5
443.813	149.5
444.034	131.5
444.255	92.5
444.476	94.5
444.698	100.5
444.919	99.5
445.14	142.5
445.361	135.5
445.582	166.5
445.803	217.5
446.024	219.5
446.245	199.5
446.466	131.5
446.687	105.5
446.908	93.5
447.129	89.5
447.35	100.5
447.571	114.5
447.792	111.5
448.013	125.5
448.234	142.5
448.455	130.5
448.675	137.5
448.896	163.5
449.117	112.5
449.338	126.5
449.559	174.5
449.779	154.5
450	103.5
450.221	90.5
450.442	106.5
450.662	124.5
450.883	179.5
451.104	181.5
451.324	127.5
451.545	99.5
451.766	94.5
451.986	91.5
452.207	97.5
452.428	121.5
452.648	135.5
452.869	165.5
453.089	184.5
453.31	203.5
453.53	124.5
453.751	114.5
453.971	154.5
454.192	185.5
454.412	109.5
454.633	85.5
454.853	90.5
455.073	93.5
455.294	99.5
455.514	124.5
455.734	114.5
455.955	98.5
456.175	85.5
456.395	73.5
456.616	84.5
456.836	98.5
457.056	90.5
457.276	100.5
457.497	92.5
457.717	92.5
457.937	96.5
458.157	99.5
458.377	115.5
458.598	162.5
458.818	346.5
459.038	366.5
459.258	197.5
459.478	114.5
459.698	109.5
459.918	88.5
460.138	90.5
460.358	83.5
460.578	93.5
460.798	90.5
461.018	99.5
461.238	97.5
461.458	87.5
461.678	75.5
461.898	98.5
462.118	89.5
462.338	95.5
462.558	94.5
462.777	82.5
462.997	108.5
463.217	142.5
463.437	102.5
463.657	94.5
463.876	103.5
464.096	104.5
464.316	119.5
464.536	122.5
464.755	104.5
464.975	176.5
465.195	402.5
465.414	392.5
465.634	152.5
465.854	86.5
466.073	110.5
466.293	89.5
466.512	90.5
466.732	106.5
466.951	115.5
467.171	110.5
467.391	126.5
467.61	192.5
467.829	312.5
468.049	971.5
468.268	1528.5
468.488	351.5
468.707	138.5
468.927	88.5
469.146	102.5
469.365	97.5
469.585	88.5
469.804	121.5
470.023	132.5
470.243	142.5
470.462	150.5
470.681	183.5
470.901	132.5
471.12	110.5
471.339	117.5
471.558	136.5
471.777	215.5
471.997	439.5
472.216	1841.5
472.435	4441.5
472.654	932.5
472.873	218.5
473.092	136.5
473.311	110.5
473.53	104.5
473.749	109.5
473.968	127.5
474.187	141.5
474.406	135.5
474.625	98.5
474.844	89.5
475.063	93.5
475.282	90.5
475.501	95.5
475.72	118.5
475.939	102.5
476.158	101.5
476.377	85.5
476.596	98.5
476.814	123.5
477.033	109.5
477.252	101.5
477.471	75.5
477.69	99.5
477.908	96.5
478.127	103.5
478.346	116.5
478.564	111.5
478.783	131.5
479.002	117.5
479.22	125.5
479.439	153.5
479.658	170.5
479.876	158.5
480.095	155.5
480.313	163.5
480.532	211.5
480.751	419.5
480.969	1647.5
481.188	7438.5
481.406	4170.5
481.624	557.5
481.843	174.5
482.061	129.5
482.28	110.5
482.498	114.5
482.717	105.5
482.935	106.5
483.153	94.5
483.372	103.5
483.59	104.5
483.808	100.5
484.027	88.5
484.245	81.5
484.463	117.5
484.681	101.5
484.9	95.5
485.118	101.5
485.336	105.5
485.554	110.5
485.772	117.5
485.99	102.5
486.209	113.5
486.427	118.5
486.645	147.5
486.863	162.5
487.081	128.5
487.299	113.5
487.517	109.5
487.735	102.5
487.953	88.5
488.171	96.5
488.389	91.5
488.607	136.5
488.825	102.5
489.043	96.5
489.261	100.5
489.479	93.5
489.696	82.5
489.914	83.5
490.132	94.5
490.35	94.5
490.568	78.5
490.786	95.5
491.003	87.5
491.221	108.5
491.439	99.5
491.657	100.5
491.874	90.5
492.092	98.5
492.31	118.5
492.527	108.5
492.745	94.5
492.963	108.5
493.18	100.5
493.398	94.5
493.615	102.5
493.833	97.5
494.05	91.5
494.268	71.5
494.485	93.5
494.703	86.5
494.92	98.5
495.138	85.5
495.355	86.5
495.573	103.5
495.79	86.5
496.008	95.5
496.225	96.5
496.442	103.5
496.66	89.5
496.877	102.5
497.094	103.5
497.312	102.5
497.529	98.5
497.746	92.5
497.963	89.5
498.181	99.5
498.398	112.5
498.615	131.5
498.832	125.5
499.049	102.5
499.267	103.5
499.484	87.5
499.701	86.5
499.918	87.5
500.135	85.5
500.352	88.5
500.569	108.5
500.786	103.5
501.003	94.5
501.22	98.5
501.437	101.5
501.654	105.5
501.871	175.5
502.088	110.5
502.305	92.5
502.522	78.5
502.739	88.5
502.956	117.5
503.172	104.5
503.389	123.5
503.606	162.5
503.823	150.5
504.04	109.5
504.256	93.5
504.473	90.5
504.69	78.5
504.907	89.5
505.123	87.5
505.34	89.5
505.557	87.5
505.773	93.5
505.99	102.5
506.207	88.5
506.423	97.5
506.64	87.5
506.856	107.5
507.073	106.5
507.289	100.5
507.506	115.5
507.722	190.5
507.939	181.5
508.155	119.5
508.372	107.5
508.588	94.5
508.805	100.5
509.021	106.5
509.238	135.5
509.454	104.5
509.67	125.5
509.887	143.5
510.103	188.5
510.319	357.5
510.536	1558.5
510.752	5900.5
510.968	1468.5
511.184	258.5
511.401	173.5
511.617	121.5
511.833	121.5
512.049	102.5
512.265	92.5
512.481	100.5
512.698	90.5
512.914	109.5
513.13	112.5
513.346	107.5
513.562	109.5
513.778	119.5
513.994	133.5
514.21	148.5
514.426	192.5
514.642	276.5
514.858	242.5
515.074	368.5
515.29	1332.5
515.506	5160.5
515.721	1679.5
515.937	341.5
516.153	180.5
516.369	140.5
516.585	138.5
516.801	127.5
517.016	117.5
517.232	104.5
517.448	112.5
517.664	106.5
517.879	111.5
518.095	119.5
518.311	117.5
518.527	139.5
518.742	114.5
518.958	110.5
519.173	105.5
519.389	109.5
519.605	124.5
519.82	122.5
520.036	130.5
520.251	203.5
520.467	186.5
520.682	155.5
520.898	171.5
521.113	188.5
521.329	274.5
521.544	526.5
521.76	1817.5
521.975	8581.5
522.19	5093.5
522.406	877.5
522.621	251.5
522.836	155.5
523.052	127.5
523.267	123.5
523.482	111.5
523.698	124.5
523.913	216.5
524.128	160.5
524.343	99.5
524.559	98.5
524.774	118.5
524.989	126.5
525.204	143.5
525.419	130.5
525.634	97.5
525.849	101.5
526.064	93.5
526.28	95.5
526.495	86.5
526.71	90.5
526.925	92.5
527.14	97.5
527.355	87.5
527.57	91.5
527.785	107.5
527.999	79.5
528.214	96.5
528.429	103.5
528.644	105.5
528.859	106.5
529.074	127.5
