Data from Circ_1999_H10_HRD10591_00019.txt Node
Date: Wed Jan 03 11:23:16 EST 2024
User: Yrep
Spectrometer: HR+D1059
Trigger mode: 1
Integration Time (sec): 1.000000E-1
Scans to average: 1
Electric dark correction enabled: true
Nonlinearity correction enabled: false
Boxcar width: 0
XAxis mode: Wavelengths
Number of Pixels in Spectrum: 2048
>>>>>Begin Spectral Data<<<<<
223.165	-20.69
223.4	-20.69
223.635	-20.69
223.869	-22.69
224.104	-9.69
224.338	-15.69
224.573	-10.69
224.808	-18.69
225.042	-3.69
225.277	-15.69
225.511	5.31
225.746	0.31
225.98	10.31
226.215	13.31
226.449	14.31
226.683	31.31
226.918	18.31
227.152	24.31
227.387	22.31
227.621	44.31
227.856	43.31
228.09	45.31
228.324	45.31
228.559	53.31
228.793	60.31
229.027	60.31
229.262	81.31
229.496	72.31
229.73	98.31
229.964	104.31
230.199	73.31
230.433	76.31
230.667	76.31
230.901	75.31
231.136	66.31
231.37	98.31
231.604	61.31
231.838	77.31
232.072	88.31
232.306	75.31
232.541	63.31
232.775	70.31
233.009	81.31
233.243	73.31
233.477	82.31
233.711	80.31
233.945	88.31
234.179	72.31
234.413	78.31
234.647	79.31
234.881	72.31
235.115	76.31
235.349	79.31
235.583	51.31
235.817	65.31
236.051	66.31
236.285	86.31
236.519	80.31
236.753	85.31
236.987	82.31
237.221	99.31
237.455	70.31
237.689	89.31
237.922	74.31
238.156	84.31
238.39	84.31
238.624	80.31
238.858	73.31
239.091	75.31
239.325	72.31
239.559	80.31
239.793	65.31
240.027	66.31
240.26	83.31
240.494	81.31
240.728	92.31
240.961	82.31
241.195	78.31
241.429	72.31
241.662	81.31
241.896	69.31
242.13	75.31
242.363	73.31
242.597	73.31
242.83	75.31
243.064	85.31
243.298	71.31
243.531	75.31
243.765	87.31
243.998	71.31
244.232	82.31
244.465	81.31
244.699	89.31
244.932	69.31
245.166	78.31
245.399	74.31
245.633	65.31
245.866	81.31
246.099	58.31
246.333	94.31
246.566	81.31
246.8	78.31
247.033	82.31
247.266	74.31
247.5	69.31
247.733	91.31
247.966	73.31
248.2	74.31
248.433	79.31
248.666	74.31
248.899	78.31
249.133	84.31
249.366	102.31
249.599	96.31
249.832	76.31
250.066	82.31
250.299	82.31
250.532	74.31
250.765	70.31
250.998	83.31
251.231	76.31
251.465	83.31
251.698	83.31
251.931	81.31
252.164	97.31
252.397	81.31
252.63	78.31
252.863	72.31
253.096	60.31
253.329	77.31
253.562	67.31
253.795	66.31
254.028	89.31
254.261	77.31
254.494	85.31
254.727	96.31
254.96	73.31
255.193	80.31
255.426	76.31
255.659	86.31
255.892	86.31
256.124	108.31
256.357	84.31
256.59	80.31
256.823	81.31
257.056	81.31
257.289	86.31
257.521	88.31
257.754	66.31
257.987	87.31
258.22	86.31
258.452	105.31
258.685	95.31
258.918	76.31
259.151	69.31
259.383	76.31
259.616	86.31
259.849	77.31
260.081	79.31
260.314	82.31
260.547	93.31
260.779	96.31
261.012	117.31
261.244	101.31
261.477	94.31
261.71	106.31
261.942	137.31
262.175	147.31
262.407	108.31
262.64	76.31
262.872	87.31
263.105	90.31
263.337	96.31
263.57	85.31
263.802	87.31
264.035	88.31
264.267	76.31
264.499	73.31
264.732	72.31
264.964	97.31
265.197	96.31
265.429	74.31
265.661	84.31
265.894	64.31
266.126	86.31
266.358	79.31
266.591	74.31
266.823	82.31
267.055	82.31
267.287	84.31
267.52	81.31
267.752	84.31
267.984	91.31
268.216	69.31
268.448	89.31
268.681	73.31
268.913	98.31
269.145	90.31
269.377	70.31
269.609	75.31
269.841	90.31
270.073	77.31
270.306	93.31
270.538	92.31
270.77	81.31
271.002	97.31
271.234	89.31
271.466	93.31
271.698	75.31
271.93	88.31
272.162	90.31
272.394	90.31
272.626	81.31
272.858	84.31
273.09	89.31
273.322	86.31
273.553	74.31
273.785	76.31
274.017	83.31
274.249	87.31
274.481	88.31
274.713	84.31
274.945	94.31
275.176	96.31
275.408	93.31
275.64	102.31
275.872	129.31
276.104	107.31
276.335	109.31
276.567	126.31
276.799	166.31
277.031	161.31
277.262	192.31
277.494	150.31
277.726	91.31
277.957	81.31
278.189	94.31
278.421	89.31
278.652	64.31
278.884	93.31
279.115	100.31
279.347	92.31
279.579	96.31
279.81	114.31
280.042	196.31
280.273	256.31
280.505	175.31
280.736	93.31
280.968	98.31
281.199	87.31
281.431	82.31
281.662	80.31
281.894	95.31
282.125	124.31
282.356	133.31
282.588	185.31
282.819	124.31
283.051	99.31
283.282	84.31
283.513	98.31
283.745	75.31
283.976	93.31
284.207	89.31
284.439	94.31
284.67	109.31
284.901	90.31
285.132	91.31
285.364	61.31
285.595	83.31
285.826	68.31
286.057	88.31
286.288	83.31
286.52	80.31
286.751	92.31
286.982	80.31
287.213	92.31
287.444	84.31
287.675	82.31
287.906	96.31
288.138	98.31
288.369	101.31
288.6	90.31
288.831	83.31
289.062	84.31
289.293	83.31
289.524	81.31
289.755	88.31
289.986	72.31
290.217	85.31
290.448	76.31
290.679	85.31
290.91	86.31
291.141	75.31
291.371	87.31
291.602	87.31
291.833	73.31
292.064	96.31
292.295	85.31
292.526	85.31
292.757	112.31
292.987	92.31
293.218	93.31
293.449	90.31
293.68	92.31
293.91	93.31
294.141	94.31
294.372	89.31
294.603	88.31
294.833	91.31
295.064	91.31
295.295	72.31
295.525	89.31
295.756	108.31
295.987	140.31
296.217	170.31
296.448	166.31
296.679	101.31
296.909	79.31
297.14	83.31
297.37	87.31
297.601	89.31
297.831	90.31
298.062	113.31
298.292	92.31
298.523	86.31
298.753	95.31
298.984	98.31
299.214	94.31
299.445	102.31
299.675	91.31
299.905	106.31
300.136	93.31
300.366	83.31
300.597	93.31
300.827	84.31
301.057	110.31
301.288	110.31
301.518	100.31
301.748	91.31
301.979	106.31
302.209	113.31
302.439	87.31
302.669	93.31
302.9	86.31
303.13	91.31
303.36	100.31
303.59	142.31
303.82	151.31
304.051	103.31
304.281	81.31
304.511	82.31
304.741	84.31
304.971	97.31
305.201	87.31
305.431	97.31
305.661	86.31
305.891	98.31
306.121	112.31
306.352	114.31
306.582	117.31
306.812	106.31
307.042	122.31
307.272	143.31
307.502	184.31
307.731	162.31
307.961	122.31
308.191	80.31
308.421	98.31
308.651	87.31
308.881	92.31
309.111	101.31
309.341	91.31
309.571	102.31
309.8	95.31
310.03	112.31
310.26	112.31
310.49	101.31
310.72	116.31
310.949	113.31
311.179	118.31
311.409	101.31
311.639	95.31
311.868	113.31
312.098	99.31
312.328	112.31
312.557	102.31
312.787	150.31
313.017	112.31
313.246	92.31
313.476	94.31
313.706	85.31
313.935	98.31
314.165	109.31
314.394	113.31
314.624	110.31
314.853	115.31
315.083	103.31
315.312	93.31
315.542	86.31
315.771	94.31
316.001	83.31
316.23	101.31
316.46	89.31
316.689	97.31
316.919	85.31
317.148	100.31
317.377	106.31
317.607	104.31
317.836	89.31
318.065	88.31
318.295	97.31
318.524	98.31
318.753	89.31
318.983	120.31
319.212	103.31
319.441	122.31
319.67	106.31
319.9	103.31
320.129	102.31
320.358	85.31
320.587	93.31
320.816	107.31
321.046	110.31
321.275	108.31
321.504	94.31
321.733	108.31
321.962	112.31
322.191	117.31
322.42	106.31
322.649	125.31
322.878	132.31
323.108	149.31
323.337	162.31
323.566	161.31
323.795	184.31
324.024	260.31
324.253	491.31
324.482	1082.31
324.71	2242.31
324.939	2847.31
325.168	1055.31
325.397	309.31
325.626	180.31
325.855	142.31
326.084	159.31
326.313	144.31
326.542	188.31
326.77	278.31
326.999	528.31
327.228	1108.31
327.457	2027.31
327.686	1604.31
327.914	588.31
328.143	570.31
328.372	706.31
328.6	391.31
328.829	216.31
329.058	226.31
329.287	218.31
329.515	194.31
329.744	253.31
329.972	522.31
330.201	1074.31
330.43	1505.31
330.658	676.31
330.887	326.31
331.115	208.31
331.344	139.31
331.572	136.31
331.801	136.31
332.03	142.31
332.258	126.31
332.486	112.31
332.715	110.31
332.943	129.31
333.172	128.31
333.4	145.31
333.629	180.31
333.857	245.31
334.085	469.31
334.314	980.31
334.542	1944.31
334.771	1746.31
334.999	449.31
335.227	186.31
335.455	120.31
335.684	106.31
335.912	108.31
336.14	106.31
336.369	112.31
336.597	122.31
336.825	120.31
337.053	97.31
337.281	90.31
337.51	99.31
337.738	106.31
337.966	103.31
338.194	103.31
338.422	102.31
338.65	99.31
338.878	98.31
339.106	101.31
339.334	96.31
339.562	100.31
339.79	106.31
340.018	102.31
340.246	118.31
340.474	98.31
340.702	85.31
340.93	101.31
341.158	104.31
341.386	119.31
341.614	89.31
341.842	90.31
342.07	93.31
342.298	97.31
342.526	102.31
342.754	88.31
342.981	87.31
343.209	93.31
343.437	85.31
343.665	89.31
343.893	81.31
344.12	100.31
344.348	104.31
344.576	82.31
344.804	91.31
345.031	105.31
345.259	115.31
345.487	110.31
345.714	94.31
345.942	106.31
346.17	86.31
346.397	108.31
346.625	97.31
346.853	104.31
347.08	91.31
347.308	100.31
347.535	101.31
347.763	113.31
347.99	121.31
348.218	112.31
348.445	120.31
348.673	121.31
348.9	102.31
349.128	109.31
349.355	92.31
349.583	103.31
349.81	88.31
350.037	97.31
350.265	96.31
350.492	92.31
350.72	90.31
350.947	106.31
351.174	114.31
351.402	145.31
351.629	92.31
351.856	109.31
352.083	118.31
352.311	120.31
352.538	129.31
352.765	125.31
352.992	121.31
353.22	129.31
353.447	114.31
353.674	104.31
353.901	111.31
354.128	100.31
354.355	92.31
354.583	110.31
354.81	102.31
355.037	92.31
355.264	90.31
355.491	99.31
355.718	91.31
355.945	90.31
356.172	93.31
356.399	101.31
356.626	88.31
356.853	100.31
357.08	99.31
357.307	91.31
357.534	83.31
357.761	82.31
357.988	92.31
358.215	88.31
358.441	86.31
358.668	93.31
358.895	93.31
359.122	95.31
359.349	90.31
359.576	102.31
359.802	128.31
360.029	175.31
360.256	153.31
360.483	109.31
360.709	85.31
360.936	92.31
361.163	96.31
361.39	112.31
361.616	108.31
361.843	93.31
362.07	92.31
362.296	108.31
362.523	106.31
362.749	105.31
362.976	108.31
363.203	96.31
363.429	98.31
363.656	97.31
363.882	83.31
364.109	80.31
364.335	92.31
364.562	98.31
364.788	117.31
365.015	102.31
365.241	107.31
365.468	113.31
365.694	119.31
365.92	101.31
366.147	103.31
366.373	92.31
366.599	98.31
366.826	85.31
367.052	98.31
367.278	92.31
367.505	94.31
367.731	89.31
367.957	84.31
368.184	105.31
368.41	114.31
368.636	113.31
368.862	143.31
369.089	130.31
369.315	89.31
369.541	90.31
369.767	97.31
369.993	94.31
370.219	93.31
370.445	99.31
370.672	88.31
370.898	95.31
371.124	94.31
371.35	100.31
371.576	90.31
371.802	94.31
372.028	95.31
372.254	84.31
372.48	73.31
372.706	90.31
372.932	94.31
373.158	96.31
373.384	96.31
373.61	93.31
373.835	84.31
374.061	103.31
374.287	88.31
374.513	107.31
374.739	81.31
374.965	89.31
375.191	90.31
375.416	83.31
375.642	78.31
375.868	94.31
376.094	98.31
376.319	74.31
376.545	81.31
376.771	84.31
376.997	80.31
377.222	99.31
377.448	100.31
377.674	90.31
377.899	97.31
378.125	93.31
378.35	94.31
378.576	91.31
378.802	89.31
379.027	79.31
379.253	98.31
379.478	99.31
379.704	90.31
379.929	98.31
380.155	97.31
380.38	100.31
380.606	92.31
380.831	107.31
381.057	109.31
381.282	101.31
381.507	85.31
381.733	108.31
381.958	94.31
382.184	102.31
382.409	105.31
382.634	102.31
382.86	98.31
383.085	112.31
383.31	100.31
383.535	99.31
383.761	100.31
383.986	105.31
384.211	103.31
384.436	94.31
384.662	97.31
384.887	111.31
385.112	122.31
385.337	113.31
385.562	113.31
385.787	123.31
386.013	124.31
386.238	119.31
386.463	103.31
386.688	116.31
386.913	117.31
387.138	107.31
387.363	98.31
387.588	97.31
387.813	103.31
388.038	109.31
388.263	113.31
388.488	105.31
388.713	85.31
388.938	92.31
389.163	92.31
389.387	81.31
389.612	102.31
389.837	91.31
390.062	81.31
390.287	85.31
390.512	91.31
390.736	77.31
390.961	87.31
391.186	84.31
391.411	106.31
391.636	83.31
391.86	90.31
392.085	94.31
392.31	92.31
392.534	89.31
392.759	78.31
392.984	82.31
393.208	73.31
393.433	106.31
393.658	85.31
393.882	76.31
394.107	76.31
394.331	82.31
394.556	72.31
394.78	81.31
395.005	72.31
395.229	88.31
395.454	80.31
395.678	70.31
395.903	91.31
396.127	91.31
396.352	86.31
396.576	88.31
396.801	91.31
397.025	85.31
397.249	94.31
397.474	86.31
397.698	88.31
397.922	105.31
398.147	104.31
398.371	107.31
398.595	87.31
398.82	82.31
399.044	85.31
399.268	75.31
399.492	90.31
399.717	83.31
399.941	100.31
400.165	98.31
400.389	102.31
400.613	75.31
400.837	64.31
401.062	98.31
401.286	88.31
401.51	103.31
401.734	91.31
401.958	105.31
402.182	157.31
402.406	228.31
402.63	160.31
402.854	113.31
403.078	90.31
403.302	87.31
403.526	91.31
403.75	92.31
403.974	98.31
404.198	98.31
404.422	104.31
404.645	94.31
404.869	101.31
405.093	121.31
405.317	147.31
405.541	136.31
405.765	124.31
405.988	152.31
406.212	254.31
406.436	355.31
406.66	230.31
406.883	110.31
407.107	101.31
407.331	110.31
407.555	114.31
407.778	98.31
408.002	89.31
408.226	100.31
408.449	76.31
408.673	100.31
408.896	95.31
409.12	90.31
409.344	97.31
409.567	93.31
409.791	87.31
410.014	94.31
410.238	89.31
410.461	88.31
410.685	89.31
410.908	105.31
411.132	112.31
411.355	106.31
411.578	101.31
411.802	93.31
412.025	88.31
412.249	114.31
412.472	117.31
412.695	143.31
412.919	105.31
413.142	95.31
413.365	99.31
413.589	80.31
413.812	82.31
414.035	98.31
414.258	93.31
414.482	94.31
414.705	83.31
414.928	80.31
415.151	107.31
415.374	97.31
415.597	98.31
415.821	84.31
416.044	103.31
416.267	84.31
416.49	90.31
416.713	104.31
416.936	84.31
417.159	88.31
417.382	103.31
417.605	99.31
417.828	119.31
418.051	108.31
418.274	102.31
418.497	63.31
418.72	99.31
418.943	93.31
419.166	83.31
419.389	82.31
419.611	99.31
419.834	72.31
420.057	84.31
420.28	94.31
420.503	87.31
420.726	90.31
420.948	98.31
421.171	101.31
421.394	101.31
421.617	97.31
421.839	82.31
422.062	83.31
422.285	89.31
422.507	91.31
422.73	105.31
422.953	100.31
423.175	92.31
423.398	81.31
423.621	90.31
423.843	100.31
424.066	84.31
424.288	107.31
424.511	99.31
424.733	109.31
424.956	125.31
425.178	122.31
425.401	108.31
425.623	110.31
425.846	92.31
426.068	114.31
426.291	108.31
426.513	102.31
426.735	98.31
426.958	90.31
427.18	117.31
427.402	197.31
427.625	298.31
427.847	235.31
428.069	212.31
428.292	127.31
428.514	92.31
428.736	99.31
428.958	95.31
429.181	88.31
429.403	81.31
429.625	98.31
429.847	93.31
430.069	120.31
430.292	99.31
430.514	83.31
430.736	85.31
430.958	81.31
431.18	79.31
431.402	97.31
431.624	91.31
431.846	94.31
432.068	78.31
432.29	90.31
432.512	85.31
432.734	89.31
432.956	102.31
433.178	101.31
433.4	88.31
433.622	93.31
433.844	96.31
434.066	95.31
434.287	96.31
434.509	81.31
434.731	89.31
434.953	83.31
435.175	83.31
435.397	93.31
435.618	97.31
435.84	100.31
436.062	131.31
436.284	140.31
436.505	108.31
436.727	97.31
436.949	105.31
437.17	100.31
437.392	90.31
437.614	104.31
437.835	131.31
438.057	174.31
438.278	130.31
438.5	120.31
438.721	138.31
438.943	109.31
439.165	89.31
439.386	84.31
439.608	92.31
439.829	98.31
440.05	153.31
440.272	184.31
440.493	108.31
440.715	88.31
440.936	81.31
441.158	95.31
441.379	84.31
441.6	89.31
441.822	107.31
442.043	99.31
442.264	135.31
442.486	118.31
442.707	96.31
442.928	121.31
443.149	186.31
443.371	170.31
443.592	145.31
443.813	139.31
444.034	106.31
444.255	102.31
444.476	106.31
444.698	97.31
444.919	92.31
445.14	119.31
445.361	131.31
445.582	127.31
445.803	200.31
446.024	179.31
446.245	186.31
446.466	125.31
446.687	94.31
446.908	89.31
447.129	104.31
447.35	88.31
447.571	80.31
447.792	112.31
448.013	109.31
448.234	123.31
448.455	105.31
448.675	140.31
448.896	151.31
449.117	128.31
449.338	109.31
449.559	148.31
449.779	157.31
450	109.31
450.221	97.31
450.442	89.31
450.662	113.31
450.883	158.31
451.104	146.31
451.324	106.31
451.545	77.31
451.766	71.31
451.986	86.31
452.207	88.31
452.428	112.31
452.648	104.31
452.869	128.31
453.089	162.31
453.31	161.31
453.53	120.31
453.751	104.31
453.971	130.31
454.192	160.31
454.412	107.31
454.633	100.31
454.853	80.31
455.073	89.31
455.294	102.31
455.514	105.31
455.734	98.31
455.955	101.31
456.175	75.31
456.395	93.31
456.616	96.31
456.836	79.31
457.056	92.31
457.276	69.31
457.497	105.31
457.717	95.31
457.937	99.31
458.157	89.31
458.377	100.31
458.598	152.31
458.818	242.31
459.038	248.31
459.258	181.31
459.478	99.31
459.698	98.31
459.918	85.31
460.138	89.31
460.358	81.31
460.578	89.31
460.798	88.31
461.018	89.31
461.238	83.31
461.458	78.31
461.678	101.31
461.898	74.31
462.118	85.31
462.338	82.31
462.558	84.31
462.777	88.31
462.997	92.31
463.217	116.31
463.437	90.31
463.657	100.31
463.876	92.31
464.096	99.31
464.316	100.31
464.536	97.31
464.755	103.31
464.975	130.31
465.195	276.31
465.414	288.31
465.634	115.31
465.854	95.31
466.073	88.31
466.293	97.31
466.512	94.31
466.732	102.31
466.951	94.31
467.171	102.31
467.391	130.31
467.61	156.31
467.829	213.31
468.049	589.31
468.268	844.31
468.488	235.31
468.707	101.31
468.927	86.31
469.146	96.31
469.365	91.31
469.585	101.31
469.804	95.31
470.023	115.31
470.243	121.31
470.462	115.31
470.681	148.31
470.901	98.31
471.12	85.31
471.339	116.31
471.558	121.31
471.777	141.31
471.997	304.31
472.216	1163.31
472.435	2587.31
472.654	580.31
472.873	164.31
473.092	119.31
473.311	101.31
473.53	94.31
473.749	95.31
473.968	101.31
474.187	130.31
474.406	110.31
474.625	114.31
474.844	77.31
475.063	94.31
475.282	80.31
475.501	91.31
475.72	107.31
475.939	82.31
476.158	105.31
476.377	91.31
476.596	89.31
476.814	101.31
477.033	113.31
477.252	96.31
477.471	88.31
477.69	86.31
477.908	88.31
478.127	82.31
478.346	91.31
478.564	99.31
478.783	111.31
479.002	120.31
479.22	109.31
479.439	144.31
479.658	130.31
479.876	125.31
480.095	125.31
480.313	133.31
480.532	163.31
480.751	293.31
480.969	1070.31
481.188	4525.31
481.406	2566.31
481.624	379.31
481.843	139.31
482.061	107.31
482.28	110.31
482.498	91.31
482.717	107.31
482.935	91.31
483.153	104.31
483.372	102.31
483.59	87.31
483.808	94.31
484.027	97.31
484.245	91.31
484.463	100.31
484.681	94.31
484.9	94.31
485.118	100.31
485.336	96.31
485.554	88.31
485.772	92.31
485.99	99.31
486.209	113.31
486.427	118.31
486.645	117.31
486.863	143.31
487.081	90.31
487.299	96.31
487.517	93.31
487.735	107.31
487.953	86.31
488.171	93.31
488.389	111.31
488.607	101.31
488.825	91.31
489.043	93.31
489.261	96.31
489.479	88.31
489.696	89.31
489.914	87.31
490.132	80.31
490.35	96.31
490.568	96.31
490.786	99.31
491.003	84.31
491.221	85.31
491.439	86.31
491.657	92.31
491.874	79.31
492.092	89.31
492.31	109.31
492.527	107.31
492.745	108.31
492.963	93.31
493.18	97.31
493.398	93.31
493.615	90.31
493.833	95.31
494.05	96.31
494.268	82.31
494.485	94.31
494.703	89.31
494.92	82.31
495.138	102.31
495.355	92.31
495.573	103.31
495.79	80.31
496.008	80.31
496.225	94.31
496.442	82.31
496.66	80.31
496.877	95.31
497.094	101.31
497.312	96.31
497.529	92.31
497.746	84.31
497.963	100.31
498.181	84.31
498.398	94.31
498.615	112.31
498.832	106.31
499.049	89.31
499.267	96.31
499.484	87.31
499.701	85.31
499.918	82.31
500.135	75.31
500.352	100.31
500.569	78.31
500.786	90.31
501.003	100.31
501.22	93.31
501.437	107.31
501.654	101.31
501.871	141.31
502.088	94.31
502.305	85.31
502.522	92.31
502.739	88.31
502.956	72.31
503.172	88.31
503.389	102.31
503.606	132.31
503.823	115.31
504.04	107.31
504.256	79.31
504.473	86.31
504.69	73.31
504.907	90.31
505.123	98.31
505.34	97.31
505.557	104.31
505.773	93.31
505.99	100.31
506.207	75.31
506.423	90.31
506.64	86.31
506.856	93.31
507.073	82.31
507.289	102.31
507.506	93.31
507.722	152.31
507.939	140.31
508.155	103.31
508.372	93.31
508.588	102.31
508.805	93.31
509.021	100.31
509.238	94.31
509.454	97.31
509.67	94.31
509.887	129.31
510.103	151.31
510.319	276.31
510.536	1106.31
510.752	4008.31
510.968	1021.31
511.184	213.31
511.401	129.31
511.617	116.31
511.833	117.31
512.049	109.31
512.265	111.31
512.481	94.31
512.698	98.31
