Data from Circ_1999_H10_HRD10591_00073.txt Node
Date: Wed Jan 03 11:23:27 EST 2024
User: Yrep
Spectrometer: HR+D1059
Trigger mode: 1
Integration Time (sec): 1.000000E-1
Scans to average: 1
Electric dark correction enabled: true
Nonlinearity correction enabled: false
Boxcar width: 0
XAxis mode: Wavelengths
Number of Pixels in Spectrum: 2048
>>>>>Begin Spectral Data<<<<<
223.165	-15.81
223.4	-15.81
223.635	-15.81
223.869	-21.81
224.104	-22.81
224.338	-23.81
224.573	-14.81
224.808	-15.81
225.042	8.19
225.277	-3.81
225.511	5.19
225.746	-1.81
225.98	-10.81
226.215	13.19
226.449	20.19
226.683	34.19
226.918	15.19
227.152	35.19
227.387	28.19
227.621	51.19
227.856	43.19
228.09	42.19
228.324	44.19
228.559	75.19
228.793	68.19
229.027	67.19
229.262	78.19
229.496	87.19
229.73	97.19
229.964	81.19
230.199	92.19
230.433	89.19
230.667	89.19
230.901	77.19
231.136	82.19
231.37	75.19
231.604	75.19
231.838	80.19
232.072	85.19
232.306	91.19
232.541	85.19
232.775	82.19
233.009	82.19
233.243	106.19
233.477	88.19
233.711	75.19
233.945	86.19
234.179	80.19
234.413	73.19
234.647	90.19
234.881	79.19
235.115	83.19
235.349	96.19
235.583	84.19
235.817	92.19
236.051	70.19
236.285	79.19
236.519	84.19
236.753	71.19
236.987	74.19
237.221	93.19
237.455	100.19
237.689	91.19
237.922	88.19
238.156	83.19
238.39	72.19
238.624	88.19
238.858	81.19
239.091	88.19
239.325	76.19
239.559	90.19
239.793	86.19
240.027	79.19
240.26	96.19
240.494	84.19
240.728	86.19
240.961	88.19
241.195	93.19
241.429	78.19
241.662	95.19
241.896	84.19
242.13	75.19
242.363	86.19
242.597	79.19
242.83	84.19
243.064	85.19
243.298	91.19
243.531	88.19
243.765	87.19
243.998	89.19
244.232	99.19
244.465	90.19
244.699	76.19
244.932	77.19
245.166	80.19
245.399	89.19
245.633	80.19
245.866	75.19
246.099	93.19
246.333	82.19
246.566	75.19
246.8	68.19
247.033	76.19
247.266	74.19
247.5	88.19
247.733	79.19
247.966	96.19
248.2	67.19
248.433	78.19
248.666	102.19
248.899	91.19
249.133	92.19
249.366	107.19
249.599	87.19
249.832	77.19
250.066	87.19
250.299	82.19
250.532	88.19
250.765	72.19
250.998	84.19
251.231	89.19
251.465	99.19
251.698	98.19
251.931	105.19
252.164	94.19
252.397	92.19
252.63	89.19
252.863	88.19
253.096	76.19
253.329	103.19
253.562	80.19
253.795	74.19
254.028	92.19
254.261	91.19
254.494	77.19
254.727	79.19
254.96	95.19
255.193	92.19
255.426	79.19
255.659	95.19
255.892	73.19
256.124	90.19
256.357	83.19
256.59	86.19
256.823	86.19
257.056	75.19
257.289	113.19
257.521	87.19
257.754	89.19
257.987	85.19
258.22	91.19
258.452	110.19
258.685	96.19
258.918	89.19
259.151	83.19
259.383	89.19
259.616	92.19
259.849	91.19
260.081	90.19
260.314	98.19
260.547	91.19
260.779	90.19
261.012	110.19
261.244	136.19
261.477	106.19
261.71	108.19
261.942	157.19
262.175	165.19
262.407	107.19
262.64	82.19
262.872	88.19
263.105	71.19
263.337	93.19
263.57	96.19
263.802	79.19
264.035	84.19
264.267	82.19
264.499	94.19
264.732	74.19
264.964	85.19
265.197	78.19
265.429	78.19
265.661	84.19
265.894	81.19
266.126	94.19
266.358	82.19
266.591	84.19
266.823	91.19
267.055	85.19
267.287	90.19
267.52	98.19
267.752	91.19
267.984	77.19
268.216	99.19
268.448	84.19
268.681	94.19
268.913	83.19
269.145	92.19
269.377	94.19
269.609	78.19
269.841	89.19
270.073	77.19
270.306	105.19
270.538	87.19
270.77	68.19
271.002	86.19
271.234	82.19
271.466	109.19
271.698	102.19
271.93	93.19
272.162	98.19
272.394	83.19
272.626	95.19
272.858	84.19
273.09	81.19
273.322	97.19
273.553	86.19
273.785	105.19
274.017	79.19
274.249	92.19
274.481	84.19
274.713	91.19
274.945	88.19
275.176	95.19
275.408	120.19
275.64	118.19
275.872	125.19
276.104	117.19
276.335	96.19
276.567	140.19
276.799	183.19
277.031	210.19
277.262	232.19
277.494	184.19
277.726	107.19
277.957	96.19
278.189	99.19
278.421	90.19
278.652	89.19
278.884	92.19
279.115	90.19
279.347	104.19
279.579	118.19
279.81	148.19
280.042	232.19
280.273	342.19
280.505	208.19
280.736	90.19
280.968	108.19
281.199	79.19
281.431	94.19
281.662	83.19
281.894	96.19
282.125	119.19
282.356	159.19
282.588	195.19
282.819	151.19
283.051	102.19
283.282	86.19
283.513	99.19
283.745	97.19
283.976	95.19
284.207	95.19
284.439	100.19
284.67	89.19
284.901	75.19
285.132	90.19
285.364	86.19
285.595	97.19
285.826	80.19
286.057	95.19
286.288	80.19
286.52	100.19
286.751	76.19
286.982	78.19
287.213	92.19
287.444	102.19
287.675	88.19
287.906	106.19
288.138	88.19
288.369	105.19
288.6	99.19
288.831	88.19
289.062	104.19
289.293	101.19
289.524	84.19
289.755	90.19
289.986	99.19
290.217	89.19
290.448	88.19
290.679	89.19
290.91	79.19
291.141	90.19
291.371	98.19
291.602	95.19
291.833	86.19
292.064	91.19
292.295	100.19
292.526	108.19
292.757	109.19
292.987	100.19
293.218	77.19
293.449	100.19
293.68	91.19
293.91	101.19
294.141	93.19
294.372	89.19
294.603	90.19
294.833	107.19
295.064	98.19
295.295	92.19
295.525	109.19
295.756	112.19
295.987	164.19
296.217	193.19
296.448	175.19
296.679	106.19
296.909	78.19
297.14	105.19
297.37	95.19
297.601	88.19
297.831	83.19
298.062	100.19
298.292	99.19
298.523	104.19
298.753	96.19
298.984	91.19
299.214	85.19
299.445	100.19
299.675	112.19
299.905	116.19
300.136	107.19
300.366	96.19
300.597	95.19
300.827	101.19
301.057	113.19
301.288	130.19
301.518	109.19
301.748	97.19
301.979	124.19
302.209	120.19
302.439	102.19
302.669	95.19
302.9	102.19
303.13	99.19
303.36	131.19
303.59	165.19
303.82	181.19
304.051	126.19
304.281	92.19
304.511	92.19
304.741	95.19
304.971	91.19
305.201	105.19
305.431	98.19
305.661	92.19
305.891	126.19
306.121	102.19
306.352	129.19
306.582	125.19
306.812	107.19
307.042	138.19
307.272	191.19
307.502	210.19
307.731	210.19
307.961	164.19
308.191	117.19
308.421	94.19
308.651	94.19
308.881	92.19
309.111	100.19
309.341	104.19
309.571	120.19
309.8	113.19
310.03	103.19
310.26	129.19
310.49	119.19
310.72	116.19
310.949	139.19
311.179	130.19
311.409	108.19
311.639	106.19
311.868	115.19
312.098	112.19
312.328	111.19
312.557	114.19
312.787	146.19
313.017	119.19
313.246	109.19
313.476	107.19
313.706	107.19
313.935	108.19
314.165	107.19
314.394	126.19
314.624	100.19
314.853	110.19
315.083	100.19
315.312	93.19
315.542	109.19
315.771	87.19
316.001	96.19
316.23	106.19
316.46	100.19
316.689	99.19
316.919	103.19
317.148	105.19
317.377	105.19
317.607	98.19
317.836	116.19
318.065	101.19
318.295	95.19
318.524	102.19
318.753	100.19
318.983	105.19
319.212	118.19
319.441	136.19
319.67	135.19
319.9	103.19
320.129	109.19
320.358	109.19
320.587	103.19
320.816	122.19
321.046	128.19
321.275	111.19
321.504	104.19
321.733	111.19
321.962	128.19
322.191	118.19
322.42	122.19
322.649	130.19
322.878	151.19
323.108	168.19
323.337	165.19
323.566	164.19
323.795	202.19
324.024	269.19
324.253	511.19
324.482	1039.19
324.71	2102.19
324.939	2723.19
325.168	1076.19
325.397	332.19
325.626	184.19
325.855	154.19
326.084	160.19
326.313	158.19
326.542	184.19
326.77	263.19
326.999	522.19
327.228	1058.19
327.457	1922.19
327.686	1568.19
327.914	617.19
328.143	689.19
328.372	891.19
328.6	454.19
328.829	224.19
329.058	230.19
329.287	250.19
329.515	201.19
329.744	311.19
329.972	618.19
330.201	1302.19
330.43	1892.19
330.658	842.19
330.887	370.19
331.115	231.19
331.344	150.19
331.572	140.19
331.801	146.19
332.03	150.19
332.258	133.19
332.486	111.19
332.715	118.19
332.943	141.19
333.172	136.19
333.4	151.19
333.629	198.19
333.857	288.19
334.085	546.19
334.314	1164.19
334.542	2260.19
334.771	2167.19
334.999	536.19
335.227	191.19
335.455	135.19
335.684	128.19
335.912	102.19
336.14	128.19
336.369	128.19
336.597	129.19
336.825	110.19
337.053	107.19
337.281	112.19
337.51	110.19
337.738	106.19
337.966	105.19
338.194	115.19
338.422	124.19
338.65	99.19
338.878	107.19
339.106	93.19
339.334	100.19
339.562	98.19
339.79	102.19
340.018	102.19
340.246	98.19
340.474	115.19
340.702	107.19
340.93	105.19
341.158	94.19
341.386	120.19
341.614	124.19
341.842	108.19
342.07	109.19
342.298	100.19
342.526	99.19
342.754	98.19
342.981	92.19
343.209	84.19
343.437	100.19
343.665	106.19
343.893	112.19
344.12	113.19
344.348	90.19
344.576	95.19
344.804	104.19
345.031	100.19
345.259	112.19
345.487	100.19
345.714	112.19
345.942	104.19
346.17	99.19
346.397	92.19
346.625	103.19
346.853	100.19
347.08	105.19
347.308	106.19
347.535	122.19
347.763	125.19
347.99	111.19
348.218	110.19
348.445	130.19
348.673	124.19
348.9	104.19
349.128	104.19
349.355	105.19
349.583	104.19
349.81	89.19
350.037	103.19
350.265	97.19
350.492	82.19
350.72	111.19
350.947	119.19
351.174	135.19
351.402	137.19
351.629	125.19
351.856	115.19
352.083	118.19
352.311	131.19
352.538	138.19
352.765	139.19
352.992	130.19
353.22	129.19
353.447	126.19
353.674	114.19
353.901	104.19
354.128	101.19
354.355	95.19
354.583	104.19
354.81	102.19
355.037	84.19
355.264	81.19
355.491	100.19
355.718	94.19
355.945	95.19
356.172	99.19
356.399	104.19
356.626	100.19
356.853	81.19
357.08	90.19
357.307	93.19
357.534	79.19
357.761	99.19
357.988	97.19
358.215	100.19
358.441	108.19
358.668	106.19
358.895	96.19
359.122	93.19
359.349	89.19
359.576	111.19
359.802	130.19
360.029	174.19
360.256	163.19
360.483	138.19
360.709	93.19
360.936	103.19
361.163	91.19
361.39	109.19
361.616	109.19
361.843	110.19
362.07	123.19
362.296	113.19
362.523	103.19
362.749	107.19
362.976	83.19
363.203	93.19
363.429	94.19
363.656	93.19
363.882	104.19
364.109	109.19
364.335	110.19
364.562	99.19
364.788	108.19
365.015	107.19
365.241	127.19
365.468	140.19
365.694	127.19
365.92	108.19
366.147	111.19
366.373	102.19
366.599	91.19
366.826	94.19
367.052	79.19
367.278	92.19
367.505	107.19
367.731	103.19
367.957	106.19
368.184	113.19
368.41	116.19
368.636	135.19
368.862	157.19
369.089	153.19
369.315	116.19
369.541	104.19
369.767	100.19
369.993	105.19
370.219	97.19
370.445	90.19
370.672	88.19
370.898	103.19
371.124	88.19
371.35	100.19
371.576	87.19
371.802	99.19
372.028	82.19
372.254	100.19
372.48	87.19
372.706	86.19
372.932	86.19
373.158	89.19
373.384	105.19
373.61	90.19
373.835	105.19
374.061	88.19
374.287	118.19
374.513	95.19
374.739	78.19
374.965	105.19
375.191	90.19
375.416	90.19
375.642	94.19
375.868	98.19
376.094	103.19
376.319	88.19
376.545	92.19
376.771	96.19
376.997	90.19
377.222	88.19
377.448	100.19
377.674	81.19
377.899	90.19
378.125	89.19
378.35	87.19
378.576	89.19
378.802	99.19
379.027	97.19
379.253	104.19
379.478	88.19
379.704	99.19
379.929	93.19
380.155	87.19
380.38	102.19
380.606	98.19
380.831	104.19
381.057	107.19
381.282	97.19
381.507	94.19
381.733	94.19
381.958	91.19
382.184	104.19
382.409	105.19
382.634	124.19
382.86	103.19
383.085	111.19
383.31	81.19
383.535	105.19
383.761	103.19
383.986	114.19
384.211	92.19
384.436	79.19
384.662	99.19
384.887	103.19
385.112	107.19
385.337	94.19
385.562	105.19
385.787	111.19
386.013	128.19
386.238	141.19
386.463	125.19
386.688	110.19
386.913	93.19
387.138	108.19
387.363	100.19
387.588	108.19
387.813	111.19
388.038	107.19
388.263	99.19
388.488	110.19
388.713	83.19
388.938	92.19
389.163	95.19
389.387	108.19
389.612	101.19
389.837	96.19
390.062	103.19
390.287	100.19
390.512	107.19
390.736	101.19
390.961	100.19
391.186	97.19
391.411	91.19
391.636	80.19
391.86	90.19
392.085	91.19
392.31	96.19
392.534	87.19
392.759	92.19
392.984	77.19
393.208	94.19
393.433	90.19
393.658	92.19
393.882	88.19
394.107	90.19
394.331	98.19
394.556	80.19
394.78	84.19
395.005	91.19
395.229	81.19
395.454	102.19
395.678	107.19
395.903	86.19
396.127	97.19
396.352	93.19
396.576	89.19
396.801	85.19
397.025	87.19
397.249	96.19
397.474	93.19
397.698	99.19
397.922	100.19
398.147	96.19
398.371	96.19
398.595	93.19
398.82	75.19
399.044	86.19
399.268	86.19
399.492	97.19
399.717	89.19
399.941	99.19
400.165	95.19
400.389	93.19
400.613	93.19
400.837	98.19
401.062	98.19
401.286	96.19
401.51	110.19
401.734	113.19
401.958	123.19
402.182	168.19
402.406	280.19
402.63	190.19
402.854	121.19
403.078	99.19
403.302	104.19
403.526	95.19
403.75	97.19
403.974	88.19
404.198	78.19
404.422	100.19
404.645	97.19
404.869	100.19
405.093	111.19
405.317	144.19
405.541	134.19
405.765	129.19
405.988	168.19
406.212	282.19
406.436	437.19
406.66	268.19
406.883	134.19
407.107	121.19
407.331	91.19
407.555	115.19
407.778	107.19
408.002	104.19
408.226	80.19
408.449	83.19
408.673	88.19
408.896	96.19
409.12	106.19
409.344	94.19
409.567	86.19
409.791	95.19
410.014	103.19
410.238	95.19
410.461	88.19
410.685	99.19
410.908	90.19
411.132	110.19
411.355	110.19
411.578	103.19
411.802	83.19
412.025	93.19
412.249	100.19
412.472	121.19
412.695	137.19
412.919	114.19
413.142	92.19
413.365	106.19
413.589	102.19
413.812	90.19
414.035	100.19
414.258	89.19
414.482	92.19
414.705	96.19
414.928	90.19
415.151	89.19
415.374	97.19
415.597	91.19
415.821	87.19
416.044	86.19
416.267	97.19
416.49	99.19
416.713	93.19
416.936	101.19
417.159	96.19
417.382	101.19
417.605	113.19
417.828	108.19
418.051	99.19
418.274	100.19
418.497	104.19
418.72	98.19
418.943	80.19
419.166	90.19
419.389	95.19
419.611	103.19
419.834	84.19
420.057	99.19
420.28	91.19
420.503	96.19
420.726	82.19
420.948	98.19
421.171	103.19
421.394	113.19
421.617	87.19
421.839	71.19
422.062	92.19
422.285	88.19
422.507	97.19
422.73	106.19
422.953	100.19
423.175	90.19
423.398	94.19
423.621	94.19
423.843	80.19
424.066	99.19
424.288	75.19
424.511	99.19
424.733	98.19
424.956	132.19
425.178	113.19
425.401	101.19
425.623	104.19
425.846	97.19
426.068	125.19
426.291	102.19
426.513	106.19
426.735	95.19
426.958	118.19
427.18	127.19
427.402	192.19
427.625	289.19
427.847	255.19
428.069	201.19
428.292	129.19
428.514	100.19
428.736	108.19
428.958	105.19
429.181	100.19
429.403	82.19
429.625	99.19
429.847	99.19
430.069	107.19
430.292	98.19
430.514	88.19
430.736	81.19
430.958	87.19
431.18	74.19
431.402	76.19
431.624	84.19
431.846	91.19
432.068	88.19
432.29	92.19
432.512	102.19
432.734	94.19
432.956	95.19
433.178	107.19
433.4	96.19
433.622	107.19
433.844	109.19
434.066	96.19
434.287	104.19
434.509	108.19
434.731	97.19
434.953	96.19
435.175	94.19
435.397	83.19
435.618	97.19
435.84	115.19
436.062	119.19
436.284	125.19
436.505	112.19
436.727	104.19
436.949	89.19
437.17	98.19
437.392	92.19
437.614	110.19
437.835	155.19
438.057	166.19
438.278	152.19
438.5	114.19
438.721	136.19
438.943	115.19
439.165	98.19
439.386	82.19
439.608	95.19
439.829	121.19
440.05	151.19
440.272	182.19
440.493	123.19
440.715	100.19
440.936	97.19
441.158	92.19
441.379	103.19
441.6	121.19
441.822	121.19
442.043	110.19
442.264	95.19
442.486	126.19
442.707	94.19
442.928	122.19
443.149	191.19
443.371	203.19
443.592	153.19
443.813	128.19
444.034	120.19
444.255	97.19
444.476	104.19
444.698	96.19
444.919	87.19
445.14	154.19
445.361	138.19
445.582	133.19
445.803	170.19
446.024	171.19
446.245	150.19
446.466	126.19
446.687	96.19
446.908	96.19
447.129	100.19
447.35	113.19
447.571	102.19
447.792	99.19
448.013	115.19
448.234	135.19
448.455	126.19
448.675	130.19
448.896	111.19
449.117	121.19
449.338	116.19
449.559	146.19
449.779	154.19
450	102.19
450.221	88.19
450.442	97.19
450.662	119.19
450.883	155.19
451.104	165.19
451.324	117.19
451.545	108.19
451.766	96.19
451.986	87.19
452.207	107.19
452.428	103.19
452.648	112.19
452.869	139.19
453.089	173.19
453.31	188.19
453.53	116.19
453.751	108.19
453.971	136.19
454.192	156.19
454.412	124.19
454.633	92.19
454.853	93.19
455.073	87.19
455.294	87.19
455.514	109.19
455.734	99.19
455.955	90.19
456.175	89.19
456.395	74.19
456.616	80.19
456.836	82.19
457.056	95.19
457.276	94.19
457.497	85.19
457.717	83.19
457.937	98.19
458.157	103.19
458.377	106.19
458.598	153.19
458.818	263.19
459.038	270.19
459.258	164.19
459.478	95.19
459.698	91.19
459.918	105.19
460.138	94.19
460.358	88.19
460.578	94.19
460.798	99.19
461.018	96.19
461.238	87.19
461.458	95.19
461.678	88.19
461.898	92.19
462.118	97.19
462.338	98.19
462.558	90.19
462.777	88.19
462.997	114.19
463.217	125.19
463.437	113.19
463.657	107.19
463.876	113.19
464.096	115.19
464.316	102.19
464.536	131.19
464.755	104.19
464.975	155.19
465.195	296.19
465.414	322.19
465.634	124.19
465.854	100.19
466.073	102.19
466.293	90.19
466.512	104.19
466.732	103.19
466.951	105.19
467.171	127.19
467.391	129.19
467.61	178.19
467.829	273.19
468.049	812.19
468.268	1302.19
468.488	298.19
468.707	123.19
468.927	108.19
469.146	103.19
469.365	101.19
469.585	94.19
469.804	119.19
470.023	125.19
470.243	111.19
470.462	123.19
470.681	167.19
470.901	109.19
471.12	113.19
471.339	124.19
471.558	136.19
471.777	187.19
471.997	411.19
472.216	1551.19
472.435	3692.19
472.654	795.19
472.873	188.19
473.092	128.19
473.311	112.19
473.53	101.19
473.749	101.19
473.968	103.19
474.187	127.19
474.406	105.19
474.625	90.19
474.844	92.19
475.063	91.19
475.282	103.19
475.501	99.19
475.72	89.19
475.939	80.19
476.158	77.19
476.377	93.19
476.596	94.19
476.814	115.19
477.033	112.19
477.252	86.19
477.471	107.19
477.69	102.19
477.908	100.19
478.127	90.19
478.346	99.19
478.564	115.19
478.783	119.19
479.002	116.19
479.22	123.19
479.439	136.19
479.658	141.19
479.876	159.19
480.095	135.19
480.313	153.19
480.532	192.19
480.751	372.19
480.969	1355.19
481.188	5986.19
481.406	3408.19
481.624	472.19
481.843	159.19
482.061	126.19
482.28	112.19
482.498	106.19
482.717	107.19
482.935	104.19
483.153	101.19
483.372	94.19
483.59	98.19
483.808	105.19
484.027	99.19
484.245	91.19
484.463	105.19
484.681	112.19
484.9	89.19
485.118	107.19
485.336	104.19
485.554	114.19
485.772	116.19
485.99	125.19
486.209	114.19
486.427	124.19
486.645	139.19
486.863	150.19
487.081	108.19
487.299	116.19
487.517	118.19
487.735	94.19
487.953	99.19
488.171	95.19
488.389	120.19
488.607	100.19
488.825	81.19
489.043	95.19
489.261	103.19
489.479	94.19
489.696	95.19
489.914	99.19
490.132	99.19
490.35	99.19
490.568	99.19
490.786	94.19
491.003	102.19
491.221	94.19
491.439	99.19
491.657	94.19
491.874	102.19
492.092	107.19
492.31	100.19
492.527	112.19
492.745	97.19
492.963	98.19
493.18	101.19
493.398	99.19
493.615	108.19
493.833	101.19
494.05	103.19
494.268	92.19
494.485	99.19
494.703	88.19
494.92	93.19
495.138	95.19
495.355	88.19
495.573	87.19
495.79	82.19
496.008	88.19
496.225	106.19
496.442	92.19
496.66	95.19
496.877	82.19
497.094	97.19
497.312	96.19
497.529	103.19
497.746	102.19
497.963	113.19
498.181	84.19
498.398	122.19
498.615	124.19
498.832	109.19
499.049	106.19
499.267	94.19
499.484	100.19
499.701	86.19
499.918	82.19
500.135	94.19
500.352	95.19
500.569	99.19
500.786	116.19
501.003	99.19
501.22	89.19
501.437	98.19
501.654	107.19
501.871	168.19
502.088	110.19
502.305	91.19
502.522	109.19
502.739	92.19
502.956	96.19
503.172	91.19
503.389	123.19
503.606	137.19
503.823	125.19
504.04	100.19
504.256	111.19
504.473	93.19
504.69	105.19
504.907	97.19
505.123	106.19
505.34	99.19
505.557	88.19
505.773	96.19
505.99	93.19
506.207	83.19
506.423	107.19
506.64	89.19
506.856	110.19
507.073	80.19
507.289	112.19
507.506	114.19
507.722	151.19
507.939	170.19
508.155	95.19
508.372	100.19
508.588	102.19
508.805	98.19
509.021	106.19
509.238	126.19
509.454	99.19
509.67	118.19
509.887	121.19
510.103	175.19
510.319	322.19
510.536	1354.19
