Data from Circ_1999_H10_HRD10591_00028.txt Node
Date: Wed Jan 03 11:23:18 EST 2024
User: Yrep
Spectrometer: HR+D1059
Trigger mode: 1
Integration Time (sec): 1.000000E-1
Scans to average: 1
Electric dark correction enabled: true
Nonlinearity correction enabled: false
Boxcar width: 0
XAxis mode: Wavelengths
Number of Pixels in Spectrum: 2048
>>>>>Begin Spectral Data<<<<<
223.165	-30.75
223.4	-30.75
223.635	-30.75
223.869	-10.75
224.104	-24.75
224.338	-11.75
224.573	-20.75
224.808	-13.75
225.042	10.25
225.277	-19.75
225.511	1.25
225.746	3.25
225.98	14.25
226.215	8.25
226.449	10.25
226.683	28.25
226.918	22.25
227.152	34.25
227.387	26.25
227.621	15.25
227.856	54.25
228.09	52.25
228.324	49.25
228.559	56.25
228.793	55.25
229.027	65.25
229.262	64.25
229.496	66.25
229.73	86.25
229.964	109.25
230.199	73.25
230.433	80.25
230.667	93.25
230.901	89.25
231.136	88.25
231.37	88.25
231.604	74.25
231.838	85.25
232.072	77.25
232.306	77.25
232.541	88.25
232.775	81.25
233.009	73.25
233.243	90.25
233.477	88.25
233.711	81.25
233.945	75.25
234.179	87.25
234.413	79.25
234.647	79.25
234.881	89.25
235.115	91.25
235.349	77.25
235.583	71.25
235.817	74.25
236.051	90.25
236.285	90.25
236.519	74.25
236.753	68.25
236.987	77.25
237.221	108.25
237.455	106.25
237.689	77.25
237.922	81.25
238.156	84.25
238.39	72.25
238.624	83.25
238.858	93.25
239.091	86.25
239.325	95.25
239.559	78.25
239.793	75.25
240.027	66.25
240.26	69.25
240.494	90.25
240.728	80.25
240.961	80.25
241.195	82.25
241.429	82.25
241.662	74.25
241.896	71.25
242.13	83.25
242.363	77.25
242.597	72.25
242.83	85.25
243.064	91.25
243.298	73.25
243.531	71.25
243.765	63.25
243.998	72.25
244.232	81.25
244.465	95.25
244.699	91.25
244.932	76.25
245.166	69.25
245.399	83.25
245.633	84.25
245.866	75.25
246.099	78.25
246.333	79.25
246.566	88.25
246.8	82.25
247.033	92.25
247.266	93.25
247.5	87.25
247.733	86.25
247.966	81.25
248.2	86.25
248.433	66.25
248.666	89.25
248.899	94.25
249.133	109.25
249.366	109.25
249.599	103.25
249.832	88.25
250.066	84.25
250.299	79.25
250.532	99.25
250.765	82.25
250.998	82.25
251.231	77.25
251.465	90.25
251.698	84.25
251.931	89.25
252.164	78.25
252.397	79.25
252.63	84.25
252.863	77.25
253.096	81.25
253.329	72.25
253.562	86.25
253.795	72.25
254.028	69.25
254.261	99.25
254.494	90.25
254.727	79.25
254.96	86.25
255.193	82.25
255.426	82.25
255.659	86.25
255.892	99.25
256.124	92.25
256.357	91.25
256.59	94.25
256.823	82.25
257.056	93.25
257.289	88.25
257.521	99.25
257.754	86.25
257.987	90.25
258.22	75.25
258.452	86.25
258.685	84.25
258.918	62.25
259.151	88.25
259.383	97.25
259.616	97.25
259.849	81.25
260.081	103.25
260.314	78.25
260.547	89.25
260.779	97.25
261.012	114.25
261.244	117.25
261.477	103.25
261.71	105.25
261.942	146.25
262.175	161.25
262.407	99.25
262.64	107.25
262.872	89.25
263.105	76.25
263.337	90.25
263.57	97.25
263.802	78.25
264.035	77.25
264.267	101.25
264.499	76.25
264.732	86.25
264.964	80.25
265.197	86.25
265.429	76.25
265.661	92.25
265.894	77.25
266.126	86.25
266.358	94.25
266.591	83.25
266.823	80.25
267.055	91.25
267.287	85.25
267.52	92.25
267.752	91.25
267.984	85.25
268.216	84.25
268.448	90.25
268.681	80.25
268.913	98.25
269.145	75.25
269.377	90.25
269.609	79.25
269.841	78.25
270.073	88.25
270.306	81.25
270.538	84.25
270.77	91.25
271.002	92.25
271.234	100.25
271.466	90.25
271.698	72.25
271.93	97.25
272.162	96.25
272.394	76.25
272.626	92.25
272.858	70.25
273.09	77.25
273.322	91.25
273.553	77.25
273.785	85.25
274.017	94.25
274.249	89.25
274.481	91.25
274.713	94.25
274.945	98.25
275.176	88.25
275.408	105.25
275.64	113.25
275.872	122.25
276.104	113.25
276.335	112.25
276.567	126.25
276.799	163.25
277.031	195.25
277.262	183.25
277.494	135.25
277.726	104.25
277.957	104.25
278.189	96.25
278.421	100.25
278.652	91.25
278.884	88.25
279.115	89.25
279.347	96.25
279.579	95.25
279.81	137.25
280.042	198.25
280.273	239.25
280.505	182.25
280.736	103.25
280.968	93.25
281.199	95.25
281.431	100.25
281.662	90.25
281.894	101.25
282.125	105.25
282.356	163.25
282.588	188.25
282.819	134.25
283.051	105.25
283.282	81.25
283.513	93.25
283.745	83.25
283.976	95.25
284.207	90.25
284.439	100.25
284.67	100.25
284.901	80.25
285.132	90.25
285.364	89.25
285.595	86.25
285.826	89.25
286.057	88.25
286.288	96.25
286.52	84.25
286.751	92.25
286.982	75.25
287.213	95.25
287.444	87.25
287.675	100.25
287.906	98.25
288.138	101.25
288.369	101.25
288.6	112.25
288.831	78.25
289.062	92.25
289.293	92.25
289.524	80.25
289.755	89.25
289.986	86.25
290.217	77.25
290.448	89.25
290.679	80.25
290.91	76.25
291.141	102.25
291.371	87.25
291.602	95.25
291.833	82.25
292.064	106.25
292.295	92.25
292.526	82.25
292.757	92.25
292.987	89.25
293.218	94.25
293.449	91.25
293.68	91.25
293.91	88.25
294.141	85.25
294.372	94.25
294.603	91.25
294.833	86.25
295.064	94.25
295.295	90.25
295.525	103.25
295.756	106.25
295.987	136.25
296.217	183.25
296.448	168.25
296.679	95.25
296.909	88.25
297.14	78.25
297.37	87.25
297.601	97.25
297.831	97.25
298.062	105.25
298.292	104.25
298.523	116.25
298.753	93.25
298.984	92.25
299.214	89.25
299.445	102.25
299.675	116.25
299.905	109.25
300.136	104.25
300.366	100.25
300.597	91.25
300.827	86.25
301.057	109.25
301.288	123.25
301.518	121.25
301.748	96.25
301.979	109.25
302.209	97.25
302.439	102.25
302.669	92.25
302.9	99.25
303.13	104.25
303.36	126.25
303.59	127.25
303.82	160.25
304.051	108.25
304.281	92.25
304.511	102.25
304.741	99.25
304.971	96.25
305.201	94.25
305.431	102.25
305.661	95.25
305.891	108.25
306.121	102.25
306.352	126.25
306.582	115.25
306.812	112.25
307.042	128.25
307.272	157.25
307.502	180.25
307.731	181.25
307.961	142.25
308.191	87.25
308.421	100.25
308.651	96.25
308.881	102.25
309.111	100.25
309.341	111.25
309.571	112.25
309.8	101.25
310.03	101.25
310.26	107.25
310.49	104.25
310.72	120.25
310.949	123.25
311.179	109.25
311.409	94.25
311.639	102.25
311.868	87.25
312.098	91.25
312.328	93.25
312.557	122.25
312.787	130.25
313.017	123.25
313.246	111.25
313.476	103.25
313.706	87.25
313.935	113.25
314.165	125.25
314.394	116.25
314.624	95.25
314.853	118.25
315.083	104.25
315.312	86.25
315.542	113.25
315.771	90.25
316.001	85.25
316.23	95.25
316.46	106.25
316.689	88.25
316.919	98.25
317.148	106.25
317.377	103.25
317.607	117.25
317.836	101.25
318.065	93.25
318.295	93.25
318.524	87.25
318.753	90.25
318.983	104.25
319.212	112.25
319.441	126.25
319.67	114.25
319.9	115.25
320.129	92.25
320.358	90.25
320.587	111.25
320.816	98.25
321.046	117.25
321.275	111.25
321.504	106.25
321.733	96.25
321.962	113.25
322.191	126.25
322.42	115.25
322.649	133.25
322.878	121.25
323.108	147.25
323.337	154.25
323.566	174.25
323.795	191.25
324.024	248.25
324.253	462.25
324.482	979.25
324.71	1983.25
324.939	2566.25
325.168	984.25
325.397	296.25
325.626	198.25
325.855	152.25
326.084	146.25
326.313	148.25
326.542	170.25
326.77	241.25
326.999	504.25
327.228	1008.25
327.457	1774.25
327.686	1425.25
327.914	552.25
328.143	583.25
328.372	720.25
328.6	395.25
328.829	217.25
329.058	224.25
329.287	225.25
329.515	202.25
329.744	271.25
329.972	547.25
330.201	1069.25
330.43	1502.25
330.658	682.25
330.887	333.25
331.115	229.25
331.344	150.25
331.572	125.25
331.801	129.25
332.03	132.25
332.258	129.25
332.486	119.25
332.715	113.25
332.943	120.25
333.172	124.25
333.4	137.25
333.629	175.25
333.857	266.25
334.085	482.25
334.314	1040.25
334.542	1970.25
334.771	1698.25
334.999	466.25
335.227	193.25
335.455	143.25
335.684	131.25
335.912	125.25
336.14	125.25
336.369	119.25
336.597	128.25
336.825	113.25
337.053	96.25
337.281	100.25
337.51	95.25
337.738	116.25
337.966	101.25
338.194	109.25
338.422	97.25
338.65	108.25
338.878	102.25
339.106	97.25
339.334	95.25
339.562	95.25
339.79	94.25
340.018	117.25
340.246	82.25
340.474	98.25
340.702	98.25
340.93	109.25
341.158	104.25
341.386	102.25
341.614	121.25
341.842	109.25
342.07	112.25
342.298	96.25
342.526	87.25
342.754	91.25
342.981	81.25
343.209	92.25
343.437	100.25
343.665	102.25
343.893	104.25
344.12	95.25
344.348	96.25
344.576	98.25
344.804	101.25
345.031	109.25
345.259	122.25
345.487	111.25
345.714	94.25
345.942	100.25
346.17	114.25
346.397	95.25
346.625	104.25
346.853	96.25
347.08	96.25
347.308	111.25
347.535	97.25
347.763	122.25
347.99	111.25
348.218	110.25
348.445	121.25
348.673	118.25
348.9	113.25
349.128	97.25
349.355	100.25
349.583	84.25
349.81	98.25
350.037	96.25
350.265	99.25
350.492	89.25
350.72	107.25
350.947	96.25
351.174	138.25
351.402	141.25
351.629	111.25
351.856	112.25
352.083	119.25
352.311	114.25
352.538	136.25
352.765	123.25
352.992	126.25
353.22	120.25
353.447	116.25
353.674	108.25
353.901	95.25
354.128	96.25
354.355	91.25
354.583	102.25
354.81	104.25
355.037	102.25
355.264	101.25
355.491	80.25
355.718	84.25
355.945	97.25
356.172	88.25
356.399	93.25
356.626	91.25
356.853	86.25
357.08	99.25
357.307	91.25
357.534	82.25
357.761	77.25
357.988	94.25
358.215	96.25
358.441	96.25
358.668	103.25
358.895	85.25
359.122	89.25
359.349	93.25
359.576	107.25
359.802	134.25
360.029	160.25
360.256	141.25
360.483	117.25
360.709	91.25
360.936	104.25
361.163	110.25
361.39	109.25
361.616	112.25
361.843	85.25
362.07	111.25
362.296	109.25
362.523	91.25
362.749	106.25
362.976	107.25
363.203	88.25
363.429	91.25
363.656	89.25
363.882	105.25
364.109	87.25
364.335	104.25
364.562	88.25
364.788	97.25
365.015	109.25
365.241	118.25
365.468	132.25
365.694	132.25
365.92	99.25
366.147	108.25
366.373	94.25
366.599	94.25
366.826	112.25
367.052	89.25
367.278	95.25
367.505	92.25
367.731	116.25
367.957	93.25
368.184	94.25
368.41	108.25
368.636	124.25
368.862	164.25
369.089	135.25
369.315	106.25
369.541	97.25
369.767	88.25
369.993	98.25
370.219	107.25
370.445	87.25
370.672	72.25
370.898	101.25
371.124	82.25
371.35	85.25
371.576	91.25
371.802	97.25
372.028	76.25
372.254	84.25
372.48	77.25
372.706	89.25
372.932	94.25
373.158	104.25
373.384	100.25
373.61	92.25
373.835	92.25
374.061	100.25
374.287	81.25
374.513	116.25
374.739	89.25
374.965	88.25
375.191	103.25
375.416	88.25
375.642	91.25
375.868	95.25
376.094	91.25
376.319	88.25
376.545	82.25
376.771	84.25
376.997	86.25
377.222	112.25
377.448	87.25
377.674	87.25
377.899	99.25
378.125	97.25
378.35	78.25
378.576	77.25
378.802	89.25
379.027	97.25
379.253	100.25
379.478	110.25
379.704	92.25
379.929	98.25
380.155	100.25
380.38	85.25
380.606	102.25
380.831	103.25
381.057	107.25
381.282	105.25
381.507	92.25
381.733	109.25
381.958	78.25
382.184	107.25
382.409	94.25
382.634	116.25
382.86	89.25
383.085	94.25
383.31	104.25
383.535	104.25
383.761	88.25
383.986	116.25
384.211	116.25
384.436	105.25
384.662	93.25
384.887	107.25
385.112	102.25
385.337	105.25
385.562	98.25
385.787	107.25
386.013	122.25
386.238	140.25
386.463	124.25
386.688	114.25
386.913	112.25
387.138	102.25
387.363	111.25
387.588	83.25
387.813	98.25
388.038	104.25
388.263	116.25
388.488	117.25
388.713	115.25
388.938	93.25
389.163	87.25
389.387	90.25
389.612	97.25
389.837	100.25
390.062	94.25
390.287	89.25
390.512	82.25
390.736	90.25
390.961	94.25
391.186	90.25
391.411	90.25
391.636	89.25
391.86	81.25
392.085	77.25
392.31	68.25
392.534	84.25
392.759	74.25
392.984	89.25
393.208	89.25
393.433	95.25
393.658	94.25
393.882	87.25
394.107	63.25
394.331	82.25
394.556	76.25
394.78	90.25
395.005	109.25
395.229	87.25
395.454	88.25
395.678	72.25
395.903	87.25
396.127	85.25
396.352	77.25
396.576	84.25
396.801	92.25
397.025	93.25
397.249	85.25
397.474	90.25
397.698	78.25
397.922	87.25
398.147	98.25
398.371	91.25
398.595	75.25
398.82	82.25
399.044	78.25
399.268	87.25
399.492	92.25
399.717	105.25
399.941	96.25
400.165	95.25
400.389	92.25
400.613	110.25
400.837	85.25
401.062	86.25
401.286	78.25
401.51	110.25
401.734	106.25
401.958	102.25
402.182	162.25
402.406	226.25
402.63	156.25
402.854	105.25
403.078	86.25
403.302	93.25
403.526	91.25
403.75	78.25
403.974	88.25
404.198	79.25
404.422	97.25
404.645	85.25
404.869	100.25
405.093	117.25
405.317	149.25
405.541	146.25
405.765	117.25
405.988	125.25
406.212	269.25
406.436	370.25
406.66	235.25
406.883	134.25
407.107	102.25
407.331	96.25
407.555	97.25
407.778	92.25
408.002	79.25
408.226	97.25
408.449	104.25
408.673	91.25
408.896	94.25
409.12	88.25
409.344	91.25
409.567	94.25
409.791	75.25
410.014	77.25
410.238	95.25
410.461	77.25
410.685	91.25
410.908	95.25
411.132	103.25
411.355	93.25
411.578	87.25
411.802	82.25
412.025	86.25
412.249	114.25
412.472	122.25
412.695	144.25
412.919	118.25
413.142	101.25
413.365	94.25
413.589	94.25
413.812	91.25
414.035	104.25
414.258	91.25
414.482	78.25
414.705	93.25
414.928	102.25
415.151	81.25
415.374	79.25
415.597	89.25
415.821	96.25
416.044	92.25
416.267	92.25
416.49	88.25
416.713	93.25
416.936	105.25
417.159	96.25
417.382	89.25
417.605	110.25
417.828	104.25
418.051	92.25
418.274	104.25
418.497	86.25
418.72	91.25
418.943	97.25
419.166	95.25
419.389	76.25
419.611	88.25
419.834	86.25
420.057	90.25
420.28	100.25
420.503	86.25
420.726	87.25
420.948	94.25
421.171	107.25
421.394	93.25
421.617	91.25
421.839	81.25
422.062	88.25
422.285	106.25
422.507	91.25
422.73	118.25
422.953	93.25
423.175	74.25
423.398	89.25
423.621	70.25
423.843	86.25
424.066	82.25
424.288	84.25
424.511	100.25
424.733	102.25
424.956	128.25
425.178	109.25
425.401	106.25
425.623	118.25
425.846	88.25
426.068	92.25
426.291	95.25
426.513	96.25
426.735	98.25
426.958	106.25
427.18	118.25
427.402	199.25
427.625	288.25
427.847	250.25
428.069	208.25
428.292	129.25
428.514	99.25
428.736	109.25
428.958	90.25
429.181	94.25
429.403	88.25
429.625	92.25
429.847	96.25
430.069	127.25
430.292	109.25
430.514	91.25
430.736	88.25
430.958	88.25
431.18	92.25
431.402	79.25
431.624	89.25
431.846	89.25
432.068	95.25
432.29	94.25
432.512	90.25
432.734	91.25
432.956	79.25
433.178	76.25
433.4	91.25
433.622	103.25
433.844	82.25
434.066	89.25
434.287	91.25
434.509	85.25
434.731	94.25
434.953	105.25
435.175	102.25
435.397	97.25
435.618	91.25
435.84	113.25
436.062	129.25
436.284	124.25
436.505	110.25
436.727	93.25
436.949	96.25
437.17	101.25
437.392	104.25
437.614	90.25
437.835	130.25
438.057	168.25
438.278	137.25
438.5	125.25
438.721	150.25
438.943	104.25
439.165	91.25
439.386	94.25
439.608	93.25
439.829	119.25
440.05	152.25
440.272	174.25
440.493	110.25
440.715	89.25
440.936	88.25
441.158	96.25
441.379	93.25
441.6	97.25
441.822	122.25
442.043	106.25
442.264	119.25
442.486	116.25
442.707	101.25
442.928	124.25
443.149	185.25
443.371	170.25
443.592	128.25
443.813	127.25
444.034	124.25
444.255	97.25
444.476	90.25
444.698	102.25
444.919	97.25
445.14	143.25
445.361	125.25
445.582	134.25
445.803	191.25
446.024	186.25
446.245	154.25
446.466	133.25
446.687	80.25
446.908	100.25
447.129	96.25
447.35	86.25
447.571	104.25
447.792	97.25
448.013	119.25
448.234	129.25
448.455	118.25
448.675	125.25
448.896	139.25
449.117	108.25
449.338	105.25
449.559	161.25
449.779	154.25
450	105.25
450.221	90.25
450.442	96.25
450.662	118.25
450.883	135.25
451.104	162.25
451.324	116.25
451.545	106.25
451.766	90.25
451.986	91.25
452.207	96.25
452.428	97.25
452.648	123.25
452.869	143.25
453.089	150.25
453.31	164.25
453.53	110.25
453.751	99.25
453.971	119.25
454.192	142.25
454.412	103.25
454.633	95.25
454.853	96.25
455.073	92.25
455.294	91.25
455.514	123.25
455.734	102.25
455.955	77.25
456.175	93.25
456.395	75.25
456.616	85.25
456.836	90.25
457.056	94.25
457.276	90.25
457.497	90.25
457.717	97.25
457.937	93.25
458.157	89.25
458.377	110.25
458.598	130.25
458.818	252.25
459.038	265.25
459.258	160.25
459.478	92.25
459.698	89.25
459.918	75.25
460.138	90.25
460.358	95.25
460.578	86.25
460.798	90.25
461.018	76.25
461.238	84.25
461.458	96.25
461.678	88.25
461.898	84.25
462.118	96.25
462.338	96.25
462.558	80.25
462.777	90.25
462.997	103.25
463.217	118.25
463.437	84.25
463.657	97.25
463.876	77.25
464.096	90.25
464.316	102.25
464.536	113.25
464.755	108.25
464.975	142.25
465.195	278.25
465.414	282.25
465.634	120.25
465.854	95.25
466.073	81.25
466.293	105.25
466.512	91.25
466.732	90.25
466.951	106.25
467.171	108.25
467.391	117.25
467.61	159.25
467.829	225.25
468.049	610.25
468.268	865.25
468.488	221.25
468.707	119.25
468.927	112.25
469.146	94.25
469.365	98.25
469.585	96.25
469.804	107.25
470.023	134.25
470.243	100.25
470.462	118.25
470.681	152.25
470.901	102.25
471.12	85.25
471.339	102.25
471.558	113.25
471.777	172.25
471.997	324.25
472.216	1238.25
472.435	2696.25
472.654	623.25
472.873	172.25
473.092	115.25
473.311	90.25
473.53	100.25
473.749	99.25
473.968	108.25
474.187	126.25
474.406	116.25
474.625	85.25
474.844	72.25
475.063	83.25
475.282	78.25
475.501	84.25
475.72	82.25
475.939	95.25
476.158	91.25
476.377	96.25
476.596	92.25
476.814	94.25
477.033	112.25
477.252	98.25
477.471	95.25
477.69	90.25
477.908	97.25
478.127	93.25
478.346	98.25
478.564	99.25
478.783	101.25
479.002	112.25
479.22	111.25
479.439	133.25
479.658	153.25
479.876	124.25
480.095	111.25
480.313	143.25
480.532	152.25
480.751	312.25
480.969	1144.25
481.188	4745.25
481.406	2598.25
481.624	372.25
481.843	137.25
482.061	116.25
482.28	96.25
482.498	97.25
482.717	82.25
482.935	95.25
483.153	101.25
483.372	92.25
483.59	99.25
483.808	92.25
484.027	100.25
484.245	105.25
484.463	102.25
484.681	106.25
484.9	94.25
485.118	90.25
485.336	82.25
485.554	108.25
485.772	106.25
485.99	110.25
486.209	119.25
486.427	111.25
486.645	131.25
486.863	136.25
487.081	108.25
487.299	106.25
487.517	100.25
487.735	106.25
487.953	97.25
488.171	92.25
488.389	91.25
488.607	103.25
488.825	109.25
489.043	101.25
489.261	97.25
489.479	93.25
489.696	98.25
489.914	101.25
490.132	103.25
490.35	98.25
490.568	83.25
490.786	86.25
491.003	91.25
491.221	97.25
491.439	118.25
491.657	103.25
491.874	93.25
492.092	100.25
492.31	101.25
492.527	97.25
492.745	110.25
492.963	86.25
493.18	92.25
493.398	92.25
493.615	103.25
493.833	109.25
494.05	79.25
494.268	98.25
494.485	83.25
494.703	94.25
494.92	97.25
495.138	78.25
495.355	109.25
495.573	96.25
495.79	93.25
496.008	99.25
496.225	91.25
496.442	94.25
496.66	92.25
496.877	82.25
497.094	86.25
497.312	88.25
497.529	94.25
497.746	84.25
497.963	74.25
498.181	91.25
498.398	98.25
498.615	119.25
498.832	110.25
499.049	89.25
499.267	106.25
499.484	98.25
499.701	97.25
499.918	91.25
500.135	94.25
500.352	89.25
500.569	96.25
500.786	96.25
501.003	92.25
501.22	93.25
501.437	108.25
501.654	110.25
501.871	139.25
502.088	99.25
502.305	96.25
502.522	77.25
502.739	74.25
502.956	91.25
503.172	97.25
503.389	120.25
503.606	143.25
503.823	117.25
504.04	104.25
504.256	94.25
504.473	83.25
504.69	96.25
504.907	94.25
505.123	97.25
505.34	95.25
505.557	83.25
505.773	85.25
505.99	93.25
506.207	92.25
506.423	98.25
506.64	84.25
506.856	105.25
507.073	97.25
507.289	91.25
507.506	105.25
507.722	136.25
507.939	144.25
508.155	97.25
508.372	97.25
508.588	98.25
508.805	98.25
509.021	112.25
509.238	97.25
509.454	112.25
509.67	119.25
509.887	119.25
510.103	161.25
510.319	305.25
510.536	1272.25
510.752	4412.25
510.968	1117.25
511.184	222.25
511.401	140.25
511.617	104.25
511.833	115.25
512.049	101.25
