Data from Circ_1999_H10_HRD10591_00053.txt Node
Date: Wed Jan 03 11:23:23 EST 2024
User: Yrep
Spectrometer: HR+D1059
Trigger mode: 1
Integration Time (sec): 1.000000E-1
Scans to average: 1
Electric dark correction enabled: true
Nonlinearity correction enabled: false
Boxcar width: 0
XAxis mode: Wavelengths
Number of Pixels in Spectrum: 2048
>>>>>Begin Spectral Data<<<<<
223.165	-15.31
223.4	-15.31
223.635	-15.31
223.869	-16.31
224.104	-24.31
224.338	-18.31
224.573	-11.31
224.808	-1.31
225.042	-1.31
225.277	-10.31
225.511	-11.31
225.746	1.69
225.98	-4.31
226.215	15.69
226.449	21.69
226.683	12.69
226.918	30.69
227.152	31.69
227.387	22.69
227.621	41.69
227.856	30.69
228.09	48.69
228.324	48.69
228.559	53.69
228.793	69.69
229.027	64.69
229.262	80.69
229.496	81.69
229.73	102.69
229.964	106.69
230.199	76.69
230.433	63.69
230.667	83.69
230.901	79.69
231.136	83.69
231.37	86.69
231.604	81.69
231.838	83.69
232.072	76.69
232.306	85.69
232.541	88.69
232.775	93.69
233.009	81.69
233.243	80.69
233.477	75.69
233.711	87.69
233.945	74.69
234.179	80.69
234.413	77.69
234.647	78.69
234.881	80.69
235.115	85.69
235.349	72.69
235.583	78.69
235.817	79.69
236.051	78.69
236.285	77.69
236.519	58.69
236.753	70.69
236.987	86.69
237.221	98.69
237.455	92.69
237.689	78.69
237.922	65.69
238.156	67.69
238.39	74.69
238.624	67.69
238.858	69.69
239.091	78.69
239.325	88.69
239.559	92.69
239.793	98.69
240.027	94.69
240.26	76.69
240.494	79.69
240.728	80.69
240.961	87.69
241.195	76.69
241.429	79.69
241.662	77.69
241.896	80.69
242.13	72.69
242.363	78.69
242.597	76.69
242.83	73.69
243.064	80.69
243.298	86.69
243.531	81.69
243.765	76.69
243.998	83.69
244.232	81.69
244.465	91.69
244.699	87.69
244.932	75.69
245.166	86.69
245.399	84.69
245.633	73.69
245.866	78.69
246.099	79.69
246.333	80.69
246.566	73.69
246.8	74.69
247.033	80.69
247.266	88.69
247.5	83.69
247.733	87.69
247.966	94.69
248.2	97.69
248.433	88.69
248.666	92.69
248.899	96.69
249.133	92.69
249.366	117.69
249.599	124.69
249.832	90.69
250.066	92.69
250.299	95.69
250.532	76.69
250.765	98.69
250.998	82.69
251.231	91.69
251.465	78.69
251.698	83.69
251.931	90.69
252.164	93.69
252.397	78.69
252.63	90.69
252.863	82.69
253.096	76.69
253.329	79.69
253.562	78.69
253.795	86.69
254.028	86.69
254.261	93.69
254.494	69.69
254.727	101.69
254.96	101.69
255.193	88.69
255.426	82.69
255.659	90.69
255.892	100.69
256.124	102.69
256.357	98.69
256.59	82.69
256.823	77.69
257.056	85.69
257.289	90.69
257.521	93.69
257.754	86.69
257.987	91.69
258.22	102.69
258.452	91.69
258.685	101.69
258.918	84.69
259.151	85.69
259.383	90.69
259.616	103.69
259.849	84.69
260.081	95.69
260.314	85.69
260.547	104.69
260.779	86.69
261.012	119.69
261.244	126.69
261.477	110.69
261.71	121.69
261.942	145.69
262.175	167.69
262.407	98.69
262.64	86.69
262.872	95.69
263.105	74.69
263.337	90.69
263.57	81.69
263.802	81.69
264.035	92.69
264.267	90.69
264.499	92.69
264.732	85.69
264.964	86.69
265.197	83.69
265.429	86.69
265.661	82.69
265.894	85.69
266.126	84.69
266.358	88.69
266.591	78.69
266.823	98.69
267.055	78.69
267.287	88.69
267.52	84.69
267.752	88.69
267.984	101.69
268.216	72.69
268.448	87.69
268.681	101.69
268.913	91.69
269.145	92.69
269.377	84.69
269.609	84.69
269.841	92.69
270.073	84.69
270.306	93.69
270.538	88.69
270.77	72.69
271.002	97.69
271.234	95.69
271.466	104.69
271.698	86.69
271.93	92.69
272.162	102.69
272.394	93.69
272.626	90.69
272.858	102.69
273.09	84.69
273.322	78.69
273.553	96.69
273.785	108.69
274.017	77.69
274.249	83.69
274.481	95.69
274.713	98.69
274.945	97.69
275.176	88.69
275.408	109.69
275.64	129.69
275.872	132.69
276.104	116.69
276.335	104.69
276.567	126.69
276.799	181.69
277.031	204.69
277.262	227.69
277.494	168.69
277.726	111.69
277.957	100.69
278.189	85.69
278.421	108.69
278.652	87.69
278.884	80.69
279.115	80.69
279.347	91.69
279.579	115.69
279.81	150.69
280.042	239.69
280.273	290.69
280.505	200.69
280.736	112.69
280.968	85.69
281.199	87.69
281.431	81.69
281.662	82.69
281.894	111.69
282.125	111.69
282.356	169.69
282.588	193.69
282.819	143.69
283.051	97.69
283.282	89.69
283.513	94.69
283.745	69.69
283.976	84.69
284.207	84.69
284.439	99.69
284.67	98.69
284.901	94.69
285.132	97.69
285.364	98.69
285.595	87.69
285.826	86.69
286.057	99.69
286.288	84.69
286.52	90.69
286.751	81.69
286.982	74.69
287.213	85.69
287.444	82.69
287.675	107.69
287.906	84.69
288.138	93.69
288.369	95.69
288.6	103.69
288.831	91.69
289.062	96.69
289.293	82.69
289.524	97.69
289.755	98.69
289.986	90.69
290.217	86.69
290.448	97.69
290.679	69.69
290.91	91.69
291.141	88.69
291.371	81.69
291.602	79.69
291.833	86.69
292.064	88.69
292.295	98.69
292.526	82.69
292.757	109.69
292.987	101.69
293.218	92.69
293.449	89.69
293.68	78.69
293.91	99.69
294.141	100.69
294.372	91.69
294.603	93.69
294.833	95.69
295.064	85.69
295.295	99.69
295.525	103.69
295.756	126.69
295.987	150.69
296.217	200.69
296.448	164.69
296.679	110.69
296.909	94.69
297.14	87.69
297.37	97.69
297.601	93.69
297.831	80.69
298.062	91.69
298.292	98.69
298.523	91.69
298.753	90.69
298.984	96.69
299.214	96.69
299.445	99.69
299.675	107.69
299.905	105.69
300.136	108.69
300.366	84.69
300.597	88.69
300.827	101.69
301.057	116.69
301.288	129.69
301.518	116.69
301.748	112.69
301.979	121.69
302.209	117.69
302.439	96.69
302.669	93.69
302.9	97.69
303.13	101.69
303.36	126.69
303.59	148.69
303.82	172.69
304.051	112.69
304.281	85.69
304.511	95.69
304.741	94.69
304.971	87.69
305.201	93.69
305.431	98.69
305.661	88.69
305.891	111.69
306.121	97.69
306.352	132.69
306.582	133.69
306.812	117.69
307.042	124.69
307.272	184.69
307.502	200.69
307.731	194.69
307.961	150.69
308.191	97.69
308.421	110.69
308.651	105.69
308.881	103.69
309.111	111.69
309.341	105.69
309.571	108.69
309.8	100.69
310.03	114.69
310.26	117.69
310.49	104.69
310.72	107.69
310.949	141.69
311.179	123.69
311.409	112.69
311.639	108.69
311.868	117.69
312.098	113.69
312.328	104.69
312.557	125.69
312.787	149.69
313.017	133.69
313.246	104.69
313.476	104.69
313.706	95.69
313.935	106.69
314.165	134.69
314.394	149.69
314.624	107.69
314.853	110.69
315.083	107.69
315.312	105.69
315.542	95.69
315.771	82.69
316.001	104.69
316.23	89.69
316.46	96.69
316.689	86.69
316.919	111.69
317.148	113.69
317.377	101.69
317.607	105.69
317.836	95.69
318.065	94.69
318.295	90.69
318.524	90.69
318.753	95.69
318.983	95.69
319.212	113.69
319.441	111.69
319.67	140.69
319.9	101.69
320.129	93.69
320.358	95.69
320.587	105.69
320.816	110.69
321.046	111.69
321.275	100.69
321.504	104.69
321.733	89.69
321.962	118.69
322.191	109.69
322.42	129.69
322.649	137.69
322.878	125.69
323.108	141.69
323.337	158.69
323.566	160.69
323.795	198.69
324.024	260.69
324.253	532.69
324.482	1105.69
324.71	2247.69
324.939	3043.69
325.168	1104.69
325.397	334.69
325.626	184.69
325.855	153.69
326.084	139.69
326.313	156.69
326.542	177.69
326.77	290.69
326.999	556.69
327.228	1153.69
327.457	2074.69
327.686	1717.69
327.914	663.69
328.143	705.69
328.372	862.69
328.6	460.69
328.829	229.69
329.058	243.69
329.287	232.69
329.515	207.69
329.744	316.69
329.972	642.69
330.201	1326.69
330.43	1862.69
330.658	800.69
330.887	384.69
331.115	249.69
331.344	134.69
331.572	148.69
331.801	161.69
332.03	130.69
332.258	129.69
332.486	119.69
332.715	107.69
332.943	138.69
333.172	154.69
333.4	149.69
333.629	192.69
333.857	281.69
334.085	560.69
334.314	1196.69
334.542	2364.69
334.771	2108.69
334.999	535.69
335.227	213.69
335.455	144.69
335.684	126.69
335.912	130.69
336.14	118.69
336.369	118.69
336.597	132.69
336.825	116.69
337.053	104.69
337.281	89.69
337.51	100.69
337.738	112.69
337.966	99.69
338.194	111.69
338.422	107.69
338.65	99.69
338.878	104.69
339.106	96.69
339.334	104.69
339.562	83.69
339.79	92.69
340.018	98.69
340.246	96.69
340.474	103.69
340.702	102.69
340.93	90.69
341.158	90.69
341.386	108.69
341.614	121.69
341.842	109.69
342.07	110.69
342.298	98.69
342.526	97.69
342.754	98.69
342.981	96.69
343.209	79.69
343.437	109.69
343.665	108.69
343.893	89.69
344.12	106.69
344.348	80.69
344.576	93.69
344.804	90.69
345.031	121.69
345.259	107.69
345.487	103.69
345.714	111.69
345.942	90.69
346.17	102.69
346.397	109.69
346.625	102.69
346.853	94.69
347.08	102.69
347.308	102.69
347.535	134.69
347.763	114.69
347.99	108.69
348.218	126.69
348.445	134.69
348.673	116.69
348.9	132.69
349.128	107.69
349.355	100.69
349.583	102.69
349.81	83.69
350.037	88.69
350.265	95.69
350.492	103.69
350.72	111.69
350.947	117.69
351.174	141.69
351.402	131.69
351.629	107.69
351.856	126.69
352.083	121.69
352.311	132.69
352.538	136.69
352.765	132.69
352.992	135.69
353.22	115.69
353.447	111.69
353.674	118.69
353.901	97.69
354.128	97.69
354.355	106.69
354.583	85.69
354.81	113.69
355.037	97.69
355.264	106.69
355.491	93.69
355.718	88.69
355.945	92.69
356.172	79.69
356.399	100.69
356.626	94.69
356.853	111.69
357.08	96.69
357.307	99.69
357.534	91.69
357.761	86.69
357.988	87.69
358.215	94.69
358.441	95.69
358.668	104.69
358.895	85.69
359.122	92.69
359.349	98.69
359.576	105.69
359.802	136.69
360.029	159.69
360.256	163.69
360.483	130.69
360.709	96.69
360.936	105.69
361.163	103.69
361.39	116.69
361.616	100.69
361.843	98.69
362.07	106.69
362.296	125.69
362.523	99.69
362.749	111.69
362.976	97.69
363.203	103.69
363.429	92.69
363.656	92.69
363.882	93.69
364.109	103.69
364.335	99.69
364.562	98.69
364.788	103.69
365.015	108.69
365.241	111.69
365.468	127.69
365.694	124.69
365.92	123.69
366.147	114.69
366.373	105.69
366.599	95.69
366.826	92.69
367.052	93.69
367.278	95.69
367.505	102.69
367.731	95.69
367.957	90.69
368.184	103.69
368.41	119.69
368.636	145.69
368.862	148.69
369.089	145.69
369.315	110.69
369.541	107.69
369.767	93.69
369.993	95.69
370.219	103.69
370.445	109.69
370.672	80.69
370.898	76.69
371.124	83.69
371.35	110.69
371.576	106.69
371.802	91.69
372.028	85.69
372.254	88.69
372.48	87.69
372.706	101.69
372.932	84.69
373.158	97.69
373.384	100.69
373.61	85.69
373.835	72.69
374.061	108.69
374.287	109.69
374.513	94.69
374.739	92.69
374.965	85.69
375.191	95.69
375.416	92.69
375.642	93.69
375.868	101.69
376.094	101.69
376.319	88.69
376.545	88.69
376.771	89.69
376.997	78.69
377.222	102.69
377.448	82.69
377.674	103.69
377.899	90.69
378.125	107.69
378.35	71.69
378.576	94.69
378.802	95.69
379.027	92.69
379.253	104.69
379.478	92.69
379.704	100.69
379.929	104.69
380.155	107.69
380.38	91.69
380.606	98.69
380.831	102.69
381.057	103.69
381.282	96.69
381.507	104.69
381.733	110.69
381.958	97.69
382.184	98.69
382.409	106.69
382.634	106.69
382.86	89.69
383.085	100.69
383.31	104.69
383.535	101.69
383.761	105.69
383.986	102.69
384.211	97.69
384.436	112.69
384.662	91.69
384.887	112.69
385.112	102.69
385.337	91.69
385.562	128.69
385.787	121.69
386.013	126.69
386.238	127.69
386.463	118.69
386.688	115.69
386.913	105.69
387.138	92.69
387.363	96.69
387.588	111.69
387.813	102.69
388.038	102.69
388.263	109.69
388.488	109.69
388.713	98.69
388.938	95.69
389.163	93.69
389.387	95.69
389.612	106.69
389.837	100.69
390.062	91.69
390.287	90.69
390.512	84.69
390.736	94.69
390.961	94.69
391.186	93.69
391.411	93.69
391.636	86.69
391.86	82.69
392.085	102.69
392.31	86.69
392.534	81.69
392.759	84.69
392.984	92.69
393.208	92.69
393.433	103.69
393.658	84.69
393.882	87.69
394.107	93.69
394.331	83.69
394.556	80.69
394.78	86.69
395.005	82.69
395.229	93.69
395.454	84.69
395.678	86.69
395.903	80.69
396.127	100.69
396.352	87.69
396.576	94.69
396.801	80.69
397.025	77.69
397.249	89.69
397.474	95.69
397.698	95.69
397.922	93.69
398.147	78.69
398.371	90.69
398.595	81.69
398.82	88.69
399.044	83.69
399.268	87.69
399.492	97.69
399.717	104.69
399.941	83.69
400.165	81.69
400.389	98.69
400.613	87.69
400.837	88.69
401.062	77.69
401.286	102.69
401.51	91.69
401.734	108.69
401.958	121.69
402.182	200.69
402.406	253.69
402.63	172.69
402.854	103.69
403.078	86.69
403.302	87.69
403.526	94.69
403.75	104.69
403.974	101.69
404.198	93.69
404.422	89.69
404.645	87.69
404.869	108.69
405.093	141.69
405.317	161.69
405.541	145.69
405.765	138.69
405.988	137.69
406.212	264.69
406.436	402.69
406.66	258.69
406.883	140.69
407.107	126.69
407.331	108.69
407.555	124.69
407.778	115.69
408.002	108.69
408.226	93.69
408.449	87.69
408.673	104.69
408.896	90.69
409.12	95.69
409.344	89.69
409.567	85.69
409.791	87.69
410.014	107.69
410.238	97.69
410.461	101.69
410.685	92.69
410.908	99.69
411.132	105.69
411.355	114.69
411.578	77.69
411.802	89.69
412.025	97.69
412.249	100.69
412.472	121.69
412.695	140.69
412.919	111.69
413.142	107.69
413.365	84.69
413.589	92.69
413.812	86.69
414.035	110.69
414.258	102.69
414.482	98.69
414.705	87.69
414.928	101.69
415.151	97.69
415.374	80.69
415.597	92.69
415.821	93.69
416.044	92.69
416.267	87.69
416.49	88.69
416.713	89.69
416.936	82.69
417.159	94.69
417.382	102.69
417.605	110.69
417.828	125.69
418.051	106.69
418.274	79.69
418.497	89.69
418.72	85.69
418.943	94.69
419.166	81.69
419.389	91.69
419.611	95.69
419.834	97.69
420.057	96.69
420.28	93.69
420.503	102.69
420.726	97.69
420.948	106.69
421.171	111.69
421.394	89.69
421.617	98.69
421.839	96.69
422.062	98.69
422.285	91.69
422.507	118.69
422.73	117.69
422.953	93.69
423.175	94.69
423.398	94.69
423.621	78.69
423.843	90.69
424.066	92.69
424.288	89.69
424.511	97.69
424.733	111.69
424.956	113.69
425.178	123.69
425.401	108.69
425.623	110.69
425.846	100.69
426.068	109.69
426.291	106.69
426.513	89.69
426.735	92.69
426.958	119.69
427.18	124.69
427.402	206.69
427.625	314.69
427.847	272.69
428.069	231.69
428.292	128.69
428.514	90.69
428.736	104.69
428.958	97.69
429.181	93.69
429.403	85.69
429.625	90.69
429.847	101.69
430.069	115.69
430.292	94.69
430.514	68.69
430.736	95.69
430.958	106.69
431.18	97.69
431.402	106.69
431.624	76.69
431.846	80.69
432.068	88.69
432.29	87.69
432.512	105.69
432.734	89.69
432.956	105.69
433.178	101.69
433.4	101.69
433.622	114.69
433.844	95.69
434.066	89.69
434.287	95.69
434.509	102.69
434.731	94.69
434.953	96.69
435.175	90.69
435.397	100.69
435.618	124.69
435.84	109.69
436.062	127.69
436.284	120.69
436.505	104.69
436.727	105.69
436.949	90.69
437.17	83.69
437.392	91.69
437.614	122.69
437.835	146.69
438.057	174.69
438.278	138.69
438.5	111.69
438.721	127.69
438.943	109.69
439.165	88.69
439.386	91.69
439.608	105.69
439.829	124.69
440.05	160.69
440.272	191.69
440.493	121.69
440.715	97.69
440.936	90.69
441.158	102.69
441.379	95.69
441.6	104.69
441.822	103.69
442.043	111.69
442.264	131.69
442.486	121.69
442.707	123.69
442.928	124.69
443.149	202.69
443.371	205.69
443.592	152.69
443.813	144.69
444.034	129.69
444.255	98.69
444.476	90.69
444.698	98.69
444.919	88.69
445.14	134.69
445.361	134.69
445.582	126.69
445.803	203.69
446.024	200.69
446.245	182.69
446.466	136.69
446.687	94.69
446.908	82.69
447.129	83.69
447.35	104.69
447.571	98.69
447.792	106.69
448.013	118.69
448.234	131.69
448.455	120.69
448.675	126.69
448.896	142.69
449.117	124.69
449.338	114.69
449.559	155.69
449.779	140.69
450	94.69
450.221	92.69
450.442	96.69
450.662	124.69
450.883	153.69
451.104	151.69
451.324	123.69
451.545	98.69
451.766	104.69
451.986	85.69
452.207	93.69
452.428	101.69
452.648	116.69
452.869	138.69
453.089	149.69
453.31	172.69
453.53	105.69
453.751	99.69
453.971	141.69
454.192	156.69
454.412	116.69
454.633	99.69
454.853	80.69
455.073	79.69
455.294	108.69
455.514	120.69
455.734	99.69
455.955	96.69
456.175	102.69
456.395	84.69
456.616	86.69
456.836	98.69
457.056	74.69
457.276	75.69
457.497	89.69
457.717	89.69
457.937	86.69
458.157	98.69
458.377	115.69
458.598	148.69
458.818	257.69
459.038	276.69
459.258	177.69
459.478	100.69
459.698	89.69
459.918	88.69
460.138	76.69
460.358	78.69
460.578	103.69
460.798	95.69
461.018	100.69
461.238	87.69
461.458	86.69
461.678	91.69
461.898	82.69
462.118	86.69
462.338	84.69
462.558	88.69
462.777	81.69
462.997	108.69
463.217	117.69
463.437	105.69
463.657	110.69
463.876	97.69
464.096	97.69
464.316	98.69
464.536	104.69
464.755	118.69
464.975	154.69
465.195	318.69
465.414	316.69
465.634	120.69
465.854	92.69
466.073	77.69
466.293	116.69
466.512	90.69
466.732	95.69
466.951	92.69
467.171	104.69
467.391	117.69
467.61	176.69
467.829	278.69
468.049	758.69
468.268	1106.69
468.488	269.69
468.707	121.69
468.927	106.69
469.146	94.69
469.365	104.69
469.585	106.69
469.804	117.69
470.023	117.69
470.243	110.69
470.462	139.69
470.681	162.69
470.901	114.69
471.12	112.69
471.339	104.69
471.558	137.69
471.777	171.69
471.997	392.69
472.216	1485.69
472.435	3410.69
472.654	743.69
472.873	189.69
473.092	128.69
473.311	103.69
473.53	101.69
473.749	97.69
473.968	120.69
474.187	145.69
474.406	120.69
474.625	92.69
474.844	118.69
475.063	96.69
475.282	88.69
475.501	106.69
475.72	99.69
475.939	106.69
476.158	90.69
476.377	109.69
476.596	101.69
476.814	112.69
477.033	120.69
477.252	103.69
477.471	100.69
477.69	96.69
477.908	98.69
478.127	105.69
478.346	95.69
478.564	112.69
478.783	125.69
479.002	130.69
479.22	118.69
479.439	144.69
479.658	165.69
479.876	140.69
480.095	157.69
480.313	163.69
480.532	217.69
480.751	351.69
480.969	1369.69
481.188	5801.69
481.406	3195.69
481.624	449.69
481.843	142.69
482.061	123.69
482.28	125.69
482.498	108.69
482.717	91.69
482.935	105.69
483.153	99.69
483.372	107.69
483.59	101.69
483.808	89.69
484.027	91.69
484.245	114.69
484.463	102.69
484.681	97.69
484.9	92.69
485.118	93.69
485.336	114.69
485.554	92.69
485.772	104.69
485.99	109.69
486.209	111.69
486.427	112.69
486.645	128.69
486.863	149.69
487.081	115.69
487.299	96.69
487.517	99.69
487.735	84.69
487.953	97.69
488.171	104.69
488.389	95.69
488.607	111.69
488.825	95.69
489.043	94.69
489.261	94.69
489.479	97.69
489.696	79.69
489.914	86.69
490.132	90.69
490.35	90.69
490.568	85.69
490.786	86.69
491.003	90.69
491.221	94.69
491.439	105.69
491.657	97.69
491.874	77.69
492.092	90.69
492.31	90.69
492.527	96.69
492.745	102.69
492.963	86.69
493.18	88.69
493.398	82.69
493.615	108.69
493.833	95.69
494.05	98.69
494.268	90.69
494.485	91.69
494.703	95.69
494.92	77.69
495.138	77.69
495.355	90.69
495.573	102.69
495.79	96.69
496.008	94.69
496.225	106.69
496.442	90.69
496.66	94.69
496.877	93.69
497.094	91.69
497.312	78.69
497.529	90.69
497.746	91.69
497.963	93.69
498.181	105.69
498.398	111.69
498.615	117.69
498.832	109.69
499.049	102.69
499.267	84.69
499.484	98.69
499.701	97.69
499.918	104.69
500.135	94.69
500.352	94.69
500.569	80.69
500.786	107.69
501.003	106.69
501.22	100.69
501.437	90.69
501.654	105.69
501.871	133.69
502.088	112.69
502.305	97.69
502.522	101.69
502.739	94.69
502.956	91.69
503.172	97.69
503.389	113.69
503.606	154.69
503.823	114.69
504.04	104.69
504.256	92.69
504.473	91.69
504.69	92.69
504.907	93.69
505.123	79.69
505.34	102.69
505.557	93.69
505.773	78.69
505.99	93.69
506.207	92.69
506.423	93.69
506.64	98.69
506.856	100.69
507.073	92.69
507.289	104.69
507.506	114.69
507.722	168.69
507.939	164.69
508.155	97.69
508.372	88.69
508.588	91.69
508.805	102.69
509.021	105.69
509.238	117.69
509.454	120.69
509.67	109.69
509.887	138.69
510.103	169.69
510.319	328.69
510.536	1317.69
510.752	4750.69
510.968	1208.69
511.184	218.69
