Data from Circ_1999_H10_HRD10591_00032.txt Node
Date: Wed Jan 03 11:23:19 EST 2024
User: Yrep
Spectrometer: HR+D1059
Trigger mode: 1
Integration Time (sec): 1.000000E-1
Scans to average: 1
Electric dark correction enabled: true
Nonlinearity correction enabled: false
Boxcar width: 0
XAxis mode: Wavelengths
Number of Pixels in Spectrum: 2048
>>>>>Begin Spectral Data<<<<<
223.165	-16.88
223.4	-16.88
223.635	-16.88
223.869	-20.88
224.104	-19.88
224.338	-21.88
224.573	-13.88
224.808	-10.88
225.042	-8.88
225.277	-9.88
225.511	-8.88
225.746	4.12
225.98	-1.88
226.215	10.12
226.449	30.12
226.683	23.12
226.918	20.12
227.152	46.12
227.387	31.12
227.621	33.12
227.856	44.12
228.09	49.12
228.324	51.12
228.559	60.12
228.793	47.12
229.027	67.12
229.262	57.12
229.496	71.12
229.73	107.12
229.964	88.12
230.199	86.12
230.433	62.12
230.667	95.12
230.901	76.12
231.136	71.12
231.37	75.12
231.604	84.12
231.838	87.12
232.072	88.12
232.306	88.12
232.541	68.12
232.775	79.12
233.009	79.12
233.243	74.12
233.477	74.12
233.711	77.12
233.945	61.12
234.179	83.12
234.413	88.12
234.647	80.12
234.881	80.12
235.115	78.12
235.349	78.12
235.583	88.12
235.817	79.12
236.051	80.12
236.285	85.12
236.519	67.12
236.753	81.12
236.987	78.12
237.221	89.12
237.455	104.12
237.689	86.12
237.922	88.12
238.156	87.12
238.39	62.12
238.624	85.12
238.858	83.12
239.091	86.12
239.325	97.12
239.559	83.12
239.793	80.12
240.027	93.12
240.26	92.12
240.494	85.12
240.728	68.12
240.961	78.12
241.195	70.12
241.429	78.12
241.662	86.12
241.896	74.12
242.13	76.12
242.363	79.12
242.597	91.12
242.83	85.12
243.064	77.12
243.298	104.12
243.531	83.12
243.765	72.12
243.998	78.12
244.232	75.12
244.465	90.12
244.699	93.12
244.932	77.12
245.166	57.12
245.399	69.12
245.633	81.12
245.866	87.12
246.099	72.12
246.333	88.12
246.566	85.12
246.8	79.12
247.033	71.12
247.266	81.12
247.5	75.12
247.733	90.12
247.966	84.12
248.2	85.12
248.433	86.12
248.666	86.12
248.899	99.12
249.133	94.12
249.366	94.12
249.599	113.12
249.832	81.12
250.066	72.12
250.299	82.12
250.532	96.12
250.765	76.12
250.998	77.12
251.231	77.12
251.465	90.12
251.698	81.12
251.931	80.12
252.164	87.12
252.397	85.12
252.63	82.12
252.863	88.12
253.096	90.12
253.329	70.12
253.562	75.12
253.795	69.12
254.028	89.12
254.261	95.12
254.494	95.12
254.727	100.12
254.96	74.12
255.193	87.12
255.426	84.12
255.659	92.12
255.892	102.12
256.124	94.12
256.357	85.12
256.59	81.12
256.823	80.12
257.056	87.12
257.289	79.12
257.521	86.12
257.754	92.12
257.987	95.12
258.22	96.12
258.452	95.12
258.685	91.12
258.918	72.12
259.151	86.12
259.383	68.12
259.616	83.12
259.849	73.12
260.081	93.12
260.314	87.12
260.547	96.12
260.779	102.12
261.012	107.12
261.244	110.12
261.477	93.12
261.71	111.12
261.942	170.12
262.175	173.12
262.407	101.12
262.64	93.12
262.872	93.12
263.105	100.12
263.337	86.12
263.57	91.12
263.802	68.12
264.035	72.12
264.267	84.12
264.499	87.12
264.732	88.12
264.964	88.12
265.197	79.12
265.429	92.12
265.661	80.12
265.894	77.12
266.126	100.12
266.358	96.12
266.591	75.12
266.823	82.12
267.055	85.12
267.287	80.12
267.52	83.12
267.752	86.12
267.984	96.12
268.216	96.12
268.448	94.12
268.681	88.12
268.913	96.12
269.145	98.12
269.377	95.12
269.609	83.12
269.841	84.12
270.073	84.12
270.306	77.12
270.538	76.12
270.77	89.12
271.002	87.12
271.234	94.12
271.466	97.12
271.698	95.12
271.93	96.12
272.162	98.12
272.394	89.12
272.626	95.12
272.858	95.12
273.09	79.12
273.322	91.12
273.553	83.12
273.785	85.12
274.017	97.12
274.249	85.12
274.481	75.12
274.713	101.12
274.945	83.12
275.176	104.12
275.408	112.12
275.64	120.12
275.872	133.12
276.104	110.12
276.335	99.12
276.567	122.12
276.799	182.12
277.031	204.12
277.262	216.12
277.494	166.12
277.726	113.12
277.957	91.12
278.189	88.12
278.421	104.12
278.652	99.12
278.884	95.12
279.115	90.12
279.347	107.12
279.579	116.12
279.81	129.12
280.042	215.12
280.273	315.12
280.505	231.12
280.736	103.12
280.968	97.12
281.199	103.12
281.431	85.12
281.662	96.12
281.894	92.12
282.125	102.12
282.356	158.12
282.588	204.12
282.819	139.12
283.051	82.12
283.282	98.12
283.513	87.12
283.745	84.12
283.976	88.12
284.207	90.12
284.439	99.12
284.67	80.12
284.901	95.12
285.132	88.12
285.364	93.12
285.595	90.12
285.826	91.12
286.057	98.12
286.288	92.12
286.52	95.12
286.751	85.12
286.982	83.12
287.213	87.12
287.444	88.12
287.675	87.12
287.906	106.12
288.138	80.12
288.369	107.12
288.6	100.12
288.831	87.12
289.062	88.12
289.293	92.12
289.524	87.12
289.755	88.12
289.986	91.12
290.217	91.12
290.448	92.12
290.679	81.12
290.91	73.12
291.141	93.12
291.371	89.12
291.602	95.12
291.833	93.12
292.064	87.12
292.295	83.12
292.526	101.12
292.757	93.12
292.987	96.12
293.218	79.12
293.449	83.12
293.68	101.12
293.91	87.12
294.141	94.12
294.372	91.12
294.603	90.12
294.833	92.12
295.064	95.12
295.295	85.12
295.525	95.12
295.756	99.12
295.987	134.12
296.217	197.12
296.448	171.12
296.679	109.12
296.909	100.12
297.14	104.12
297.37	97.12
297.601	88.12
297.831	95.12
298.062	98.12
298.292	93.12
298.523	86.12
298.753	85.12
298.984	97.12
299.214	101.12
299.445	108.12
299.675	102.12
299.905	101.12
300.136	112.12
300.366	101.12
300.597	96.12
300.827	94.12
301.057	111.12
301.288	127.12
301.518	111.12
301.748	92.12
301.979	123.12
302.209	106.12
302.439	110.12
302.669	103.12
302.9	99.12
303.13	96.12
303.36	117.12
303.59	146.12
303.82	160.12
304.051	117.12
304.281	96.12
304.511	95.12
304.741	92.12
304.971	96.12
305.201	93.12
305.431	102.12
305.661	95.12
305.891	95.12
306.121	106.12
306.352	102.12
306.582	120.12
306.812	119.12
307.042	136.12
307.272	197.12
307.502	207.12
307.731	204.12
307.961	144.12
308.191	107.12
308.421	95.12
308.651	89.12
308.881	97.12
309.111	97.12
309.341	104.12
309.571	104.12
309.8	114.12
310.03	95.12
310.26	106.12
310.49	106.12
310.72	101.12
310.949	131.12
311.179	124.12
311.409	93.12
311.639	111.12
311.868	105.12
312.098	113.12
312.328	105.12
312.557	115.12
312.787	136.12
313.017	113.12
313.246	126.12
313.476	104.12
313.706	89.12
313.935	112.12
314.165	115.12
314.394	131.12
314.624	124.12
314.853	99.12
315.083	106.12
315.312	99.12
315.542	92.12
315.771	96.12
316.001	95.12
316.23	91.12
316.46	97.12
316.689	92.12
316.919	101.12
317.148	104.12
317.377	118.12
317.607	95.12
317.836	101.12
318.065	100.12
318.295	89.12
318.524	94.12
318.753	102.12
318.983	86.12
319.212	102.12
319.441	126.12
319.67	126.12
319.9	104.12
320.129	87.12
320.358	107.12
320.587	101.12
320.816	119.12
321.046	119.12
321.275	102.12
321.504	108.12
321.733	110.12
321.962	104.12
322.191	104.12
322.42	135.12
322.649	131.12
322.878	135.12
323.108	147.12
323.337	142.12
323.566	163.12
323.795	229.12
324.024	276.12
324.253	548.12
324.482	1187.12
324.71	2510.12
324.939	3260.12
325.168	1214.12
325.397	336.12
325.626	189.12
325.855	163.12
326.084	156.12
326.313	151.12
326.542	196.12
326.77	316.12
326.999	599.12
327.228	1197.12
327.457	2243.12
327.686	1845.12
327.914	649.12
328.143	644.12
328.372	829.12
328.6	442.12
328.829	236.12
329.058	233.12
329.287	251.12
329.515	209.12
329.744	289.12
329.972	542.12
330.201	1175.12
330.43	1793.12
330.658	752.12
330.887	370.12
331.115	243.12
331.344	136.12
331.572	136.12
331.801	151.12
332.03	138.12
332.258	141.12
332.486	115.12
332.715	99.12
332.943	117.12
333.172	125.12
333.4	140.12
333.629	185.12
333.857	254.12
334.085	484.12
334.314	1033.12
334.542	2071.12
334.771	2015.12
334.999	530.12
335.227	205.12
335.455	137.12
335.684	121.12
335.912	117.12
336.14	104.12
336.369	119.12
336.597	117.12
336.825	120.12
337.053	93.12
337.281	106.12
337.51	94.12
337.738	99.12
337.966	101.12
338.194	109.12
338.422	120.12
338.65	105.12
338.878	106.12
339.106	94.12
339.334	97.12
339.562	104.12
339.79	105.12
340.018	100.12
340.246	109.12
340.474	109.12
340.702	103.12
340.93	98.12
341.158	100.12
341.386	96.12
341.614	120.12
341.842	117.12
342.07	92.12
342.298	94.12
342.526	100.12
342.754	100.12
342.981	84.12
343.209	90.12
343.437	103.12
343.665	67.12
343.893	93.12
344.12	96.12
344.348	92.12
344.576	85.12
344.804	92.12
345.031	124.12
345.259	115.12
345.487	104.12
345.714	102.12
345.942	101.12
346.17	110.12
346.397	98.12
346.625	110.12
346.853	100.12
347.08	86.12
347.308	124.12
347.535	110.12
347.763	103.12
347.99	117.12
348.218	111.12
348.445	138.12
348.673	123.12
348.9	107.12
349.128	96.12
349.355	88.12
349.583	101.12
349.81	93.12
350.037	98.12
350.265	99.12
350.492	94.12
350.72	101.12
350.947	113.12
351.174	122.12
351.402	143.12
351.629	119.12
351.856	108.12
352.083	129.12
352.311	120.12
352.538	137.12
352.765	134.12
352.992	120.12
353.22	148.12
353.447	123.12
353.674	110.12
353.901	94.12
354.128	102.12
354.355	92.12
354.583	84.12
354.81	97.12
355.037	97.12
355.264	99.12
355.491	97.12
355.718	83.12
355.945	81.12
356.172	83.12
356.399	96.12
356.626	97.12
356.853	87.12
357.08	84.12
357.307	86.12
357.534	103.12
357.761	95.12
357.988	94.12
358.215	98.12
358.441	105.12
358.668	88.12
358.895	94.12
359.122	80.12
359.349	103.12
359.576	103.12
359.802	125.12
360.029	151.12
360.256	166.12
360.483	140.12
360.709	99.12
360.936	107.12
361.163	108.12
361.39	108.12
361.616	107.12
361.843	98.12
362.07	105.12
362.296	118.12
362.523	96.12
362.749	94.12
362.976	116.12
363.203	107.12
363.429	83.12
363.656	87.12
363.882	96.12
364.109	100.12
364.335	98.12
364.562	92.12
364.788	120.12
365.015	93.12
365.241	107.12
365.468	135.12
365.694	134.12
365.92	107.12
366.147	101.12
366.373	99.12
366.599	94.12
366.826	83.12
367.052	101.12
367.278	88.12
367.505	102.12
367.731	96.12
367.957	96.12
368.184	88.12
368.41	115.12
368.636	116.12
368.862	145.12
369.089	129.12
369.315	110.12
369.541	103.12
369.767	106.12
369.993	93.12
370.219	104.12
370.445	97.12
370.672	102.12
370.898	86.12
371.124	96.12
371.35	97.12
371.576	96.12
371.802	85.12
372.028	92.12
372.254	89.12
372.48	92.12
372.706	83.12
372.932	83.12
373.158	90.12
373.384	91.12
373.61	100.12
373.835	87.12
374.061	89.12
374.287	104.12
374.513	94.12
374.739	88.12
374.965	91.12
375.191	92.12
375.416	86.12
375.642	91.12
375.868	101.12
376.094	89.12
376.319	93.12
376.545	101.12
376.771	77.12
376.997	92.12
377.222	95.12
377.448	83.12
377.674	81.12
377.899	81.12
378.125	92.12
378.35	91.12
378.576	95.12
378.802	85.12
379.027	99.12
379.253	99.12
379.478	88.12
379.704	95.12
379.929	90.12
380.155	108.12
380.38	95.12
380.606	98.12
380.831	97.12
381.057	91.12
381.282	93.12
381.507	105.12
381.733	105.12
381.958	105.12
382.184	95.12
382.409	110.12
382.634	109.12
382.86	87.12
383.085	101.12
383.31	100.12
383.535	97.12
383.761	112.12
383.986	85.12
384.211	96.12
384.436	104.12
384.662	109.12
384.887	88.12
385.112	95.12
385.337	103.12
385.562	95.12
385.787	122.12
386.013	131.12
386.238	138.12
386.463	118.12
386.688	112.12
386.913	114.12
387.138	112.12
387.363	98.12
387.588	93.12
387.813	105.12
388.038	112.12
388.263	117.12
388.488	117.12
388.713	87.12
388.938	85.12
389.163	91.12
389.387	100.12
389.612	87.12
389.837	86.12
390.062	85.12
390.287	100.12
390.512	92.12
390.736	94.12
390.961	87.12
391.186	81.12
391.411	98.12
391.636	95.12
391.86	77.12
392.085	81.12
392.31	78.12
392.534	89.12
392.759	93.12
392.984	85.12
393.208	91.12
393.433	90.12
393.658	87.12
393.882	91.12
394.107	77.12
394.331	99.12
394.556	89.12
394.78	93.12
395.005	93.12
395.229	73.12
395.454	99.12
395.678	95.12
395.903	86.12
396.127	97.12
396.352	89.12
396.576	102.12
396.801	101.12
397.025	88.12
397.249	88.12
397.474	87.12
397.698	82.12
397.922	87.12
398.147	94.12
398.371	84.12
398.595	100.12
398.82	83.12
399.044	87.12
399.268	83.12
399.492	95.12
399.717	92.12
399.941	92.12
400.165	106.12
400.389	90.12
400.613	76.12
400.837	84.12
401.062	88.12
401.286	89.12
401.51	95.12
401.734	112.12
401.958	112.12
402.182	188.12
402.406	251.12
402.63	173.12
402.854	104.12
403.078	97.12
403.302	103.12
403.526	89.12
403.75	98.12
403.974	91.12
404.198	92.12
404.422	88.12
404.645	101.12
404.869	103.12
405.093	115.12
405.317	139.12
405.541	153.12
405.765	133.12
405.988	165.12
406.212	273.12
406.436	428.12
406.66	251.12
406.883	117.12
407.107	131.12
407.331	111.12
407.555	122.12
407.778	106.12
408.002	89.12
408.226	92.12
408.449	91.12
408.673	96.12
408.896	87.12
409.12	102.12
409.344	91.12
409.567	93.12
409.791	81.12
410.014	100.12
410.238	99.12
410.461	96.12
410.685	105.12
410.908	100.12
411.132	100.12
411.355	105.12
411.578	84.12
411.802	83.12
412.025	97.12
412.249	103.12
412.472	119.12
412.695	139.12
412.919	101.12
413.142	77.12
413.365	70.12
413.589	99.12
413.812	90.12
414.035	96.12
414.258	101.12
414.482	94.12
414.705	86.12
414.928	88.12
415.151	90.12
415.374	95.12
415.597	87.12
415.821	85.12
416.044	89.12
416.267	97.12
416.49	79.12
416.713	90.12
416.936	94.12
417.159	101.12
417.382	97.12
417.605	115.12
417.828	103.12
418.051	103.12
418.274	82.12
418.497	87.12
418.72	82.12
418.943	99.12
419.166	91.12
419.389	95.12
419.611	92.12
419.834	91.12
420.057	77.12
420.28	105.12
420.503	97.12
420.726	84.12
420.948	94.12
421.171	87.12
421.394	102.12
421.617	96.12
421.839	74.12
422.062	93.12
422.285	107.12
422.507	97.12
422.73	100.12
422.953	84.12
423.175	94.12
423.398	93.12
423.621	94.12
423.843	86.12
424.066	84.12
424.288	86.12
424.511	101.12
424.733	107.12
424.956	135.12
425.178	115.12
425.401	120.12
425.623	110.12
425.846	118.12
426.068	100.12
426.291	100.12
426.513	100.12
426.735	106.12
426.958	123.12
427.18	131.12
427.402	198.12
427.625	311.12
427.847	277.12
428.069	224.12
428.292	127.12
428.514	112.12
428.736	111.12
428.958	89.12
429.181	80.12
429.403	86.12
429.625	87.12
429.847	93.12
430.069	89.12
430.292	89.12
430.514	65.12
430.736	80.12
430.958	84.12
431.18	84.12
431.402	87.12
431.624	82.12
431.846	72.12
432.068	97.12
432.29	91.12
432.512	100.12
432.734	80.12
432.956	94.12
433.178	110.12
433.4	91.12
433.622	89.12
433.844	92.12
434.066	103.12
434.287	97.12
434.509	87.12
434.731	83.12
434.953	89.12
435.175	92.12
435.397	103.12
435.618	94.12
435.84	109.12
436.062	122.12
436.284	119.12
436.505	112.12
436.727	102.12
436.949	94.12
437.17	90.12
437.392	86.12
437.614	121.12
437.835	144.12
438.057	165.12
438.278	123.12
438.5	106.12
438.721	128.12
438.943	104.12
439.165	93.12
439.386	106.12
439.608	97.12
439.829	105.12
440.05	155.12
440.272	212.12
440.493	115.12
440.715	103.12
440.936	87.12
441.158	88.12
441.379	91.12
441.6	109.12
441.822	111.12
442.043	110.12
442.264	128.12
442.486	131.12
442.707	105.12
442.928	138.12
443.149	203.12
443.371	215.12
443.592	131.12
443.813	125.12
444.034	112.12
444.255	94.12
444.476	78.12
444.698	103.12
444.919	97.12
445.14	139.12
445.361	148.12
445.582	144.12
445.803	203.12
446.024	181.12
446.245	159.12
446.466	131.12
446.687	100.12
446.908	95.12
447.129	91.12
447.35	83.12
447.571	100.12
447.792	104.12
448.013	127.12
448.234	144.12
448.455	120.12
448.675	139.12
448.896	132.12
449.117	135.12
449.338	110.12
449.559	144.12
449.779	159.12
450	97.12
450.221	102.12
450.442	83.12
450.662	107.12
450.883	149.12
451.104	161.12
451.324	120.12
451.545	97.12
451.766	93.12
451.986	76.12
452.207	90.12
452.428	101.12
452.648	113.12
452.869	132.12
453.089	162.12
453.31	178.12
453.53	121.12
453.751	116.12
453.971	138.12
454.192	151.12
454.412	116.12
454.633	97.12
454.853	86.12
455.073	89.12
455.294	94.12
455.514	106.12
455.734	104.12
455.955	89.12
456.175	86.12
456.395	91.12
456.616	81.12
456.836	76.12
457.056	73.12
457.276	79.12
457.497	87.12
457.717	91.12
457.937	91.12
458.157	90.12
458.377	90.12
458.598	128.12
458.818	283.12
459.038	286.12
459.258	156.12
459.478	100.12
459.698	86.12
459.918	95.12
460.138	107.12
460.358	92.12
460.578	89.12
460.798	86.12
461.018	91.12
461.238	88.12
461.458	92.12
461.678	90.12
461.898	93.12
462.118	93.12
462.338	92.12
462.558	88.12
462.777	93.12
462.997	92.12
463.217	113.12
463.437	121.12
463.657	107.12
463.876	78.12
464.096	104.12
464.316	109.12
464.536	127.12
464.755	118.12
464.975	152.12
465.195	315.12
465.414	312.12
465.634	127.12
465.854	87.12
466.073	92.12
466.293	76.12
466.512	85.12
466.732	91.12
466.951	88.12
467.171	106.12
467.391	115.12
467.61	167.12
467.829	246.12
468.049	699.12
468.268	1049.12
468.488	253.12
468.707	106.12
468.927	98.12
469.146	98.12
469.365	103.12
469.585	99.12
469.804	111.12
470.023	146.12
470.243	127.12
470.462	137.12
470.681	171.12
470.901	114.12
471.12	95.12
471.339	127.12
471.558	135.12
471.777	154.12
471.997	333.12
472.216	1338.12
472.435	3208.12
472.654	725.12
472.873	188.12
473.092	107.12
473.311	111.12
473.53	95.12
473.749	103.12
473.968	121.12
474.187	126.12
474.406	115.12
474.625	88.12
474.844	103.12
475.063	99.12
475.282	95.12
475.501	89.12
475.72	95.12
475.939	89.12
476.158	92.12
476.377	112.12
476.596	96.12
476.814	112.12
477.033	118.12
477.252	93.12
477.471	93.12
477.69	100.12
477.908	112.12
478.127	103.12
478.346	99.12
478.564	104.12
478.783	124.12
479.002	115.12
479.22	118.12
479.439	154.12
479.658	158.12
479.876	140.12
480.095	125.12
480.313	149.12
480.532	188.12
480.751	333.12
480.969	1188.12
481.188	5367.12
481.406	3040.12
481.624	425.12
481.843	140.12
482.061	118.12
482.28	101.12
482.498	92.12
482.717	104.12
482.935	95.12
483.153	86.12
483.372	97.12
483.59	92.12
483.808	104.12
484.027	99.12
484.245	92.12
484.463	105.12
484.681	98.12
484.9	94.12
485.118	106.12
485.336	97.12
485.554	108.12
485.772	122.12
485.99	107.12
486.209	96.12
486.427	108.12
486.645	135.12
486.863	149.12
487.081	119.12
487.299	105.12
487.517	96.12
487.735	79.12
487.953	96.12
488.171	104.12
488.389	108.12
488.607	104.12
488.825	98.12
489.043	107.12
489.261	106.12
489.479	95.12
489.696	88.12
489.914	91.12
490.132	80.12
490.35	92.12
490.568	108.12
490.786	112.12
491.003	107.12
491.221	82.12
491.439	95.12
491.657	106.12
491.874	98.12
492.092	92.12
492.31	88.12
492.527	98.12
492.745	100.12
492.963	92.12
493.18	78.12
493.398	93.12
493.615	100.12
493.833	107.12
494.05	100.12
494.268	92.12
494.485	76.12
494.703	93.12
494.92	89.12
495.138	98.12
495.355	103.12
495.573	92.12
495.79	91.12
496.008	96.12
496.225	99.12
496.442	88.12
496.66	109.12
496.877	88.12
497.094	92.12
497.312	107.12
497.529	88.12
497.746	87.12
497.963	85.12
498.181	94.12
498.398	100.12
498.615	143.12
498.832	110.12
499.049	97.12
499.267	104.12
499.484	96.12
499.701	82.12
499.918	89.12
500.135	96.12
500.352	95.12
500.569	92.12
500.786	102.12
501.003	94.12
501.22	107.12
501.437	86.12
501.654	103.12
501.871	135.12
502.088	92.12
502.305	80.12
502.522	100.12
502.739	89.12
502.956	93.12
503.172	95.12
503.389	112.12
503.606	153.12
503.823	112.12
504.04	103.12
504.256	97.12
504.473	83.12
504.69	107.12
504.907	96.12
505.123	87.12
505.34	93.12
505.557	83.12
505.773	81.12
505.99	94.12
506.207	96.12
506.423	99.12
506.64	103.12
506.856	96.12
507.073	106.12
507.289	93.12
507.506	102.12
507.722	153.12
507.939	161.12
508.155	106.12
508.372	96.12
508.588	83.12
508.805	103.12
509.021	106.12
509.238	119.12
509.454	104.12
509.67	125.12
509.887	137.12
510.103	167.12
510.319	299.12
510.536	1265.12
510.752	4684.12
510.968	1217.12
511.184	215.12
511.401	154.12
511.617	124.12
