Data from Circ_1999_H10_HRD10591_00045.txt Node
Date: Wed Jan 03 11:23:21 EST 2024
User: Yrep
Spectrometer: HR+D1059
Trigger mode: 1
Integration Time (sec): 1.000000E-1
Scans to average: 1
Electric dark correction enabled: true
Nonlinearity correction enabled: false
Boxcar width: 0
XAxis mode: Wavelengths
Number of Pixels in Spectrum: 2048
>>>>>Begin Spectral Data<<<<<
223.165	-15.94
223.4	-15.94
223.635	-15.94
223.869	-34.94
224.104	-8.94
224.338	-9.94
224.573	-18.94
224.808	-13.94
225.042	-3.94
225.277	-3.94
225.511	-8.94
225.746	0.06
225.98	-8.94
226.215	20.06
226.449	14.06
226.683	32.06
226.918	30.06
227.152	32.06
227.387	37.06
227.621	31.06
227.856	56.06
228.09	34.06
228.324	52.06
228.559	64.06
228.793	58.06
229.027	81.06
229.262	80.06
229.496	86.06
229.73	123.06
229.964	109.06
230.199	86.06
230.433	73.06
230.667	82.06
230.901	69.06
231.136	74.06
231.37	85.06
231.604	83.06
231.838	82.06
232.072	72.06
232.306	80.06
232.541	87.06
232.775	78.06
233.009	85.06
233.243	87.06
233.477	88.06
233.711	90.06
233.945	77.06
234.179	88.06
234.413	85.06
234.647	75.06
234.881	84.06
235.115	87.06
235.349	80.06
235.583	87.06
235.817	76.06
236.051	97.06
236.285	88.06
236.519	73.06
236.753	80.06
236.987	91.06
237.221	96.06
237.455	105.06
237.689	86.06
237.922	77.06
238.156	79.06
238.39	64.06
238.624	90.06
238.858	71.06
239.091	89.06
239.325	87.06
239.559	86.06
239.793	80.06
240.027	90.06
240.26	85.06
240.494	88.06
240.728	92.06
240.961	87.06
241.195	90.06
241.429	77.06
241.662	83.06
241.896	73.06
242.13	76.06
242.363	79.06
242.597	83.06
242.83	80.06
243.064	95.06
243.298	80.06
243.531	79.06
243.765	71.06
243.998	88.06
244.232	81.06
244.465	95.06
244.699	97.06
244.932	85.06
245.166	89.06
245.399	81.06
245.633	85.06
245.866	73.06
246.099	85.06
246.333	86.06
246.566	81.06
246.8	70.06
247.033	80.06
247.266	95.06
247.5	81.06
247.733	80.06
247.966	79.06
248.2	88.06
248.433	93.06
248.666	83.06
248.899	71.06
249.133	100.06
249.366	119.06
249.599	97.06
249.832	101.06
250.066	97.06
250.299	89.06
250.532	101.06
250.765	92.06
250.998	81.06
251.231	71.06
251.465	81.06
251.698	82.06
251.931	102.06
252.164	97.06
252.397	68.06
252.63	89.06
252.863	85.06
253.096	86.06
253.329	80.06
253.562	96.06
253.795	79.06
254.028	78.06
254.261	88.06
254.494	88.06
254.727	86.06
254.96	80.06
255.193	76.06
255.426	82.06
255.659	103.06
255.892	110.06
256.124	97.06
256.357	84.06
256.59	84.06
256.823	89.06
257.056	93.06
257.289	110.06
257.521	83.06
257.754	86.06
257.987	107.06
258.22	104.06
258.452	116.06
258.685	97.06
258.918	93.06
259.151	87.06
259.383	93.06
259.616	84.06
259.849	89.06
260.081	80.06
260.314	93.06
260.547	92.06
260.779	105.06
261.012	126.06
261.244	140.06
261.477	138.06
261.71	117.06
261.942	175.06
262.175	175.06
262.407	111.06
262.64	83.06
262.872	78.06
263.105	88.06
263.337	88.06
263.57	94.06
263.802	106.06
264.035	95.06
264.267	93.06
264.499	83.06
264.732	93.06
264.964	75.06
265.197	97.06
265.429	96.06
265.661	78.06
265.894	104.06
266.126	96.06
266.358	82.06
266.591	85.06
266.823	98.06
267.055	98.06
267.287	92.06
267.52	89.06
267.752	91.06
267.984	82.06
268.216	88.06
268.448	89.06
268.681	102.06
268.913	105.06
269.145	91.06
269.377	89.06
269.609	86.06
269.841	106.06
270.073	87.06
270.306	93.06
270.538	91.06
270.77	72.06
271.002	87.06
271.234	99.06
271.466	103.06
271.698	90.06
271.93	86.06
272.162	92.06
272.394	92.06
272.626	91.06
272.858	99.06
273.09	102.06
273.322	95.06
273.553	93.06
273.785	81.06
274.017	97.06
274.249	87.06
274.481	103.06
274.713	101.06
274.945	88.06
275.176	102.06
275.408	115.06
275.64	136.06
275.872	152.06
276.104	137.06
276.335	117.06
276.567	154.06
276.799	182.06
277.031	245.06
277.262	273.06
277.494	198.06
277.726	115.06
277.957	101.06
278.189	91.06
278.421	114.06
278.652	102.06
278.884	89.06
279.115	103.06
279.347	100.06
279.579	115.06
279.81	148.06
280.042	254.06
280.273	370.06
280.505	241.06
280.736	112.06
280.968	101.06
281.199	81.06
281.431	98.06
281.662	99.06
281.894	95.06
282.125	125.06
282.356	176.06
282.588	231.06
282.819	161.06
283.051	103.06
283.282	94.06
283.513	84.06
283.745	86.06
283.976	85.06
284.207	97.06
284.439	89.06
284.67	98.06
284.901	81.06
285.132	84.06
285.364	76.06
285.595	92.06
285.826	93.06
286.057	97.06
286.288	74.06
286.52	91.06
286.751	82.06
286.982	75.06
287.213	86.06
287.444	100.06
287.675	105.06
287.906	82.06
288.138	91.06
288.369	93.06
288.6	107.06
288.831	104.06
289.062	90.06
289.293	87.06
289.524	95.06
289.755	74.06
289.986	90.06
290.217	90.06
290.448	102.06
290.679	88.06
290.91	84.06
291.141	94.06
291.371	102.06
291.602	106.06
291.833	100.06
292.064	104.06
292.295	97.06
292.526	90.06
292.757	83.06
292.987	85.06
293.218	90.06
293.449	81.06
293.68	84.06
293.91	81.06
294.141	89.06
294.372	110.06
294.603	94.06
294.833	98.06
295.064	93.06
295.295	88.06
295.525	104.06
295.756	120.06
295.987	166.06
296.217	220.06
296.448	201.06
296.679	120.06
296.909	95.06
297.14	86.06
297.37	92.06
297.601	98.06
297.831	87.06
298.062	107.06
298.292	97.06
298.523	87.06
298.753	96.06
298.984	87.06
299.214	87.06
299.445	99.06
299.675	102.06
299.905	101.06
300.136	93.06
300.366	82.06
300.597	100.06
300.827	103.06
301.057	113.06
301.288	147.06
301.518	119.06
301.748	110.06
301.979	129.06
302.209	117.06
302.439	113.06
302.669	89.06
302.9	100.06
303.13	112.06
303.36	129.06
303.59	162.06
303.82	198.06
304.051	118.06
304.281	100.06
304.511	86.06
304.741	93.06
304.971	103.06
305.201	87.06
305.431	105.06
305.661	103.06
305.891	105.06
306.121	114.06
306.352	132.06
306.582	145.06
306.812	118.06
307.042	146.06
307.272	213.06
307.502	226.06
307.731	222.06
307.961	151.06
308.191	107.06
308.421	88.06
308.651	100.06
308.881	97.06
309.111	108.06
309.341	121.06
309.571	130.06
309.8	110.06
310.03	113.06
310.26	121.06
310.49	115.06
310.72	127.06
310.949	132.06
311.179	125.06
311.409	100.06
311.639	108.06
311.868	111.06
312.098	109.06
312.328	112.06
312.557	128.06
312.787	146.06
313.017	124.06
313.246	107.06
313.476	114.06
313.706	92.06
313.935	107.06
314.165	145.06
314.394	132.06
314.624	133.06
314.853	118.06
315.083	107.06
315.312	106.06
315.542	98.06
315.771	96.06
316.001	101.06
316.23	97.06
316.46	110.06
316.689	92.06
316.919	92.06
317.148	102.06
317.377	111.06
317.607	114.06
317.836	103.06
318.065	93.06
318.295	104.06
318.524	90.06
318.753	96.06
318.983	106.06
319.212	123.06
319.441	146.06
319.67	139.06
319.9	114.06
320.129	100.06
320.358	103.06
320.587	107.06
320.816	112.06
321.046	132.06
321.275	121.06
321.504	117.06
321.733	120.06
321.962	112.06
322.191	132.06
322.42	152.06
322.649	143.06
322.878	156.06
323.108	161.06
323.337	184.06
323.566	206.06
323.795	232.06
324.024	328.06
324.253	705.06
324.482	1497.06
324.71	3044.06
324.939	3996.06
325.168	1447.06
325.397	415.06
325.626	220.06
325.855	164.06
326.084	146.06
326.313	180.06
326.542	229.06
326.77	350.06
326.999	698.06
327.228	1513.06
327.457	2836.06
327.686	2277.06
327.914	822.06
328.143	821.06
328.372	1026.06
328.6	550.06
328.829	273.06
329.058	260.06
329.287	300.06
329.515	244.06
329.744	367.06
329.972	724.06
330.201	1552.06
330.43	2280.06
330.658	970.06
330.887	447.06
331.115	280.06
331.344	160.06
331.572	141.06
331.801	174.06
332.03	157.06
332.258	132.06
332.486	116.06
332.715	122.06
332.943	135.06
333.172	147.06
333.4	180.06
333.629	210.06
333.857	330.06
334.085	652.06
334.314	1374.06
334.542	2798.06
334.771	2577.06
334.999	632.06
335.227	225.06
335.455	152.06
335.684	148.06
335.912	130.06
336.14	130.06
336.369	129.06
336.597	125.06
336.825	142.06
337.053	120.06
337.281	98.06
337.51	108.06
337.738	120.06
337.966	115.06
338.194	122.06
338.422	130.06
338.65	101.06
338.878	119.06
339.106	95.06
339.334	106.06
339.562	90.06
339.79	114.06
340.018	107.06
340.246	107.06
340.474	118.06
340.702	104.06
340.93	98.06
341.158	106.06
341.386	124.06
341.614	114.06
341.842	127.06
342.07	109.06
342.298	96.06
342.526	100.06
342.754	101.06
342.981	82.06
343.209	92.06
343.437	106.06
343.665	105.06
343.893	102.06
344.12	86.06
344.348	93.06
344.576	83.06
344.804	104.06
345.031	127.06
345.259	133.06
345.487	119.06
345.714	120.06
345.942	107.06
346.17	100.06
346.397	97.06
346.625	88.06
346.853	110.06
347.08	102.06
347.308	103.06
347.535	110.06
347.763	132.06
347.99	112.06
348.218	124.06
348.445	134.06
348.673	149.06
348.9	123.06
349.128	113.06
349.355	80.06
349.583	105.06
349.81	100.06
350.037	104.06
350.265	107.06
350.492	94.06
350.72	102.06
350.947	122.06
351.174	138.06
351.402	153.06
351.629	138.06
351.856	137.06
352.083	113.06
352.311	142.06
352.538	158.06
352.765	130.06
352.992	144.06
353.22	136.06
353.447	121.06
353.674	118.06
353.901	96.06
354.128	117.06
354.355	92.06
354.583	116.06
354.81	82.06
355.037	92.06
355.264	108.06
355.491	97.06
355.718	101.06
355.945	107.06
356.172	88.06
356.399	102.06
356.626	120.06
356.853	91.06
357.08	98.06
357.307	72.06
357.534	85.06
357.761	98.06
357.988	82.06
358.215	104.06
358.441	105.06
358.668	96.06
358.895	97.06
359.122	94.06
359.349	91.06
359.576	109.06
359.802	134.06
360.029	203.06
360.256	188.06
360.483	136.06
360.709	103.06
360.936	102.06
361.163	113.06
361.39	125.06
361.616	118.06
361.843	103.06
362.07	111.06
362.296	118.06
362.523	109.06
362.749	104.06
362.976	125.06
363.203	117.06
363.429	96.06
363.656	94.06
363.882	101.06
364.109	84.06
364.335	116.06
364.562	106.06
364.788	121.06
365.015	105.06
365.241	134.06
365.468	128.06
365.694	143.06
365.92	128.06
366.147	114.06
366.373	105.06
366.599	102.06
366.826	96.06
367.052	92.06
367.278	102.06
367.505	104.06
367.731	108.06
367.957	113.06
368.184	111.06
368.41	140.06
368.636	154.06
368.862	161.06
369.089	138.06
369.315	124.06
369.541	100.06
369.767	108.06
369.993	101.06
370.219	97.06
370.445	102.06
370.672	109.06
370.898	98.06
371.124	96.06
371.35	93.06
371.576	93.06
371.802	82.06
372.028	98.06
372.254	86.06
372.48	86.06
372.706	77.06
372.932	90.06
373.158	91.06
373.384	114.06
373.61	106.06
373.835	97.06
374.061	93.06
374.287	110.06
374.513	103.06
374.739	86.06
374.965	86.06
375.191	88.06
375.416	86.06
375.642	95.06
375.868	101.06
376.094	102.06
376.319	88.06
376.545	100.06
376.771	104.06
376.997	94.06
377.222	87.06
377.448	104.06
377.674	87.06
377.899	102.06
378.125	103.06
378.35	92.06
378.576	109.06
378.802	89.06
379.027	98.06
379.253	105.06
379.478	95.06
379.704	107.06
379.929	93.06
380.155	108.06
380.38	99.06
380.606	109.06
380.831	92.06
381.057	97.06
381.282	94.06
381.507	113.06
381.733	95.06
381.958	102.06
382.184	104.06
382.409	88.06
382.634	113.06
382.86	110.06
383.085	96.06
383.31	99.06
383.535	105.06
383.761	98.06
383.986	115.06
384.211	102.06
384.436	93.06
384.662	124.06
384.887	112.06
385.112	95.06
385.337	113.06
385.562	98.06
385.787	113.06
386.013	136.06
386.238	144.06
386.463	125.06
386.688	126.06
386.913	118.06
387.138	111.06
387.363	101.06
387.588	89.06
387.813	100.06
388.038	108.06
388.263	112.06
388.488	104.06
388.713	94.06
388.938	99.06
389.163	95.06
389.387	98.06
389.612	98.06
389.837	81.06
390.062	91.06
390.287	90.06
390.512	81.06
390.736	84.06
390.961	97.06
391.186	89.06
391.411	76.06
391.636	96.06
391.86	80.06
392.085	77.06
392.31	86.06
392.534	80.06
392.759	103.06
392.984	85.06
393.208	73.06
393.433	84.06
393.658	82.06
393.882	85.06
394.107	88.06
394.331	89.06
394.556	80.06
394.78	93.06
395.005	101.06
395.229	90.06
395.454	81.06
395.678	79.06
395.903	81.06
396.127	103.06
396.352	88.06
396.576	77.06
396.801	94.06
397.025	80.06
397.249	86.06
397.474	91.06
397.698	93.06
397.922	94.06
398.147	76.06
398.371	97.06
398.595	95.06
398.82	91.06
399.044	90.06
399.268	88.06
399.492	90.06
399.717	101.06
399.941	82.06
400.165	112.06
400.389	98.06
400.613	97.06
400.837	99.06
401.062	96.06
401.286	118.06
401.51	87.06
401.734	107.06
401.958	129.06
402.182	210.06
402.406	306.06
402.63	193.06
402.854	124.06
403.078	112.06
403.302	105.06
403.526	116.06
403.75	82.06
403.974	86.06
404.198	74.06
404.422	100.06
404.645	96.06
404.869	135.06
405.093	144.06
405.317	165.06
405.541	184.06
405.765	147.06
405.988	178.06
406.212	308.06
406.436	500.06
406.66	298.06
406.883	181.06
407.107	120.06
407.331	128.06
407.555	117.06
407.778	122.06
408.002	107.06
408.226	88.06
408.449	90.06
408.673	93.06
408.896	100.06
409.12	110.06
409.344	89.06
409.567	89.06
409.791	99.06
410.014	110.06
410.238	95.06
410.461	102.06
410.685	94.06
410.908	107.06
411.132	96.06
411.355	112.06
411.578	93.06
411.802	101.06
412.025	102.06
412.249	113.06
412.472	128.06
412.695	162.06
412.919	132.06
413.142	90.06
413.365	93.06
413.589	102.06
413.812	92.06
414.035	93.06
414.258	103.06
414.482	101.06
414.705	94.06
414.928	91.06
415.151	82.06
415.374	109.06
415.597	97.06
415.821	92.06
416.044	104.06
416.267	92.06
416.49	110.06
416.713	92.06
416.936	96.06
417.159	97.06
417.382	108.06
417.605	109.06
417.828	121.06
418.051	116.06
418.274	91.06
418.497	94.06
418.72	104.06
418.943	80.06
419.166	85.06
419.389	89.06
419.611	100.06
419.834	97.06
420.057	92.06
420.28	92.06
420.503	83.06
420.726	100.06
420.948	107.06
421.171	110.06
421.394	116.06
421.617	91.06
421.839	82.06
422.062	92.06
422.285	97.06
422.507	96.06
422.73	109.06
422.953	108.06
423.175	98.06
423.398	97.06
423.621	92.06
423.843	89.06
424.066	87.06
424.288	93.06
424.511	97.06
424.733	113.06
424.956	146.06
425.178	126.06
425.401	120.06
425.623	118.06
425.846	106.06
426.068	114.06
426.291	111.06
426.513	97.06
426.735	109.06
426.958	105.06
427.18	148.06
427.402	219.06
427.625	354.06
427.847	342.06
428.069	266.06
428.292	148.06
428.514	103.06
428.736	106.06
428.958	96.06
429.181	102.06
429.403	85.06
429.625	101.06
429.847	105.06
430.069	128.06
430.292	101.06
430.514	104.06
430.736	90.06
430.958	88.06
431.18	78.06
431.402	80.06
431.624	78.06
431.846	86.06
432.068	89.06
432.29	78.06
432.512	102.06
432.734	95.06
432.956	95.06
433.178	96.06
433.4	101.06
433.622	100.06
433.844	87.06
434.066	93.06
434.287	107.06
434.509	101.06
434.731	116.06
434.953	92.06
435.175	93.06
435.397	87.06
435.618	100.06
435.84	119.06
436.062	147.06
436.284	143.06
436.505	117.06
436.727	119.06
436.949	88.06
437.17	96.06
437.392	103.06
437.614	118.06
437.835	163.06
438.057	197.06
438.278	159.06
438.5	121.06
438.721	166.06
438.943	112.06
439.165	83.06
439.386	101.06
439.608	95.06
439.829	124.06
440.05	167.06
440.272	218.06
440.493	148.06
440.715	95.06
440.936	90.06
441.158	95.06
441.379	84.06
441.6	110.06
441.822	118.06
442.043	115.06
442.264	137.06
442.486	147.06
442.707	123.06
442.928	148.06
443.149	224.06
443.371	230.06
443.592	164.06
443.813	157.06
444.034	132.06
444.255	104.06
444.476	102.06
444.698	103.06
444.919	88.06
445.14	144.06
445.361	155.06
445.582	170.06
445.803	246.06
446.024	222.06
446.245	202.06
446.466	161.06
446.687	96.06
446.908	102.06
447.129	92.06
447.35	112.06
447.571	111.06
447.792	105.06
448.013	125.06
448.234	159.06
448.455	128.06
448.675	148.06
448.896	154.06
449.117	118.06
449.338	137.06
449.559	172.06
449.779	169.06
450	106.06
450.221	94.06
450.442	95.06
450.662	125.06
450.883	158.06
451.104	170.06
451.324	127.06
451.545	98.06
451.766	101.06
451.986	93.06
452.207	109.06
452.428	109.06
452.648	128.06
452.869	157.06
453.089	177.06
453.31	184.06
453.53	116.06
453.751	111.06
453.971	129.06
454.192	176.06
454.412	128.06
454.633	89.06
454.853	106.06
455.073	102.06
455.294	111.06
455.514	126.06
455.734	91.06
455.955	88.06
456.175	85.06
456.395	91.06
456.616	86.06
456.836	92.06
457.056	98.06
457.276	102.06
457.497	84.06
457.717	95.06
457.937	105.06
458.157	102.06
458.377	97.06
458.598	171.06
458.818	295.06
459.038	339.06
459.258	211.06
459.478	133.06
459.698	103.06
459.918	79.06
460.138	85.06
460.358	89.06
460.578	80.06
460.798	96.06
461.018	97.06
461.238	111.06
461.458	92.06
461.678	86.06
461.898	85.06
462.118	80.06
462.338	77.06
462.558	85.06
462.777	77.06
462.997	111.06
463.217	136.06
463.437	102.06
463.657	103.06
463.876	100.06
464.096	101.06
464.316	110.06
464.536	116.06
464.755	111.06
464.975	157.06
465.195	363.06
465.414	383.06
465.634	134.06
465.854	108.06
466.073	122.06
466.293	101.06
466.512	87.06
466.732	81.06
466.951	98.06
467.171	114.06
467.391	129.06
467.61	208.06
467.829	293.06
468.049	886.06
468.268	1362.06
468.488	324.06
468.707	123.06
468.927	110.06
469.146	101.06
469.365	94.06
469.585	106.06
469.804	125.06
470.023	145.06
470.243	127.06
470.462	142.06
470.681	198.06
470.901	126.06
471.12	108.06
471.339	132.06
471.558	145.06
471.777	203.06
471.997	438.06
472.216	1752.06
472.435	4086.06
472.654	884.06
472.873	228.06
473.092	136.06
473.311	109.06
473.53	101.06
473.749	105.06
473.968	111.06
474.187	146.06
474.406	136.06
474.625	103.06
474.844	105.06
475.063	94.06
475.282	91.06
475.501	88.06
475.72	92.06
475.939	94.06
476.158	87.06
476.377	94.06
476.596	106.06
476.814	130.06
477.033	119.06
477.252	102.06
477.471	103.06
477.69	96.06
477.908	100.06
478.127	115.06
478.346	102.06
478.564	105.06
478.783	139.06
479.002	121.06
479.22	111.06
479.439	163.06
479.658	171.06
479.876	141.06
480.095	138.06
480.313	173.06
480.532	225.06
480.751	416.06
480.969	1580.06
481.188	7002.06
481.406	3878.06
481.624	513.06
481.843	172.06
482.061	133.06
482.28	116.06
482.498	106.06
482.717	91.06
482.935	102.06
483.153	95.06
483.372	111.06
483.59	111.06
483.808	93.06
484.027	103.06
484.245	102.06
484.463	106.06
484.681	112.06
484.9	99.06
485.118	78.06
485.336	111.06
485.554	107.06
485.772	104.06
485.99	118.06
486.209	106.06
486.427	117.06
486.645	141.06
486.863	171.06
487.081	135.06
487.299	110.06
487.517	111.06
487.735	100.06
487.953	96.06
488.171	106.06
488.389	110.06
488.607	106.06
488.825	95.06
489.043	78.06
489.261	99.06
489.479	91.06
489.696	102.06
489.914	89.06
490.132	92.06
490.35	86.06
490.568	99.06
490.786	81.06
491.003	80.06
491.221	89.06
491.439	121.06
491.657	97.06
491.874	99.06
492.092	101.06
492.31	93.06
492.527	109.06
492.745	109.06
492.963	101.06
493.18	103.06
493.398	102.06
493.615	116.06
493.833	106.06
494.05	88.06
494.268	86.06
494.485	94.06
494.703	84.06
494.92	96.06
495.138	89.06
495.355	97.06
495.573	94.06
495.79	94.06
496.008	105.06
496.225	103.06
496.442	105.06
496.66	108.06
496.877	98.06
497.094	104.06
497.312	109.06
497.529	99.06
497.746	100.06
497.963	100.06
498.181	97.06
498.398	114.06
498.615	136.06
498.832	115.06
499.049	84.06
499.267	95.06
499.484	92.06
499.701	99.06
499.918	91.06
500.135	89.06
500.352	101.06
500.569	103.06
500.786	90.06
501.003	91.06
501.22	92.06
501.437	105.06
501.654	119.06
501.871	164.06
502.088	118.06
502.305	92.06
502.522	94.06
502.739	94.06
502.956	106.06
503.172	110.06
503.389	141.06
503.606	154.06
503.823	137.06
504.04	97.06
504.256	89.06
504.473	88.06
504.69	90.06
504.907	82.06
505.123	90.06
505.34	96.06
505.557	101.06
505.773	89.06
505.99	84.06
506.207	92.06
506.423	75.06
506.64	86.06
506.856	99.06
507.073	92.06
507.289	106.06
507.506	127.06
507.722	168.06
507.939	172.06
508.155	117.06
508.372	108.06
508.588	129.06
508.805	108.06
509.021	105.06
509.238	126.06
509.454	112.06
509.67	109.06
509.887	128.06
