Data from Circ_1999_H10_HRD10591_00074.txt Node
Date: Wed Jan 03 11:23:27 EST 2024
User: Yrep
Spectrometer: HR+D1059
Trigger mode: 1
Integration Time (sec): 1.000000E-1
Scans to average: 1
Electric dark correction enabled: true
Nonlinearity correction enabled: false
Boxcar width: 0
XAxis mode: Wavelengths
Number of Pixels in Spectrum: 2048
>>>>>Begin Spectral Data<<<<<
223.165	-7.88
223.4	-7.88
223.635	-7.88
223.869	-15.88
224.104	-18.88
224.338	-15.88
224.573	-11.88
224.808	-16.88
225.042	-13.88
225.277	-5.88
225.511	0.12
225.746	-2.88
225.98	11.12
226.215	8.12
226.449	17.12
226.683	21.12
226.918	30.12
227.152	22.12
227.387	43.12
227.621	49.12
227.856	42.12
228.09	43.12
228.324	49.12
228.559	62.12
228.793	63.12
229.027	61.12
229.262	76.12
229.496	78.12
229.73	115.12
229.964	105.12
230.199	80.12
230.433	67.12
230.667	88.12
230.901	96.12
231.136	81.12
231.37	91.12
231.604	77.12
231.838	81.12
232.072	92.12
232.306	84.12
232.541	99.12
232.775	85.12
233.009	72.12
233.243	93.12
233.477	85.12
233.711	89.12
233.945	96.12
234.179	94.12
234.413	84.12
234.647	95.12
234.881	82.12
235.115	91.12
235.349	69.12
235.583	71.12
235.817	81.12
236.051	92.12
236.285	87.12
236.519	85.12
236.753	93.12
236.987	97.12
237.221	90.12
237.455	86.12
237.689	86.12
237.922	91.12
238.156	83.12
238.39	88.12
238.624	82.12
238.858	77.12
239.091	78.12
239.325	84.12
239.559	79.12
239.793	88.12
240.027	94.12
240.26	81.12
240.494	76.12
240.728	81.12
240.961	81.12
241.195	76.12
241.429	83.12
241.662	82.12
241.896	72.12
242.13	82.12
242.363	92.12
242.597	82.12
242.83	78.12
243.064	67.12
243.298	96.12
243.531	82.12
243.765	72.12
243.998	76.12
244.232	100.12
244.465	94.12
244.699	84.12
244.932	78.12
245.166	77.12
245.399	82.12
245.633	87.12
245.866	79.12
246.099	79.12
246.333	95.12
246.566	86.12
246.8	97.12
247.033	92.12
247.266	90.12
247.5	85.12
247.733	86.12
247.966	86.12
248.2	84.12
248.433	79.12
248.666	81.12
248.899	82.12
249.133	92.12
249.366	131.12
249.599	131.12
249.832	93.12
250.066	99.12
250.299	84.12
250.532	97.12
250.765	86.12
250.998	95.12
251.231	93.12
251.465	107.12
251.698	80.12
251.931	91.12
252.164	92.12
252.397	94.12
252.63	100.12
252.863	84.12
253.096	77.12
253.329	91.12
253.562	80.12
253.795	84.12
254.028	87.12
254.261	81.12
254.494	98.12
254.727	71.12
254.96	82.12
255.193	84.12
255.426	92.12
255.659	87.12
255.892	110.12
256.124	104.12
256.357	91.12
256.59	86.12
256.823	89.12
257.056	106.12
257.289	105.12
257.521	92.12
257.754	83.12
257.987	108.12
258.22	114.12
258.452	107.12
258.685	112.12
258.918	105.12
259.151	91.12
259.383	90.12
259.616	88.12
259.849	95.12
260.081	97.12
260.314	87.12
260.547	103.12
260.779	92.12
261.012	130.12
261.244	132.12
261.477	107.12
261.71	131.12
261.942	178.12
262.175	178.12
262.407	115.12
262.64	90.12
262.872	104.12
263.105	98.12
263.337	101.12
263.57	98.12
263.802	86.12
264.035	95.12
264.267	89.12
264.499	86.12
264.732	80.12
264.964	91.12
265.197	87.12
265.429	87.12
265.661	93.12
265.894	81.12
266.126	86.12
266.358	87.12
266.591	96.12
266.823	80.12
267.055	100.12
267.287	84.12
267.52	96.12
267.752	98.12
267.984	91.12
268.216	82.12
268.448	98.12
268.681	82.12
268.913	87.12
269.145	104.12
269.377	89.12
269.609	80.12
269.841	94.12
270.073	77.12
270.306	91.12
270.538	94.12
270.77	90.12
271.002	97.12
271.234	99.12
271.466	92.12
271.698	102.12
271.93	94.12
272.162	99.12
272.394	100.12
272.626	103.12
272.858	85.12
273.09	90.12
273.322	83.12
273.553	86.12
273.785	89.12
274.017	95.12
274.249	88.12
274.481	87.12
274.713	92.12
274.945	97.12
275.176	107.12
275.408	130.12
275.64	126.12
275.872	134.12
276.104	111.12
276.335	118.12
276.567	148.12
276.799	172.12
277.031	234.12
277.262	271.12
277.494	194.12
277.726	123.12
277.957	92.12
278.189	112.12
278.421	102.12
278.652	93.12
278.884	96.12
279.115	106.12
279.347	104.12
279.579	111.12
279.81	154.12
280.042	268.12
280.273	366.12
280.505	250.12
280.736	119.12
280.968	115.12
281.199	115.12
281.431	97.12
281.662	88.12
281.894	104.12
282.125	117.12
282.356	168.12
282.588	220.12
282.819	170.12
283.051	91.12
283.282	102.12
283.513	91.12
283.745	92.12
283.976	86.12
284.207	81.12
284.439	90.12
284.67	92.12
284.901	91.12
285.132	88.12
285.364	88.12
285.595	92.12
285.826	102.12
286.057	81.12
286.288	90.12
286.52	89.12
286.751	105.12
286.982	84.12
287.213	84.12
287.444	88.12
287.675	99.12
287.906	94.12
288.138	92.12
288.369	98.12
288.6	95.12
288.831	99.12
289.062	97.12
289.293	101.12
289.524	99.12
289.755	89.12
289.986	94.12
290.217	89.12
290.448	90.12
290.679	84.12
290.91	98.12
291.141	96.12
291.371	89.12
291.602	90.12
291.833	88.12
292.064	90.12
292.295	93.12
292.526	103.12
292.757	90.12
292.987	112.12
293.218	91.12
293.449	90.12
293.68	82.12
293.91	99.12
294.141	90.12
294.372	84.12
294.603	82.12
294.833	96.12
295.064	82.12
295.295	108.12
295.525	95.12
295.756	116.12
295.987	158.12
296.217	203.12
296.448	182.12
296.679	100.12
296.909	98.12
297.14	91.12
297.37	115.12
297.601	88.12
297.831	98.12
298.062	107.12
298.292	96.12
298.523	96.12
298.753	92.12
298.984	87.12
299.214	92.12
299.445	105.12
299.675	110.12
299.905	114.12
300.136	112.12
300.366	109.12
300.597	96.12
300.827	98.12
301.057	126.12
301.288	139.12
301.518	117.12
301.748	117.12
301.979	126.12
302.209	106.12
302.439	106.12
302.669	92.12
302.9	108.12
303.13	90.12
303.36	131.12
303.59	164.12
303.82	183.12
304.051	129.12
304.281	98.12
304.511	97.12
304.741	90.12
304.971	96.12
305.201	107.12
305.431	98.12
305.661	90.12
305.891	106.12
306.121	106.12
306.352	120.12
306.582	144.12
306.812	117.12
307.042	151.12
307.272	220.12
307.502	249.12
307.731	246.12
307.961	153.12
308.191	107.12
308.421	105.12
308.651	113.12
308.881	100.12
309.111	114.12
309.341	124.12
309.571	108.12
309.8	126.12
310.03	119.12
310.26	98.12
310.49	122.12
310.72	117.12
310.949	131.12
311.179	131.12
311.409	104.12
311.639	120.12
311.868	113.12
312.098	110.12
312.328	106.12
312.557	126.12
312.787	142.12
313.017	127.12
313.246	102.12
313.476	108.12
313.706	99.12
313.935	122.12
314.165	142.12
314.394	136.12
314.624	118.12
314.853	127.12
315.083	112.12
315.312	99.12
315.542	89.12
315.771	104.12
316.001	102.12
316.23	96.12
316.46	89.12
316.689	97.12
316.919	111.12
317.148	111.12
317.377	113.12
317.607	104.12
317.836	103.12
318.065	98.12
318.295	102.12
318.524	105.12
318.753	93.12
318.983	114.12
319.212	115.12
319.441	145.12
319.67	142.12
319.9	111.12
320.129	106.12
320.358	94.12
320.587	108.12
320.816	117.12
321.046	131.12
321.275	118.12
321.504	116.12
321.733	118.12
321.962	121.12
322.191	112.12
322.42	121.12
322.649	122.12
322.878	142.12
323.108	150.12
323.337	174.12
323.566	172.12
323.795	239.12
324.024	304.12
324.253	623.12
324.482	1356.12
324.71	2846.12
324.939	3762.12
325.168	1384.12
325.397	411.12
325.626	209.12
325.855	160.12
326.084	160.12
326.313	162.12
326.542	204.12
326.77	344.12
326.999	674.12
327.228	1387.12
327.457	2610.12
327.686	2135.12
327.914	774.12
328.143	803.12
328.372	1038.12
328.6	552.12
328.829	266.12
329.058	254.12
329.287	275.12
329.515	242.12
329.744	337.12
329.972	724.12
330.201	1509.12
330.43	2291.12
330.658	1000.12
330.887	439.12
331.115	251.12
331.344	159.12
331.572	141.12
331.801	153.12
332.03	158.12
332.258	122.12
332.486	123.12
332.715	120.12
332.943	122.12
333.172	136.12
333.4	165.12
333.629	205.12
333.857	317.12
334.085	623.12
334.314	1383.12
334.542	2723.12
334.771	2589.12
334.999	626.12
335.227	239.12
335.455	160.12
335.684	131.12
335.912	125.12
336.14	126.12
336.369	114.12
336.597	144.12
336.825	125.12
337.053	101.12
337.281	91.12
337.51	99.12
337.738	107.12
337.966	94.12
338.194	111.12
338.422	118.12
338.65	116.12
338.878	106.12
339.106	92.12
339.334	103.12
339.562	104.12
339.79	103.12
340.018	106.12
340.246	89.12
340.474	125.12
340.702	100.12
340.93	89.12
341.158	112.12
341.386	123.12
341.614	115.12
341.842	118.12
342.07	95.12
342.298	100.12
342.526	97.12
342.754	96.12
342.981	92.12
343.209	100.12
343.437	115.12
343.665	104.12
343.893	110.12
344.12	107.12
344.348	90.12
344.576	91.12
344.804	101.12
345.031	110.12
345.259	132.12
345.487	114.12
345.714	119.12
345.942	106.12
346.17	92.12
346.397	88.12
346.625	100.12
346.853	101.12
347.08	100.12
347.308	119.12
347.535	131.12
347.763	122.12
347.99	118.12
348.218	123.12
348.445	152.12
348.673	139.12
348.9	106.12
349.128	113.12
349.355	105.12
349.583	101.12
349.81	100.12
350.037	96.12
350.265	104.12
350.492	118.12
350.72	100.12
350.947	117.12
351.174	138.12
351.402	127.12
351.629	132.12
351.856	118.12
352.083	129.12
352.311	127.12
352.538	137.12
352.765	150.12
352.992	150.12
353.22	143.12
353.447	129.12
353.674	113.12
353.901	83.12
354.128	81.12
354.355	98.12
354.583	110.12
354.81	100.12
355.037	110.12
355.264	87.12
355.491	95.12
355.718	95.12
355.945	83.12
356.172	95.12
356.399	106.12
356.626	100.12
356.853	96.12
357.08	89.12
357.307	99.12
357.534	96.12
357.761	100.12
357.988	89.12
358.215	100.12
358.441	98.12
358.668	100.12
358.895	111.12
359.122	88.12
359.349	102.12
359.576	106.12
359.802	121.12
360.029	179.12
360.256	183.12
360.483	131.12
360.709	89.12
360.936	107.12
361.163	110.12
361.39	114.12
361.616	119.12
361.843	112.12
362.07	119.12
362.296	110.12
362.523	106.12
362.749	117.12
362.976	101.12
363.203	101.12
363.429	98.12
363.656	87.12
363.882	104.12
364.109	114.12
364.335	90.12
364.562	109.12
364.788	96.12
365.015	123.12
365.241	124.12
365.468	131.12
365.694	145.12
365.92	119.12
366.147	111.12
366.373	97.12
366.599	101.12
366.826	110.12
367.052	110.12
367.278	115.12
367.505	115.12
367.731	110.12
367.957	102.12
368.184	89.12
368.41	114.12
368.636	132.12
368.862	154.12
369.089	145.12
369.315	115.12
369.541	120.12
369.767	104.12
369.993	103.12
370.219	117.12
370.445	81.12
370.672	94.12
370.898	77.12
371.124	94.12
371.35	92.12
371.576	80.12
371.802	77.12
372.028	83.12
372.254	90.12
372.48	86.12
372.706	89.12
372.932	89.12
373.158	94.12
373.384	102.12
373.61	96.12
373.835	93.12
374.061	90.12
374.287	98.12
374.513	108.12
374.739	88.12
374.965	100.12
375.191	91.12
375.416	93.12
375.642	86.12
375.868	96.12
376.094	88.12
376.319	84.12
376.545	84.12
376.771	87.12
376.997	86.12
377.222	109.12
377.448	88.12
377.674	102.12
377.899	105.12
378.125	91.12
378.35	105.12
378.576	96.12
378.802	90.12
379.027	83.12
379.253	89.12
379.478	91.12
379.704	88.12
379.929	101.12
380.155	106.12
380.38	106.12
380.606	106.12
380.831	98.12
381.057	105.12
381.282	99.12
381.507	96.12
381.733	77.12
381.958	94.12
382.184	100.12
382.409	111.12
382.634	113.12
382.86	102.12
383.085	92.12
383.31	104.12
383.535	106.12
383.761	99.12
383.986	105.12
384.211	98.12
384.436	94.12
384.662	104.12
384.887	110.12
385.112	102.12
385.337	114.12
385.562	101.12
385.787	104.12
386.013	108.12
386.238	127.12
386.463	106.12
386.688	108.12
386.913	92.12
387.138	104.12
387.363	98.12
387.588	108.12
387.813	112.12
388.038	96.12
388.263	103.12
388.488	94.12
388.713	91.12
388.938	100.12
389.163	109.12
389.387	94.12
389.612	101.12
389.837	100.12
390.062	97.12
390.287	93.12
390.512	94.12
390.736	93.12
390.961	87.12
391.186	91.12
391.411	96.12
391.636	88.12
391.86	88.12
392.085	84.12
392.31	91.12
392.534	92.12
392.759	96.12
392.984	102.12
393.208	87.12
393.433	91.12
393.658	94.12
393.882	99.12
394.107	82.12
394.331	86.12
394.556	88.12
394.78	104.12
395.005	97.12
395.229	88.12
395.454	80.12
395.678	86.12
395.903	87.12
396.127	99.12
396.352	92.12
396.576	89.12
396.801	82.12
397.025	83.12
397.249	99.12
397.474	99.12
397.698	99.12
397.922	91.12
398.147	82.12
398.371	88.12
398.595	79.12
398.82	90.12
399.044	81.12
399.268	84.12
399.492	82.12
399.717	94.12
399.941	94.12
400.165	104.12
400.389	96.12
400.613	104.12
400.837	92.12
401.062	99.12
401.286	99.12
401.51	88.12
401.734	112.12
401.958	131.12
402.182	207.12
402.406	268.12
402.63	203.12
402.854	129.12
403.078	101.12
403.302	98.12
403.526	100.12
403.75	90.12
403.974	73.12
404.198	107.12
404.422	97.12
404.645	110.12
404.869	112.12
405.093	159.12
405.317	158.12
405.541	166.12
405.765	148.12
405.988	178.12
406.212	294.12
406.436	480.12
406.66	291.12
406.883	160.12
407.107	131.12
407.331	133.12
407.555	120.12
407.778	110.12
408.002	95.12
408.226	95.12
408.449	111.12
408.673	95.12
408.896	102.12
409.12	112.12
409.344	100.12
409.567	89.12
409.791	98.12
410.014	99.12
410.238	111.12
410.461	106.12
410.685	97.12
410.908	108.12
411.132	111.12
411.355	102.12
411.578	95.12
411.802	95.12
412.025	97.12
412.249	112.12
412.472	129.12
412.695	150.12
412.919	121.12
413.142	96.12
413.365	112.12
413.589	102.12
413.812	83.12
414.035	104.12
414.258	106.12
414.482	99.12
414.705	101.12
414.928	92.12
415.151	89.12
415.374	93.12
415.597	96.12
415.821	99.12
416.044	110.12
416.267	114.12
416.49	102.12
416.713	108.12
416.936	96.12
417.159	106.12
417.382	114.12
417.605	112.12
417.828	131.12
418.051	113.12
418.274	83.12
418.497	86.12
418.72	78.12
418.943	98.12
419.166	108.12
419.389	93.12
419.611	96.12
419.834	104.12
420.057	112.12
420.28	100.12
420.503	105.12
420.726	98.12
420.948	108.12
421.171	114.12
421.394	111.12
421.617	78.12
421.839	90.12
422.062	102.12
422.285	111.12
422.507	105.12
422.73	107.12
422.953	103.12
423.175	98.12
423.398	106.12
423.621	108.12
423.843	98.12
424.066	81.12
424.288	89.12
424.511	101.12
424.733	112.12
424.956	140.12
425.178	132.12
425.401	109.12
425.623	124.12
425.846	108.12
426.068	123.12
426.291	103.12
426.513	91.12
426.735	97.12
426.958	111.12
427.18	148.12
427.402	220.12
427.625	356.12
427.847	310.12
428.069	255.12
428.292	164.12
428.514	119.12
428.736	91.12
428.958	87.12
429.181	103.12
429.403	94.12
429.625	94.12
429.847	107.12
430.069	118.12
430.292	111.12
430.514	90.12
430.736	94.12
430.958	89.12
431.18	83.12
431.402	95.12
431.624	89.12
431.846	91.12
432.068	83.12
432.29	92.12
432.512	101.12
432.734	95.12
432.956	103.12
433.178	119.12
433.4	108.12
433.622	99.12
433.844	92.12
434.066	112.12
434.287	107.12
434.509	103.12
434.731	95.12
434.953	92.12
435.175	96.12
435.397	95.12
435.618	103.12
435.84	114.12
436.062	152.12
436.284	150.12
436.505	107.12
436.727	109.12
436.949	100.12
437.17	93.12
437.392	98.12
437.614	110.12
437.835	143.12
438.057	178.12
438.278	149.12
438.5	125.12
438.721	170.12
438.943	116.12
439.165	110.12
439.386	95.12
439.608	106.12
439.829	119.12
440.05	169.12
440.272	226.12
440.493	122.12
440.715	98.12
440.936	89.12
441.158	108.12
441.379	103.12
441.6	111.12
441.822	109.12
442.043	106.12
442.264	130.12
442.486	111.12
442.707	112.12
442.928	155.12
443.149	235.12
443.371	215.12
443.592	159.12
443.813	143.12
444.034	145.12
444.255	107.12
444.476	87.12
444.698	97.12
444.919	113.12
445.14	157.12
445.361	155.12
445.582	169.12
445.803	219.12
446.024	219.12
446.245	209.12
446.466	136.12
446.687	97.12
446.908	78.12
447.129	98.12
447.35	101.12
447.571	118.12
447.792	100.12
448.013	110.12
448.234	157.12
448.455	134.12
448.675	130.12
448.896	147.12
449.117	106.12
449.338	129.12
449.559	156.12
449.779	162.12
450	118.12
450.221	99.12
450.442	101.12
450.662	112.12
450.883	174.12
451.104	182.12
451.324	116.12
451.545	102.12
451.766	92.12
451.986	106.12
452.207	99.12
452.428	98.12
452.648	121.12
452.869	167.12
453.089	168.12
453.31	176.12
453.53	115.12
453.751	111.12
453.971	153.12
454.192	160.12
454.412	112.12
454.633	96.12
454.853	87.12
455.073	94.12
455.294	104.12
455.514	112.12
455.734	102.12
455.955	86.12
456.175	86.12
456.395	83.12
456.616	88.12
456.836	85.12
457.056	92.12
457.276	93.12
457.497	88.12
457.717	91.12
457.937	80.12
458.157	89.12
458.377	123.12
458.598	148.12
458.818	290.12
459.038	326.12
459.258	183.12
459.478	108.12
459.698	97.12
459.918	105.12
460.138	92.12
460.358	99.12
460.578	89.12
460.798	100.12
461.018	111.12
461.238	78.12
461.458	78.12
461.678	90.12
461.898	87.12
462.118	96.12
462.338	95.12
462.558	103.12
462.777	105.12
462.997	110.12
463.217	112.12
463.437	109.12
463.657	92.12
463.876	92.12
464.096	110.12
464.316	122.12
464.536	118.12
464.755	135.12
464.975	153.12
465.195	344.12
465.414	342.12
465.634	121.12
465.854	83.12
466.073	113.12
466.293	101.12
466.512	104.12
466.732	97.12
466.951	105.12
467.171	120.12
467.391	131.12
467.61	195.12
467.829	305.12
468.049	911.12
468.268	1396.12
468.488	317.12
468.707	128.12
468.927	105.12
469.146	100.12
469.365	100.12
469.585	117.12
469.804	136.12
470.023	141.12
470.243	128.12
470.462	148.12
470.681	176.12
470.901	121.12
471.12	117.12
471.339	124.12
471.558	153.12
471.777	194.12
471.997	428.12
472.216	1729.12
472.435	4070.12
472.654	867.12
472.873	211.12
473.092	122.12
473.311	103.12
473.53	105.12
473.749	117.12
473.968	122.12
474.187	154.12
474.406	124.12
474.625	112.12
474.844	103.12
475.063	90.12
475.282	86.12
475.501	96.12
475.72	99.12
475.939	103.12
476.158	99.12
476.377	98.12
476.596	85.12
476.814	124.12
477.033	113.12
477.252	104.12
477.471	91.12
477.69	98.12
477.908	89.12
478.127	98.12
478.346	101.12
478.564	99.12
478.783	138.12
479.002	124.12
479.22	131.12
479.439	142.12
479.658	162.12
479.876	144.12
480.095	132.12
480.313	170.12
480.532	214.12
480.751	385.12
480.969	1542.12
481.188	6852.12
481.406	3849.12
481.624	522.12
481.843	170.12
482.061	140.12
482.28	111.12
482.498	104.12
482.717	119.12
482.935	88.12
483.153	101.12
483.372	96.12
483.59	91.12
483.808	90.12
484.027	99.12
484.245	90.12
484.463	97.12
484.681	107.12
484.9	115.12
485.118	95.12
485.336	103.12
485.554	111.12
485.772	117.12
485.99	123.12
486.209	116.12
486.427	130.12
486.645	145.12
486.863	164.12
487.081	118.12
487.299	106.12
487.517	119.12
487.735	99.12
487.953	110.12
488.171	104.12
488.389	109.12
488.607	115.12
488.825	109.12
489.043	100.12
489.261	103.12
489.479	102.12
489.696	97.12
489.914	95.12
490.132	99.12
490.35	96.12
490.568	96.12
490.786	98.12
491.003	90.12
491.221	94.12
491.439	106.12
491.657	98.12
491.874	102.12
492.092	108.12
492.31	107.12
492.527	105.12
492.745	104.12
492.963	107.12
493.18	99.12
493.398	85.12
493.615	95.12
493.833	88.12
494.05	96.12
494.268	93.12
494.485	88.12
494.703	102.12
494.92	91.12
495.138	97.12
495.355	95.12
495.573	97.12
495.79	92.12
496.008	104.12
496.225	91.12
496.442	96.12
496.66	96.12
496.877	83.12
497.094	104.12
497.312	98.12
497.529	96.12
497.746	97.12
497.963	90.12
498.181	98.12
498.398	127.12
498.615	145.12
498.832	118.12
499.049	117.12
499.267	92.12
499.484	95.12
499.701	94.12
499.918	82.12
500.135	83.12
500.352	98.12
500.569	106.12
500.786	94.12
501.003	95.12
501.22	101.12
501.437	102.12
501.654	111.12
501.871	165.12
502.088	115.12
502.305	101.12
502.522	94.12
502.739	99.12
502.956	107.12
503.172	96.12
503.389	138.12
503.606	159.12
503.823	118.12
504.04	104.12
504.256	99.12
504.473	106.12
504.69	91.12
504.907	94.12
505.123	89.12
505.34	104.12
505.557	102.12
505.773	101.12
505.99	107.12
506.207	101.12
506.423	111.12
506.64	107.12
506.856	109.12
507.073	100.12
507.289	103.12
507.506	120.12
507.722	158.12
507.939	177.12
508.155	119.12
508.372	96.12
508.588	99.12
508.805	111.12
509.021	119.12
509.238	131.12
509.454	100.12
509.67	99.12
509.887	118.12
