Data from Circ_1999_H10_HRD10591_00063.txt Node
Date: Wed Jan 03 11:23:25 EST 2024
User: Yrep
Spectrometer: HR+D1059
Trigger mode: 1
Integration Time (sec): 1.000000E-1
Scans to average: 1
Electric dark correction enabled: true
Nonlinearity correction enabled: false
Boxcar width: 0
XAxis mode: Wavelengths
Number of Pixels in Spectrum: 2048
>>>>>Begin Spectral Data<<<<<
223.165	-6.94
223.4	-6.94
223.635	-6.94
223.869	-22.94
224.104	-17.94
224.338	-12.94
224.573	-6.94
224.808	-9.94
225.042	-8.94
225.277	-4.94
225.511	-10.94
225.746	6.06
225.98	13.06
226.215	-0.94
226.449	25.06
226.683	25.06
226.918	17.06
227.152	17.06
227.387	39.06
227.621	36.06
227.856	52.06
228.09	54.06
228.324	67.06
228.559	56.06
228.793	61.06
229.027	58.06
229.262	74.06
229.496	82.06
229.73	108.06
229.964	103.06
230.199	94.06
230.433	70.06
230.667	77.06
230.901	87.06
231.136	74.06
231.37	74.06
231.604	78.06
231.838	74.06
232.072	98.06
232.306	79.06
232.541	78.06
232.775	86.06
233.009	88.06
233.243	83.06
233.477	77.06
233.711	77.06
233.945	77.06
234.179	67.06
234.413	71.06
234.647	76.06
234.881	77.06
235.115	94.06
235.349	87.06
235.583	52.06
235.817	82.06
236.051	75.06
236.285	78.06
236.519	79.06
236.753	86.06
236.987	88.06
237.221	102.06
237.455	90.06
237.689	86.06
237.922	79.06
238.156	90.06
238.39	77.06
238.624	81.06
238.858	80.06
239.091	83.06
239.325	76.06
239.559	76.06
239.793	93.06
240.027	102.06
240.26	76.06
240.494	88.06
240.728	76.06
240.961	86.06
241.195	92.06
241.429	82.06
241.662	79.06
241.896	74.06
242.13	76.06
242.363	78.06
242.597	77.06
242.83	82.06
243.064	82.06
243.298	100.06
243.531	77.06
243.765	83.06
243.998	81.06
244.232	83.06
244.465	101.06
244.699	96.06
244.932	88.06
245.166	89.06
245.399	91.06
245.633	67.06
245.866	89.06
246.099	75.06
246.333	87.06
246.566	87.06
246.8	76.06
247.033	77.06
247.266	94.06
247.5	64.06
247.733	72.06
247.966	92.06
248.2	96.06
248.433	90.06
248.666	80.06
248.899	94.06
249.133	103.06
249.366	110.06
249.599	107.06
249.832	74.06
250.066	88.06
250.299	86.06
250.532	92.06
250.765	82.06
250.998	92.06
251.231	70.06
251.465	87.06
251.698	76.06
251.931	87.06
252.164	86.06
252.397	92.06
252.63	94.06
252.863	82.06
253.096	85.06
253.329	82.06
253.562	79.06
253.795	80.06
254.028	79.06
254.261	87.06
254.494	86.06
254.727	88.06
254.96	82.06
255.193	68.06
255.426	78.06
255.659	85.06
255.892	95.06
256.124	95.06
256.357	79.06
256.59	89.06
256.823	82.06
257.056	90.06
257.289	91.06
257.521	98.06
257.754	94.06
257.987	87.06
258.22	92.06
258.452	95.06
258.685	95.06
258.918	84.06
259.151	89.06
259.383	92.06
259.616	99.06
259.849	96.06
260.081	81.06
260.314	90.06
260.547	103.06
260.779	99.06
261.012	126.06
261.244	119.06
261.477	90.06
261.71	111.06
261.942	162.06
262.175	174.06
262.407	119.06
262.64	75.06
262.872	96.06
263.105	108.06
263.337	96.06
263.57	88.06
263.802	94.06
264.035	81.06
264.267	74.06
264.499	85.06
264.732	96.06
264.964	88.06
265.197	85.06
265.429	77.06
265.661	86.06
265.894	101.06
266.126	89.06
266.358	90.06
266.591	76.06
266.823	72.06
267.055	86.06
267.287	100.06
267.52	94.06
267.752	84.06
267.984	85.06
268.216	92.06
268.448	93.06
268.681	99.06
268.913	83.06
269.145	99.06
269.377	96.06
269.609	94.06
269.841	92.06
270.073	89.06
270.306	88.06
270.538	101.06
270.77	93.06
271.002	103.06
271.234	89.06
271.466	101.06
271.698	100.06
271.93	104.06
272.162	103.06
272.394	90.06
272.626	90.06
272.858	91.06
273.09	96.06
273.322	74.06
273.553	88.06
273.785	78.06
274.017	91.06
274.249	92.06
274.481	87.06
274.713	92.06
274.945	90.06
275.176	95.06
275.408	106.06
275.64	135.06
275.872	139.06
276.104	123.06
276.335	103.06
276.567	152.06
276.799	198.06
277.031	207.06
277.262	240.06
277.494	174.06
277.726	112.06
277.957	96.06
278.189	95.06
278.421	94.06
278.652	96.06
278.884	85.06
279.115	92.06
279.347	96.06
279.579	111.06
279.81	106.06
280.042	241.06
280.273	304.06
280.505	216.06
280.736	114.06
280.968	103.06
281.199	87.06
281.431	108.06
281.662	95.06
281.894	94.06
282.125	118.06
282.356	159.06
282.588	198.06
282.819	146.06
283.051	98.06
283.282	87.06
283.513	99.06
283.745	86.06
283.976	85.06
284.207	82.06
284.439	91.06
284.67	94.06
284.901	86.06
285.132	98.06
285.364	93.06
285.595	91.06
285.826	90.06
286.057	98.06
286.288	89.06
286.52	91.06
286.751	88.06
286.982	97.06
287.213	96.06
287.444	96.06
287.675	111.06
287.906	95.06
288.138	104.06
288.369	103.06
288.6	99.06
288.831	84.06
289.062	98.06
289.293	89.06
289.524	94.06
289.755	95.06
289.986	85.06
290.217	99.06
290.448	82.06
290.679	88.06
290.91	90.06
291.141	96.06
291.371	93.06
291.602	95.06
291.833	83.06
292.064	83.06
292.295	85.06
292.526	98.06
292.757	93.06
292.987	100.06
293.218	111.06
293.449	93.06
293.68	81.06
293.91	85.06
294.141	89.06
294.372	96.06
294.603	80.06
294.833	90.06
295.064	91.06
295.295	99.06
295.525	106.06
295.756	117.06
295.987	141.06
296.217	202.06
296.448	174.06
296.679	93.06
296.909	104.06
297.14	87.06
297.37	92.06
297.601	92.06
297.831	108.06
298.062	90.06
298.292	104.06
298.523	96.06
298.753	97.06
298.984	95.06
299.214	90.06
299.445	104.06
299.675	106.06
299.905	120.06
300.136	105.06
300.366	94.06
300.597	108.06
300.827	101.06
301.057	124.06
301.288	128.06
301.518	109.06
301.748	106.06
301.979	120.06
302.209	112.06
302.439	98.06
302.669	93.06
302.9	86.06
303.13	104.06
303.36	126.06
303.59	162.06
303.82	164.06
304.051	120.06
304.281	108.06
304.511	101.06
304.741	98.06
304.971	91.06
305.201	74.06
305.431	80.06
305.661	93.06
305.891	100.06
306.121	99.06
306.352	113.06
306.582	130.06
306.812	121.06
307.042	152.06
307.272	198.06
307.502	207.06
307.731	201.06
307.961	151.06
308.191	94.06
308.421	83.06
308.651	98.06
308.881	99.06
309.111	106.06
309.341	110.06
309.571	102.06
309.8	118.06
310.03	127.06
310.26	121.06
310.49	102.06
310.72	122.06
310.949	147.06
311.179	128.06
311.409	102.06
311.639	93.06
311.868	104.06
312.098	90.06
312.328	103.06
312.557	116.06
312.787	139.06
313.017	126.06
313.246	110.06
313.476	111.06
313.706	107.06
313.935	121.06
314.165	114.06
314.394	128.06
314.624	115.06
314.853	123.06
315.083	110.06
315.312	91.06
315.542	109.06
315.771	121.06
316.001	93.06
316.23	83.06
316.46	98.06
316.689	94.06
316.919	97.06
317.148	110.06
317.377	112.06
317.607	97.06
317.836	99.06
318.065	107.06
318.295	90.06
318.524	90.06
318.753	110.06
318.983	110.06
319.212	125.06
319.441	136.06
319.67	140.06
319.9	114.06
320.129	102.06
320.358	97.06
320.587	126.06
320.816	110.06
321.046	126.06
321.275	106.06
321.504	98.06
321.733	96.06
321.962	101.06
322.191	126.06
322.42	124.06
322.649	128.06
322.878	138.06
323.108	141.06
323.337	157.06
323.566	175.06
323.795	194.06
324.024	270.06
324.253	521.06
324.482	1086.06
324.71	2160.06
324.939	2836.06
325.168	1050.06
325.397	335.06
325.626	191.06
325.855	135.06
326.084	151.06
326.313	178.06
326.542	170.06
326.77	282.06
326.999	541.06
327.228	1082.06
327.457	1954.06
327.686	1635.06
327.914	653.06
328.143	694.06
328.372	854.06
328.6	471.06
328.829	228.06
329.058	242.06
329.287	248.06
329.515	223.06
329.744	326.06
329.972	609.06
330.201	1308.06
330.43	1860.06
330.658	841.06
330.887	367.06
331.115	234.06
331.344	152.06
331.572	130.06
331.801	156.06
332.03	150.06
332.258	124.06
332.486	127.06
332.715	123.06
332.943	121.06
333.172	151.06
333.4	168.06
333.629	185.06
333.857	286.06
334.085	538.06
334.314	1131.06
334.542	2234.06
334.771	2068.06
334.999	550.06
335.227	210.06
335.455	140.06
335.684	141.06
335.912	112.06
336.14	126.06
336.369	133.06
336.597	124.06
336.825	112.06
337.053	115.06
337.281	106.06
337.51	91.06
337.738	97.06
337.966	111.06
338.194	118.06
338.422	115.06
338.65	106.06
338.878	94.06
339.106	92.06
339.334	98.06
339.562	88.06
339.79	99.06
340.018	98.06
340.246	113.06
340.474	96.06
340.702	95.06
340.93	95.06
341.158	88.06
341.386	110.06
341.614	124.06
341.842	106.06
342.07	99.06
342.298	119.06
342.526	102.06
342.754	101.06
342.981	105.06
343.209	99.06
343.437	99.06
343.665	96.06
343.893	96.06
344.12	78.06
344.348	99.06
344.576	86.06
344.804	94.06
345.031	117.06
345.259	124.06
345.487	88.06
345.714	82.06
345.942	104.06
346.17	104.06
346.397	94.06
346.625	108.06
346.853	98.06
347.08	94.06
347.308	116.06
347.535	114.06
347.763	136.06
347.99	120.06
348.218	106.06
348.445	145.06
348.673	136.06
348.9	111.06
349.128	86.06
349.355	96.06
349.583	93.06
349.81	90.06
350.037	98.06
350.265	113.06
350.492	115.06
350.72	104.06
350.947	120.06
351.174	134.06
351.402	136.06
351.629	115.06
351.856	112.06
352.083	121.06
352.311	129.06
352.538	136.06
352.765	160.06
352.992	134.06
353.22	154.06
353.447	120.06
353.674	116.06
353.901	100.06
354.128	97.06
354.355	85.06
354.583	105.06
354.81	102.06
355.037	101.06
355.264	88.06
355.491	103.06
355.718	94.06
355.945	83.06
356.172	99.06
356.399	97.06
356.626	96.06
356.853	104.06
357.08	106.06
357.307	106.06
357.534	96.06
357.761	94.06
357.988	103.06
358.215	106.06
358.441	100.06
358.668	99.06
358.895	91.06
359.122	99.06
359.349	86.06
359.576	114.06
359.802	117.06
360.029	182.06
360.256	162.06
360.483	121.06
360.709	112.06
360.936	102.06
361.163	108.06
361.39	95.06
361.616	118.06
361.843	115.06
362.07	108.06
362.296	126.06
362.523	90.06
362.749	111.06
362.976	117.06
363.203	122.06
363.429	98.06
363.656	97.06
363.882	111.06
364.109	81.06
364.335	112.06
364.562	116.06
364.788	104.06
365.015	99.06
365.241	124.06
365.468	134.06
365.694	143.06
365.92	120.06
366.147	105.06
366.373	104.06
366.599	102.06
366.826	112.06
367.052	100.06
367.278	103.06
367.505	90.06
367.731	108.06
367.957	100.06
368.184	99.06
368.41	126.06
368.636	155.06
368.862	163.06
369.089	149.06
369.315	121.06
369.541	107.06
369.767	103.06
369.993	114.06
370.219	96.06
370.445	98.06
370.672	99.06
370.898	97.06
371.124	94.06
371.35	78.06
371.576	90.06
371.802	89.06
372.028	98.06
372.254	99.06
372.48	79.06
372.706	78.06
372.932	91.06
373.158	113.06
373.384	93.06
373.61	92.06
373.835	99.06
374.061	104.06
374.287	99.06
374.513	102.06
374.739	97.06
374.965	97.06
375.191	92.06
375.416	88.06
375.642	96.06
375.868	94.06
376.094	96.06
376.319	88.06
376.545	86.06
376.771	91.06
376.997	115.06
377.222	97.06
377.448	81.06
377.674	93.06
377.899	89.06
378.125	93.06
378.35	86.06
378.576	89.06
378.802	92.06
379.027	89.06
379.253	97.06
379.478	93.06
379.704	97.06
379.929	89.06
380.155	101.06
380.38	103.06
380.606	92.06
380.831	107.06
381.057	100.06
381.282	97.06
381.507	94.06
381.733	96.06
381.958	103.06
382.184	95.06
382.409	98.06
382.634	95.06
382.86	92.06
383.085	114.06
383.31	105.06
383.535	99.06
383.761	105.06
383.986	92.06
384.211	92.06
384.436	98.06
384.662	97.06
384.887	105.06
385.112	108.06
385.337	111.06
385.562	84.06
385.787	103.06
386.013	120.06
386.238	129.06
386.463	117.06
386.688	120.06
386.913	99.06
387.138	101.06
387.363	95.06
387.588	95.06
387.813	107.06
388.038	108.06
388.263	107.06
388.488	115.06
388.713	100.06
388.938	100.06
389.163	105.06
389.387	106.06
389.612	93.06
389.837	89.06
390.062	98.06
390.287	99.06
390.512	95.06
390.736	92.06
390.961	88.06
391.186	95.06
391.411	93.06
391.636	90.06
391.86	99.06
392.085	90.06
392.31	80.06
392.534	88.06
392.759	94.06
392.984	83.06
393.208	94.06
393.433	93.06
393.658	79.06
393.882	97.06
394.107	91.06
394.331	81.06
394.556	97.06
394.78	103.06
395.005	83.06
395.229	102.06
395.454	90.06
395.678	89.06
395.903	93.06
396.127	92.06
396.352	78.06
396.576	87.06
396.801	96.06
397.025	90.06
397.249	81.06
397.474	108.06
397.698	102.06
397.922	99.06
398.147	95.06
398.371	81.06
398.595	90.06
398.82	87.06
399.044	73.06
399.268	90.06
399.492	80.06
399.717	92.06
399.941	81.06
400.165	89.06
400.389	90.06
400.613	97.06
400.837	98.06
401.062	95.06
401.286	87.06
401.51	109.06
401.734	94.06
401.958	124.06
402.182	187.06
402.406	278.06
402.63	193.06
402.854	91.06
403.078	97.06
403.302	104.06
403.526	96.06
403.75	93.06
403.974	85.06
404.198	90.06
404.422	96.06
404.645	87.06
404.869	106.06
405.093	104.06
405.317	141.06
405.541	150.06
405.765	123.06
405.988	161.06
406.212	309.06
406.436	477.06
406.66	266.06
406.883	128.06
407.107	109.06
407.331	93.06
407.555	108.06
407.778	114.06
408.002	105.06
408.226	106.06
408.449	100.06
408.673	86.06
408.896	106.06
409.12	93.06
409.344	88.06
409.567	80.06
409.791	84.06
410.014	97.06
410.238	89.06
410.461	85.06
410.685	84.06
410.908	102.06
411.132	127.06
411.355	102.06
411.578	100.06
411.802	93.06
412.025	108.06
412.249	118.06
412.472	106.06
412.695	131.06
412.919	115.06
413.142	106.06
413.365	93.06
413.589	90.06
413.812	92.06
414.035	87.06
414.258	96.06
414.482	98.06
414.705	92.06
414.928	91.06
415.151	87.06
415.374	94.06
415.597	96.06
415.821	106.06
416.044	102.06
416.267	101.06
416.49	107.06
416.713	93.06
416.936	82.06
417.159	98.06
417.382	105.06
417.605	118.06
417.828	123.06
418.051	105.06
418.274	85.06
418.497	85.06
418.72	82.06
418.943	90.06
419.166	96.06
419.389	93.06
419.611	92.06
419.834	88.06
420.057	90.06
420.28	89.06
420.503	87.06
420.726	100.06
420.948	95.06
421.171	104.06
421.394	116.06
421.617	90.06
421.839	83.06
422.062	86.06
422.285	90.06
422.507	105.06
422.73	114.06
422.953	90.06
423.175	94.06
423.398	92.06
423.621	95.06
423.843	80.06
424.066	87.06
424.288	104.06
424.511	100.06
424.733	114.06
424.956	125.06
425.178	129.06
425.401	118.06
425.623	105.06
425.846	99.06
426.068	99.06
426.291	95.06
426.513	105.06
426.735	105.06
426.958	102.06
427.18	130.06
427.402	205.06
427.625	315.06
427.847	252.06
428.069	209.06
428.292	137.06
428.514	115.06
428.736	95.06
428.958	94.06
429.181	88.06
429.403	95.06
429.625	96.06
429.847	114.06
430.069	115.06
430.292	104.06
430.514	104.06
430.736	96.06
430.958	81.06
431.18	90.06
431.402	96.06
431.624	86.06
431.846	92.06
432.068	97.06
432.29	82.06
432.512	89.06
432.734	102.06
432.956	93.06
433.178	104.06
433.4	106.06
433.622	101.06
433.844	109.06
434.066	91.06
434.287	98.06
434.509	87.06
434.731	113.06
434.953	99.06
435.175	82.06
435.397	82.06
435.618	104.06
435.84	106.06
436.062	137.06
436.284	118.06
436.505	100.06
436.727	107.06
436.949	100.06
437.17	108.06
437.392	90.06
437.614	122.06
437.835	145.06
438.057	176.06
438.278	136.06
438.5	117.06
438.721	140.06
438.943	111.06
439.165	84.06
439.386	92.06
439.608	107.06
439.829	113.06
440.05	161.06
440.272	179.06
440.493	112.06
440.715	104.06
440.936	97.06
441.158	91.06
441.379	92.06
441.6	127.06
441.822	113.06
442.043	119.06
442.264	124.06
442.486	117.06
442.707	98.06
442.928	137.06
443.149	198.06
443.371	187.06
443.592	146.06
443.813	137.06
444.034	107.06
444.255	94.06
444.476	100.06
444.698	110.06
444.919	94.06
445.14	152.06
445.361	141.06
445.582	144.06
445.803	188.06
446.024	180.06
446.245	167.06
446.466	124.06
446.687	107.06
446.908	105.06
447.129	103.06
447.35	104.06
447.571	100.06
447.792	106.06
448.013	117.06
448.234	134.06
448.455	130.06
448.675	143.06
448.896	154.06
449.117	121.06
449.338	116.06
449.559	145.06
449.779	130.06
450	100.06
450.221	105.06
450.442	92.06
450.662	122.06
450.883	156.06
451.104	156.06
451.324	123.06
451.545	94.06
451.766	80.06
451.986	104.06
452.207	98.06
452.428	99.06
452.648	121.06
452.869	155.06
453.089	159.06
453.31	182.06
453.53	121.06
453.751	118.06
453.971	125.06
454.192	174.06
454.412	122.06
454.633	89.06
454.853	89.06
455.073	85.06
455.294	96.06
455.514	118.06
455.734	95.06
455.955	98.06
456.175	92.06
456.395	89.06
456.616	98.06
456.836	93.06
457.056	103.06
457.276	74.06
457.497	95.06
457.717	88.06
457.937	99.06
458.157	83.06
458.377	118.06
458.598	146.06
458.818	271.06
459.038	282.06
459.258	161.06
459.478	96.06
459.698	97.06
459.918	95.06
460.138	92.06
460.358	90.06
460.578	106.06
460.798	111.06
461.018	94.06
461.238	88.06
461.458	84.06
461.678	87.06
461.898	103.06
462.118	97.06
462.338	87.06
462.558	89.06
462.777	97.06
462.997	107.06
463.217	129.06
463.437	96.06
463.657	88.06
463.876	88.06
464.096	106.06
464.316	120.06
464.536	114.06
464.755	103.06
464.975	151.06
465.195	317.06
465.414	336.06
465.634	137.06
465.854	111.06
466.073	98.06
466.293	84.06
466.512	85.06
466.732	91.06
466.951	108.06
467.171	108.06
467.391	133.06
467.61	176.06
467.829	272.06
468.049	781.06
468.268	1217.06
468.488	281.06
468.707	122.06
468.927	101.06
469.146	106.06
469.365	96.06
469.585	105.06
469.804	126.06
470.023	137.06
470.243	108.06
470.462	143.06
470.681	174.06
470.901	125.06
471.12	96.06
471.339	99.06
471.558	131.06
471.777	178.06
471.997	360.06
472.216	1500.06
472.435	3526.06
472.654	782.06
472.873	179.06
473.092	116.06
473.311	103.06
473.53	94.06
473.749	99.06
473.968	122.06
474.187	140.06
474.406	117.06
474.625	100.06
474.844	98.06
475.063	91.06
475.282	84.06
475.501	81.06
475.72	96.06
475.939	88.06
476.158	107.06
476.377	101.06
476.596	90.06
476.814	109.06
477.033	113.06
477.252	96.06
477.471	105.06
477.69	84.06
477.908	96.06
478.127	95.06
478.346	104.06
478.564	105.06
478.783	114.06
479.002	108.06
479.22	127.06
479.439	148.06
479.658	174.06
479.876	148.06
480.095	127.06
480.313	171.06
480.532	205.06
480.751	363.06
480.969	1344.06
481.188	5944.06
481.406	3292.06
481.624	457.06
481.843	158.06
482.061	128.06
482.28	121.06
482.498	103.06
482.717	100.06
482.935	98.06
483.153	105.06
483.372	107.06
483.59	110.06
483.808	105.06
484.027	104.06
484.245	118.06
484.463	101.06
484.681	100.06
484.9	95.06
485.118	98.06
485.336	106.06
485.554	107.06
485.772	95.06
485.99	107.06
486.209	127.06
486.427	113.06
486.645	137.06
486.863	151.06
487.081	125.06
487.299	118.06
487.517	99.06
487.735	95.06
487.953	86.06
488.171	91.06
488.389	113.06
488.607	104.06
488.825	97.06
489.043	97.06
489.261	97.06
489.479	81.06
489.696	88.06
489.914	94.06
490.132	87.06
490.35	97.06
490.568	93.06
490.786	85.06
491.003	96.06
491.221	111.06
491.439	110.06
491.657	91.06
491.874	94.06
492.092	101.06
492.31	102.06
492.527	100.06
492.745	103.06
492.963	116.06
493.18	98.06
493.398	99.06
493.615	103.06
493.833	114.06
494.05	84.06
494.268	77.06
494.485	85.06
494.703	91.06
494.92	90.06
495.138	87.06
495.355	97.06
495.573	88.06
495.79	99.06
496.008	104.06
496.225	98.06
496.442	91.06
496.66	93.06
496.877	95.06
497.094	94.06
497.312	84.06
497.529	96.06
497.746	92.06
497.963	86.06
498.181	96.06
498.398	116.06
498.615	108.06
498.832	110.06
499.049	96.06
499.267	97.06
499.484	98.06
499.701	95.06
499.918	88.06
500.135	94.06
500.352	104.06
500.569	104.06
500.786	90.06
501.003	92.06
501.22	92.06
501.437	86.06
501.654	113.06
501.871	151.06
502.088	116.06
502.305	104.06
502.522	90.06
502.739	95.06
502.956	93.06
503.172	96.06
503.389	102.06
503.606	142.06
503.823	118.06
504.04	98.06
504.256	103.06
504.473	95.06
504.69	105.06
504.907	89.06
505.123	99.06
505.34	92.06
505.557	106.06
505.773	101.06
505.99	91.06
506.207	111.06
506.423	88.06
506.64	95.06
506.856	108.06
507.073	95.06
507.289	112.06
507.506	107.06
507.722	151.06
507.939	158.06
508.155	125.06
508.372	107.06
508.588	99.06
508.805	97.06
509.021	114.06
509.238	118.06
509.454	127.06
509.67	121.06
509.887	141.06
510.103	183.06
510.319	346.06
510.536	1406.06
510.752	5162.06
510.968	1283.06
511.184	222.06
