Data from Circ_1999_H10_HRD10591_00084.txt Node
Date: Wed Jan 03 11:23:29 EST 2024
User: Yrep
Spectrometer: HR+D1059
Trigger mode: 1
Integration Time (sec): 1.000000E-1
Scans to average: 1
Electric dark correction enabled: true
Nonlinearity correction enabled: false
Boxcar width: 0
XAxis mode: Wavelengths
Number of Pixels in Spectrum: 2048
>>>>>Begin Spectral Data<<<<<
223.165	-15.44
223.4	-15.44
223.635	-15.44
223.869	-22.44
224.104	-17.44
224.338	-16.44
224.573	-23.44
224.808	-14.44
225.042	-7.44
225.277	-2.44
225.511	6.56
225.746	-6.44
225.98	0.56
226.215	15.56
226.449	15.56
226.683	26.56
226.918	28.56
227.152	32.56
227.387	52.56
227.621	35.56
227.856	33.56
228.09	47.56
228.324	52.56
228.559	48.56
228.793	56.56
229.027	75.56
229.262	79.56
229.496	78.56
229.73	109.56
229.964	113.56
230.199	71.56
230.433	86.56
230.667	85.56
230.901	68.56
231.136	79.56
231.37	98.56
231.604	81.56
231.838	79.56
232.072	77.56
232.306	55.56
232.541	69.56
232.775	79.56
233.009	73.56
233.243	80.56
233.477	83.56
233.711	78.56
233.945	63.56
234.179	84.56
234.413	84.56
234.647	73.56
234.881	80.56
235.115	87.56
235.349	74.56
235.583	86.56
235.817	81.56
236.051	91.56
236.285	84.56
236.519	69.56
236.753	87.56
236.987	89.56
237.221	90.56
237.455	92.56
237.689	86.56
237.922	57.56
238.156	72.56
238.39	63.56
238.624	76.56
238.858	85.56
239.091	76.56
239.325	73.56
239.559	88.56
239.793	75.56
240.027	97.56
240.26	94.56
240.494	86.56
240.728	72.56
240.961	75.56
241.195	77.56
241.429	88.56
241.662	67.56
241.896	71.56
242.13	88.56
242.363	69.56
242.597	67.56
242.83	81.56
243.064	63.56
243.298	77.56
243.531	85.56
243.765	82.56
243.998	86.56
244.232	88.56
244.465	107.56
244.699	91.56
244.932	82.56
245.166	84.56
245.399	85.56
245.633	91.56
245.866	78.56
246.099	75.56
246.333	77.56
246.566	90.56
246.8	67.56
247.033	81.56
247.266	87.56
247.5	99.56
247.733	87.56
247.966	90.56
248.2	87.56
248.433	90.56
248.666	80.56
248.899	72.56
249.133	103.56
249.366	107.56
249.599	118.56
249.832	89.56
250.066	75.56
250.299	87.56
250.532	81.56
250.765	83.56
250.998	85.56
251.231	84.56
251.465	99.56
251.698	88.56
251.931	92.56
252.164	95.56
252.397	79.56
252.63	70.56
252.863	76.56
253.096	78.56
253.329	93.56
253.562	96.56
253.795	80.56
254.028	74.56
254.261	79.56
254.494	83.56
254.727	75.56
254.96	60.56
255.193	72.56
255.426	104.56
255.659	102.56
255.892	97.56
256.124	107.56
256.357	84.56
256.59	97.56
256.823	87.56
257.056	84.56
257.289	99.56
257.521	86.56
257.754	86.56
257.987	95.56
258.22	96.56
258.452	108.56
258.685	104.56
258.918	93.56
259.151	77.56
259.383	89.56
259.616	67.56
259.849	84.56
260.081	100.56
260.314	87.56
260.547	80.56
260.779	97.56
261.012	116.56
261.244	106.56
261.477	100.56
261.71	124.56
261.942	161.56
262.175	168.56
262.407	103.56
262.64	83.56
262.872	87.56
263.105	81.56
263.337	79.56
263.57	77.56
263.802	83.56
264.035	77.56
264.267	81.56
264.499	77.56
264.732	86.56
264.964	80.56
265.197	90.56
265.429	91.56
265.661	86.56
265.894	81.56
266.126	100.56
266.358	91.56
266.591	79.56
266.823	78.56
267.055	89.56
267.287	92.56
267.52	73.56
267.752	79.56
267.984	82.56
268.216	87.56
268.448	88.56
268.681	93.56
268.913	72.56
269.145	85.56
269.377	83.56
269.609	91.56
269.841	94.56
270.073	88.56
270.306	71.56
270.538	88.56
270.77	83.56
271.002	85.56
271.234	84.56
271.466	96.56
271.698	86.56
271.93	79.56
272.162	97.56
272.394	103.56
272.626	93.56
272.858	80.56
273.09	76.56
273.322	71.56
273.553	83.56
273.785	82.56
274.017	89.56
274.249	80.56
274.481	79.56
274.713	83.56
274.945	102.56
275.176	111.56
275.408	99.56
275.64	131.56
275.872	140.56
276.104	120.56
276.335	102.56
276.567	133.56
276.799	177.56
277.031	220.56
277.262	232.56
277.494	173.56
277.726	111.56
277.957	96.56
278.189	83.56
278.421	107.56
278.652	75.56
278.884	80.56
279.115	83.56
279.347	75.56
279.579	117.56
279.81	149.56
280.042	238.56
280.273	357.56
280.505	220.56
280.736	109.56
280.968	94.56
281.199	94.56
281.431	91.56
281.662	96.56
281.894	100.56
282.125	105.56
282.356	152.56
282.588	201.56
282.819	164.56
283.051	95.56
283.282	103.56
283.513	93.56
283.745	94.56
283.976	86.56
284.207	88.56
284.439	92.56
284.67	92.56
284.901	101.56
285.132	79.56
285.364	75.56
285.595	103.56
285.826	92.56
286.057	104.56
286.288	80.56
286.52	90.56
286.751	84.56
286.982	86.56
287.213	92.56
287.444	100.56
287.675	91.56
287.906	98.56
288.138	116.56
288.369	104.56
288.6	95.56
288.831	89.56
289.062	86.56
289.293	69.56
289.524	87.56
289.755	87.56
289.986	91.56
290.217	82.56
290.448	76.56
290.679	91.56
290.91	95.56
291.141	94.56
291.371	100.56
291.602	89.56
291.833	72.56
292.064	88.56
292.295	88.56
292.526	84.56
292.757	89.56
292.987	77.56
293.218	95.56
293.449	88.56
293.68	98.56
293.91	95.56
294.141	102.56
294.372	94.56
294.603	83.56
294.833	94.56
295.064	106.56
295.295	101.56
295.525	100.56
295.756	118.56
295.987	158.56
296.217	207.56
296.448	177.56
296.679	104.56
296.909	75.56
297.14	87.56
297.37	83.56
297.601	87.56
297.831	100.56
298.062	109.56
298.292	99.56
298.523	96.56
298.753	93.56
298.984	92.56
299.214	105.56
299.445	106.56
299.675	100.56
299.905	108.56
300.136	104.56
300.366	97.56
300.597	99.56
300.827	108.56
301.057	115.56
301.288	132.56
301.518	97.56
301.748	112.56
301.979	114.56
302.209	117.56
302.439	89.56
302.669	100.56
302.9	88.56
303.13	101.56
303.36	115.56
303.59	156.56
303.82	171.56
304.051	122.56
304.281	103.56
304.511	101.56
304.741	83.56
304.971	76.56
305.201	87.56
305.431	97.56
305.661	81.56
305.891	108.56
306.121	110.56
306.352	123.56
306.582	141.56
306.812	110.56
307.042	137.56
307.272	209.56
307.502	237.56
307.731	228.56
307.961	164.56
308.191	103.56
308.421	107.56
308.651	100.56
308.881	92.56
309.111	94.56
309.341	98.56
309.571	104.56
309.8	98.56
310.03	110.56
310.26	111.56
310.49	105.56
310.72	127.56
310.949	119.56
311.179	110.56
311.409	111.56
311.639	113.56
311.868	119.56
312.098	111.56
312.328	111.56
312.557	117.56
312.787	149.56
313.017	122.56
313.246	97.56
313.476	101.56
313.706	100.56
313.935	105.56
314.165	116.56
314.394	126.56
314.624	109.56
314.853	101.56
315.083	101.56
315.312	105.56
315.542	115.56
315.771	111.56
316.001	101.56
316.23	97.56
316.46	94.56
316.689	86.56
316.919	102.56
317.148	113.56
317.377	113.56
317.607	102.56
317.836	111.56
318.065	106.56
318.295	89.56
318.524	105.56
318.753	94.56
318.983	102.56
319.212	121.56
319.441	124.56
319.67	135.56
319.9	79.56
320.129	104.56
320.358	112.56
320.587	97.56
320.816	112.56
321.046	133.56
321.275	95.56
321.504	107.56
321.733	103.56
321.962	105.56
322.191	124.56
322.42	125.56
322.649	124.56
322.878	135.56
323.108	143.56
323.337	152.56
323.566	173.56
323.795	190.56
324.024	277.56
324.253	545.56
324.482	1146.56
324.71	2353.56
324.939	3003.56
325.168	1154.56
325.397	325.56
325.626	168.56
325.855	160.56
326.084	150.56
326.313	156.56
326.542	210.56
326.77	267.56
326.999	555.56
327.228	1135.56
327.457	2042.56
327.686	1687.56
327.914	687.56
328.143	734.56
328.372	925.56
328.6	496.56
328.829	244.56
329.058	231.56
329.287	242.56
329.515	216.56
329.744	336.56
329.972	665.56
330.201	1436.56
330.43	2099.56
330.658	910.56
330.887	403.56
331.115	233.56
331.344	143.56
331.572	145.56
331.801	141.56
332.03	149.56
332.258	135.56
332.486	125.56
332.715	111.56
332.943	118.56
333.172	142.56
333.4	147.56
333.629	208.56
333.857	297.56
334.085	562.56
334.314	1289.56
334.542	2519.56
334.771	2415.56
334.999	572.56
335.227	216.56
335.455	151.56
335.684	130.56
335.912	109.56
336.14	112.56
336.369	107.56
336.597	111.56
336.825	118.56
337.053	107.56
337.281	101.56
337.51	105.56
337.738	107.56
337.966	104.56
338.194	115.56
338.422	117.56
338.65	96.56
338.878	115.56
339.106	106.56
339.334	97.56
339.562	85.56
339.79	106.56
340.018	92.56
340.246	108.56
340.474	106.56
340.702	99.56
340.93	96.56
341.158	109.56
341.386	95.56
341.614	107.56
341.842	119.56
342.07	97.56
342.298	95.56
342.526	83.56
342.754	90.56
342.981	84.56
343.209	102.56
343.437	94.56
343.665	99.56
343.893	91.56
344.12	89.56
344.348	90.56
344.576	104.56
344.804	105.56
345.031	106.56
345.259	131.56
345.487	97.56
345.714	104.56
345.942	110.56
346.17	91.56
346.397	103.56
346.625	99.56
346.853	97.56
347.08	92.56
347.308	103.56
347.535	109.56
347.763	115.56
347.99	105.56
348.218	124.56
348.445	132.56
348.673	92.56
348.9	96.56
349.128	102.56
349.355	99.56
349.583	99.56
349.81	107.56
350.037	113.56
350.265	109.56
350.492	97.56
350.72	106.56
350.947	109.56
351.174	121.56
351.402	141.56
351.629	122.56
351.856	115.56
352.083	104.56
352.311	137.56
352.538	136.56
352.765	133.56
352.992	135.56
353.22	126.56
353.447	129.56
353.674	108.56
353.901	97.56
354.128	86.56
354.355	101.56
354.583	107.56
354.81	100.56
355.037	105.56
355.264	99.56
355.491	75.56
355.718	85.56
355.945	97.56
356.172	88.56
356.399	78.56
356.626	93.56
356.853	85.56
357.08	86.56
357.307	83.56
357.534	89.56
357.761	87.56
357.988	88.56
358.215	77.56
358.441	90.56
358.668	81.56
358.895	85.56
359.122	89.56
359.349	94.56
359.576	97.56
359.802	140.56
360.029	169.56
360.256	161.56
360.483	120.56
360.709	107.56
360.936	96.56
361.163	105.56
361.39	116.56
361.616	124.56
361.843	85.56
362.07	116.56
362.296	137.56
362.523	111.56
362.749	109.56
362.976	107.56
363.203	86.56
363.429	95.56
363.656	108.56
363.882	97.56
364.109	103.56
364.335	112.56
364.562	87.56
364.788	97.56
365.015	105.56
365.241	106.56
365.468	136.56
365.694	126.56
365.92	115.56
366.147	99.56
366.373	103.56
366.599	90.56
366.826	77.56
367.052	79.56
367.278	106.56
367.505	105.56
367.731	108.56
367.957	106.56
368.184	118.56
368.41	120.56
368.636	130.56
368.862	144.56
369.089	139.56
369.315	112.56
369.541	99.56
369.767	101.56
369.993	98.56
370.219	102.56
370.445	79.56
370.672	101.56
370.898	96.56
371.124	93.56
371.35	92.56
371.576	92.56
371.802	80.56
372.028	82.56
372.254	79.56
372.48	69.56
372.706	107.56
372.932	64.56
373.158	92.56
373.384	95.56
373.61	87.56
373.835	100.56
374.061	90.56
374.287	113.56
374.513	83.56
374.739	84.56
374.965	84.56
375.191	84.56
375.416	86.56
375.642	91.56
375.868	95.56
376.094	107.56
376.319	97.56
376.545	101.56
376.771	100.56
376.997	87.56
377.222	90.56
377.448	103.56
377.674	93.56
377.899	85.56
378.125	97.56
378.35	88.56
378.576	94.56
378.802	82.56
379.027	79.56
379.253	91.56
379.478	87.56
379.704	85.56
379.929	92.56
380.155	89.56
380.38	82.56
380.606	103.56
380.831	102.56
381.057	102.56
381.282	91.56
381.507	91.56
381.733	89.56
381.958	99.56
382.184	99.56
382.409	104.56
382.634	96.56
382.86	94.56
383.085	97.56
383.31	96.56
383.535	98.56
383.761	89.56
383.986	94.56
384.211	97.56
384.436	93.56
384.662	103.56
384.887	97.56
385.112	111.56
385.337	106.56
385.562	94.56
385.787	108.56
386.013	111.56
386.238	131.56
386.463	109.56
386.688	106.56
386.913	96.56
387.138	92.56
387.363	106.56
387.588	106.56
387.813	94.56
388.038	107.56
388.263	103.56
388.488	106.56
388.713	99.56
388.938	92.56
389.163	100.56
389.387	97.56
389.612	84.56
389.837	81.56
390.062	99.56
390.287	85.56
390.512	78.56
390.736	78.56
390.961	85.56
391.186	87.56
391.411	99.56
391.636	93.56
391.86	101.56
392.085	88.56
392.31	75.56
392.534	76.56
392.759	87.56
392.984	80.56
393.208	83.56
393.433	91.56
393.658	91.56
393.882	79.56
394.107	94.56
394.331	85.56
394.556	92.56
394.78	93.56
395.005	90.56
395.229	88.56
395.454	102.56
395.678	90.56
395.903	86.56
396.127	77.56
396.352	97.56
396.576	75.56
396.801	84.56
397.025	81.56
397.249	82.56
397.474	89.56
397.698	95.56
397.922	76.56
398.147	95.56
398.371	98.56
398.595	83.56
398.82	67.56
399.044	75.56
399.268	92.56
399.492	95.56
399.717	84.56
399.941	96.56
400.165	97.56
400.389	95.56
400.613	84.56
400.837	81.56
401.062	89.56
401.286	89.56
401.51	98.56
401.734	93.56
401.958	121.56
402.182	187.56
402.406	267.56
402.63	172.56
402.854	117.56
403.078	84.56
403.302	88.56
403.526	100.56
403.75	103.56
403.974	76.56
404.198	88.56
404.422	93.56
404.645	91.56
404.869	89.56
405.093	120.56
405.317	161.56
405.541	151.56
405.765	133.56
405.988	173.56
406.212	285.56
406.436	437.56
406.66	278.56
406.883	139.56
407.107	113.56
407.331	85.56
407.555	108.56
407.778	113.56
408.002	92.56
408.226	84.56
408.449	87.56
408.673	97.56
408.896	94.56
409.12	101.56
409.344	100.56
409.567	87.56
409.791	94.56
410.014	94.56
410.238	93.56
410.461	92.56
410.685	107.56
410.908	94.56
411.132	109.56
411.355	105.56
411.578	93.56
411.802	92.56
412.025	80.56
412.249	107.56
412.472	105.56
412.695	155.56
412.919	107.56
413.142	98.56
413.365	92.56
413.589	98.56
413.812	83.56
414.035	92.56
414.258	84.56
414.482	90.56
414.705	104.56
414.928	89.56
415.151	96.56
415.374	94.56
415.597	95.56
415.821	101.56
416.044	97.56
416.267	103.56
416.49	105.56
416.713	97.56
416.936	92.56
417.159	83.56
417.382	98.56
417.605	122.56
417.828	108.56
418.051	103.56
418.274	106.56
418.497	84.56
418.72	86.56
418.943	86.56
419.166	76.56
419.389	88.56
419.611	101.56
419.834	86.56
420.057	93.56
420.28	97.56
420.503	90.56
420.726	97.56
420.948	91.56
421.171	97.56
421.394	104.56
421.617	80.56
421.839	70.56
422.062	81.56
422.285	101.56
422.507	101.56
422.73	109.56
422.953	105.56
423.175	86.56
423.398	91.56
423.621	80.56
423.843	85.56
424.066	90.56
424.288	90.56
424.511	92.56
424.733	126.56
424.956	120.56
425.178	109.56
425.401	121.56
425.623	115.56
425.846	104.56
426.068	101.56
426.291	102.56
426.513	94.56
426.735	88.56
426.958	115.56
427.18	132.56
427.402	192.56
427.625	313.56
427.847	278.56
428.069	212.56
428.292	137.56
428.514	105.56
428.736	102.56
428.958	99.56
429.181	88.56
429.403	88.56
429.625	84.56
429.847	109.56
430.069	125.56
430.292	111.56
430.514	103.56
430.736	90.56
430.958	88.56
431.18	74.56
431.402	81.56
431.624	83.56
431.846	87.56
432.068	81.56
432.29	93.56
432.512	90.56
432.734	86.56
432.956	90.56
433.178	90.56
433.4	102.56
433.622	89.56
433.844	95.56
434.066	94.56
434.287	111.56
434.509	93.56
434.731	98.56
434.953	99.56
435.175	88.56
435.397	84.56
435.618	98.56
435.84	107.56
436.062	133.56
436.284	119.56
436.505	101.56
436.727	100.56
436.949	91.56
437.17	75.56
437.392	89.56
437.614	106.56
437.835	159.56
438.057	171.56
438.278	141.56
438.5	101.56
438.721	140.56
438.943	113.56
439.165	107.56
439.386	90.56
439.608	87.56
439.829	123.56
440.05	157.56
440.272	181.56
440.493	132.56
440.715	93.56
440.936	88.56
441.158	105.56
441.379	79.56
441.6	101.56
441.822	98.56
442.043	95.56
442.264	117.56
442.486	129.56
442.707	99.56
442.928	153.56
443.149	199.56
443.371	196.56
443.592	151.56
443.813	126.56
444.034	123.56
444.255	100.56
444.476	92.56
444.698	88.56
444.919	88.56
445.14	143.56
445.361	122.56
445.582	142.56
445.803	205.56
446.024	200.56
446.245	167.56
446.466	144.56
446.687	96.56
446.908	94.56
447.129	91.56
447.35	100.56
447.571	99.56
447.792	97.56
448.013	122.56
448.234	120.56
448.455	127.56
448.675	136.56
448.896	141.56
449.117	106.56
449.338	121.56
449.559	151.56
449.779	155.56
450	99.56
450.221	85.56
450.442	103.56
450.662	124.56
450.883	149.56
451.104	167.56
451.324	118.56
451.545	98.56
451.766	98.56
451.986	100.56
452.207	101.56
452.428	95.56
452.648	111.56
452.869	147.56
453.089	173.56
453.31	175.56
453.53	108.56
453.751	106.56
453.971	125.56
454.192	155.56
454.412	109.56
454.633	101.56
454.853	95.56
455.073	85.56
455.294	104.56
455.514	120.56
455.734	82.56
455.955	85.56
456.175	89.56
456.395	78.56
456.616	93.56
456.836	79.56
457.056	81.56
457.276	95.56
457.497	86.56
457.717	96.56
457.937	96.56
458.157	91.56
458.377	117.56
458.598	161.56
458.818	262.56
459.038	285.56
459.258	171.56
459.478	112.56
459.698	100.56
459.918	86.56
460.138	92.56
460.358	88.56
460.578	103.56
460.798	97.56
461.018	110.56
461.238	94.56
461.458	82.56
461.678	87.56
461.898	92.56
462.118	94.56
462.338	76.56
462.558	104.56
462.777	95.56
462.997	103.56
463.217	124.56
463.437	109.56
463.657	101.56
463.876	101.56
464.096	106.56
464.316	111.56
464.536	111.56
464.755	108.56
464.975	145.56
465.195	307.56
465.414	315.56
465.634	131.56
465.854	100.56
466.073	102.56
466.293	85.56
466.512	92.56
466.732	90.56
466.951	100.56
467.171	88.56
467.391	132.56
467.61	169.56
467.829	288.56
468.049	878.56
468.268	1311.56
468.488	296.56
468.707	128.56
468.927	116.56
469.146	100.56
469.365	99.56
469.585	102.56
469.804	126.56
470.023	139.56
470.243	125.56
470.462	138.56
470.681	176.56
470.901	119.56
471.12	128.56
471.339	124.56
471.558	126.56
471.777	196.56
471.997	427.56
472.216	1741.56
472.435	3923.56
472.654	843.56
472.873	189.56
473.092	121.56
473.311	101.56
473.53	101.56
473.749	114.56
473.968	93.56
474.187	152.56
474.406	123.56
474.625	101.56
474.844	83.56
475.063	87.56
475.282	79.56
475.501	83.56
475.72	101.56
475.939	101.56
476.158	95.56
476.377	88.56
476.596	98.56
476.814	103.56
477.033	106.56
477.252	92.56
477.471	93.56
477.69	103.56
477.908	103.56
478.127	94.56
478.346	101.56
478.564	96.56
478.783	132.56
479.002	121.56
479.22	120.56
479.439	134.56
479.658	153.56
479.876	153.56
480.095	152.56
480.313	153.56
480.532	189.56
480.751	403.56
480.969	1523.56
481.188	6637.56
481.406	3633.56
481.624	481.56
481.843	151.56
482.061	122.56
482.28	105.56
482.498	99.56
482.717	98.56
482.935	105.56
483.153	103.56
483.372	102.56
483.59	87.56
483.808	91.56
484.027	102.56
484.245	94.56
484.463	112.56
484.681	104.56
484.9	98.56
485.118	108.56
485.336	100.56
485.554	118.56
485.772	99.56
485.99	103.56
486.209	137.56
486.427	117.56
486.645	126.56
486.863	144.56
487.081	116.56
487.299	94.56
487.517	96.56
487.735	95.56
487.953	103.56
488.171	104.56
488.389	120.56
488.607	96.56
488.825	95.56
489.043	99.56
489.261	100.56
489.479	86.56
489.696	95.56
489.914	86.56
490.132	104.56
490.35	78.56
490.568	95.56
490.786	99.56
491.003	104.56
491.221	96.56
491.439	81.56
491.657	89.56
491.874	107.56
492.092	102.56
492.31	106.56
492.527	107.56
492.745	109.56
492.963	91.56
493.18	82.56
493.398	90.56
493.615	94.56
493.833	102.56
494.05	96.56
494.268	87.56
494.485	90.56
494.703	87.56
494.92	102.56
495.138	91.56
495.355	94.56
495.573	99.56
495.79	104.56
496.008	95.56
496.225	99.56
496.442	92.56
496.66	100.56
496.877	94.56
497.094	99.56
497.312	89.56
497.529	104.56
497.746	95.56
497.963	89.56
498.181	107.56
498.398	112.56
498.615	121.56
498.832	118.56
499.049	108.56
499.267	99.56
499.484	97.56
499.701	93.56
499.918	94.56
500.135	95.56
500.352	105.56
500.569	84.56
500.786	104.56
501.003	100.56
501.22	97.56
501.437	96.56
501.654	109.56
501.871	144.56
502.088	117.56
502.305	87.56
502.522	91.56
502.739	99.56
502.956	95.56
503.172	102.56
503.389	107.56
503.606	129.56
503.823	110.56
504.04	100.56
504.256	87.56
504.473	99.56
504.69	108.56
504.907	97.56
505.123	95.56
505.34	91.56
505.557	92.56
505.773	90.56
505.99	96.56
506.207	65.56
506.423	89.56
506.64	89.56
506.856	106.56
507.073	99.56
507.289	99.56
507.506	88.56
507.722	144.56
507.939	159.56
508.155	120.56
508.372	101.56
508.588	104.56
508.805	107.56
509.021	105.56
509.238	113.56
509.454	108.56
509.67	134.56
509.887	124.56
510.103	168.56
510.319	321.56
510.536	1361.56
510.752	5004.56
510.968	1236.56
511.184	231.56
