Data from Circ_1999_H10_HRD10591_00025.txt Node
Date: Wed Jan 03 11:23:17 EST 2024
User: Yrep
Spectrometer: HR+D1059
Trigger mode: 1
Integration Time (sec): 1.000000E-1
Scans to average: 1
Electric dark correction enabled: true
Nonlinearity correction enabled: false
Boxcar width: 0
XAxis mode: Wavelengths
Number of Pixels in Spectrum: 2048
>>>>>Begin Spectral Data<<<<<
223.165	-10.38
223.4	-10.38
223.635	-10.38
223.869	-12.38
224.104	-24.38
224.338	-9.38
224.573	-20.38
224.808	-2.38
225.042	-7.38
225.277	-5.38
225.511	-4.38
225.746	-5.38
225.98	10.62
226.215	1.62
226.449	13.62
226.683	35.62
226.918	16.62
227.152	23.62
227.387	41.62
227.621	33.62
227.856	45.62
228.09	47.62
228.324	43.62
228.559	58.62
228.793	68.62
229.027	67.62
229.262	73.62
229.496	94.62
229.73	108.62
229.964	106.62
230.199	72.62
230.433	77.62
230.667	87.62
230.901	87.62
231.136	85.62
231.37	80.62
231.604	75.62
231.838	69.62
232.072	74.62
232.306	82.62
232.541	86.62
232.775	77.62
233.009	72.62
233.243	70.62
233.477	67.62
233.711	83.62
233.945	65.62
234.179	77.62
234.413	69.62
234.647	89.62
234.881	81.62
235.115	87.62
235.349	91.62
235.583	78.62
235.817	64.62
236.051	82.62
236.285	83.62
236.519	70.62
236.753	79.62
236.987	69.62
237.221	85.62
237.455	91.62
237.689	81.62
237.922	66.62
238.156	77.62
238.39	76.62
238.624	75.62
238.858	69.62
239.091	76.62
239.325	88.62
239.559	96.62
239.793	87.62
240.027	81.62
240.26	85.62
240.494	77.62
240.728	69.62
240.961	75.62
241.195	73.62
241.429	62.62
241.662	77.62
241.896	75.62
242.13	90.62
242.363	71.62
242.597	90.62
242.83	82.62
243.064	85.62
243.298	66.62
243.531	73.62
243.765	85.62
243.998	82.62
244.232	74.62
244.465	85.62
244.699	76.62
244.932	76.62
245.166	71.62
245.399	73.62
245.633	84.62
245.866	79.62
246.099	81.62
246.333	78.62
246.566	77.62
246.8	70.62
247.033	84.62
247.266	76.62
247.5	68.62
247.733	70.62
247.966	75.62
248.2	65.62
248.433	85.62
248.666	85.62
248.899	91.62
249.133	95.62
249.366	122.62
249.599	105.62
249.832	82.62
250.066	81.62
250.299	95.62
250.532	97.62
250.765	92.62
250.998	89.62
251.231	90.62
251.465	70.62
251.698	73.62
251.931	87.62
252.164	91.62
252.397	78.62
252.63	84.62
252.863	68.62
253.096	74.62
253.329	81.62
253.562	72.62
253.795	79.62
254.028	73.62
254.261	68.62
254.494	96.62
254.727	69.62
254.96	85.62
255.193	87.62
255.426	78.62
255.659	89.62
255.892	101.62
256.124	102.62
256.357	78.62
256.59	93.62
256.823	91.62
257.056	80.62
257.289	80.62
257.521	83.62
257.754	84.62
257.987	94.62
258.22	81.62
258.452	88.62
258.685	102.62
258.918	88.62
259.151	90.62
259.383	93.62
259.616	71.62
259.849	71.62
260.081	74.62
260.314	101.62
260.547	95.62
260.779	98.62
261.012	117.62
261.244	118.62
261.477	99.62
261.71	108.62
261.942	176.62
262.175	188.62
262.407	116.62
262.64	102.62
262.872	91.62
263.105	99.62
263.337	79.62
263.57	65.62
263.802	85.62
264.035	91.62
264.267	71.62
264.499	90.62
264.732	75.62
264.964	89.62
265.197	93.62
265.429	74.62
265.661	94.62
265.894	88.62
266.126	97.62
266.358	88.62
266.591	74.62
266.823	85.62
267.055	89.62
267.287	95.62
267.52	91.62
267.752	89.62
267.984	82.62
268.216	97.62
268.448	94.62
268.681	101.62
268.913	87.62
269.145	95.62
269.377	71.62
269.609	84.62
269.841	76.62
270.073	83.62
270.306	90.62
270.538	89.62
270.77	82.62
271.002	98.62
271.234	84.62
271.466	102.62
271.698	101.62
271.93	84.62
272.162	83.62
272.394	89.62
272.626	94.62
272.858	84.62
273.09	88.62
273.322	99.62
273.553	89.62
273.785	91.62
274.017	86.62
274.249	71.62
274.481	77.62
274.713	87.62
274.945	105.62
275.176	88.62
275.408	99.62
275.64	122.62
275.872	140.62
276.104	118.62
276.335	104.62
276.567	142.62
276.799	190.62
277.031	216.62
277.262	251.62
277.494	170.62
277.726	107.62
277.957	104.62
278.189	97.62
278.421	82.62
278.652	96.62
278.884	88.62
279.115	104.62
279.347	100.62
279.579	115.62
279.81	154.62
280.042	253.62
280.273	332.62
280.505	231.62
280.736	118.62
280.968	99.62
281.199	76.62
281.431	84.62
281.662	91.62
281.894	93.62
282.125	121.62
282.356	162.62
282.588	217.62
282.819	159.62
283.051	105.62
283.282	92.62
283.513	89.62
283.745	94.62
283.976	92.62
284.207	84.62
284.439	89.62
284.67	88.62
284.901	86.62
285.132	89.62
285.364	86.62
285.595	83.62
285.826	79.62
286.057	78.62
286.288	88.62
286.52	87.62
286.751	94.62
286.982	97.62
287.213	97.62
287.444	107.62
287.675	92.62
287.906	92.62
288.138	90.62
288.369	102.62
288.6	104.62
288.831	92.62
289.062	93.62
289.293	86.62
289.524	104.62
289.755	81.62
289.986	82.62
290.217	94.62
290.448	81.62
290.679	85.62
290.91	85.62
291.141	102.62
291.371	94.62
291.602	77.62
291.833	80.62
292.064	83.62
292.295	94.62
292.526	107.62
292.757	90.62
292.987	107.62
293.218	90.62
293.449	90.62
293.68	86.62
293.91	84.62
294.141	71.62
294.372	87.62
294.603	74.62
294.833	89.62
295.064	90.62
295.295	77.62
295.525	99.62
295.756	95.62
295.987	152.62
296.217	223.62
296.448	172.62
296.679	106.62
296.909	95.62
297.14	83.62
297.37	85.62
297.601	102.62
297.831	95.62
298.062	108.62
298.292	102.62
298.523	98.62
298.753	77.62
298.984	92.62
299.214	89.62
299.445	92.62
299.675	96.62
299.905	106.62
300.136	102.62
300.366	85.62
300.597	107.62
300.827	96.62
301.057	116.62
301.288	133.62
301.518	105.62
301.748	120.62
301.979	119.62
302.209	89.62
302.439	98.62
302.669	101.62
302.9	95.62
303.13	99.62
303.36	113.62
303.59	140.62
303.82	159.62
304.051	113.62
304.281	98.62
304.511	94.62
304.741	94.62
304.971	95.62
305.201	97.62
305.431	87.62
305.661	78.62
305.891	93.62
306.121	103.62
306.352	126.62
306.582	125.62
306.812	113.62
307.042	156.62
307.272	195.62
307.502	218.62
307.731	178.62
307.961	135.62
308.191	92.62
308.421	95.62
308.651	89.62
308.881	98.62
309.111	100.62
309.341	106.62
309.571	113.62
309.8	105.62
310.03	114.62
310.26	115.62
310.49	117.62
310.72	128.62
310.949	134.62
311.179	126.62
311.409	100.62
311.639	109.62
311.868	113.62
312.098	94.62
312.328	102.62
312.557	123.62
312.787	153.62
313.017	123.62
313.246	100.62
313.476	89.62
313.706	113.62
313.935	112.62
314.165	120.62
314.394	136.62
314.624	127.62
314.853	118.62
315.083	99.62
315.312	97.62
315.542	98.62
315.771	93.62
316.001	97.62
316.23	90.62
316.46	94.62
316.689	94.62
316.919	103.62
317.148	118.62
317.377	111.62
317.607	108.62
317.836	116.62
318.065	100.62
318.295	90.62
318.524	93.62
318.753	106.62
318.983	106.62
319.212	109.62
319.441	140.62
319.67	142.62
319.9	109.62
320.129	97.62
320.358	105.62
320.587	109.62
320.816	124.62
321.046	124.62
321.275	105.62
321.504	111.62
321.733	96.62
321.962	134.62
322.191	120.62
322.42	123.62
322.649	137.62
322.878	137.62
323.108	146.62
323.337	176.62
323.566	194.62
323.795	217.62
324.024	316.62
324.253	648.62
324.482	1388.62
324.71	2933.62
324.939	3795.62
325.168	1409.62
325.397	388.62
325.626	211.62
325.855	152.62
326.084	161.62
326.313	167.62
326.542	207.62
326.77	326.62
326.999	665.62
327.228	1385.62
327.457	2584.62
327.686	2135.62
327.914	775.62
328.143	740.62
328.372	969.62
328.6	508.62
328.829	249.62
329.058	267.62
329.287	282.62
329.515	218.62
329.744	322.62
329.972	663.62
330.201	1475.62
330.43	2108.62
330.658	945.62
330.887	410.62
331.115	258.62
331.344	151.62
331.572	145.62
331.801	143.62
332.03	161.62
332.258	130.62
332.486	121.62
332.715	123.62
332.943	140.62
333.172	139.62
333.4	155.62
333.629	216.62
333.857	334.62
334.085	608.62
334.314	1315.62
334.542	2631.62
334.771	2441.62
334.999	594.62
335.227	223.62
335.455	150.62
335.684	137.62
335.912	122.62
336.14	120.62
336.369	122.62
336.597	132.62
336.825	135.62
337.053	102.62
337.281	106.62
337.51	107.62
337.738	100.62
337.966	101.62
338.194	125.62
338.422	106.62
338.65	109.62
338.878	93.62
339.106	87.62
339.334	90.62
339.562	88.62
339.79	106.62
340.018	104.62
340.246	113.62
340.474	99.62
340.702	110.62
340.93	114.62
341.158	97.62
341.386	139.62
341.614	109.62
341.842	99.62
342.07	103.62
342.298	109.62
342.526	84.62
342.754	90.62
342.981	84.62
343.209	76.62
343.437	89.62
343.665	89.62
343.893	85.62
344.12	84.62
344.348	87.62
344.576	97.62
344.804	90.62
345.031	122.62
345.259	117.62
345.487	103.62
345.714	110.62
345.942	93.62
346.17	81.62
346.397	83.62
346.625	115.62
346.853	105.62
347.08	89.62
347.308	118.62
347.535	125.62
347.763	119.62
347.99	117.62
348.218	103.62
348.445	141.62
348.673	130.62
348.9	101.62
349.128	92.62
349.355	113.62
349.583	92.62
349.81	99.62
350.037	101.62
350.265	104.62
350.492	91.62
350.72	89.62
350.947	120.62
351.174	137.62
351.402	135.62
351.629	111.62
351.856	107.62
352.083	131.62
352.311	139.62
352.538	143.62
352.765	134.62
352.992	127.62
353.22	151.62
353.447	131.62
353.674	115.62
353.901	103.62
354.128	92.62
354.355	99.62
354.583	93.62
354.81	100.62
355.037	101.62
355.264	97.62
355.491	83.62
355.718	85.62
355.945	79.62
356.172	95.62
356.399	91.62
356.626	103.62
356.853	88.62
357.08	99.62
357.307	84.62
357.534	91.62
357.761	95.62
357.988	89.62
358.215	87.62
358.441	83.62
358.668	97.62
358.895	100.62
359.122	94.62
359.349	107.62
359.576	111.62
359.802	143.62
360.029	183.62
360.256	188.62
360.483	143.62
360.709	107.62
360.936	96.62
361.163	106.62
361.39	119.62
361.616	125.62
361.843	98.62
362.07	111.62
362.296	131.62
362.523	95.62
362.749	119.62
362.976	113.62
363.203	96.62
363.429	104.62
363.656	94.62
363.882	99.62
364.109	105.62
364.335	98.62
364.562	92.62
364.788	124.62
365.015	110.62
365.241	141.62
365.468	130.62
365.694	134.62
365.92	117.62
366.147	105.62
366.373	109.62
366.599	105.62
366.826	95.62
367.052	83.62
367.278	102.62
367.505	97.62
367.731	107.62
367.957	101.62
368.184	96.62
368.41	122.62
368.636	157.62
368.862	154.62
369.089	147.62
369.315	95.62
369.541	94.62
369.767	110.62
369.993	101.62
370.219	106.62
370.445	84.62
370.672	103.62
370.898	81.62
371.124	81.62
371.35	86.62
371.576	90.62
371.802	89.62
372.028	97.62
372.254	88.62
372.48	87.62
372.706	89.62
372.932	109.62
373.158	86.62
373.384	90.62
373.61	101.62
373.835	93.62
374.061	84.62
374.287	86.62
374.513	90.62
374.739	86.62
374.965	102.62
375.191	92.62
375.416	84.62
375.642	84.62
375.868	77.62
376.094	81.62
376.319	93.62
376.545	82.62
376.771	87.62
376.997	92.62
377.222	98.62
377.448	104.62
377.674	97.62
377.899	93.62
378.125	91.62
378.35	97.62
378.576	91.62
378.802	90.62
379.027	115.62
379.253	89.62
379.478	89.62
379.704	91.62
379.929	79.62
380.155	111.62
380.38	97.62
380.606	93.62
380.831	98.62
381.057	92.62
381.282	95.62
381.507	100.62
381.733	113.62
381.958	107.62
382.184	107.62
382.409	99.62
382.634	99.62
382.86	103.62
383.085	113.62
383.31	109.62
383.535	105.62
383.761	90.62
383.986	116.62
384.211	100.62
384.436	95.62
384.662	111.62
384.887	104.62
385.112	111.62
385.337	100.62
385.562	110.62
385.787	117.62
386.013	135.62
386.238	135.62
386.463	123.62
386.688	122.62
386.913	110.62
387.138	119.62
387.363	110.62
387.588	106.62
387.813	104.62
388.038	110.62
388.263	111.62
388.488	114.62
388.713	95.62
388.938	93.62
389.163	97.62
389.387	99.62
389.612	82.62
389.837	87.62
390.062	88.62
390.287	94.62
390.512	95.62
390.736	82.62
390.961	68.62
391.186	79.62
391.411	72.62
391.636	100.62
391.86	101.62
392.085	87.62
392.31	83.62
392.534	92.62
392.759	97.62
392.984	84.62
393.208	90.62
393.433	87.62
393.658	75.62
393.882	89.62
394.107	78.62
394.331	91.62
394.556	80.62
394.78	86.62
395.005	85.62
395.229	97.62
395.454	83.62
395.678	84.62
395.903	93.62
396.127	84.62
396.352	89.62
396.576	97.62
396.801	78.62
397.025	84.62
397.249	78.62
397.474	81.62
397.698	83.62
397.922	100.62
398.147	104.62
398.371	89.62
398.595	105.62
398.82	94.62
399.044	93.62
399.268	78.62
399.492	79.62
399.717	90.62
399.941	101.62
400.165	105.62
400.389	82.62
400.613	87.62
400.837	87.62
401.062	87.62
401.286	82.62
401.51	103.62
401.734	86.62
401.958	127.62
402.182	193.62
402.406	277.62
402.63	204.62
402.854	122.62
403.078	99.62
403.302	101.62
403.526	102.62
403.75	95.62
403.974	83.62
404.198	88.62
404.422	91.62
404.645	104.62
404.869	122.62
405.093	123.62
405.317	169.62
405.541	167.62
405.765	147.62
405.988	163.62
406.212	289.62
406.436	463.62
406.66	277.62
406.883	145.62
407.107	123.62
407.331	113.62
407.555	117.62
407.778	124.62
408.002	100.62
408.226	84.62
408.449	95.62
408.673	76.62
408.896	104.62
409.12	114.62
409.344	103.62
409.567	93.62
409.791	89.62
410.014	96.62
410.238	77.62
410.461	93.62
410.685	99.62
410.908	94.62
411.132	104.62
411.355	111.62
411.578	116.62
411.802	94.62
412.025	91.62
412.249	121.62
412.472	125.62
412.695	160.62
412.919	115.62
413.142	91.62
413.365	96.62
413.589	76.62
413.812	88.62
414.035	89.62
414.258	95.62
414.482	93.62
414.705	88.62
414.928	85.62
415.151	93.62
415.374	106.62
415.597	87.62
415.821	98.62
416.044	91.62
416.267	94.62
416.49	93.62
416.713	89.62
416.936	87.62
417.159	87.62
417.382	99.62
417.605	111.62
417.828	146.62
418.051	121.62
418.274	85.62
418.497	83.62
418.72	93.62
418.943	93.62
419.166	92.62
419.389	90.62
419.611	116.62
419.834	101.62
420.057	86.62
420.28	96.62
420.503	100.62
420.726	84.62
420.948	85.62
421.171	109.62
421.394	100.62
421.617	93.62
421.839	109.62
422.062	90.62
422.285	102.62
422.507	96.62
422.73	119.62
422.953	113.62
423.175	103.62
423.398	90.62
423.621	87.62
423.843	81.62
424.066	92.62
424.288	93.62
424.511	98.62
424.733	115.62
424.956	140.62
425.178	124.62
425.401	117.62
425.623	126.62
425.846	111.62
426.068	109.62
426.291	118.62
426.513	95.62
426.735	98.62
426.958	106.62
427.18	148.62
427.402	224.62
427.625	376.62
427.847	324.62
428.069	275.62
428.292	148.62
428.514	92.62
428.736	108.62
428.958	84.62
429.181	96.62
429.403	80.62
429.625	90.62
429.847	104.62
430.069	122.62
430.292	108.62
430.514	86.62
430.736	92.62
430.958	74.62
431.18	85.62
431.402	101.62
431.624	86.62
431.846	90.62
432.068	89.62
432.29	98.62
432.512	99.62
432.734	96.62
432.956	85.62
433.178	95.62
433.4	127.62
433.622	85.62
433.844	81.62
434.066	96.62
434.287	99.62
434.509	95.62
434.731	94.62
434.953	102.62
435.175	87.62
435.397	99.62
435.618	114.62
435.84	110.62
436.062	161.62
436.284	146.62
436.505	113.62
436.727	97.62
436.949	88.62
437.17	98.62
437.392	91.62
437.614	95.62
437.835	156.62
438.057	196.62
438.278	146.62
438.5	134.62
438.721	150.62
438.943	133.62
439.165	93.62
439.386	91.62
439.608	86.62
439.829	135.62
440.05	186.62
440.272	236.62
440.493	131.62
440.715	88.62
440.936	86.62
441.158	101.62
441.379	95.62
441.6	114.62
441.822	105.62
442.043	105.62
442.264	134.62
442.486	124.62
442.707	112.62
442.928	146.62
443.149	223.62
443.371	222.62
443.592	162.62
443.813	149.62
444.034	126.62
444.255	111.62
444.476	99.62
444.698	81.62
444.919	98.62
445.14	126.62
445.361	140.62
445.582	163.62
445.803	214.62
446.024	212.62
446.245	181.62
446.466	140.62
446.687	100.62
446.908	96.62
447.129	98.62
447.35	94.62
447.571	114.62
447.792	113.62
448.013	101.62
448.234	134.62
448.455	126.62
448.675	137.62
448.896	155.62
449.117	118.62
449.338	136.62
449.559	167.62
449.779	165.62
450	95.62
450.221	97.62
450.442	98.62
450.662	103.62
450.883	158.62
451.104	178.62
451.324	129.62
451.545	95.62
451.766	86.62
451.986	91.62
452.207	87.62
452.428	90.62
452.648	103.62
452.869	158.62
453.089	177.62
453.31	179.62
453.53	121.62
453.751	112.62
453.971	147.62
454.192	168.62
454.412	108.62
454.633	101.62
454.853	85.62
455.073	99.62
455.294	98.62
455.514	119.62
455.734	98.62
455.955	81.62
456.175	82.62
456.395	82.62
456.616	90.62
456.836	77.62
457.056	91.62
457.276	85.62
457.497	85.62
457.717	92.62
457.937	99.62
458.157	92.62
458.377	105.62
458.598	147.62
458.818	304.62
459.038	331.62
459.258	186.62
459.478	107.62
459.698	105.62
459.918	84.62
460.138	101.62
460.358	108.62
460.578	94.62
460.798	109.62
461.018	92.62
461.238	71.62
461.458	75.62
461.678	75.62
461.898	88.62
462.118	85.62
462.338	84.62
462.558	90.62
462.777	86.62
462.997	104.62
463.217	105.62
463.437	85.62
463.657	91.62
463.876	96.62
464.096	104.62
464.316	105.62
464.536	114.62
464.755	120.62
464.975	147.62
465.195	365.62
465.414	339.62
465.634	130.62
465.854	99.62
466.073	98.62
466.293	106.62
466.512	97.62
466.732	95.62
466.951	94.62
467.171	112.62
467.391	129.62
467.61	188.62
467.829	267.62
468.049	797.62
468.268	1223.62
468.488	297.62
468.707	126.62
468.927	91.62
469.146	97.62
469.365	91.62
469.585	103.62
469.804	125.62
470.023	132.62
470.243	125.62
470.462	151.62
470.681	179.62
470.901	108.62
471.12	115.62
471.339	105.62
471.558	132.62
471.777	193.62
471.997	386.62
472.216	1585.62
472.435	3656.62
472.654	809.62
472.873	201.62
473.092	119.62
473.311	101.62
473.53	84.62
473.749	94.62
473.968	114.62
474.187	156.62
474.406	128.62
474.625	84.62
474.844	78.62
475.063	98.62
475.282	90.62
475.501	90.62
475.72	96.62
475.939	92.62
476.158	75.62
476.377	99.62
476.596	98.62
476.814	98.62
477.033	115.62
477.252	100.62
477.471	83.62
477.69	102.62
477.908	86.62
478.127	79.62
478.346	89.62
478.564	99.62
478.783	107.62
479.002	126.62
479.22	130.62
479.439	151.62
479.658	164.62
479.876	136.62
480.095	129.62
480.313	146.62
480.532	192.62
480.751	365.62
480.969	1441.62
481.188	6306.62
481.406	3519.62
481.624	476.62
481.843	153.62
482.061	133.62
482.28	100.62
482.498	105.62
482.717	99.62
482.935	90.62
483.153	91.62
483.372	83.62
483.59	86.62
483.808	92.62
484.027	82.62
484.245	100.62
484.463	102.62
484.681	93.62
484.9	93.62
485.118	95.62
485.336	109.62
485.554	103.62
485.772	101.62
485.99	99.62
486.209	131.62
486.427	115.62
486.645	151.62
486.863	156.62
487.081	126.62
487.299	105.62
487.517	91.62
487.735	100.62
487.953	93.62
488.171	94.62
488.389	100.62
488.607	102.62
488.825	93.62
489.043	91.62
489.261	81.62
489.479	85.62
489.696	89.62
489.914	87.62
490.132	90.62
490.35	94.62
490.568	97.62
490.786	78.62
491.003	93.62
491.221	102.62
491.439	79.62
491.657	84.62
491.874	102.62
492.092	86.62
492.31	90.62
492.527	99.62
492.745	90.62
492.963	97.62
493.18	106.62
493.398	101.62
493.615	87.62
493.833	86.62
494.05	81.62
494.268	90.62
494.485	92.62
494.703	75.62
494.92	93.62
495.138	91.62
495.355	84.62
495.573	110.62
495.79	90.62
496.008	91.62
496.225	92.62
496.442	92.62
496.66	87.62
496.877	94.62
497.094	87.62
497.312	86.62
497.529	101.62
497.746	97.62
497.963	98.62
498.181	105.62
498.398	92.62
498.615	126.62
498.832	110.62
499.049	82.62
499.267	83.62
499.484	75.62
499.701	85.62
499.918	91.62
500.135	93.62
500.352	85.62
500.569	99.62
500.786	108.62
501.003	91.62
501.22	91.62
501.437	90.62
501.654	110.62
501.871	153.62
502.088	105.62
502.305	89.62
502.522	100.62
502.739	92.62
502.956	100.62
503.172	87.62
503.389	119.62
503.606	153.62
503.823	133.62
504.04	102.62
504.256	98.62
504.473	93.62
504.69	110.62
504.907	99.62
505.123	91.62
505.34	94.62
505.557	85.62
505.773	78.62
505.99	90.62
506.207	82.62
506.423	105.62
506.64	95.62
506.856	86.62
507.073	99.62
507.289	94.62
507.506	110.62
507.722	170.62
507.939	179.62
508.155	113.62
508.372	96.62
508.588	106.62
508.805	100.62
509.021	99.62
509.238	106.62
509.454	123.62
509.67	121.62
509.887	132.62
510.103	173.62
510.319	342.62
510.536	1465.62
510.752	5293.62
510.968	1341.62
511.184	251.62
511.401	165.62
511.617	131.62
