Data from Circ_1999_H10_HRD10591_00015.txt Node
Date: Wed Jan 03 11:23:15 EST 2024
User: Yrep
Spectrometer: HR+D1059
Trigger mode: 1
Integration Time (sec): 1.000000E-1
Scans to average: 1
Electric dark correction enabled: true
Nonlinearity correction enabled: false
Boxcar width: 0
XAxis mode: Wavelengths
Number of Pixels in Spectrum: 2048
>>>>>Begin Spectral Data<<<<<
223.165	-18.25
223.4	-18.25
223.635	-18.25
223.869	-27.25
224.104	-25.25
224.338	-18.25
224.573	-14.25
224.808	-10.25
225.042	-17.25
225.277	-1.25
225.511	-2.25
225.746	7.75
225.98	12.75
226.215	22.75
226.449	12.75
226.683	21.75
226.918	27.75
227.152	28.75
227.387	40.75
227.621	44.75
227.856	39.75
228.09	55.75
228.324	55.75
228.559	54.75
228.793	66.75
229.027	65.75
229.262	66.75
229.496	83.75
229.73	101.75
229.964	92.75
230.199	75.75
230.433	87.75
230.667	83.75
230.901	78.75
231.136	80.75
231.37	63.75
231.604	80.75
231.838	64.75
232.072	62.75
232.306	87.75
232.541	82.75
232.775	82.75
233.009	87.75
233.243	90.75
233.477	66.75
233.711	101.75
233.945	87.75
234.179	70.75
234.413	95.75
234.647	87.75
234.881	75.75
235.115	78.75
235.349	75.75
235.583	84.75
235.817	77.75
236.051	78.75
236.285	89.75
236.519	75.75
236.753	82.75
236.987	84.75
237.221	110.75
237.455	99.75
237.689	88.75
237.922	76.75
238.156	87.75
238.39	79.75
238.624	80.75
238.858	81.75
239.091	85.75
239.325	84.75
239.559	93.75
239.793	85.75
240.027	72.75
240.26	92.75
240.494	96.75
240.728	89.75
240.961	96.75
241.195	91.75
241.429	80.75
241.662	67.75
241.896	87.75
242.13	64.75
242.363	70.75
242.597	85.75
242.83	76.75
243.064	78.75
243.298	88.75
243.531	78.75
243.765	82.75
243.998	73.75
244.232	82.75
244.465	100.75
244.699	91.75
244.932	86.75
245.166	90.75
245.399	74.75
245.633	70.75
245.866	77.75
246.099	91.75
246.333	75.75
246.566	86.75
246.8	91.75
247.033	102.75
247.266	88.75
247.5	83.75
247.733	82.75
247.966	78.75
248.2	90.75
248.433	81.75
248.666	88.75
248.899	90.75
249.133	96.75
249.366	102.75
249.599	91.75
249.832	82.75
250.066	86.75
250.299	99.75
250.532	97.75
250.765	75.75
250.998	81.75
251.231	94.75
251.465	86.75
251.698	88.75
251.931	82.75
252.164	96.75
252.397	87.75
252.63	89.75
252.863	82.75
253.096	74.75
253.329	84.75
253.562	82.75
253.795	88.75
254.028	79.75
254.261	82.75
254.494	80.75
254.727	86.75
254.96	81.75
255.193	80.75
255.426	72.75
255.659	90.75
255.892	82.75
256.124	92.75
256.357	89.75
256.59	80.75
256.823	86.75
257.056	87.75
257.289	84.75
257.521	102.75
257.754	84.75
257.987	82.75
258.22	104.75
258.452	88.75
258.685	81.75
258.918	92.75
259.151	93.75
259.383	96.75
259.616	87.75
259.849	96.75
260.081	82.75
260.314	89.75
260.547	74.75
260.779	102.75
261.012	98.75
261.244	122.75
261.477	96.75
261.71	115.75
261.942	132.75
262.175	158.75
262.407	105.75
262.64	77.75
262.872	90.75
263.105	80.75
263.337	105.75
263.57	93.75
263.802	91.75
264.035	94.75
264.267	90.75
264.499	78.75
264.732	99.75
264.964	94.75
265.197	83.75
265.429	90.75
265.661	98.75
265.894	76.75
266.126	98.75
266.358	96.75
266.591	93.75
266.823	83.75
267.055	95.75
267.287	99.75
267.52	78.75
267.752	90.75
267.984	95.75
268.216	85.75
268.448	94.75
268.681	97.75
268.913	91.75
269.145	85.75
269.377	98.75
269.609	99.75
269.841	99.75
270.073	74.75
270.306	76.75
270.538	63.75
270.77	87.75
271.002	88.75
271.234	100.75
271.466	91.75
271.698	91.75
271.93	77.75
272.162	90.75
272.394	95.75
272.626	86.75
272.858	89.75
273.09	88.75
273.322	100.75
273.553	94.75
273.785	90.75
274.017	100.75
274.249	85.75
274.481	76.75
274.713	91.75
274.945	90.75
275.176	92.75
275.408	116.75
275.64	125.75
275.872	135.75
276.104	117.75
276.335	97.75
276.567	106.75
276.799	138.75
277.031	176.75
277.262	198.75
277.494	152.75
277.726	89.75
277.957	86.75
278.189	93.75
278.421	84.75
278.652	94.75
278.884	103.75
279.115	96.75
279.347	105.75
279.579	101.75
279.81	133.75
280.042	177.75
280.273	274.75
280.505	178.75
280.736	103.75
280.968	101.75
281.199	90.75
281.431	82.75
281.662	78.75
281.894	105.75
282.125	100.75
282.356	154.75
282.588	179.75
282.819	154.75
283.051	94.75
283.282	86.75
283.513	97.75
283.745	80.75
283.976	97.75
284.207	89.75
284.439	76.75
284.67	76.75
284.901	96.75
285.132	95.75
285.364	88.75
285.595	93.75
285.826	97.75
286.057	87.75
286.288	86.75
286.52	84.75
286.751	94.75
286.982	96.75
287.213	100.75
287.444	95.75
287.675	92.75
287.906	95.75
288.138	89.75
288.369	96.75
288.6	93.75
288.831	100.75
289.062	112.75
289.293	93.75
289.524	80.75
289.755	84.75
289.986	88.75
290.217	99.75
290.448	95.75
290.679	82.75
290.91	106.75
291.141	89.75
291.371	98.75
291.602	95.75
291.833	81.75
292.064	90.75
292.295	87.75
292.526	98.75
292.757	94.75
292.987	93.75
293.218	92.75
293.449	86.75
293.68	90.75
293.91	96.75
294.141	86.75
294.372	97.75
294.603	78.75
294.833	91.75
295.064	95.75
295.295	91.75
295.525	101.75
295.756	109.75
295.987	145.75
296.217	170.75
296.448	149.75
296.679	100.75
296.909	93.75
297.14	94.75
297.37	102.75
297.601	96.75
297.831	98.75
298.062	95.75
298.292	97.75
298.523	93.75
298.753	88.75
298.984	86.75
299.214	86.75
299.445	87.75
299.675	104.75
299.905	104.75
300.136	100.75
300.366	89.75
300.597	97.75
300.827	92.75
301.057	122.75
301.288	118.75
301.518	124.75
301.748	108.75
301.979	116.75
302.209	106.75
302.439	115.75
302.669	98.75
302.9	90.75
303.13	98.75
303.36	106.75
303.59	155.75
303.82	170.75
304.051	108.75
304.281	89.75
304.511	91.75
304.741	98.75
304.971	95.75
305.201	80.75
305.431	93.75
305.661	87.75
305.891	100.75
306.121	110.75
306.352	122.75
306.582	134.75
306.812	126.75
307.042	119.75
307.272	157.75
307.502	189.75
307.731	169.75
307.961	129.75
308.191	122.75
308.421	102.75
308.651	110.75
308.881	100.75
309.111	101.75
309.341	89.75
309.571	116.75
309.8	115.75
310.03	112.75
310.26	102.75
310.49	97.75
310.72	125.75
310.949	126.75
311.179	134.75
311.409	97.75
311.639	121.75
311.868	100.75
312.098	108.75
312.328	114.75
312.557	130.75
312.787	128.75
313.017	109.75
313.246	103.75
313.476	89.75
313.706	119.75
313.935	111.75
314.165	109.75
314.394	118.75
314.624	112.75
314.853	112.75
315.083	96.75
315.312	104.75
315.542	86.75
315.771	86.75
316.001	94.75
316.23	101.75
316.46	91.75
316.689	101.75
316.919	111.75
317.148	92.75
317.377	108.75
317.607	107.75
317.836	105.75
318.065	92.75
318.295	95.75
318.524	94.75
318.753	104.75
318.983	103.75
319.212	106.75
319.441	124.75
319.67	135.75
319.9	94.75
320.129	93.75
320.358	100.75
320.587	104.75
320.816	118.75
321.046	115.75
321.275	110.75
321.504	102.75
321.733	103.75
321.962	127.75
322.191	112.75
322.42	127.75
322.649	138.75
322.878	125.75
323.108	128.75
323.337	156.75
323.566	167.75
323.795	188.75
324.024	252.75
324.253	460.75
324.482	964.75
324.71	1928.75
324.939	2510.75
325.168	947.75
325.397	278.75
325.626	168.75
325.855	164.75
326.084	122.75
326.313	142.75
326.542	171.75
326.77	269.75
326.999	482.75
327.228	970.75
327.457	1795.75
327.686	1456.75
327.914	552.75
328.143	538.75
328.372	690.75
328.6	388.75
328.829	200.75
329.058	216.75
329.287	208.75
329.515	184.75
329.744	258.75
329.972	505.75
330.201	1023.75
330.43	1440.75
330.658	625.75
330.887	290.75
331.115	211.75
331.344	126.75
331.572	118.75
331.801	142.75
332.03	134.75
332.258	124.75
332.486	99.75
332.715	122.75
332.943	123.75
333.172	139.75
333.4	153.75
333.629	165.75
333.857	247.75
334.085	453.75
334.314	919.75
334.542	1781.75
334.771	1607.75
334.999	419.75
335.227	182.75
335.455	134.75
335.684	115.75
335.912	104.75
336.14	113.75
336.369	120.75
336.597	128.75
336.825	133.75
337.053	89.75
337.281	98.75
337.51	103.75
337.738	108.75
337.966	115.75
338.194	116.75
338.422	108.75
338.65	108.75
338.878	105.75
339.106	102.75
339.334	103.75
339.562	87.75
339.79	102.75
340.018	110.75
340.246	103.75
340.474	103.75
340.702	100.75
340.93	99.75
341.158	106.75
341.386	102.75
341.614	118.75
341.842	99.75
342.07	95.75
342.298	86.75
342.526	80.75
342.754	103.75
342.981	95.75
343.209	104.75
343.437	100.75
343.665	97.75
343.893	98.75
344.12	88.75
344.348	99.75
344.576	86.75
344.804	97.75
345.031	118.75
345.259	110.75
345.487	106.75
345.714	94.75
345.942	100.75
346.17	98.75
346.397	116.75
346.625	107.75
346.853	106.75
347.08	95.75
347.308	104.75
347.535	100.75
347.763	123.75
347.99	117.75
348.218	127.75
348.445	140.75
348.673	124.75
348.9	113.75
349.128	108.75
349.355	103.75
349.583	98.75
349.81	96.75
350.037	93.75
350.265	91.75
350.492	90.75
350.72	93.75
350.947	106.75
351.174	109.75
351.402	139.75
351.629	113.75
351.856	109.75
352.083	121.75
352.311	130.75
352.538	140.75
352.765	154.75
352.992	128.75
353.22	127.75
353.447	122.75
353.674	104.75
353.901	109.75
354.128	126.75
354.355	80.75
354.583	102.75
354.81	90.75
355.037	77.75
355.264	108.75
355.491	93.75
355.718	86.75
355.945	84.75
356.172	100.75
356.399	96.75
356.626	100.75
356.853	100.75
357.08	106.75
357.307	95.75
357.534	100.75
357.761	95.75
357.988	107.75
358.215	99.75
358.441	104.75
358.668	100.75
358.895	83.75
359.122	87.75
359.349	92.75
359.576	97.75
359.802	115.75
360.029	154.75
360.256	158.75
360.483	113.75
360.709	86.75
360.936	108.75
361.163	100.75
361.39	101.75
361.616	117.75
361.843	94.75
362.07	113.75
362.296	111.75
362.523	111.75
362.749	87.75
362.976	94.75
363.203	96.75
363.429	94.75
363.656	81.75
363.882	91.75
364.109	97.75
364.335	94.75
364.562	106.75
364.788	114.75
365.015	116.75
365.241	100.75
365.468	122.75
365.694	117.75
365.92	114.75
366.147	114.75
366.373	105.75
366.599	98.75
366.826	86.75
367.052	86.75
367.278	95.75
367.505	94.75
367.731	104.75
367.957	121.75
368.184	103.75
368.41	101.75
368.636	133.75
368.862	145.75
369.089	122.75
369.315	106.75
369.541	86.75
369.767	94.75
369.993	98.75
370.219	95.75
370.445	90.75
370.672	86.75
370.898	99.75
371.124	86.75
371.35	94.75
371.576	90.75
371.802	94.75
372.028	97.75
372.254	108.75
372.48	84.75
372.706	87.75
372.932	90.75
373.158	85.75
373.384	96.75
373.61	98.75
373.835	98.75
374.061	94.75
374.287	97.75
374.513	91.75
374.739	104.75
374.965	95.75
375.191	96.75
375.416	95.75
375.642	85.75
375.868	84.75
376.094	102.75
376.319	111.75
376.545	82.75
376.771	90.75
376.997	105.75
377.222	94.75
377.448	95.75
377.674	95.75
377.899	89.75
378.125	106.75
378.35	91.75
378.576	90.75
378.802	103.75
379.027	91.75
379.253	95.75
379.478	100.75
379.704	105.75
379.929	89.75
380.155	82.75
380.38	102.75
380.606	119.75
380.831	103.75
381.057	100.75
381.282	97.75
381.507	100.75
381.733	114.75
381.958	90.75
382.184	109.75
382.409	120.75
382.634	121.75
382.86	114.75
383.085	113.75
383.31	109.75
383.535	110.75
383.761	108.75
383.986	114.75
384.211	115.75
384.436	114.75
384.662	113.75
384.887	116.75
385.112	105.75
385.337	115.75
385.562	115.75
385.787	115.75
386.013	137.75
386.238	131.75
386.463	127.75
386.688	122.75
386.913	117.75
387.138	122.75
387.363	110.75
387.588	114.75
387.813	107.75
388.038	98.75
388.263	126.75
388.488	121.75
388.713	111.75
388.938	94.75
389.163	101.75
389.387	85.75
389.612	94.75
389.837	103.75
390.062	96.75
390.287	86.75
390.512	83.75
390.736	72.75
390.961	87.75
391.186	107.75
391.411	109.75
391.636	90.75
391.86	98.75
392.085	86.75
392.31	90.75
392.534	98.75
392.759	92.75
392.984	104.75
393.208	87.75
393.433	105.75
393.658	98.75
393.882	87.75
394.107	86.75
394.331	82.75
394.556	88.75
394.78	83.75
395.005	78.75
395.229	88.75
395.454	99.75
395.678	82.75
395.903	88.75
396.127	95.75
396.352	92.75
396.576	89.75
396.801	84.75
397.025	88.75
397.249	94.75
397.474	99.75
397.698	86.75
397.922	95.75
398.147	102.75
398.371	91.75
398.595	82.75
398.82	85.75
399.044	87.75
399.268	79.75
399.492	84.75
399.717	85.75
399.941	78.75
400.165	105.75
400.389	98.75
400.613	87.75
400.837	95.75
401.062	99.75
401.286	107.75
401.51	103.75
401.734	108.75
401.958	113.75
402.182	165.75
402.406	210.75
402.63	160.75
402.854	119.75
403.078	98.75
403.302	99.75
403.526	78.75
403.75	91.75
403.974	90.75
404.198	92.75
404.422	83.75
404.645	82.75
404.869	100.75
405.093	118.75
405.317	137.75
405.541	131.75
405.765	130.75
405.988	145.75
406.212	236.75
406.436	357.75
406.66	225.75
406.883	106.75
407.107	122.75
407.331	118.75
407.555	119.75
407.778	112.75
408.002	107.75
408.226	106.75
408.449	100.75
408.673	80.75
408.896	102.75
409.12	103.75
409.344	110.75
409.567	87.75
409.791	86.75
410.014	95.75
410.238	100.75
410.461	84.75
410.685	97.75
410.908	90.75
411.132	130.75
411.355	109.75
411.578	82.75
411.802	97.75
412.025	81.75
412.249	84.75
412.472	108.75
412.695	134.75
412.919	107.75
413.142	94.75
413.365	106.75
413.589	100.75
413.812	97.75
414.035	116.75
414.258	102.75
414.482	102.75
414.705	100.75
414.928	80.75
415.151	91.75
415.374	103.75
415.597	99.75
415.821	103.75
416.044	89.75
416.267	119.75
416.49	97.75
416.713	94.75
416.936	95.75
417.159	77.75
417.382	96.75
417.605	108.75
417.828	108.75
418.051	105.75
418.274	92.75
418.497	89.75
418.72	94.75
418.943	91.75
419.166	97.75
419.389	78.75
419.611	92.75
419.834	102.75
420.057	108.75
420.28	96.75
420.503	91.75
420.726	96.75
420.948	103.75
421.171	93.75
421.394	98.75
421.617	81.75
421.839	81.75
422.062	93.75
422.285	94.75
422.507	110.75
422.73	104.75
422.953	93.75
423.175	89.75
423.398	106.75
423.621	73.75
423.843	89.75
424.066	91.75
424.288	91.75
424.511	98.75
424.733	105.75
424.956	127.75
425.178	118.75
425.401	113.75
425.623	95.75
425.846	115.75
426.068	94.75
426.291	90.75
426.513	105.75
426.735	105.75
426.958	93.75
427.18	122.75
427.402	179.75
427.625	270.75
427.847	230.75
428.069	199.75
428.292	135.75
428.514	97.75
428.736	79.75
428.958	87.75
429.181	88.75
429.403	83.75
429.625	95.75
429.847	95.75
430.069	119.75
430.292	100.75
430.514	89.75
430.736	92.75
430.958	82.75
431.18	78.75
431.402	105.75
431.624	96.75
431.846	85.75
432.068	93.75
432.29	78.75
432.512	94.75
432.734	88.75
432.956	92.75
433.178	94.75
433.4	107.75
433.622	104.75
433.844	97.75
434.066	97.75
434.287	110.75
434.509	93.75
434.731	99.75
434.953	109.75
435.175	78.75
435.397	108.75
435.618	103.75
435.84	113.75
436.062	140.75
436.284	131.75
436.505	97.75
436.727	103.75
436.949	90.75
437.17	85.75
437.392	99.75
437.614	114.75
437.835	129.75
438.057	156.75
438.278	137.75
438.5	119.75
438.721	134.75
438.943	96.75
439.165	91.75
439.386	93.75
439.608	94.75
439.829	114.75
440.05	143.75
440.272	185.75
440.493	106.75
440.715	112.75
440.936	92.75
441.158	91.75
441.379	107.75
441.6	103.75
441.822	114.75
442.043	105.75
442.264	116.75
442.486	114.75
442.707	100.75
442.928	121.75
443.149	172.75
443.371	172.75
443.592	146.75
443.813	126.75
444.034	124.75
444.255	98.75
444.476	105.75
444.698	94.75
444.919	97.75
445.14	140.75
445.361	123.75
445.582	133.75
445.803	178.75
446.024	188.75
446.245	156.75
446.466	116.75
446.687	91.75
446.908	107.75
447.129	96.75
447.35	100.75
447.571	108.75
447.792	104.75
448.013	122.75
448.234	128.75
448.455	115.75
448.675	119.75
448.896	126.75
449.117	111.75
449.338	112.75
449.559	142.75
449.779	157.75
450	105.75
450.221	100.75
450.442	94.75
450.662	115.75
450.883	126.75
451.104	167.75
451.324	114.75
451.545	98.75
451.766	100.75
451.986	96.75
452.207	100.75
452.428	106.75
452.648	121.75
452.869	141.75
453.089	141.75
453.31	152.75
453.53	111.75
453.751	105.75
453.971	124.75
454.192	147.75
454.412	102.75
454.633	82.75
454.853	87.75
455.073	91.75
455.294	98.75
455.514	116.75
455.734	102.75
455.955	80.75
456.175	98.75
456.395	78.75
456.616	91.75
456.836	95.75
457.056	91.75
457.276	95.75
457.497	105.75
457.717	103.75
457.937	98.75
458.157	92.75
458.377	108.75
458.598	131.75
458.818	231.75
459.038	244.75
459.258	154.75
459.478	112.75
459.698	95.75
459.918	97.75
460.138	87.75
460.358	97.75
460.578	80.75
460.798	87.75
461.018	107.75
461.238	73.75
461.458	79.75
461.678	89.75
461.898	92.75
462.118	87.75
462.338	86.75
462.558	81.75
462.777	90.75
462.997	102.75
463.217	108.75
463.437	95.75
463.657	90.75
463.876	87.75
464.096	101.75
464.316	111.75
464.536	105.75
464.755	125.75
464.975	140.75
465.195	276.75
465.414	266.75
465.634	118.75
465.854	100.75
466.073	103.75
466.293	103.75
466.512	89.75
466.732	95.75
466.951	106.75
467.171	97.75
467.391	127.75
467.61	161.75
467.829	232.75
468.049	572.75
468.268	843.75
468.488	228.75
468.707	111.75
468.927	92.75
469.146	96.75
469.365	97.75
469.585	103.75
469.804	102.75
470.023	119.75
470.243	110.75
470.462	123.75
470.681	155.75
470.901	117.75
471.12	100.75
471.339	110.75
471.558	116.75
471.777	163.75
471.997	283.75
472.216	1094.75
472.435	2509.75
472.654	603.75
472.873	180.75
473.092	123.75
473.311	100.75
473.53	98.75
473.749	97.75
473.968	107.75
474.187	103.75
474.406	118.75
474.625	105.75
474.844	98.75
475.063	98.75
475.282	90.75
475.501	96.75
475.72	106.75
475.939	94.75
476.158	91.75
476.377	87.75
476.596	100.75
476.814	100.75
477.033	112.75
477.252	98.75
477.471	97.75
477.69	94.75
477.908	100.75
478.127	88.75
478.346	108.75
478.564	122.75
478.783	121.75
479.002	123.75
479.22	106.75
479.439	122.75
479.658	142.75
479.876	144.75
480.095	119.75
480.313	143.75
480.532	156.75
480.751	292.75
480.969	1001.75
481.188	4217.75
481.406	2434.75
481.624	373.75
481.843	131.75
482.061	139.75
482.28	92.75
482.498	96.75
482.717	100.75
482.935	86.75
483.153	96.75
483.372	102.75
483.59	99.75
483.808	95.75
484.027	101.75
484.245	105.75
484.463	105.75
484.681	110.75
484.9	96.75
485.118	103.75
485.336	101.75
485.554	117.75
485.772	118.75
485.99	108.75
486.209	120.75
486.427	106.75
486.645	125.75
486.863	134.75
487.081	133.75
487.299	103.75
487.517	111.75
487.735	118.75
487.953	105.75
488.171	104.75
488.389	105.75
488.607	106.75
488.825	94.75
489.043	97.75
489.261	99.75
489.479	98.75
489.696	100.75
489.914	103.75
490.132	91.75
490.35	93.75
490.568	101.75
490.786	96.75
491.003	97.75
491.221	87.75
491.439	92.75
491.657	101.75
491.874	99.75
492.092	95.75
492.31	115.75
492.527	99.75
492.745	85.75
492.963	94.75
493.18	92.75
493.398	92.75
493.615	115.75
493.833	106.75
494.05	91.75
494.268	99.75
494.485	96.75
494.703	77.75
494.92	94.75
495.138	105.75
495.355	94.75
495.573	85.75
495.79	99.75
496.008	101.75
496.225	100.75
496.442	99.75
496.66	93.75
496.877	102.75
497.094	90.75
497.312	111.75
497.529	84.75
497.746	122.75
497.963	100.75
498.181	115.75
498.398	117.75
498.615	123.75
498.832	103.75
499.049	80.75
499.267	94.75
499.484	91.75
499.701	104.75
499.918	94.75
500.135	96.75
500.352	88.75
500.569	81.75
500.786	99.75
501.003	103.75
501.22	95.75
501.437	103.75
501.654	102.75
501.871	135.75
502.088	102.75
502.305	83.75
502.522	93.75
502.739	88.75
502.956	106.75
503.172	99.75
503.389	112.75
503.606	129.75
503.823	120.75
504.04	104.75
504.256	98.75
504.473	85.75
504.69	92.75
504.907	102.75
505.123	78.75
505.34	100.75
505.557	99.75
505.773	110.75
505.99	87.75
506.207	94.75
506.423	88.75
506.64	96.75
506.856	114.75
507.073	93.75
507.289	99.75
507.506	107.75
507.722	149.75
507.939	130.75
508.155	114.75
508.372	102.75
508.588	91.75
508.805	105.75
509.021	110.75
509.238	97.75
509.454	95.75
509.67	112.75
509.887	141.75
510.103	156.75
510.319	259.75
510.536	1061.75
510.752	3895.75
510.968	1000.75
