Data from Circ_1999_H10_HRD10591_00012.txt Node
Date: Wed Jan 03 11:23:15 EST 2024
User: Yrep
Spectrometer: HR+D1059
Trigger mode: 1
Integration Time (sec): 1.000000E-1
Scans to average: 1
Electric dark correction enabled: true
Nonlinearity correction enabled: false
Boxcar width: 0
XAxis mode: Wavelengths
Number of Pixels in Spectrum: 2048
>>>>>Begin Spectral Data<<<<<
223.165	0.06
223.4	0.06
223.635	0.06
223.869	-23.94
224.104	-24.94
224.338	-21.94
224.573	-9.94
224.808	-10.94
225.042	-12.94
225.277	-14.94
225.511	-3.94
225.746	4.06
225.98	-5.94
226.215	8.06
226.449	24.06
226.683	31.06
226.918	33.06
227.152	29.06
227.387	33.06
227.621	32.06
227.856	42.06
228.09	58.06
228.324	40.06
228.559	46.06
228.793	70.06
229.027	75.06
229.262	77.06
229.496	89.06
229.73	92.06
229.964	76.06
230.199	78.06
230.433	68.06
230.667	81.06
230.901	79.06
231.136	74.06
231.37	71.06
231.604	74.06
231.838	85.06
232.072	82.06
232.306	72.06
232.541	74.06
232.775	86.06
233.009	72.06
233.243	76.06
233.477	86.06
233.711	94.06
233.945	88.06
234.179	82.06
234.413	96.06
234.647	86.06
234.881	73.06
235.115	61.06
235.349	89.06
235.583	73.06
235.817	71.06
236.051	79.06
236.285	85.06
236.519	70.06
236.753	88.06
236.987	83.06
237.221	89.06
237.455	105.06
237.689	65.06
237.922	74.06
238.156	82.06
238.39	100.06
238.624	82.06
238.858	72.06
239.091	69.06
239.325	88.06
239.559	70.06
239.793	81.06
240.027	71.06
240.26	70.06
240.494	79.06
240.728	88.06
240.961	83.06
241.195	77.06
241.429	77.06
241.662	82.06
241.896	75.06
242.13	70.06
242.363	67.06
242.597	82.06
242.83	62.06
243.064	71.06
243.298	74.06
243.531	90.06
243.765	78.06
243.998	78.06
244.232	88.06
244.465	79.06
244.699	84.06
244.932	83.06
245.166	76.06
245.399	74.06
245.633	77.06
245.866	79.06
246.099	77.06
246.333	68.06
246.566	79.06
246.8	73.06
247.033	76.06
247.266	85.06
247.5	78.06
247.733	76.06
247.966	80.06
248.2	84.06
248.433	83.06
248.666	83.06
248.899	79.06
249.133	91.06
249.366	109.06
249.599	95.06
249.832	84.06
250.066	85.06
250.299	79.06
250.532	82.06
250.765	86.06
250.998	80.06
251.231	80.06
251.465	94.06
251.698	74.06
251.931	90.06
252.164	61.06
252.397	66.06
252.63	93.06
252.863	94.06
253.096	92.06
253.329	77.06
253.562	71.06
253.795	83.06
254.028	96.06
254.261	87.06
254.494	80.06
254.727	85.06
254.96	70.06
255.193	75.06
255.426	81.06
255.659	80.06
255.892	88.06
256.124	92.06
256.357	83.06
256.59	87.06
256.823	75.06
257.056	67.06
257.289	92.06
257.521	65.06
257.754	68.06
257.987	92.06
258.22	86.06
258.452	95.06
258.685	92.06
258.918	80.06
259.151	78.06
259.383	102.06
259.616	86.06
259.849	85.06
260.081	88.06
260.314	105.06
260.547	84.06
260.779	100.06
261.012	98.06
261.244	78.06
261.477	90.06
261.71	92.06
261.942	135.06
262.175	133.06
262.407	96.06
262.64	89.06
262.872	93.06
263.105	83.06
263.337	91.06
263.57	88.06
263.802	86.06
264.035	96.06
264.267	79.06
264.499	84.06
264.732	88.06
264.964	95.06
265.197	83.06
265.429	79.06
265.661	85.06
265.894	88.06
266.126	83.06
266.358	88.06
266.591	87.06
266.823	68.06
267.055	61.06
267.287	76.06
267.52	78.06
267.752	75.06
267.984	104.06
268.216	80.06
268.448	79.06
268.681	99.06
268.913	89.06
269.145	94.06
269.377	82.06
269.609	83.06
269.841	86.06
270.073	80.06
270.306	102.06
270.538	77.06
270.77	78.06
271.002	78.06
271.234	86.06
271.466	90.06
271.698	94.06
271.93	95.06
272.162	95.06
272.394	77.06
272.626	75.06
272.858	100.06
273.09	89.06
273.322	93.06
273.553	79.06
273.785	86.06
274.017	85.06
274.249	90.06
274.481	94.06
274.713	100.06
274.945	86.06
275.176	92.06
275.408	79.06
275.64	100.06
275.872	102.06
276.104	90.06
276.335	94.06
276.567	115.06
276.799	152.06
277.031	143.06
277.262	158.06
277.494	123.06
277.726	102.06
277.957	85.06
278.189	90.06
278.421	86.06
278.652	95.06
278.884	72.06
279.115	84.06
279.347	82.06
279.579	90.06
279.81	96.06
280.042	150.06
280.273	194.06
280.505	143.06
280.736	95.06
280.968	102.06
281.199	92.06
281.431	95.06
281.662	91.06
281.894	104.06
282.125	101.06
282.356	123.06
282.588	169.06
282.819	126.06
283.051	85.06
283.282	79.06
283.513	76.06
283.745	79.06
283.976	69.06
284.207	99.06
284.439	96.06
284.67	96.06
284.901	76.06
285.132	93.06
285.364	79.06
285.595	80.06
285.826	82.06
286.057	80.06
286.288	86.06
286.52	90.06
286.751	74.06
286.982	90.06
287.213	77.06
287.444	83.06
287.675	89.06
287.906	96.06
288.138	92.06
288.369	86.06
288.6	97.06
288.831	87.06
289.062	84.06
289.293	83.06
289.524	83.06
289.755	82.06
289.986	72.06
290.217	77.06
290.448	84.06
290.679	82.06
290.91	92.06
291.141	96.06
291.371	84.06
291.602	83.06
291.833	91.06
292.064	99.06
292.295	88.06
292.526	94.06
292.757	89.06
292.987	74.06
293.218	98.06
293.449	86.06
293.68	88.06
293.91	94.06
294.141	90.06
294.372	90.06
294.603	92.06
294.833	93.06
295.064	71.06
295.295	91.06
295.525	99.06
295.756	120.06
295.987	130.06
296.217	157.06
296.448	153.06
296.679	104.06
296.909	79.06
297.14	91.06
297.37	90.06
297.601	91.06
297.831	78.06
298.062	94.06
298.292	106.06
298.523	98.06
298.753	83.06
298.984	91.06
299.214	90.06
299.445	85.06
299.675	95.06
299.905	91.06
300.136	88.06
300.366	88.06
300.597	92.06
300.827	102.06
301.057	119.06
301.288	117.06
301.518	104.06
301.748	100.06
301.979	93.06
302.209	98.06
302.439	98.06
302.669	99.06
302.9	99.06
303.13	88.06
303.36	111.06
303.59	119.06
303.82	123.06
304.051	102.06
304.281	90.06
304.511	106.06
304.741	97.06
304.971	91.06
305.201	87.06
305.431	88.06
305.661	80.06
305.891	101.06
306.121	99.06
306.352	114.06
306.582	113.06
306.812	102.06
307.042	111.06
307.272	134.06
307.502	146.06
307.731	138.06
307.961	108.06
308.191	91.06
308.421	88.06
308.651	96.06
308.881	98.06
309.111	91.06
309.341	94.06
309.571	115.06
309.8	97.06
310.03	104.06
310.26	123.06
310.49	94.06
310.72	90.06
310.949	136.06
311.179	109.06
311.409	97.06
311.639	104.06
311.868	101.06
312.098	110.06
312.328	113.06
312.557	110.06
312.787	114.06
313.017	105.06
313.246	93.06
313.476	89.06
313.706	87.06
313.935	90.06
314.165	104.06
314.394	121.06
314.624	101.06
314.853	103.06
315.083	95.06
315.312	90.06
315.542	90.06
315.771	83.06
316.001	93.06
316.23	92.06
316.46	84.06
316.689	95.06
316.919	93.06
317.148	91.06
317.377	96.06
317.607	98.06
317.836	92.06
318.065	85.06
318.295	94.06
318.524	94.06
318.753	89.06
318.983	106.06
319.212	95.06
319.441	112.06
319.67	105.06
319.9	102.06
320.129	90.06
320.358	92.06
320.587	91.06
320.816	117.06
321.046	94.06
321.275	103.06
321.504	103.06
321.733	79.06
321.962	113.06
322.191	102.06
322.42	104.06
322.649	113.06
322.878	116.06
323.108	123.06
323.337	123.06
323.566	142.06
323.795	170.06
324.024	215.06
324.253	421.06
324.482	892.06
324.71	1749.06
324.939	2230.06
325.168	843.06
325.397	268.06
325.626	167.06
325.855	130.06
326.084	126.06
326.313	121.06
326.542	168.06
326.77	246.06
326.999	458.06
327.228	887.06
327.457	1578.06
327.686	1298.06
327.914	469.06
328.143	427.06
328.372	478.06
328.6	290.06
328.829	187.06
329.058	187.06
329.287	198.06
329.515	160.06
329.744	221.06
329.972	394.06
330.201	718.06
330.43	1002.06
330.658	483.06
330.887	251.06
331.115	171.06
331.344	104.06
331.572	115.06
331.801	123.06
332.03	122.06
332.258	115.06
332.486	102.06
332.715	117.06
332.943	102.06
333.172	105.06
333.4	136.06
333.629	138.06
333.857	203.06
334.085	349.06
334.314	703.06
334.542	1282.06
334.771	1186.06
334.999	322.06
335.227	158.06
335.455	123.06
335.684	107.06
335.912	103.06
336.14	101.06
336.369	122.06
336.597	103.06
336.825	111.06
337.053	91.06
337.281	91.06
337.51	100.06
337.738	98.06
337.966	96.06
338.194	89.06
338.422	105.06
338.65	99.06
338.878	88.06
339.106	76.06
339.334	72.06
339.562	81.06
339.79	103.06
340.018	98.06
340.246	89.06
340.474	110.06
340.702	96.06
340.93	88.06
341.158	85.06
341.386	90.06
341.614	110.06
341.842	87.06
342.07	102.06
342.298	96.06
342.526	101.06
342.754	76.06
342.981	94.06
343.209	90.06
343.437	105.06
343.665	105.06
343.893	98.06
344.12	83.06
344.348	95.06
344.576	102.06
344.804	92.06
345.031	108.06
345.259	106.06
345.487	96.06
345.714	102.06
345.942	92.06
346.17	106.06
346.397	109.06
346.625	106.06
346.853	96.06
347.08	93.06
347.308	113.06
347.535	102.06
347.763	116.06
347.99	96.06
348.218	99.06
348.445	109.06
348.673	100.06
348.9	104.06
349.128	75.06
349.355	101.06
349.583	87.06
349.81	100.06
350.037	98.06
350.265	97.06
350.492	111.06
350.72	105.06
350.947	111.06
351.174	115.06
351.402	129.06
351.629	111.06
351.856	103.06
352.083	115.06
352.311	131.06
352.538	108.06
352.765	129.06
352.992	133.06
353.22	105.06
353.447	102.06
353.674	93.06
353.901	87.06
354.128	100.06
354.355	104.06
354.583	101.06
354.81	84.06
355.037	96.06
355.264	87.06
355.491	95.06
355.718	87.06
355.945	83.06
356.172	84.06
356.399	87.06
356.626	93.06
356.853	89.06
357.08	94.06
357.307	109.06
357.534	96.06
357.761	98.06
357.988	84.06
358.215	95.06
358.441	99.06
358.668	94.06
358.895	102.06
359.122	95.06
359.349	76.06
359.576	97.06
359.802	118.06
360.029	130.06
360.256	145.06
360.483	103.06
360.709	94.06
360.936	108.06
361.163	108.06
361.39	101.06
361.616	92.06
361.843	83.06
362.07	105.06
362.296	115.06
362.523	98.06
362.749	93.06
362.976	102.06
363.203	92.06
363.429	73.06
363.656	91.06
363.882	93.06
364.109	102.06
364.335	92.06
364.562	103.06
364.788	91.06
365.015	102.06
365.241	98.06
365.468	113.06
365.694	114.06
365.92	89.06
366.147	94.06
366.373	90.06
366.599	86.06
366.826	89.06
367.052	93.06
367.278	72.06
367.505	88.06
367.731	94.06
367.957	95.06
368.184	102.06
368.41	104.06
368.636	113.06
368.862	119.06
369.089	103.06
369.315	95.06
369.541	94.06
369.767	92.06
369.993	91.06
370.219	76.06
370.445	79.06
370.672	92.06
370.898	97.06
371.124	96.06
371.35	88.06
371.576	75.06
371.802	82.06
372.028	87.06
372.254	100.06
372.48	78.06
372.706	79.06
372.932	102.06
373.158	82.06
373.384	74.06
373.61	88.06
373.835	89.06
374.061	77.06
374.287	96.06
374.513	85.06
374.739	83.06
374.965	94.06
375.191	107.06
375.416	108.06
375.642	98.06
375.868	90.06
376.094	86.06
376.319	86.06
376.545	96.06
376.771	90.06
376.997	91.06
377.222	82.06
377.448	91.06
377.674	95.06
377.899	91.06
378.125	94.06
378.35	95.06
378.576	94.06
378.802	82.06
379.027	94.06
379.253	100.06
379.478	92.06
379.704	96.06
379.929	101.06
380.155	117.06
380.38	99.06
380.606	96.06
380.831	93.06
381.057	100.06
381.282	86.06
381.507	91.06
381.733	105.06
381.958	115.06
382.184	91.06
382.409	103.06
382.634	91.06
382.86	94.06
383.085	110.06
383.31	119.06
383.535	102.06
383.761	104.06
383.986	112.06
384.211	95.06
384.436	109.06
384.662	99.06
384.887	109.06
385.112	114.06
385.337	120.06
385.562	120.06
385.787	117.06
386.013	127.06
386.238	128.06
386.463	122.06
386.688	129.06
386.913	111.06
387.138	125.06
387.363	110.06
387.588	104.06
387.813	100.06
388.038	126.06
388.263	120.06
388.488	129.06
388.713	110.06
388.938	89.06
389.163	95.06
389.387	83.06
389.612	75.06
389.837	88.06
390.062	103.06
390.287	78.06
390.512	83.06
390.736	82.06
390.961	82.06
391.186	80.06
391.411	92.06
391.636	92.06
391.86	91.06
392.085	87.06
392.31	81.06
392.534	86.06
392.759	75.06
392.984	102.06
393.208	100.06
393.433	95.06
393.658	92.06
393.882	76.06
394.107	94.06
394.331	91.06
394.556	89.06
394.78	79.06
395.005	88.06
395.229	86.06
395.454	89.06
395.678	78.06
395.903	88.06
396.127	105.06
396.352	92.06
396.576	79.06
396.801	76.06
397.025	79.06
397.249	85.06
397.474	79.06
397.698	81.06
397.922	94.06
398.147	103.06
398.371	94.06
398.595	91.06
398.82	75.06
399.044	86.06
399.268	86.06
399.492	100.06
399.717	79.06
399.941	91.06
400.165	99.06
400.389	103.06
400.613	94.06
400.837	97.06
401.062	90.06
401.286	92.06
401.51	88.06
401.734	91.06
401.958	91.06
402.182	151.06
402.406	194.06
402.63	133.06
402.854	93.06
403.078	89.06
403.302	82.06
403.526	92.06
403.75	96.06
403.974	86.06
404.198	89.06
404.422	78.06
404.645	96.06
404.869	95.06
405.093	101.06
405.317	132.06
405.541	114.06
405.765	112.06
405.988	137.06
406.212	216.06
406.436	293.06
406.66	190.06
406.883	112.06
407.107	107.06
407.331	104.06
407.555	104.06
407.778	95.06
408.002	103.06
408.226	88.06
408.449	90.06
408.673	86.06
408.896	89.06
409.12	97.06
409.344	93.06
409.567	85.06
409.791	79.06
410.014	101.06
410.238	88.06
410.461	84.06
410.685	111.06
410.908	102.06
411.132	115.06
411.355	100.06
411.578	93.06
411.802	98.06
412.025	88.06
412.249	96.06
412.472	93.06
412.695	124.06
412.919	105.06
413.142	92.06
413.365	85.06
413.589	104.06
413.812	89.06
414.035	92.06
414.258	89.06
414.482	87.06
414.705	78.06
414.928	92.06
415.151	78.06
415.374	79.06
415.597	93.06
415.821	83.06
416.044	92.06
416.267	88.06
416.49	78.06
416.713	79.06
416.936	90.06
417.159	89.06
417.382	100.06
417.605	107.06
417.828	99.06
418.051	88.06
418.274	81.06
418.497	89.06
418.72	89.06
418.943	83.06
419.166	95.06
419.389	84.06
419.611	88.06
419.834	102.06
420.057	80.06
420.28	89.06
420.503	101.06
420.726	88.06
420.948	91.06
421.171	96.06
421.394	104.06
421.617	104.06
421.839	93.06
422.062	82.06
422.285	86.06
422.507	95.06
422.73	104.06
422.953	117.06
423.175	78.06
423.398	78.06
423.621	85.06
423.843	92.06
424.066	86.06
424.288	98.06
424.511	96.06
424.733	113.06
424.956	128.06
425.178	97.06
425.401	109.06
425.623	117.06
425.846	113.06
426.068	101.06
426.291	96.06
426.513	92.06
426.735	101.06
426.958	100.06
427.18	105.06
427.402	168.06
427.625	218.06
427.847	208.06
428.069	184.06
428.292	113.06
428.514	93.06
428.736	75.06
428.958	81.06
429.181	82.06
429.403	97.06
429.625	93.06
429.847	95.06
430.069	104.06
430.292	92.06
430.514	102.06
430.736	74.06
430.958	95.06
431.18	90.06
431.402	84.06
431.624	87.06
431.846	84.06
432.068	86.06
432.29	98.06
432.512	96.06
432.734	84.06
432.956	96.06
433.178	94.06
433.4	93.06
433.622	87.06
433.844	79.06
434.066	80.06
434.287	99.06
434.509	92.06
434.731	91.06
434.953	98.06
435.175	96.06
435.397	77.06
435.618	90.06
435.84	93.06
436.062	127.06
436.284	109.06
436.505	99.06
436.727	108.06
436.949	91.06
437.17	84.06
437.392	90.06
437.614	111.06
437.835	124.06
438.057	147.06
438.278	109.06
438.5	109.06
438.721	130.06
438.943	106.06
439.165	78.06
439.386	85.06
439.608	101.06
439.829	103.06
440.05	118.06
440.272	150.06
440.493	102.06
440.715	90.06
440.936	95.06
441.158	95.06
441.379	93.06
441.6	88.06
441.822	92.06
442.043	110.06
442.264	120.06
442.486	118.06
442.707	104.06
442.928	104.06
443.149	159.06
443.371	167.06
443.592	120.06
443.813	111.06
444.034	111.06
444.255	85.06
444.476	89.06
444.698	89.06
444.919	102.06
445.14	120.06
445.361	126.06
445.582	131.06
445.803	151.06
446.024	155.06
446.245	152.06
446.466	119.06
446.687	84.06
446.908	93.06
447.129	86.06
447.35	96.06
447.571	81.06
447.792	101.06
448.013	100.06
448.234	127.06
448.455	115.06
448.675	133.06
448.896	146.06
449.117	101.06
449.338	109.06
449.559	131.06
449.779	118.06
450	99.06
450.221	107.06
450.442	93.06
450.662	99.06
450.883	134.06
451.104	138.06
451.324	88.06
451.545	91.06
451.766	83.06
451.986	83.06
452.207	95.06
452.428	88.06
452.648	104.06
452.869	119.06
453.089	151.06
453.31	135.06
453.53	102.06
453.751	92.06
453.971	122.06
454.192	125.06
454.412	96.06
454.633	90.06
454.853	80.06
455.073	87.06
455.294	94.06
455.514	105.06
455.734	91.06
455.955	82.06
456.175	79.06
456.395	84.06
456.616	91.06
456.836	81.06
457.056	76.06
457.276	91.06
457.497	87.06
457.717	79.06
457.937	83.06
458.157	89.06
458.377	89.06
458.598	121.06
458.818	185.06
459.038	215.06
459.258	133.06
459.478	94.06
459.698	88.06
459.918	88.06
460.138	84.06
460.358	88.06
460.578	95.06
460.798	92.06
461.018	87.06
461.238	78.06
461.458	94.06
461.678	82.06
461.898	87.06
462.118	83.06
462.338	79.06
462.558	73.06
462.777	94.06
462.997	78.06
463.217	107.06
463.437	93.06
463.657	80.06
463.876	83.06
464.096	87.06
464.316	92.06
464.536	95.06
464.755	91.06
464.975	142.06
465.195	229.06
465.414	222.06
465.634	101.06
465.854	87.06
466.073	95.06
466.293	85.06
466.512	85.06
466.732	71.06
466.951	91.06
467.171	104.06
467.391	107.06
467.61	138.06
467.829	184.06
468.049	449.06
468.268	614.06
468.488	169.06
468.707	101.06
468.927	83.06
469.146	84.06
469.365	97.06
469.585	88.06
469.804	112.06
470.023	126.06
470.243	114.06
470.462	119.06
470.681	136.06
470.901	101.06
471.12	88.06
471.339	100.06
471.558	105.06
471.777	131.06
471.997	262.06
472.216	851.06
472.435	1864.06
472.654	450.06
472.873	144.06
473.092	98.06
473.311	99.06
473.53	93.06
473.749	100.06
473.968	102.06
474.187	112.06
474.406	104.06
474.625	101.06
474.844	90.06
475.063	78.06
475.282	95.06
475.501	80.06
475.72	89.06
475.939	89.06
476.158	89.06
476.377	86.06
476.596	100.06
476.814	98.06
477.033	94.06
477.252	104.06
477.471	97.06
477.69	90.06
477.908	99.06
478.127	93.06
478.346	88.06
478.564	97.06
478.783	106.06
479.002	108.06
479.22	107.06
479.439	115.06
479.658	109.06
479.876	102.06
480.095	97.06
480.313	121.06
480.532	144.06
480.751	236.06
480.969	784.06
481.188	3256.06
481.406	1849.06
481.624	301.06
481.843	138.06
482.061	104.06
482.28	103.06
482.498	90.06
482.717	86.06
482.935	83.06
483.153	94.06
483.372	85.06
483.59	95.06
483.808	86.06
484.027	92.06
484.245	90.06
484.463	77.06
484.681	90.06
484.9	95.06
485.118	91.06
485.336	88.06
485.554	113.06
485.772	117.06
485.99	110.06
486.209	117.06
486.427	111.06
486.645	115.06
486.863	115.06
487.081	98.06
487.299	94.06
487.517	95.06
487.735	103.06
487.953	86.06
488.171	98.06
488.389	110.06
488.607	104.06
488.825	98.06
489.043	104.06
489.261	84.06
489.479	80.06
489.696	93.06
489.914	76.06
490.132	86.06
490.35	89.06
490.568	91.06
490.786	103.06
491.003	90.06
491.221	95.06
491.439	89.06
491.657	84.06
491.874	101.06
492.092	89.06
492.31	110.06
492.527	91.06
492.745	100.06
492.963	87.06
493.18	93.06
493.398	86.06
493.615	98.06
493.833	85.06
494.05	86.06
494.268	90.06
494.485	76.06
494.703	83.06
494.92	76.06
495.138	77.06
495.355	79.06
495.573	94.06
495.79	102.06
496.008	92.06
496.225	79.06
496.442	95.06
496.66	91.06
496.877	98.06
497.094	101.06
497.312	80.06
497.529	88.06
497.746	90.06
497.963	90.06
498.181	94.06
498.398	104.06
498.615	130.06
498.832	95.06
499.049	103.06
499.267	84.06
499.484	85.06
499.701	95.06
499.918	95.06
500.135	93.06
500.352	88.06
500.569	87.06
500.786	96.06
501.003	88.06
501.22	91.06
501.437	85.06
501.654	115.06
501.871	120.06
502.088	92.06
502.305	100.06
502.522	86.06
502.739	86.06
502.956	77.06
503.172	83.06
503.389	92.06
503.606	117.06
503.823	104.06
504.04	107.06
504.256	100.06
504.473	85.06
504.69	88.06
504.907	92.06
505.123	91.06
505.34	85.06
505.557	77.06
505.773	88.06
505.99	98.06
506.207	88.06
506.423	94.06
506.64	79.06
506.856	88.06
507.073	86.06
507.289	94.06
507.506	101.06
507.722	123.06
507.939	126.06
508.155	98.06
508.372	86.06
508.588	97.06
508.805	106.06
509.021	100.06
509.238	106.06
509.454	105.06
509.67	109.06
509.887	121.06
510.103	159.06
510.319	270.06
510.536	1012.06
510.752	3468.06
510.968	919.06
511.184	199.06
511.401	127.06
511.617	116.06
511.833	99.06
512.049	87.06
512.265	92.06
512.481	95.06
512.698	101.06
512.914	92.06
513.13	95.06
513.346	96.06
513.562	95.06
