Data from Circ_1999_H10_HRD10591_00009.txt Node
Date: Wed Jan 03 11:23:14 EST 2024
User: Yrep
Spectrometer: HR+D1059
Trigger mode: 1
Integration Time (sec): 1.000000E-1
Scans to average: 1
Electric dark correction enabled: true
Nonlinearity correction enabled: false
Boxcar width: 0
XAxis mode: Wavelengths
Number of Pixels in Spectrum: 2048
>>>>>Begin Spectral Data<<<<<
223.165	-17.62
223.4	-17.62
223.635	-17.62
223.869	-23.62
224.104	-31.62
224.338	-19.62
224.573	-18.62
224.808	-27.62
225.042	-20.62
225.277	-16.62
225.511	1.38
225.746	10.38
225.98	7.38
226.215	30.38
226.449	24.38
226.683	26.38
226.918	39.38
227.152	36.38
227.387	40.38
227.621	43.38
227.856	31.38
228.09	41.38
228.324	48.38
228.559	55.38
228.793	58.38
229.027	64.38
229.262	66.38
229.496	84.38
229.73	103.38
229.964	100.38
230.199	72.38
230.433	71.38
230.667	87.38
230.901	85.38
231.136	64.38
231.37	70.38
231.604	94.38
231.838	76.38
232.072	86.38
232.306	81.38
232.541	85.38
232.775	81.38
233.009	76.38
233.243	84.38
233.477	95.38
233.711	88.38
233.945	96.38
234.179	70.38
234.413	66.38
234.647	81.38
234.881	93.38
235.115	76.38
235.349	79.38
235.583	61.38
235.817	88.38
236.051	68.38
236.285	81.38
236.519	85.38
236.753	65.38
236.987	71.38
237.221	86.38
237.455	88.38
237.689	88.38
237.922	89.38
238.156	80.38
238.39	77.38
238.624	77.38
238.858	75.38
239.091	92.38
239.325	74.38
239.559	80.38
239.793	92.38
240.027	79.38
240.26	81.38
240.494	81.38
240.728	83.38
240.961	88.38
241.195	95.38
241.429	74.38
241.662	92.38
241.896	85.38
242.13	86.38
242.363	63.38
242.597	86.38
242.83	100.38
243.064	78.38
243.298	91.38
243.531	60.38
243.765	82.38
243.998	92.38
244.232	77.38
244.465	94.38
244.699	87.38
244.932	70.38
245.166	86.38
245.399	74.38
245.633	83.38
245.866	73.38
246.099	87.38
246.333	86.38
246.566	67.38
246.8	74.38
247.033	78.38
247.266	95.38
247.5	93.38
247.733	88.38
247.966	87.38
248.2	73.38
248.433	85.38
248.666	74.38
248.899	84.38
249.133	78.38
249.366	96.38
249.599	113.38
249.832	97.38
250.066	89.38
250.299	91.38
250.532	74.38
250.765	76.38
250.998	84.38
251.231	73.38
251.465	82.38
251.698	88.38
251.931	93.38
252.164	78.38
252.397	86.38
252.63	81.38
252.863	82.38
253.096	93.38
253.329	102.38
253.562	65.38
253.795	88.38
254.028	74.38
254.261	75.38
254.494	87.38
254.727	88.38
254.96	73.38
255.193	96.38
255.426	89.38
255.659	86.38
255.892	96.38
256.124	81.38
256.357	76.38
256.59	81.38
256.823	74.38
257.056	77.38
257.289	85.38
257.521	84.38
257.754	74.38
257.987	86.38
258.22	87.38
258.452	97.38
258.685	111.38
258.918	87.38
259.151	77.38
259.383	83.38
259.616	89.38
259.849	77.38
260.081	82.38
260.314	94.38
260.547	81.38
260.779	97.38
261.012	98.38
261.244	94.38
261.477	104.38
261.71	103.38
261.942	133.38
262.175	154.38
262.407	108.38
262.64	86.38
262.872	86.38
263.105	98.38
263.337	79.38
263.57	86.38
263.802	77.38
264.035	75.38
264.267	97.38
264.499	100.38
264.732	96.38
264.964	80.38
265.197	66.38
265.429	81.38
265.661	78.38
265.894	81.38
266.126	81.38
266.358	85.38
266.591	82.38
266.823	83.38
267.055	84.38
267.287	85.38
267.52	80.38
267.752	77.38
267.984	92.38
268.216	89.38
268.448	80.38
268.681	96.38
268.913	97.38
269.145	92.38
269.377	74.38
269.609	96.38
269.841	97.38
270.073	89.38
270.306	99.38
270.538	92.38
270.77	89.38
271.002	78.38
271.234	86.38
271.466	87.38
271.698	64.38
271.93	90.38
272.162	84.38
272.394	81.38
272.626	92.38
272.858	80.38
273.09	88.38
273.322	79.38
273.553	85.38
273.785	95.38
274.017	86.38
274.249	86.38
274.481	82.38
274.713	78.38
274.945	93.38
275.176	102.38
275.408	105.38
275.64	108.38
275.872	118.38
276.104	110.38
276.335	103.38
276.567	106.38
276.799	148.38
277.031	185.38
277.262	188.38
277.494	141.38
277.726	113.38
277.957	93.38
278.189	88.38
278.421	104.38
278.652	82.38
278.884	84.38
279.115	89.38
279.347	81.38
279.579	105.38
279.81	111.38
280.042	168.38
280.273	219.38
280.505	166.38
280.736	97.38
280.968	92.38
281.199	89.38
281.431	79.38
281.662	80.38
281.894	77.38
282.125	94.38
282.356	133.38
282.588	201.38
282.819	148.38
283.051	91.38
283.282	82.38
283.513	97.38
283.745	73.38
283.976	81.38
284.207	85.38
284.439	92.38
284.67	94.38
284.901	94.38
285.132	89.38
285.364	90.38
285.595	94.38
285.826	95.38
286.057	92.38
286.288	94.38
286.52	79.38
286.751	80.38
286.982	94.38
287.213	77.38
287.444	101.38
287.675	96.38
287.906	97.38
288.138	85.38
288.369	93.38
288.6	90.38
288.831	93.38
289.062	104.38
289.293	92.38
289.524	97.38
289.755	97.38
289.986	81.38
290.217	77.38
290.448	84.38
290.679	103.38
290.91	88.38
291.141	101.38
291.371	89.38
291.602	93.38
291.833	94.38
292.064	80.38
292.295	83.38
292.526	78.38
292.757	101.38
292.987	89.38
293.218	86.38
293.449	94.38
293.68	93.38
293.91	92.38
294.141	104.38
294.372	90.38
294.603	93.38
294.833	78.38
295.064	97.38
295.295	88.38
295.525	93.38
295.756	96.38
295.987	138.38
296.217	172.38
296.448	163.38
296.679	104.38
296.909	102.38
297.14	88.38
297.37	90.38
297.601	86.38
297.831	91.38
298.062	104.38
298.292	88.38
298.523	93.38
298.753	89.38
298.984	94.38
299.214	98.38
299.445	97.38
299.675	96.38
299.905	108.38
300.136	84.38
300.366	81.38
300.597	88.38
300.827	103.38
301.057	112.38
301.288	126.38
301.518	98.38
301.748	112.38
301.979	91.38
302.209	94.38
302.439	105.38
302.669	97.38
302.9	99.38
303.13	92.38
303.36	107.38
303.59	136.38
303.82	142.38
304.051	106.38
304.281	80.38
304.511	95.38
304.741	91.38
304.971	94.38
305.201	93.38
305.431	98.38
305.661	75.38
305.891	102.38
306.121	98.38
306.352	121.38
306.582	121.38
306.812	112.38
307.042	126.38
307.272	150.38
307.502	180.38
307.731	160.38
307.961	122.38
308.191	115.38
308.421	79.38
308.651	87.38
308.881	98.38
309.111	108.38
309.341	92.38
309.571	118.38
309.8	103.38
310.03	92.38
310.26	113.38
310.49	110.38
310.72	119.38
310.949	133.38
311.179	116.38
311.409	113.38
311.639	89.38
311.868	105.38
312.098	107.38
312.328	118.38
312.557	120.38
312.787	126.38
313.017	121.38
313.246	98.38
313.476	95.38
313.706	99.38
313.935	103.38
314.165	106.38
314.394	121.38
314.624	111.38
314.853	101.38
315.083	109.38
315.312	98.38
315.542	97.38
315.771	106.38
316.001	102.38
316.23	89.38
316.46	84.38
316.689	95.38
316.919	105.38
317.148	93.38
317.377	105.38
317.607	96.38
317.836	99.38
318.065	91.38
318.295	78.38
318.524	112.38
318.753	107.38
318.983	103.38
319.212	104.38
319.441	133.38
319.67	128.38
319.9	113.38
320.129	95.38
320.358	94.38
320.587	97.38
320.816	109.38
321.046	113.38
321.275	103.38
321.504	112.38
321.733	106.38
321.962	104.38
322.191	113.38
322.42	102.38
322.649	140.38
322.878	142.38
323.108	138.38
323.337	157.38
323.566	145.38
323.795	189.38
324.024	251.38
324.253	474.38
324.482	972.38
324.71	1942.38
324.939	2596.38
325.168	973.38
325.397	276.38
325.626	168.38
325.855	132.38
326.084	149.38
326.313	138.38
326.542	168.38
326.77	252.38
326.999	504.38
327.228	990.38
327.457	1791.38
327.686	1494.38
327.914	532.38
328.143	508.38
328.372	637.38
328.6	362.38
328.829	200.38
329.058	193.38
329.287	218.38
329.515	193.38
329.744	262.38
329.972	452.38
330.201	887.38
330.43	1304.38
330.658	594.38
330.887	300.38
331.115	207.38
331.344	139.38
331.572	135.38
331.801	136.38
332.03	126.38
332.258	124.38
332.486	118.38
332.715	118.38
332.943	117.38
333.172	124.38
333.4	137.38
333.629	186.38
333.857	234.38
334.085	428.38
334.314	824.38
334.542	1634.38
334.771	1464.38
334.999	389.38
335.227	174.38
335.455	150.38
335.684	122.38
335.912	118.38
336.14	111.38
336.369	112.38
336.597	117.38
336.825	119.38
337.053	103.38
337.281	98.38
337.51	106.38
337.738	103.38
337.966	102.38
338.194	112.38
338.422	100.38
338.65	103.38
338.878	97.38
339.106	95.38
339.334	109.38
339.562	112.38
339.79	94.38
340.018	84.38
340.246	106.38
340.474	100.38
340.702	104.38
340.93	109.38
341.158	110.38
341.386	112.38
341.614	115.38
341.842	108.38
342.07	92.38
342.298	107.38
342.526	101.38
342.754	76.38
342.981	103.38
343.209	87.38
343.437	98.38
343.665	101.38
343.893	86.38
344.12	86.38
344.348	91.38
344.576	89.38
344.804	93.38
345.031	90.38
345.259	122.38
345.487	103.38
345.714	109.38
345.942	116.38
346.17	102.38
346.397	83.38
346.625	99.38
346.853	107.38
347.08	94.38
347.308	101.38
347.535	94.38
347.763	113.38
347.99	94.38
348.218	111.38
348.445	127.38
348.673	108.38
348.9	105.38
349.128	102.38
349.355	95.38
349.583	102.38
349.81	108.38
350.037	96.38
350.265	99.38
350.492	109.38
350.72	104.38
350.947	115.38
351.174	121.38
351.402	143.38
351.629	108.38
351.856	104.38
352.083	118.38
352.311	130.38
352.538	140.38
352.765	132.38
352.992	130.38
353.22	121.38
353.447	104.38
353.674	110.38
353.901	89.38
354.128	97.38
354.355	108.38
354.583	97.38
354.81	102.38
355.037	100.38
355.264	105.38
355.491	107.38
355.718	94.38
355.945	87.38
356.172	101.38
356.399	94.38
356.626	108.38
356.853	96.38
357.08	100.38
357.307	95.38
357.534	104.38
357.761	107.38
357.988	105.38
358.215	107.38
358.441	98.38
358.668	104.38
358.895	105.38
359.122	109.38
359.349	109.38
359.576	105.38
359.802	117.38
360.029	146.38
360.256	161.38
360.483	123.38
360.709	98.38
360.936	117.38
361.163	93.38
361.39	110.38
361.616	105.38
361.843	100.38
362.07	110.38
362.296	105.38
362.523	97.38
362.749	96.38
362.976	102.38
363.203	98.38
363.429	82.38
363.656	104.38
363.882	108.38
364.109	99.38
364.335	106.38
364.562	100.38
364.788	97.38
365.015	100.38
365.241	106.38
365.468	113.38
365.694	132.38
365.92	100.38
366.147	93.38
366.373	92.38
366.599	89.38
366.826	99.38
367.052	78.38
367.278	90.38
367.505	102.38
367.731	107.38
367.957	95.38
368.184	106.38
368.41	116.38
368.636	132.38
368.862	130.38
369.089	119.38
369.315	113.38
369.541	110.38
369.767	108.38
369.993	102.38
370.219	105.38
370.445	109.38
370.672	88.38
370.898	91.38
371.124	93.38
371.35	106.38
371.576	95.38
371.802	93.38
372.028	90.38
372.254	89.38
372.48	84.38
372.706	86.38
372.932	98.38
373.158	84.38
373.384	90.38
373.61	99.38
373.835	92.38
374.061	100.38
374.287	98.38
374.513	99.38
374.739	94.38
374.965	101.38
375.191	92.38
375.416	89.38
375.642	104.38
375.868	91.38
376.094	102.38
376.319	92.38
376.545	89.38
376.771	74.38
376.997	99.38
377.222	101.38
377.448	97.38
377.674	103.38
377.899	105.38
378.125	99.38
378.35	103.38
378.576	93.38
378.802	89.38
379.027	73.38
379.253	93.38
379.478	90.38
379.704	85.38
379.929	99.38
380.155	95.38
380.38	112.38
380.606	105.38
380.831	92.38
381.057	109.38
381.282	105.38
381.507	117.38
381.733	110.38
381.958	106.38
382.184	110.38
382.409	127.38
382.634	121.38
382.86	111.38
383.085	117.38
383.31	122.38
383.535	109.38
383.761	106.38
383.986	114.38
384.211	123.38
384.436	110.38
384.662	112.38
384.887	115.38
385.112	121.38
385.337	117.38
385.562	112.38
385.787	117.38
386.013	123.38
386.238	144.38
386.463	128.38
386.688	134.38
386.913	121.38
387.138	132.38
387.363	121.38
387.588	102.38
387.813	131.38
388.038	115.38
388.263	150.38
388.488	125.38
388.713	91.38
388.938	76.38
389.163	89.38
389.387	102.38
389.612	98.38
389.837	92.38
390.062	86.38
390.287	103.38
390.512	91.38
390.736	88.38
390.961	115.38
391.186	97.38
391.411	82.38
391.636	88.38
391.86	103.38
392.085	80.38
392.31	90.38
392.534	93.38
392.759	87.38
392.984	97.38
393.208	94.38
393.433	85.38
393.658	73.38
393.882	90.38
394.107	86.38
394.331	100.38
394.556	91.38
394.78	89.38
395.005	65.38
395.229	82.38
395.454	90.38
395.678	94.38
395.903	100.38
396.127	77.38
396.352	93.38
396.576	108.38
396.801	101.38
397.025	92.38
397.249	78.38
397.474	84.38
397.698	76.38
397.922	87.38
398.147	102.38
398.371	95.38
398.595	102.38
398.82	93.38
399.044	97.38
399.268	86.38
399.492	94.38
399.717	104.38
399.941	89.38
400.165	106.38
400.389	94.38
400.613	97.38
400.837	88.38
401.062	100.38
401.286	78.38
401.51	96.38
401.734	98.38
401.958	101.38
402.182	164.38
402.406	243.38
402.63	154.38
402.854	107.38
403.078	102.38
403.302	89.38
403.526	95.38
403.75	96.38
403.974	84.38
404.198	87.38
404.422	104.38
404.645	113.38
404.869	108.38
405.093	127.38
405.317	142.38
405.541	141.38
405.765	123.38
405.988	150.38
406.212	264.38
406.436	369.38
406.66	216.38
406.883	144.38
407.107	108.38
407.331	112.38
407.555	113.38
407.778	105.38
408.002	118.38
408.226	101.38
408.449	99.38
408.673	99.38
408.896	99.38
409.12	94.38
409.344	80.38
409.567	90.38
409.791	112.38
410.014	86.38
410.238	100.38
410.461	96.38
410.685	113.38
410.908	100.38
411.132	111.38
411.355	107.38
411.578	97.38
411.802	99.38
412.025	88.38
412.249	98.38
412.472	125.38
412.695	127.38
412.919	98.38
413.142	101.38
413.365	90.38
413.589	84.38
413.812	94.38
414.035	95.38
414.258	97.38
414.482	96.38
414.705	96.38
414.928	80.38
415.151	110.38
415.374	104.38
415.597	98.38
415.821	102.38
416.044	100.38
416.267	112.38
416.49	104.38
416.713	84.38
416.936	92.38
417.159	93.38
417.382	108.38
417.605	108.38
417.828	119.38
418.051	92.38
418.274	80.38
418.497	81.38
418.72	83.38
418.943	97.38
419.166	89.38
419.389	95.38
419.611	91.38
419.834	97.38
420.057	89.38
420.28	102.38
420.503	90.38
420.726	98.38
420.948	110.38
421.171	106.38
421.394	107.38
421.617	92.38
421.839	85.38
422.062	101.38
422.285	86.38
422.507	109.38
422.73	120.38
422.953	102.38
423.175	108.38
423.398	107.38
423.621	93.38
423.843	95.38
424.066	93.38
424.288	104.38
424.511	104.38
424.733	114.38
424.956	127.38
425.178	107.38
425.401	124.38
425.623	100.38
425.846	99.38
426.068	104.38
426.291	99.38
426.513	93.38
426.735	108.38
426.958	99.38
427.18	123.38
427.402	185.38
427.625	263.38
427.847	244.38
428.069	202.38
428.292	116.38
428.514	86.38
428.736	92.38
428.958	104.38
429.181	104.38
429.403	79.38
429.625	99.38
429.847	95.38
430.069	107.38
430.292	101.38
430.514	92.38
430.736	93.38
430.958	82.38
431.18	92.38
431.402	101.38
431.624	101.38
431.846	84.38
432.068	96.38
432.29	84.38
432.512	91.38
432.734	95.38
432.956	86.38
433.178	104.38
433.4	105.38
433.622	100.38
433.844	97.38
434.066	87.38
434.287	108.38
434.509	87.38
434.731	82.38
434.953	90.38
435.175	90.38
435.397	93.38
435.618	89.38
435.84	120.38
436.062	136.38
436.284	129.38
436.505	109.38
436.727	102.38
436.949	94.38
437.17	79.38
437.392	96.38
437.614	107.38
437.835	135.38
438.057	159.38
438.278	134.38
438.5	114.38
438.721	151.38
438.943	119.38
439.165	100.38
439.386	87.38
439.608	105.38
439.829	119.38
440.05	136.38
440.272	175.38
440.493	126.38
440.715	102.38
440.936	85.38
441.158	96.38
441.379	102.38
441.6	102.38
441.822	109.38
442.043	93.38
442.264	105.38
442.486	119.38
442.707	104.38
442.928	128.38
443.149	183.38
443.371	168.38
443.592	147.38
443.813	133.38
444.034	140.38
444.255	106.38
444.476	90.38
444.698	91.38
444.919	81.38
445.14	143.38
445.361	132.38
445.582	140.38
445.803	175.38
446.024	172.38
446.245	174.38
446.466	121.38
446.687	97.38
446.908	93.38
447.129	105.38
447.35	94.38
447.571	103.38
447.792	92.38
448.013	103.38
448.234	135.38
448.455	136.38
448.675	136.38
448.896	145.38
449.117	121.38
449.338	116.38
449.559	136.38
449.779	159.38
450	103.38
450.221	96.38
450.442	103.38
450.662	108.38
450.883	134.38
451.104	152.38
451.324	121.38
451.545	104.38
451.766	89.38
451.986	103.38
452.207	99.38
452.428	104.38
452.648	110.38
452.869	127.38
453.089	145.38
453.31	170.38
453.53	113.38
453.751	111.38
453.971	122.38
454.192	142.38
454.412	100.38
454.633	95.38
454.853	102.38
455.073	86.38
455.294	95.38
455.514	112.38
455.734	109.38
455.955	88.38
456.175	82.38
456.395	85.38
456.616	89.38
456.836	94.38
457.056	98.38
457.276	85.38
457.497	80.38
457.717	81.38
457.937	98.38
458.157	91.38
458.377	100.38
458.598	145.38
458.818	225.38
459.038	240.38
459.258	182.38
459.478	104.38
459.698	80.38
459.918	80.38
460.138	103.38
460.358	97.38
460.578	112.38
460.798	89.38
461.018	94.38
461.238	84.38
461.458	77.38
461.678	93.38
461.898	85.38
462.118	97.38
462.338	95.38
462.558	88.38
462.777	81.38
462.997	99.38
463.217	105.38
463.437	92.38
463.657	88.38
463.876	86.38
464.096	107.38
464.316	95.38
464.536	120.38
464.755	104.38
464.975	135.38
465.195	255.38
465.414	259.38
465.634	117.38
465.854	92.38
466.073	94.38
466.293	111.38
466.512	100.38
466.732	87.38
466.951	75.38
467.171	106.38
467.391	111.38
467.61	153.38
467.829	212.38
468.049	528.38
468.268	775.38
468.488	198.38
468.707	113.38
468.927	93.38
469.146	107.38
469.365	92.38
469.585	101.38
469.804	123.38
470.023	114.38
470.243	117.38
470.462	118.38
470.681	155.38
470.901	113.38
471.12	102.38
471.339	107.38
471.558	126.38
471.777	159.38
471.997	298.38
472.216	1036.38
472.435	2283.38
472.654	562.38
472.873	171.38
473.092	119.38
473.311	105.38
473.53	94.38
473.749	115.38
473.968	108.38
474.187	134.38
474.406	119.38
474.625	89.38
474.844	106.38
475.063	96.38
475.282	93.38
475.501	79.38
475.72	83.38
475.939	97.38
476.158	84.38
476.377	91.38
476.596	88.38
476.814	101.38
477.033	109.38
477.252	104.38
477.471	88.38
477.69	97.38
477.908	109.38
478.127	98.38
478.346	89.38
478.564	92.38
478.783	121.38
479.002	108.38
479.22	121.38
479.439	137.38
479.658	136.38
479.876	125.38
480.095	118.38
480.313	130.38
480.532	160.38
480.751	258.38
480.969	940.38
481.188	3983.38
481.406	2264.38
481.624	346.38
481.843	132.38
482.061	106.38
482.28	93.38
482.498	95.38
482.717	101.38
482.935	102.38
483.153	97.38
483.372	86.38
483.59	90.38
483.808	103.38
484.027	93.38
484.245	104.38
484.463	86.38
484.681	106.38
484.9	104.38
485.118	98.38
485.336	117.38
485.554	104.38
485.772	115.38
485.99	105.38
486.209	112.38
486.427	122.38
486.645	134.38
486.863	156.38
487.081	101.38
487.299	108.38
487.517	105.38
487.735	89.38
487.953	104.38
488.171	95.38
488.389	110.38
488.607	118.38
488.825	96.38
489.043	87.38
489.261	97.38
489.479	106.38
489.696	102.38
489.914	92.38
490.132	82.38
490.35	98.38
490.568	109.38
490.786	100.38
491.003	104.38
491.221	95.38
491.439	96.38
491.657	92.38
491.874	100.38
492.092	92.38
492.31	91.38
492.527	116.38
492.745	92.38
492.963	90.38
493.18	98.38
493.398	95.38
493.615	106.38
493.833	88.38
494.05	101.38
494.268	89.38
494.485	99.38
494.703	96.38
494.92	99.38
495.138	101.38
495.355	81.38
495.573	73.38
495.79	100.38
496.008	101.38
496.225	108.38
496.442	97.38
496.66	107.38
496.877	89.38
497.094	84.38
497.312	85.38
497.529	97.38
497.746	82.38
497.963	100.38
498.181	88.38
498.398	96.38
498.615	132.38
498.832	109.38
499.049	97.38
499.267	89.38
499.484	75.38
499.701	97.38
499.918	102.38
500.135	96.38
500.352	81.38
500.569	89.38
500.786	99.38
501.003	99.38
501.22	100.38
501.437	95.38
501.654	112.38
501.871	128.38
502.088	102.38
502.305	82.38
502.522	96.38
502.739	86.38
502.956	88.38
503.172	98.38
503.389	103.38
503.606	123.38
503.823	109.38
504.04	113.38
504.256	96.38
504.473	108.38
504.69	92.38
504.907	83.38
505.123	102.38
505.34	89.38
505.557	94.38
505.773	104.38
505.99	90.38
506.207	89.38
506.423	97.38
506.64	83.38
506.856	93.38
507.073	99.38
507.289	110.38
507.506	111.38
507.722	150.38
507.939	160.38
508.155	111.38
508.372	104.38
508.588	97.38
508.805	79.38
509.021	94.38
509.238	96.38
509.454	113.38
509.67	108.38
509.887	122.38
510.103	146.38
510.319	287.38
510.536	1121.38
510.752	4028.38
510.968	1064.38
511.184	212.38
