Data from Circ_1999_H10_HRD10591_00082.txt Node
Date: Wed Jan 03 11:23:29 EST 2024
User: Yrep
Spectrometer: HR+D1059
Trigger mode: 1
Integration Time (sec): 1.000000E-1
Scans to average: 1
Electric dark correction enabled: true
Nonlinearity correction enabled: false
Boxcar width: 0
XAxis mode: Wavelengths
Number of Pixels in Spectrum: 2048
>>>>>Begin Spectral Data<<<<<
223.165	-26.25
223.4	-26.25
223.635	-26.25
223.869	-13.25
224.104	-18.25
224.338	-15.25
224.573	-2.25
224.808	-17.25
225.042	-23.25
225.277	-7.25
225.511	-24.25
225.746	5.75
225.98	26.75
226.215	9.75
226.449	30.75
226.683	19.75
226.918	28.75
227.152	25.75
227.387	48.75
227.621	35.75
227.856	45.75
228.09	25.75
228.324	56.75
228.559	54.75
228.793	46.75
229.027	74.75
229.262	72.75
229.496	86.75
229.73	111.75
229.964	106.75
230.199	57.75
230.433	83.75
230.667	75.75
230.901	68.75
231.136	68.75
231.37	74.75
231.604	74.75
231.838	85.75
232.072	67.75
232.306	88.75
232.541	84.75
232.775	89.75
233.009	103.75
233.243	76.75
233.477	92.75
233.711	78.75
233.945	90.75
234.179	84.75
234.413	90.75
234.647	83.75
234.881	80.75
235.115	78.75
235.349	86.75
235.583	82.75
235.817	84.75
236.051	91.75
236.285	75.75
236.519	83.75
236.753	86.75
236.987	95.75
237.221	85.75
237.455	97.75
237.689	89.75
237.922	71.75
238.156	74.75
238.39	82.75
238.624	72.75
238.858	79.75
239.091	87.75
239.325	79.75
239.559	98.75
239.793	95.75
240.027	111.75
240.26	75.75
240.494	84.75
240.728	94.75
240.961	88.75
241.195	82.75
241.429	84.75
241.662	92.75
241.896	96.75
242.13	70.75
242.363	82.75
242.597	73.75
242.83	92.75
243.064	78.75
243.298	86.75
243.531	77.75
243.765	72.75
243.998	87.75
244.232	76.75
244.465	100.75
244.699	84.75
244.932	79.75
245.166	86.75
245.399	75.75
245.633	86.75
245.866	79.75
246.099	86.75
246.333	86.75
246.566	71.75
246.8	91.75
247.033	76.75
247.266	82.75
247.5	63.75
247.733	84.75
247.966	84.75
248.2	91.75
248.433	93.75
248.666	80.75
248.899	104.75
249.133	88.75
249.366	112.75
249.599	121.75
249.832	102.75
250.066	91.75
250.299	91.75
250.532	91.75
250.765	78.75
250.998	75.75
251.231	83.75
251.465	89.75
251.698	104.75
251.931	84.75
252.164	90.75
252.397	95.75
252.63	86.75
252.863	80.75
253.096	83.75
253.329	81.75
253.562	65.75
253.795	85.75
254.028	67.75
254.261	94.75
254.494	78.75
254.727	86.75
254.96	82.75
255.193	83.75
255.426	86.75
255.659	93.75
255.892	97.75
256.124	107.75
256.357	94.75
256.59	87.75
256.823	93.75
257.056	96.75
257.289	88.75
257.521	95.75
257.754	86.75
257.987	97.75
258.22	100.75
258.452	104.75
258.685	97.75
258.918	113.75
259.151	99.75
259.383	93.75
259.616	86.75
259.849	80.75
260.081	89.75
260.314	93.75
260.547	98.75
260.779	102.75
261.012	136.75
261.244	127.75
261.477	107.75
261.71	122.75
261.942	174.75
262.175	191.75
262.407	119.75
262.64	92.75
262.872	100.75
263.105	99.75
263.337	100.75
263.57	68.75
263.802	90.75
264.035	91.75
264.267	99.75
264.499	87.75
264.732	74.75
264.964	86.75
265.197	80.75
265.429	92.75
265.661	76.75
265.894	86.75
266.126	92.75
266.358	99.75
266.591	102.75
266.823	91.75
267.055	91.75
267.287	94.75
267.52	77.75
267.752	84.75
267.984	91.75
268.216	89.75
268.448	86.75
268.681	87.75
268.913	85.75
269.145	83.75
269.377	81.75
269.609	74.75
269.841	94.75
270.073	90.75
270.306	86.75
270.538	89.75
270.77	91.75
271.002	90.75
271.234	98.75
271.466	110.75
271.698	88.75
271.93	84.75
272.162	92.75
272.394	92.75
272.626	92.75
272.858	100.75
273.09	83.75
273.322	78.75
273.553	90.75
273.785	92.75
274.017	88.75
274.249	84.75
274.481	94.75
274.713	94.75
274.945	103.75
275.176	110.75
275.408	117.75
275.64	136.75
275.872	159.75
276.104	119.75
276.335	98.75
276.567	150.75
276.799	199.75
277.031	233.75
277.262	270.75
277.494	202.75
277.726	114.75
277.957	94.75
278.189	97.75
278.421	105.75
278.652	104.75
278.884	99.75
279.115	97.75
279.347	101.75
279.579	117.75
279.81	155.75
280.042	292.75
280.273	404.75
280.505	266.75
280.736	128.75
280.968	115.75
281.199	103.75
281.431	94.75
281.662	101.75
281.894	90.75
282.125	115.75
282.356	161.75
282.588	239.75
282.819	165.75
283.051	99.75
283.282	87.75
283.513	104.75
283.745	88.75
283.976	80.75
284.207	72.75
284.439	83.75
284.67	100.75
284.901	89.75
285.132	96.75
285.364	96.75
285.595	96.75
285.826	93.75
286.057	98.75
286.288	99.75
286.52	97.75
286.751	98.75
286.982	89.75
287.213	99.75
287.444	102.75
287.675	88.75
287.906	94.75
288.138	111.75
288.369	107.75
288.6	96.75
288.831	95.75
289.062	91.75
289.293	99.75
289.524	96.75
289.755	94.75
289.986	79.75
290.217	90.75
290.448	101.75
290.679	87.75
290.91	80.75
291.141	93.75
291.371	84.75
291.602	83.75
291.833	99.75
292.064	99.75
292.295	103.75
292.526	100.75
292.757	95.75
292.987	83.75
293.218	84.75
293.449	93.75
293.68	105.75
293.91	87.75
294.141	91.75
294.372	79.75
294.603	91.75
294.833	111.75
295.064	95.75
295.295	78.75
295.525	122.75
295.756	102.75
295.987	147.75
296.217	212.75
296.448	185.75
296.679	116.75
296.909	93.75
297.14	102.75
297.37	82.75
297.601	93.75
297.831	79.75
298.062	100.75
298.292	100.75
298.523	91.75
298.753	84.75
298.984	100.75
299.214	105.75
299.445	106.75
299.675	98.75
299.905	113.75
300.136	91.75
300.366	101.75
300.597	83.75
300.827	100.75
301.057	124.75
301.288	140.75
301.518	121.75
301.748	111.75
301.979	127.75
302.209	101.75
302.439	104.75
302.669	96.75
302.9	109.75
303.13	92.75
303.36	112.75
303.59	164.75
303.82	193.75
304.051	118.75
304.281	97.75
304.511	90.75
304.741	101.75
304.971	92.75
305.201	88.75
305.431	115.75
305.661	97.75
305.891	98.75
306.121	116.75
306.352	128.75
306.582	136.75
306.812	128.75
307.042	150.75
307.272	205.75
307.502	252.75
307.731	224.75
307.961	156.75
308.191	122.75
308.421	109.75
308.651	107.75
308.881	112.75
309.111	105.75
309.341	90.75
309.571	121.75
309.8	115.75
310.03	131.75
310.26	111.75
310.49	113.75
310.72	113.75
310.949	152.75
311.179	153.75
311.409	99.75
311.639	108.75
311.868	126.75
312.098	103.75
312.328	106.75
312.557	129.75
312.787	157.75
313.017	138.75
313.246	114.75
313.476	93.75
313.706	102.75
313.935	107.75
314.165	114.75
314.394	129.75
314.624	131.75
314.853	125.75
315.083	104.75
315.312	111.75
315.542	95.75
315.771	108.75
316.001	116.75
316.23	96.75
316.46	100.75
316.689	100.75
316.919	97.75
317.148	124.75
317.377	112.75
317.607	114.75
317.836	104.75
318.065	93.75
318.295	92.75
318.524	97.75
318.753	109.75
318.983	94.75
319.212	127.75
319.441	142.75
319.67	139.75
319.9	109.75
320.129	113.75
320.358	106.75
320.587	107.75
320.816	126.75
321.046	125.75
321.275	104.75
321.504	113.75
321.733	101.75
321.962	111.75
322.191	113.75
322.42	118.75
322.649	159.75
322.878	152.75
323.108	166.75
323.337	186.75
323.566	190.75
323.795	228.75
324.024	296.75
324.253	604.75
324.482	1317.75
324.71	2756.75
324.939	3635.75
325.168	1342.75
325.397	382.75
325.626	217.75
325.855	180.75
326.084	156.75
326.313	174.75
326.542	202.75
326.77	305.75
326.999	637.75
327.228	1304.75
327.457	2445.75
327.686	2017.75
327.914	768.75
328.143	834.75
328.372	1116.75
328.6	594.75
328.829	262.75
329.058	266.75
329.287	298.75
329.515	253.75
329.744	355.75
329.972	770.75
330.201	1611.75
330.43	2415.75
330.658	1042.75
330.887	449.75
331.115	278.75
331.344	165.75
331.572	142.75
331.801	148.75
332.03	158.75
332.258	139.75
332.486	126.75
332.715	122.75
332.943	130.75
333.172	151.75
333.4	174.75
333.629	212.75
333.857	329.75
334.085	668.75
334.314	1472.75
334.542	2937.75
334.771	2758.75
334.999	670.75
335.227	249.75
335.455	160.75
335.684	129.75
335.912	135.75
336.14	123.75
336.369	140.75
336.597	140.75
336.825	140.75
337.053	101.75
337.281	108.75
337.51	114.75
337.738	115.75
337.966	100.75
338.194	125.75
338.422	126.75
338.65	107.75
338.878	87.75
339.106	113.75
339.334	103.75
339.562	89.75
339.79	96.75
340.018	94.75
340.246	106.75
340.474	109.75
340.702	109.75
340.93	94.75
341.158	116.75
341.386	109.75
341.614	116.75
341.842	119.75
342.07	106.75
342.298	103.75
342.526	93.75
342.754	103.75
342.981	98.75
343.209	82.75
343.437	97.75
343.665	92.75
343.893	103.75
344.12	104.75
344.348	100.75
344.576	105.75
344.804	98.75
345.031	124.75
345.259	121.75
345.487	118.75
345.714	97.75
345.942	94.75
346.17	95.75
346.397	105.75
346.625	104.75
346.853	99.75
347.08	88.75
347.308	102.75
347.535	120.75
347.763	141.75
347.99	122.75
348.218	118.75
348.445	147.75
348.673	143.75
348.9	111.75
349.128	113.75
349.355	103.75
349.583	106.75
349.81	94.75
350.037	107.75
350.265	102.75
350.492	97.75
350.72	110.75
350.947	126.75
351.174	131.75
351.402	152.75
351.629	120.75
351.856	111.75
352.083	121.75
352.311	146.75
352.538	155.75
352.765	128.75
352.992	141.75
353.22	131.75
353.447	116.75
353.674	102.75
353.901	98.75
354.128	106.75
354.355	107.75
354.583	99.75
354.81	100.75
355.037	102.75
355.264	108.75
355.491	110.75
355.718	84.75
355.945	80.75
356.172	91.75
356.399	96.75
356.626	106.75
356.853	106.75
357.08	102.75
357.307	100.75
357.534	92.75
357.761	99.75
357.988	96.75
358.215	97.75
358.441	96.75
358.668	95.75
358.895	81.75
359.122	99.75
359.349	99.75
359.576	120.75
359.802	135.75
360.029	201.75
360.256	186.75
360.483	152.75
360.709	103.75
360.936	91.75
361.163	104.75
361.39	111.75
361.616	118.75
361.843	98.75
362.07	106.75
362.296	118.75
362.523	104.75
362.749	114.75
362.976	107.75
363.203	87.75
363.429	102.75
363.656	96.75
363.882	98.75
364.109	110.75
364.335	110.75
364.562	97.75
364.788	89.75
365.015	104.75
365.241	118.75
365.468	157.75
365.694	140.75
365.92	125.75
366.147	118.75
366.373	107.75
366.599	101.75
366.826	105.75
367.052	108.75
367.278	109.75
367.505	109.75
367.731	114.75
367.957	108.75
368.184	106.75
368.41	131.75
368.636	145.75
368.862	162.75
369.089	144.75
369.315	120.75
369.541	110.75
369.767	92.75
369.993	113.75
370.219	106.75
370.445	97.75
370.672	77.75
370.898	102.75
371.124	104.75
371.35	95.75
371.576	80.75
371.802	110.75
372.028	95.75
372.254	94.75
372.48	97.75
372.706	97.75
372.932	92.75
373.158	90.75
373.384	97.75
373.61	95.75
373.835	103.75
374.061	110.75
374.287	104.75
374.513	106.75
374.739	98.75
374.965	81.75
375.191	80.75
375.416	82.75
375.642	97.75
375.868	94.75
376.094	88.75
376.319	83.75
376.545	96.75
376.771	99.75
376.997	93.75
377.222	99.75
377.448	103.75
377.674	96.75
377.899	91.75
378.125	98.75
378.35	96.75
378.576	93.75
378.802	88.75
379.027	102.75
379.253	80.75
379.478	97.75
379.704	96.75
379.929	104.75
380.155	105.75
380.38	96.75
380.606	98.75
380.831	96.75
381.057	107.75
381.282	98.75
381.507	101.75
381.733	105.75
381.958	106.75
382.184	113.75
382.409	110.75
382.634	110.75
382.86	104.75
383.085	102.75
383.31	116.75
383.535	104.75
383.761	99.75
383.986	108.75
384.211	83.75
384.436	89.75
384.662	92.75
384.887	95.75
385.112	103.75
385.337	102.75
385.562	104.75
385.787	107.75
386.013	120.75
386.238	143.75
386.463	106.75
386.688	133.75
386.913	101.75
387.138	103.75
387.363	110.75
387.588	102.75
387.813	97.75
388.038	112.75
388.263	114.75
388.488	98.75
388.713	103.75
388.938	84.75
389.163	104.75
389.387	102.75
389.612	87.75
389.837	98.75
390.062	100.75
390.287	100.75
390.512	85.75
390.736	91.75
390.961	86.75
391.186	95.75
391.411	89.75
391.636	83.75
391.86	95.75
392.085	84.75
392.31	85.75
392.534	95.75
392.759	103.75
392.984	96.75
393.208	70.75
393.433	97.75
393.658	102.75
393.882	82.75
394.107	98.75
394.331	88.75
394.556	97.75
394.78	100.75
395.005	96.75
395.229	74.75
395.454	93.75
395.678	88.75
395.903	95.75
396.127	100.75
396.352	85.75
396.576	89.75
396.801	94.75
397.025	74.75
397.249	82.75
397.474	77.75
397.698	84.75
397.922	84.75
398.147	98.75
398.371	90.75
398.595	94.75
398.82	98.75
399.044	98.75
399.268	74.75
399.492	95.75
399.717	106.75
399.941	79.75
400.165	104.75
400.389	92.75
400.613	90.75
400.837	107.75
401.062	104.75
401.286	90.75
401.51	95.75
401.734	104.75
401.958	123.75
402.182	196.75
402.406	284.75
402.63	198.75
402.854	129.75
403.078	114.75
403.302	95.75
403.526	92.75
403.75	90.75
403.974	87.75
404.198	97.75
404.422	95.75
404.645	99.75
404.869	112.75
405.093	150.75
405.317	173.75
405.541	161.75
405.765	148.75
405.988	165.75
406.212	314.75
406.436	493.75
406.66	302.75
406.883	139.75
407.107	118.75
407.331	120.75
407.555	129.75
407.778	119.75
408.002	119.75
408.226	92.75
408.449	92.75
408.673	98.75
408.896	104.75
409.12	111.75
409.344	90.75
409.567	91.75
409.791	96.75
410.014	99.75
410.238	93.75
410.461	108.75
410.685	96.75
410.908	94.75
411.132	103.75
411.355	102.75
411.578	96.75
411.802	99.75
412.025	105.75
412.249	115.75
412.472	138.75
412.695	154.75
412.919	125.75
413.142	106.75
413.365	99.75
413.589	95.75
413.812	83.75
414.035	96.75
414.258	102.75
414.482	110.75
414.705	101.75
414.928	70.75
415.151	90.75
415.374	90.75
415.597	90.75
415.821	95.75
416.044	104.75
416.267	99.75
416.49	92.75
416.713	89.75
416.936	89.75
417.159	105.75
417.382	113.75
417.605	116.75
417.828	144.75
418.051	116.75
418.274	104.75
418.497	109.75
418.72	98.75
418.943	88.75
419.166	96.75
419.389	89.75
419.611	110.75
419.834	95.75
420.057	104.75
420.28	96.75
420.503	89.75
420.726	99.75
420.948	108.75
421.171	117.75
421.394	110.75
421.617	97.75
421.839	81.75
422.062	97.75
422.285	103.75
422.507	100.75
422.73	125.75
422.953	105.75
423.175	104.75
423.398	98.75
423.621	98.75
423.843	96.75
424.066	78.75
424.288	104.75
424.511	100.75
424.733	116.75
424.956	150.75
425.178	124.75
425.401	119.75
425.623	107.75
425.846	93.75
426.068	105.75
426.291	110.75
426.513	105.75
426.735	95.75
426.958	111.75
427.18	148.75
427.402	231.75
427.625	359.75
427.847	326.75
428.069	264.75
428.292	156.75
428.514	123.75
428.736	93.75
428.958	107.75
429.181	87.75
429.403	92.75
429.625	105.75
429.847	99.75
430.069	122.75
430.292	119.75
430.514	88.75
430.736	115.75
430.958	90.75
431.18	99.75
431.402	94.75
431.624	96.75
431.846	90.75
432.068	95.75
432.29	102.75
432.512	94.75
432.734	89.75
432.956	104.75
433.178	102.75
433.4	104.75
433.622	106.75
433.844	88.75
434.066	99.75
434.287	98.75
434.509	90.75
434.731	108.75
434.953	102.75
435.175	106.75
435.397	90.75
435.618	102.75
435.84	113.75
436.062	145.75
436.284	140.75
436.505	114.75
436.727	113.75
436.949	102.75
437.17	108.75
437.392	86.75
437.614	113.75
437.835	164.75
438.057	193.75
438.278	148.75
438.5	128.75
438.721	152.75
438.943	121.75
439.165	96.75
439.386	103.75
439.608	101.75
439.829	118.75
440.05	168.75
440.272	228.75
440.493	139.75
440.715	99.75
440.936	109.75
441.158	93.75
441.379	110.75
441.6	110.75
441.822	115.75
442.043	115.75
442.264	120.75
442.486	143.75
442.707	115.75
442.928	137.75
443.149	213.75
443.371	211.75
443.592	154.75
443.813	150.75
444.034	131.75
444.255	95.75
444.476	98.75
444.698	78.75
444.919	86.75
445.14	156.75
445.361	130.75
445.582	158.75
445.803	223.75
446.024	211.75
446.245	177.75
446.466	141.75
446.687	94.75
446.908	103.75
447.129	100.75
447.35	106.75
447.571	108.75
447.792	87.75
448.013	135.75
448.234	148.75
448.455	123.75
448.675	161.75
448.896	162.75
449.117	135.75
449.338	120.75
449.559	167.75
449.779	184.75
450	104.75
450.221	99.75
450.442	95.75
450.662	123.75
450.883	158.75
451.104	179.75
451.324	128.75
451.545	102.75
451.766	98.75
451.986	104.75
452.207	111.75
452.428	106.75
452.648	127.75
452.869	171.75
453.089	182.75
453.31	191.75
453.53	127.75
453.751	114.75
453.971	146.75
454.192	193.75
454.412	127.75
454.633	90.75
454.853	94.75
455.073	97.75
455.294	111.75
455.514	121.75
455.734	100.75
455.955	94.75
456.175	102.75
456.395	89.75
456.616	87.75
456.836	105.75
457.056	82.75
457.276	88.75
457.497	89.75
457.717	95.75
457.937	98.75
458.157	98.75
458.377	114.75
458.598	165.75
458.818	301.75
459.038	323.75
459.258	192.75
459.478	118.75
459.698	102.75
459.918	102.75
460.138	76.75
460.358	96.75
460.578	92.75
460.798	92.75
461.018	103.75
461.238	98.75
461.458	101.75
461.678	75.75
461.898	90.75
462.118	92.75
462.338	88.75
462.558	97.75
462.777	86.75
462.997	123.75
463.217	123.75
463.437	119.75
463.657	93.75
463.876	99.75
464.096	89.75
464.316	115.75
464.536	134.75
464.755	112.75
464.975	154.75
465.195	366.75
465.414	348.75
465.634	130.75
465.854	92.75
466.073	82.75
466.293	95.75
466.512	90.75
466.732	94.75
466.951	102.75
467.171	111.75
467.391	132.75
467.61	205.75
467.829	303.75
468.049	956.75
468.268	1523.75
468.488	339.75
468.707	127.75
468.927	99.75
469.146	100.75
469.365	98.75
469.585	106.75
469.804	139.75
470.023	134.75
470.243	123.75
470.462	136.75
470.681	193.75
470.901	130.75
471.12	113.75
471.339	118.75
471.558	148.75
471.777	206.75
471.997	456.75
472.216	1885.75
472.435	4458.75
472.654	949.75
472.873	214.75
473.092	139.75
473.311	101.75
473.53	104.75
473.749	114.75
473.968	104.75
474.187	138.75
474.406	118.75
474.625	92.75
474.844	87.75
475.063	90.75
475.282	95.75
475.501	92.75
475.72	87.75
475.939	87.75
476.158	92.75
476.377	101.75
476.596	92.75
476.814	117.75
477.033	115.75
477.252	111.75
477.471	95.75
477.69	123.75
477.908	108.75
478.127	103.75
478.346	110.75
478.564	117.75
478.783	124.75
479.002	131.75
479.22	135.75
479.439	170.75
479.658	177.75
479.876	155.75
480.095	137.75
480.313	186.75
480.532	224.75
480.751	414.75
480.969	1627.75
481.188	7328.75
481.406	4187.75
481.624	546.75
481.843	177.75
482.061	128.75
482.28	109.75
482.498	122.75
482.717	111.75
482.935	107.75
483.153	95.75
483.372	90.75
483.59	96.75
483.808	90.75
484.027	102.75
484.245	100.75
484.463	102.75
484.681	103.75
484.9	104.75
485.118	98.75
485.336	102.75
485.554	122.75
485.772	109.75
485.99	117.75
486.209	117.75
486.427	126.75
486.645	134.75
486.863	157.75
487.081	118.75
487.299	123.75
487.517	110.75
487.735	103.75
487.953	106.75
488.171	110.75
488.389	106.75
488.607	116.75
488.825	111.75
489.043	103.75
489.261	92.75
489.479	91.75
489.696	97.75
489.914	91.75
490.132	93.75
490.35	99.75
490.568	90.75
490.786	86.75
491.003	96.75
491.221	106.75
491.439	123.75
491.657	107.75
491.874	104.75
492.092	103.75
492.31	112.75
492.527	109.75
492.745	106.75
492.963	107.75
493.18	107.75
493.398	100.75
493.615	100.75
493.833	109.75
494.05	91.75
494.268	95.75
494.485	101.75
494.703	94.75
494.92	93.75
495.138	93.75
495.355	95.75
495.573	92.75
495.79	102.75
496.008	102.75
496.225	96.75
496.442	107.75
496.66	95.75
496.877	86.75
497.094	106.75
497.312	100.75
497.529	102.75
497.746	101.75
497.963	105.75
498.181	105.75
498.398	98.75
498.615	119.75
498.832	118.75
499.049	99.75
499.267	85.75
499.484	80.75
499.701	97.75
499.918	83.75
500.135	97.75
500.352	95.75
500.569	106.75
500.786	92.75
501.003	101.75
501.22	101.75
501.437	91.75
501.654	117.75
501.871	160.75
502.088	113.75
502.305	94.75
502.522	93.75
502.739	99.75
502.956	99.75
503.172	115.75
503.389	115.75
503.606	146.75
503.823	125.75
504.04	99.75
504.256	96.75
504.473	106.75
504.69	91.75
504.907	109.75
505.123	97.75
505.34	81.75
505.557	100.75
505.773	113.75
505.99	95.75
506.207	101.75
506.423	95.75
506.64	99.75
506.856	89.75
507.073	97.75
507.289	98.75
507.506	108.75
507.722	170.75
507.939	176.75
508.155	122.75
508.372	96.75
508.588	99.75
508.805	108.75
509.021	107.75
509.238	113.75
509.454	110.75
509.67	141.75
509.887	141.75
