Data from Circ_1999_H10_HRD10591_00086.txt Node
Date: Wed Jan 03 11:23:29 EST 2024
User: Yrep
Spectrometer: HR+D1059
Trigger mode: 1
Integration Time (sec): 1.000000E-1
Scans to average: 1
Electric dark correction enabled: true
Nonlinearity correction enabled: false
Boxcar width: 0
XAxis mode: Wavelengths
Number of Pixels in Spectrum: 2048
>>>>>Begin Spectral Data<<<<<
223.165	-12.69
223.4	-12.69
223.635	-12.69
223.869	-26.69
224.104	-19.69
224.338	-2.69
224.573	-18.69
224.808	-9.69
225.042	0.31
225.277	-3.69
225.511	0.31
225.746	9.31
225.98	-5.69
226.215	14.31
226.449	18.31
226.683	17.31
226.918	16.31
227.152	23.31
227.387	27.31
227.621	37.31
227.856	34.31
228.09	41.31
228.324	48.31
228.559	62.31
228.793	60.31
229.027	66.31
229.262	71.31
229.496	82.31
229.73	106.31
229.964	100.31
230.199	77.31
230.433	70.31
230.667	75.31
230.901	77.31
231.136	76.31
231.37	83.31
231.604	76.31
231.838	85.31
232.072	77.31
232.306	72.31
232.541	88.31
232.775	77.31
233.009	69.31
233.243	69.31
233.477	72.31
233.711	88.31
233.945	80.31
234.179	90.31
234.413	77.31
234.647	74.31
234.881	86.31
235.115	102.31
235.349	93.31
235.583	90.31
235.817	75.31
236.051	64.31
236.285	83.31
236.519	82.31
236.753	75.31
236.987	89.31
237.221	103.31
237.455	105.31
237.689	87.31
237.922	76.31
238.156	92.31
238.39	80.31
238.624	70.31
238.858	82.31
239.091	79.31
239.325	89.31
239.559	96.31
239.793	93.31
240.027	86.31
240.26	69.31
240.494	92.31
240.728	72.31
240.961	81.31
241.195	84.31
241.429	85.31
241.662	69.31
241.896	75.31
242.13	76.31
242.363	76.31
242.597	86.31
242.83	62.31
243.064	74.31
243.298	76.31
243.531	42.31
243.765	81.31
243.998	68.31
244.232	95.31
244.465	77.31
244.699	88.31
244.932	92.31
245.166	76.31
245.399	80.31
245.633	84.31
245.866	76.31
246.099	95.31
246.333	70.31
246.566	73.31
246.8	81.31
247.033	66.31
247.266	87.31
247.5	85.31
247.733	84.31
247.966	75.31
248.2	75.31
248.433	73.31
248.666	70.31
248.899	90.31
249.133	94.31
249.366	101.31
249.599	103.31
249.832	90.31
250.066	84.31
250.299	87.31
250.532	91.31
250.765	93.31
250.998	83.31
251.231	74.31
251.465	89.31
251.698	86.31
251.931	95.31
252.164	95.31
252.397	73.31
252.63	88.31
252.863	71.31
253.096	64.31
253.329	66.31
253.562	71.31
253.795	93.31
254.028	90.31
254.261	71.31
254.494	84.31
254.727	80.31
254.96	92.31
255.193	86.31
255.426	76.31
255.659	83.31
255.892	109.31
256.124	105.31
256.357	92.31
256.59	96.31
256.823	76.31
257.056	87.31
257.289	108.31
257.521	87.31
257.754	77.31
257.987	85.31
258.22	104.31
258.452	116.31
258.685	91.31
258.918	92.31
259.151	88.31
259.383	99.31
259.616	85.31
259.849	93.31
260.081	95.31
260.314	91.31
260.547	93.31
260.779	95.31
261.012	126.31
261.244	136.31
261.477	98.31
261.71	132.31
261.942	167.31
262.175	179.31
262.407	114.31
262.64	90.31
262.872	95.31
263.105	97.31
263.337	82.31
263.57	89.31
263.802	85.31
264.035	84.31
264.267	78.31
264.499	89.31
264.732	90.31
264.964	72.31
265.197	91.31
265.429	96.31
265.661	78.31
265.894	78.31
266.126	77.31
266.358	82.31
266.591	79.31
266.823	92.31
267.055	80.31
267.287	74.31
267.52	93.31
267.752	74.31
267.984	86.31
268.216	85.31
268.448	78.31
268.681	90.31
268.913	79.31
269.145	89.31
269.377	77.31
269.609	79.31
269.841	68.31
270.073	78.31
270.306	95.31
270.538	94.31
270.77	79.31
271.002	78.31
271.234	96.31
271.466	106.31
271.698	103.31
271.93	96.31
272.162	91.31
272.394	91.31
272.626	86.31
272.858	95.31
273.09	93.31
273.322	92.31
273.553	87.31
273.785	88.31
274.017	88.31
274.249	87.31
274.481	94.31
274.713	94.31
274.945	88.31
275.176	98.31
275.408	106.31
275.64	131.31
275.872	154.31
276.104	103.31
276.335	103.31
276.567	141.31
276.799	186.31
277.031	239.31
277.262	295.31
277.494	198.31
277.726	119.31
277.957	88.31
278.189	98.31
278.421	100.31
278.652	93.31
278.884	103.31
279.115	109.31
279.347	100.31
279.579	115.31
279.81	172.31
280.042	274.31
280.273	405.31
280.505	266.31
280.736	142.31
280.968	104.31
281.199	96.31
281.431	85.31
281.662	92.31
281.894	102.31
282.125	118.31
282.356	175.31
282.588	220.31
282.819	142.31
283.051	103.31
283.282	96.31
283.513	92.31
283.745	85.31
283.976	93.31
284.207	92.31
284.439	86.31
284.67	88.31
284.901	89.31
285.132	82.31
285.364	84.31
285.595	86.31
285.826	81.31
286.057	85.31
286.288	84.31
286.52	107.31
286.751	91.31
286.982	90.31
287.213	83.31
287.444	85.31
287.675	83.31
287.906	82.31
288.138	77.31
288.369	98.31
288.6	101.31
288.831	95.31
289.062	79.31
289.293	98.31
289.524	99.31
289.755	97.31
289.986	94.31
290.217	79.31
290.448	76.31
290.679	95.31
290.91	103.31
291.141	96.31
291.371	97.31
291.602	82.31
291.833	82.31
292.064	90.31
292.295	102.31
292.526	91.31
292.757	96.31
292.987	96.31
293.218	85.31
293.449	100.31
293.68	96.31
293.91	82.31
294.141	81.31
294.372	76.31
294.603	85.31
294.833	91.31
295.064	96.31
295.295	96.31
295.525	100.31
295.756	106.31
295.987	156.31
296.217	230.31
296.448	189.31
296.679	115.31
296.909	98.31
297.14	86.31
297.37	97.31
297.601	96.31
297.831	86.31
298.062	101.31
298.292	100.31
298.523	94.31
298.753	94.31
298.984	90.31
299.214	98.31
299.445	107.31
299.675	103.31
299.905	100.31
300.136	89.31
300.366	92.31
300.597	105.31
300.827	99.31
301.057	114.31
301.288	132.31
301.518	123.31
301.748	113.31
301.979	126.31
302.209	111.31
302.439	94.31
302.669	108.31
302.9	103.31
303.13	111.31
303.36	128.31
303.59	180.31
303.82	182.31
304.051	117.31
304.281	104.31
304.511	85.31
304.741	95.31
304.971	93.31
305.201	86.31
305.431	94.31
305.661	87.31
305.891	94.31
306.121	114.31
306.352	126.31
306.582	135.31
306.812	130.31
307.042	154.31
307.272	221.31
307.502	267.31
307.731	245.31
307.961	152.31
308.191	115.31
308.421	100.31
308.651	110.31
308.881	99.31
309.111	82.31
309.341	101.31
309.571	115.31
309.8	117.31
310.03	112.31
310.26	116.31
310.49	113.31
310.72	121.31
310.949	147.31
311.179	126.31
311.409	109.31
311.639	115.31
311.868	123.31
312.098	111.31
312.328	119.31
312.557	132.31
312.787	134.31
313.017	132.31
313.246	100.31
313.476	104.31
313.706	94.31
313.935	128.31
314.165	125.31
314.394	133.31
314.624	131.31
314.853	111.31
315.083	108.31
315.312	89.31
315.542	95.31
315.771	112.31
316.001	96.31
316.23	100.31
316.46	103.31
316.689	100.31
316.919	105.31
317.148	110.31
317.377	113.31
317.607	108.31
317.836	111.31
318.065	100.31
318.295	98.31
318.524	108.31
318.753	98.31
318.983	107.31
319.212	95.31
319.441	134.31
319.67	152.31
319.9	114.31
320.129	98.31
320.358	106.31
320.587	108.31
320.816	125.31
321.046	113.31
321.275	118.31
321.504	119.31
321.733	106.31
321.962	89.31
322.191	118.31
322.42	138.31
322.649	159.31
322.878	156.31
323.108	155.31
323.337	170.31
323.566	192.31
323.795	238.31
324.024	309.31
324.253	617.31
324.482	1355.31
324.71	2750.31
324.939	3503.31
325.168	1290.31
325.397	382.31
325.626	204.31
325.855	169.31
326.084	156.31
326.313	160.31
326.542	222.31
326.77	331.31
326.999	645.31
327.228	1390.31
327.457	2582.31
327.686	2056.31
327.914	784.31
328.143	850.31
328.372	1102.31
328.6	593.31
328.829	275.31
329.058	272.31
329.287	298.31
329.515	257.31
329.744	365.31
329.972	779.31
330.201	1700.31
330.43	2502.31
330.658	1063.31
330.887	445.31
331.115	274.31
331.344	146.31
331.572	135.31
331.801	167.31
332.03	159.31
332.258	133.31
332.486	119.31
332.715	116.31
332.943	125.31
333.172	139.31
333.4	177.31
333.629	207.31
333.857	341.31
334.085	714.31
334.314	1519.31
334.542	3063.31
334.771	2756.31
334.999	688.31
335.227	249.31
335.455	170.31
335.684	134.31
335.912	111.31
336.14	127.31
336.369	127.31
336.597	135.31
336.825	124.31
337.053	100.31
337.281	96.31
337.51	98.31
337.738	115.31
337.966	120.31
338.194	112.31
338.422	119.31
338.65	104.31
338.878	92.31
339.106	96.31
339.334	105.31
339.562	116.31
339.79	97.31
340.018	108.31
340.246	104.31
340.474	102.31
340.702	101.31
340.93	91.31
341.158	109.31
341.386	95.31
341.614	119.31
341.842	100.31
342.07	108.31
342.298	107.31
342.526	114.31
342.754	99.31
342.981	85.31
343.209	91.31
343.437	112.31
343.665	89.31
343.893	87.31
344.12	103.31
344.348	96.31
344.576	93.31
344.804	102.31
345.031	122.31
345.259	132.31
345.487	110.31
345.714	115.31
345.942	97.31
346.17	96.31
346.397	103.31
346.625	102.31
346.853	94.31
347.08	106.31
347.308	125.31
347.535	126.31
347.763	122.31
347.99	109.31
348.218	126.31
348.445	153.31
348.673	132.31
348.9	102.31
349.128	92.31
349.355	98.31
349.583	99.31
349.81	93.31
350.037	104.31
350.265	100.31
350.492	102.31
350.72	112.31
350.947	123.31
351.174	128.31
351.402	149.31
351.629	135.31
351.856	103.31
352.083	123.31
352.311	135.31
352.538	142.31
352.765	134.31
352.992	142.31
353.22	132.31
353.447	111.31
353.674	111.31
353.901	84.31
354.128	109.31
354.355	94.31
354.583	111.31
354.81	98.31
355.037	98.31
355.264	96.31
355.491	91.31
355.718	88.31
355.945	94.31
356.172	93.31
356.399	91.31
356.626	88.31
356.853	89.31
357.08	98.31
357.307	108.31
357.534	91.31
357.761	99.31
357.988	89.31
358.215	86.31
358.441	90.31
358.668	99.31
358.895	94.31
359.122	108.31
359.349	88.31
359.576	108.31
359.802	146.31
360.029	187.31
360.256	174.31
360.483	158.31
360.709	92.31
360.936	98.31
361.163	111.31
361.39	112.31
361.616	104.31
361.843	84.31
362.07	119.31
362.296	120.31
362.523	106.31
362.749	110.31
362.976	102.31
363.203	114.31
363.429	88.31
363.656	101.31
363.882	94.31
364.109	100.31
364.335	87.31
364.562	87.31
364.788	97.31
365.015	108.31
365.241	115.31
365.468	146.31
365.694	139.31
365.92	125.31
366.147	105.31
366.373	99.31
366.599	118.31
366.826	93.31
367.052	83.31
367.278	101.31
367.505	89.31
367.731	95.31
367.957	101.31
368.184	110.31
368.41	116.31
368.636	154.31
368.862	168.31
369.089	129.31
369.315	123.31
369.541	101.31
369.767	96.31
369.993	100.31
370.219	93.31
370.445	94.31
370.672	84.31
370.898	99.31
371.124	90.31
371.35	83.31
371.576	79.31
371.802	79.31
372.028	85.31
372.254	94.31
372.48	91.31
372.706	81.31
372.932	95.31
373.158	75.31
373.384	98.31
373.61	101.31
373.835	98.31
374.061	100.31
374.287	102.31
374.513	95.31
374.739	82.31
374.965	88.31
375.191	99.31
375.416	100.31
375.642	100.31
375.868	99.31
376.094	102.31
376.319	91.31
376.545	80.31
376.771	101.31
376.997	84.31
377.222	72.31
377.448	91.31
377.674	86.31
377.899	90.31
378.125	88.31
378.35	90.31
378.576	84.31
378.802	85.31
379.027	91.31
379.253	89.31
379.478	82.31
379.704	94.31
379.929	82.31
380.155	92.31
380.38	115.31
380.606	93.31
380.831	94.31
381.057	110.31
381.282	92.31
381.507	103.31
381.733	82.31
381.958	92.31
382.184	96.31
382.409	103.31
382.634	111.31
382.86	83.31
383.085	104.31
383.31	74.31
383.535	94.31
383.761	99.31
383.986	98.31
384.211	90.31
384.436	92.31
384.662	105.31
384.887	95.31
385.112	92.31
385.337	83.31
385.562	96.31
385.787	102.31
386.013	116.31
386.238	134.31
386.463	132.31
386.688	113.31
386.913	87.31
387.138	109.31
387.363	105.31
387.588	93.31
387.813	95.31
388.038	95.31
388.263	100.31
388.488	118.31
388.713	103.31
388.938	85.31
389.163	73.31
389.387	98.31
389.612	94.31
389.837	98.31
390.062	102.31
390.287	86.31
390.512	115.31
390.736	82.31
390.961	84.31
391.186	91.31
391.411	78.31
391.636	79.31
391.86	94.31
392.085	102.31
392.31	79.31
392.534	90.31
392.759	89.31
392.984	76.31
393.208	86.31
393.433	92.31
393.658	91.31
393.882	91.31
394.107	99.31
394.331	89.31
394.556	88.31
394.78	94.31
395.005	96.31
395.229	82.31
395.454	83.31
395.678	85.31
395.903	100.31
396.127	85.31
396.352	99.31
396.576	88.31
396.801	88.31
397.025	85.31
397.249	92.31
397.474	78.31
397.698	94.31
397.922	68.31
398.147	95.31
398.371	82.31
398.595	79.31
398.82	84.31
399.044	99.31
399.268	72.31
399.492	76.31
399.717	90.31
399.941	97.31
400.165	101.31
400.389	96.31
400.613	95.31
400.837	94.31
401.062	88.31
401.286	100.31
401.51	95.31
401.734	108.31
401.958	126.31
402.182	179.31
402.406	318.31
402.63	200.31
402.854	131.31
403.078	81.31
403.302	85.31
403.526	85.31
403.75	84.31
403.974	95.31
404.198	101.31
404.422	104.31
404.645	99.31
404.869	108.31
405.093	130.31
405.317	164.31
405.541	160.31
405.765	157.31
405.988	177.31
406.212	294.31
406.436	479.31
406.66	301.31
406.883	151.31
407.107	119.31
407.331	128.31
407.555	122.31
407.778	119.31
408.002	117.31
408.226	102.31
408.449	91.31
408.673	92.31
408.896	105.31
409.12	104.31
409.344	86.31
409.567	87.31
409.791	92.31
410.014	88.31
410.238	96.31
410.461	95.31
410.685	89.31
410.908	105.31
411.132	112.31
411.355	104.31
411.578	97.31
411.802	91.31
412.025	94.31
412.249	102.31
412.472	137.31
412.695	150.31
412.919	121.31
413.142	96.31
413.365	111.31
413.589	102.31
413.812	85.31
414.035	98.31
414.258	102.31
414.482	94.31
414.705	89.31
414.928	84.31
415.151	108.31
415.374	96.31
415.597	76.31
415.821	79.31
416.044	94.31
416.267	98.31
416.49	84.31
416.713	88.31
416.936	97.31
417.159	85.31
417.382	101.31
417.605	121.31
417.828	123.31
418.051	106.31
418.274	88.31
418.497	82.31
418.72	79.31
418.943	94.31
419.166	93.31
419.389	88.31
419.611	97.31
419.834	88.31
420.057	107.31
420.28	103.31
420.503	102.31
420.726	97.31
420.948	96.31
421.171	111.31
421.394	101.31
421.617	82.31
421.839	82.31
422.062	82.31
422.285	101.31
422.507	100.31
422.73	108.31
422.953	89.31
423.175	86.31
423.398	95.31
423.621	96.31
423.843	93.31
424.066	103.31
424.288	93.31
424.511	82.31
424.733	121.31
424.956	138.31
425.178	125.31
425.401	116.31
425.623	112.31
425.846	98.31
426.068	122.31
426.291	102.31
426.513	84.31
426.735	109.31
426.958	111.31
427.18	148.31
427.402	237.31
427.625	357.31
427.847	295.31
428.069	245.31
428.292	147.31
428.514	117.31
428.736	85.31
428.958	93.31
429.181	98.31
429.403	92.31
429.625	84.31
429.847	107.31
430.069	107.31
430.292	118.31
430.514	70.31
430.736	84.31
430.958	86.31
431.18	63.31
431.402	100.31
431.624	82.31
431.846	82.31
432.068	89.31
432.29	89.31
432.512	91.31
432.734	77.31
432.956	93.31
433.178	86.31
433.4	110.31
433.622	95.31
433.844	78.31
434.066	99.31
434.287	98.31
434.509	88.31
434.731	99.31
434.953	90.31
435.175	96.31
435.397	104.31
435.618	100.31
435.84	112.31
436.062	148.31
436.284	143.31
436.505	116.31
436.727	107.31
436.949	111.31
437.17	87.31
437.392	100.31
437.614	107.31
437.835	149.31
438.057	192.31
438.278	148.31
438.5	124.31
438.721	146.31
438.943	111.31
439.165	97.31
439.386	95.31
439.608	97.31
439.829	115.31
440.05	175.31
440.272	196.31
440.493	112.31
440.715	93.31
440.936	93.31
441.158	74.31
441.379	98.31
441.6	103.31
441.822	115.31
442.043	104.31
442.264	134.31
442.486	122.31
442.707	121.31
442.928	148.31
443.149	226.31
443.371	206.31
443.592	149.31
443.813	130.31
444.034	111.31
444.255	102.31
444.476	77.31
444.698	91.31
444.919	106.31
445.14	150.31
445.361	137.31
445.582	149.31
445.803	223.31
446.024	196.31
446.245	192.31
446.466	137.31
446.687	94.31
446.908	106.31
447.129	93.31
447.35	108.31
447.571	119.31
447.792	110.31
448.013	123.31
448.234	135.31
448.455	126.31
448.675	142.31
448.896	154.31
449.117	114.31
449.338	114.31
449.559	158.31
449.779	171.31
450	117.31
450.221	97.31
450.442	79.31
450.662	109.31
450.883	158.31
451.104	169.31
451.324	133.31
451.545	93.31
451.766	88.31
451.986	78.31
452.207	99.31
452.428	111.31
452.648	123.31
452.869	157.31
453.089	186.31
453.31	182.31
453.53	123.31
453.751	107.31
453.971	149.31
454.192	176.31
454.412	123.31
454.633	91.31
454.853	90.31
455.073	96.31
455.294	93.31
455.514	112.31
455.734	90.31
455.955	100.31
456.175	81.31
456.395	88.31
456.616	84.31
456.836	92.31
457.056	80.31
457.276	93.31
457.497	84.31
457.717	90.31
457.937	90.31
458.157	97.31
458.377	123.31
458.598	159.31
458.818	297.31
459.038	306.31
459.258	181.31
459.478	113.31
459.698	87.31
459.918	99.31
460.138	89.31
460.358	80.31
460.578	88.31
460.798	104.31
461.018	92.31
461.238	92.31
461.458	82.31
461.678	75.31
461.898	79.31
462.118	100.31
462.338	94.31
462.558	80.31
462.777	91.31
462.997	113.31
463.217	134.31
463.437	94.31
463.657	96.31
463.876	102.31
464.096	93.31
464.316	98.31
464.536	119.31
464.755	105.31
464.975	144.31
465.195	373.31
465.414	347.31
465.634	136.31
465.854	101.31
466.073	92.31
466.293	98.31
466.512	96.31
466.732	93.31
466.951	98.31
467.171	102.31
467.391	129.31
467.61	201.31
467.829	326.31
468.049	978.31
468.268	1530.31
468.488	342.31
468.707	118.31
468.927	102.31
469.146	83.31
469.365	102.31
469.585	107.31
469.804	125.31
470.023	139.31
470.243	116.31
470.462	154.31
470.681	189.31
470.901	117.31
471.12	122.31
471.339	124.31
471.558	146.31
471.777	196.31
471.997	471.31
472.216	1946.31
472.435	4431.31
472.654	956.31
472.873	214.31
473.092	122.31
473.311	104.31
473.53	103.31
473.749	90.31
473.968	110.31
474.187	147.31
474.406	118.31
474.625	108.31
474.844	88.31
475.063	93.31
475.282	98.31
475.501	104.31
475.72	102.31
475.939	120.31
476.158	76.31
476.377	91.31
476.596	94.31
476.814	111.31
477.033	114.31
477.252	91.31
477.471	94.31
477.69	93.31
477.908	107.31
478.127	93.31
478.346	106.31
478.564	96.31
478.783	134.31
479.002	125.31
479.22	132.31
479.439	152.31
479.658	174.31
479.876	152.31
480.095	142.31
480.313	180.31
480.532	228.31
480.751	429.31
480.969	1738.31
481.188	7450.31
481.406	4172.31
481.624	547.31
481.843	173.31
482.061	111.31
482.28	118.31
482.498	116.31
482.717	98.31
482.935	109.31
483.153	91.31
483.372	84.31
483.59	99.31
483.808	99.31
484.027	94.31
484.245	101.31
484.463	104.31
484.681	111.31
484.9	93.31
485.118	103.31
485.336	94.31
485.554	93.31
485.772	116.31
485.99	114.31
486.209	117.31
486.427	109.31
486.645	144.31
486.863	170.31
487.081	118.31
487.299	113.31
487.517	101.31
487.735	102.31
487.953	99.31
488.171	93.31
488.389	100.31
488.607	103.31
488.825	92.31
489.043	99.31
489.261	95.31
489.479	92.31
489.696	91.31
489.914	93.31
490.132	89.31
490.35	96.31
490.568	80.31
490.786	96.31
491.003	86.31
491.221	111.31
491.439	103.31
491.657	96.31
491.874	102.31
492.092	97.31
492.31	85.31
492.527	104.31
492.745	100.31
492.963	107.31
493.18	96.31
493.398	91.31
493.615	104.31
493.833	83.31
494.05	90.31
494.268	95.31
494.485	112.31
494.703	86.31
494.92	104.31
495.138	83.31
495.355	96.31
495.573	98.31
495.79	88.31
496.008	90.31
496.225	83.31
496.442	93.31
496.66	99.31
496.877	85.31
497.094	84.31
497.312	95.31
497.529	91.31
497.746	96.31
497.963	88.31
498.181	94.31
498.398	110.31
498.615	131.31
498.832	115.31
499.049	109.31
499.267	98.31
499.484	87.31
499.701	86.31
499.918	92.31
500.135	86.31
500.352	94.31
500.569	116.31
500.786	109.31
501.003	100.31
501.22	87.31
501.437	80.31
501.654	109.31
501.871	161.31
502.088	121.31
502.305	92.31
502.522	100.31
502.739	96.31
502.956	93.31
503.172	109.31
503.389	115.31
503.606	160.31
503.823	130.31
504.04	108.31
504.256	90.31
504.473	92.31
504.69	89.31
504.907	98.31
505.123	93.31
505.34	105.31
505.557	107.31
505.773	101.31
505.99	93.31
506.207	88.31
506.423	90.31
506.64	78.31
506.856	93.31
507.073	95.31
507.289	83.31
507.506	111.31
507.722	152.31
507.939	178.31
508.155	102.31
508.372	94.31
508.588	101.31
508.805	104.31
509.021	102.31
509.238	99.31
509.454	113.31
509.67	127.31
509.887	145.31
510.103	186.31
510.319	337.31
510.536	1455.31
510.752	5322.31
510.968	1370.31
511.184	234.31
