Data from Circ_1999_H10_HRD10591_00017.txt Node
Date: Wed Jan 03 11:23:16 EST 2024
User: Yrep
Spectrometer: HR+D1059
Trigger mode: 1
Integration Time (sec): 1.000000E-1
Scans to average: 1
Electric dark correction enabled: true
Nonlinearity correction enabled: false
Boxcar width: 0
XAxis mode: Wavelengths
Number of Pixels in Spectrum: 2048
>>>>>Begin Spectral Data<<<<<
223.165	-23.62
223.4	-23.62
223.635	-23.62
223.869	-18.62
224.104	-18.62
224.338	-27.62
224.573	-20.62
224.808	-27.62
225.042	-2.62
225.277	2.38
225.511	4.38
225.746	8.38
225.98	9.38
226.215	3.38
226.449	26.38
226.683	24.38
226.918	30.38
227.152	30.38
227.387	21.38
227.621	25.38
227.856	34.38
228.09	44.38
228.324	42.38
228.559	56.38
228.793	49.38
229.027	55.38
229.262	61.38
229.496	79.38
229.73	103.38
229.964	98.38
230.199	76.38
230.433	80.38
230.667	62.38
230.901	70.38
231.136	73.38
231.37	73.38
231.604	81.38
231.838	81.38
232.072	74.38
232.306	80.38
232.541	90.38
232.775	77.38
233.009	77.38
233.243	88.38
233.477	84.38
233.711	84.38
233.945	66.38
234.179	74.38
234.413	80.38
234.647	78.38
234.881	67.38
235.115	75.38
235.349	81.38
235.583	76.38
235.817	64.38
236.051	74.38
236.285	72.38
236.519	78.38
236.753	77.38
236.987	83.38
237.221	86.38
237.455	98.38
237.689	78.38
237.922	76.38
238.156	75.38
238.39	68.38
238.624	55.38
238.858	80.38
239.091	85.38
239.325	72.38
239.559	94.38
239.793	70.38
240.027	72.38
240.26	86.38
240.494	88.38
240.728	69.38
240.961	92.38
241.195	72.38
241.429	76.38
241.662	75.38
241.896	73.38
242.13	78.38
242.363	70.38
242.597	81.38
242.83	66.38
243.064	78.38
243.298	68.38
243.531	80.38
243.765	81.38
243.998	90.38
244.232	66.38
244.465	75.38
244.699	84.38
244.932	70.38
245.166	76.38
245.399	78.38
245.633	84.38
245.866	70.38
246.099	82.38
246.333	89.38
246.566	85.38
246.8	71.38
247.033	84.38
247.266	67.38
247.5	69.38
247.733	67.38
247.966	81.38
248.2	77.38
248.433	80.38
248.666	76.38
248.899	83.38
249.133	87.38
249.366	116.38
249.599	90.38
249.832	87.38
250.066	90.38
250.299	95.38
250.532	96.38
250.765	76.38
250.998	69.38
251.231	87.38
251.465	76.38
251.698	66.38
251.931	82.38
252.164	76.38
252.397	82.38
252.63	75.38
252.863	61.38
253.096	82.38
253.329	77.38
253.562	80.38
253.795	79.38
254.028	90.38
254.261	81.38
254.494	76.38
254.727	82.38
254.96	80.38
255.193	85.38
255.426	69.38
255.659	73.38
255.892	104.38
256.124	110.38
256.357	90.38
256.59	85.38
256.823	90.38
257.056	82.38
257.289	88.38
257.521	88.38
257.754	86.38
257.987	91.38
258.22	78.38
258.452	91.38
258.685	92.38
258.918	92.38
259.151	86.38
259.383	87.38
259.616	76.38
259.849	83.38
260.081	83.38
260.314	71.38
260.547	90.38
260.779	92.38
261.012	100.38
261.244	106.38
261.477	97.38
261.71	117.38
261.942	143.38
262.175	152.38
262.407	106.38
262.64	88.38
262.872	71.38
263.105	93.38
263.337	82.38
263.57	75.38
263.802	84.38
264.035	68.38
264.267	90.38
264.499	81.38
264.732	77.38
264.964	100.38
265.197	89.38
265.429	98.38
265.661	81.38
265.894	80.38
266.126	83.38
266.358	76.38
266.591	86.38
266.823	72.38
267.055	77.38
267.287	81.38
267.52	71.38
267.752	91.38
267.984	91.38
268.216	78.38
268.448	88.38
268.681	87.38
268.913	80.38
269.145	84.38
269.377	93.38
269.609	73.38
269.841	82.38
270.073	82.38
270.306	88.38
270.538	90.38
270.77	71.38
271.002	90.38
271.234	91.38
271.466	88.38
271.698	85.38
271.93	106.38
272.162	85.38
272.394	84.38
272.626	93.38
272.858	73.38
273.09	92.38
273.322	94.38
273.553	66.38
273.785	80.38
274.017	90.38
274.249	74.38
274.481	88.38
274.713	87.38
274.945	95.38
275.176	106.38
275.408	97.38
275.64	102.38
275.872	112.38
276.104	111.38
276.335	112.38
276.567	132.38
276.799	136.38
277.031	158.38
277.262	181.38
277.494	147.38
277.726	113.38
277.957	85.38
278.189	92.38
278.421	84.38
278.652	101.38
278.884	96.38
279.115	89.38
279.347	94.38
279.579	107.38
279.81	117.38
280.042	212.38
280.273	272.38
280.505	192.38
280.736	100.38
280.968	104.38
281.199	86.38
281.431	93.38
281.662	103.38
281.894	110.38
282.125	116.38
282.356	146.38
282.588	171.38
282.819	138.38
283.051	106.38
283.282	80.38
283.513	91.38
283.745	84.38
283.976	84.38
284.207	70.38
284.439	95.38
284.67	84.38
284.901	82.38
285.132	83.38
285.364	73.38
285.595	86.38
285.826	80.38
286.057	81.38
286.288	90.38
286.52	76.38
286.751	72.38
286.982	86.38
287.213	92.38
287.444	69.38
287.675	82.38
287.906	105.38
288.138	101.38
288.369	90.38
288.6	90.38
288.831	92.38
289.062	96.38
289.293	87.38
289.524	98.38
289.755	80.38
289.986	90.38
290.217	80.38
290.448	85.38
290.679	95.38
290.91	92.38
291.141	74.38
291.371	78.38
291.602	94.38
291.833	84.38
292.064	97.38
292.295	86.38
292.526	100.38
292.757	90.38
292.987	93.38
293.218	90.38
293.449	89.38
293.68	97.38
293.91	93.38
294.141	102.38
294.372	92.38
294.603	88.38
294.833	89.38
295.064	89.38
295.295	80.38
295.525	77.38
295.756	109.38
295.987	123.38
296.217	189.38
296.448	149.38
296.679	100.38
296.909	95.38
297.14	96.38
297.37	96.38
297.601	92.38
297.831	83.38
298.062	101.38
298.292	77.38
298.523	87.38
298.753	82.38
298.984	82.38
299.214	86.38
299.445	83.38
299.675	93.38
299.905	105.38
300.136	100.38
300.366	87.38
300.597	99.38
300.827	84.38
301.057	106.38
301.288	125.38
301.518	100.38
301.748	96.38
301.979	106.38
302.209	101.38
302.439	96.38
302.669	99.38
302.9	102.38
303.13	99.38
303.36	105.38
303.59	124.38
303.82	147.38
304.051	124.38
304.281	102.38
304.511	92.38
304.741	86.38
304.971	86.38
305.201	81.38
305.431	93.38
305.661	100.38
305.891	86.38
306.121	98.38
306.352	104.38
306.582	111.38
306.812	112.38
307.042	136.38
307.272	149.38
307.502	171.38
307.731	164.38
307.961	126.38
308.191	93.38
308.421	87.38
308.651	103.38
308.881	85.38
309.111	82.38
309.341	102.38
309.571	105.38
309.8	97.38
310.03	108.38
310.26	116.38
310.49	107.38
310.72	117.38
310.949	129.38
311.179	130.38
311.409	103.38
311.639	111.38
311.868	104.38
312.098	115.38
312.328	99.38
312.557	121.38
312.787	141.38
313.017	111.38
313.246	107.38
313.476	89.38
313.706	95.38
313.935	80.38
314.165	108.38
314.394	118.38
314.624	98.38
314.853	105.38
315.083	93.38
315.312	101.38
315.542	104.38
315.771	80.38
316.001	83.38
316.23	84.38
316.46	94.38
316.689	89.38
316.919	98.38
317.148	97.38
317.377	101.38
317.607	97.38
317.836	105.38
318.065	102.38
318.295	96.38
318.524	92.38
318.753	86.38
318.983	85.38
319.212	90.38
319.441	115.38
319.67	120.38
319.9	88.38
320.129	95.38
320.358	98.38
320.587	109.38
320.816	108.38
321.046	104.38
321.275	105.38
321.504	92.38
321.733	113.38
321.962	88.38
322.191	118.38
322.42	109.38
322.649	123.38
322.878	140.38
323.108	124.38
323.337	152.38
323.566	157.38
323.795	189.38
324.024	257.38
324.253	482.38
324.482	1012.38
324.71	2019.38
324.939	2592.38
325.168	1001.38
325.397	294.38
325.626	176.38
325.855	150.38
326.084	120.38
326.313	146.38
326.542	173.38
326.77	277.38
326.999	509.38
327.228	1020.38
327.457	1861.38
327.686	1540.38
327.914	575.38
328.143	578.38
328.372	689.38
328.6	389.38
328.829	198.38
329.058	217.38
329.287	218.38
329.515	197.38
329.744	253.38
329.972	510.38
330.201	1017.38
330.43	1472.38
330.658	675.38
330.887	321.38
331.115	207.38
331.344	146.38
331.572	110.38
331.801	135.38
332.03	141.38
332.258	125.38
332.486	97.38
332.715	101.38
332.943	107.38
333.172	117.38
333.4	136.38
333.629	173.38
333.857	252.38
334.085	481.38
334.314	962.38
334.542	1789.38
334.771	1660.38
334.999	438.38
335.227	181.38
335.455	125.38
335.684	123.38
335.912	113.38
336.14	110.38
336.369	114.38
336.597	113.38
336.825	112.38
337.053	93.38
337.281	101.38
337.51	105.38
337.738	98.38
337.966	78.38
338.194	91.38
338.422	96.38
338.65	96.38
338.878	96.38
339.106	96.38
339.334	97.38
339.562	100.38
339.79	82.38
340.018	85.38
340.246	103.38
340.474	95.38
340.702	102.38
340.93	96.38
341.158	93.38
341.386	109.38
341.614	101.38
341.842	113.38
342.07	108.38
342.298	82.38
342.526	108.38
342.754	97.38
342.981	90.38
343.209	87.38
343.437	108.38
343.665	92.38
343.893	80.38
344.12	93.38
344.348	80.38
344.576	94.38
344.804	87.38
345.031	106.38
345.259	124.38
345.487	102.38
345.714	80.38
345.942	100.38
346.17	93.38
346.397	89.38
346.625	94.38
346.853	96.38
347.08	92.38
347.308	110.38
347.535	102.38
347.763	110.38
347.99	108.38
348.218	105.38
348.445	119.38
348.673	121.38
348.9	105.38
349.128	97.38
349.355	83.38
349.583	93.38
349.81	87.38
350.037	108.38
350.265	97.38
350.492	84.38
350.72	106.38
350.947	108.38
351.174	121.38
351.402	128.38
351.629	102.38
351.856	104.38
352.083	120.38
352.311	120.38
352.538	121.38
352.765	120.38
352.992	119.38
353.22	111.38
353.447	108.38
353.674	104.38
353.901	92.38
354.128	96.38
354.355	103.38
354.583	105.38
354.81	98.38
355.037	86.38
355.264	90.38
355.491	86.38
355.718	83.38
355.945	90.38
356.172	83.38
356.399	88.38
356.626	93.38
356.853	91.38
357.08	92.38
357.307	92.38
357.534	71.38
357.761	90.38
357.988	80.38
358.215	96.38
358.441	100.38
358.668	103.38
358.895	84.38
359.122	88.38
359.349	77.38
359.576	98.38
359.802	115.38
360.029	152.38
360.256	150.38
360.483	128.38
360.709	92.38
360.936	87.38
361.163	95.38
361.39	108.38
361.616	100.38
361.843	119.38
362.07	90.38
362.296	103.38
362.523	112.38
362.749	91.38
362.976	89.38
363.203	96.38
363.429	103.38
363.656	89.38
363.882	82.38
364.109	88.38
364.335	84.38
364.562	102.38
364.788	98.38
365.015	100.38
365.241	90.38
365.468	124.38
365.694	131.38
365.92	118.38
366.147	117.38
366.373	90.38
366.599	89.38
366.826	92.38
367.052	92.38
367.278	94.38
367.505	89.38
367.731	84.38
367.957	77.38
368.184	89.38
368.41	99.38
368.636	119.38
368.862	142.38
369.089	118.38
369.315	114.38
369.541	91.38
369.767	82.38
369.993	101.38
370.219	100.38
370.445	86.38
370.672	94.38
370.898	96.38
371.124	91.38
371.35	98.38
371.576	88.38
371.802	94.38
372.028	92.38
372.254	90.38
372.48	74.38
372.706	89.38
372.932	97.38
373.158	76.38
373.384	88.38
373.61	92.38
373.835	96.38
374.061	86.38
374.287	93.38
374.513	89.38
374.739	96.38
374.965	86.38
375.191	89.38
375.416	77.38
375.642	81.38
375.868	93.38
376.094	83.38
376.319	100.38
376.545	99.38
376.771	100.38
376.997	83.38
377.222	104.38
377.448	105.38
377.674	91.38
377.899	104.38
378.125	100.38
378.35	94.38
378.576	72.38
378.802	102.38
379.027	73.38
379.253	90.38
379.478	103.38
379.704	108.38
379.929	85.38
380.155	83.38
380.38	94.38
380.606	94.38
380.831	93.38
381.057	87.38
381.282	103.38
381.507	98.38
381.733	92.38
381.958	96.38
382.184	93.38
382.409	116.38
382.634	96.38
382.86	106.38
383.085	94.38
383.31	104.38
383.535	101.38
383.761	108.38
383.986	96.38
384.211	91.38
384.436	90.38
384.662	113.38
384.887	111.38
385.112	112.38
385.337	99.38
385.562	110.38
385.787	116.38
386.013	132.38
386.238	110.38
386.463	120.38
386.688	121.38
386.913	110.38
387.138	110.38
387.363	92.38
387.588	100.38
387.813	101.38
388.038	108.38
388.263	108.38
388.488	104.38
388.713	95.38
388.938	91.38
389.163	99.38
389.387	101.38
389.612	80.38
389.837	87.38
390.062	94.38
390.287	83.38
390.512	85.38
390.736	80.38
390.961	83.38
391.186	75.38
391.411	100.38
391.636	87.38
391.86	89.38
392.085	85.38
392.31	91.38
392.534	91.38
392.759	92.38
392.984	82.38
393.208	71.38
393.433	93.38
393.658	105.38
393.882	82.38
394.107	83.38
394.331	77.38
394.556	81.38
394.78	95.38
395.005	84.38
395.229	75.38
395.454	86.38
395.678	87.38
395.903	95.38
396.127	92.38
396.352	83.38
396.576	76.38
396.801	94.38
397.025	77.38
397.249	82.38
397.474	92.38
397.698	71.38
397.922	77.38
398.147	102.38
398.371	67.38
398.595	89.38
398.82	89.38
399.044	90.38
399.268	78.38
399.492	80.38
399.717	77.38
399.941	100.38
400.165	107.38
400.389	90.38
400.613	85.38
400.837	96.38
401.062	83.38
401.286	79.38
401.51	101.38
401.734	97.38
401.958	108.38
402.182	160.38
402.406	240.38
402.63	161.38
402.854	95.38
403.078	98.38
403.302	89.38
403.526	88.38
403.75	89.38
403.974	101.38
404.198	88.38
404.422	86.38
404.645	86.38
404.869	104.38
405.093	116.38
405.317	146.38
405.541	137.38
405.765	115.38
405.988	148.38
406.212	252.38
406.436	354.38
406.66	237.38
406.883	135.38
407.107	107.38
407.331	108.38
407.555	102.38
407.778	122.38
408.002	91.38
408.226	84.38
408.449	88.38
408.673	100.38
408.896	89.38
409.12	96.38
409.344	80.38
409.567	87.38
409.791	90.38
410.014	91.38
410.238	78.38
410.461	80.38
410.685	84.38
410.908	92.38
411.132	110.38
411.355	103.38
411.578	101.38
411.802	93.38
412.025	93.38
412.249	108.38
412.472	110.38
412.695	148.38
412.919	109.38
413.142	101.38
413.365	93.38
413.589	97.38
413.812	98.38
414.035	78.38
414.258	86.38
414.482	86.38
414.705	86.38
414.928	94.38
415.151	92.38
415.374	97.38
415.597	76.38
415.821	85.38
416.044	80.38
416.267	94.38
416.49	81.38
416.713	96.38
416.936	101.38
417.159	85.38
417.382	91.38
417.605	101.38
417.828	107.38
418.051	83.38
418.274	88.38
418.497	100.38
418.72	92.38
418.943	86.38
419.166	85.38
419.389	96.38
419.611	90.38
419.834	87.38
420.057	97.38
420.28	87.38
420.503	95.38
420.726	72.38
420.948	87.38
421.171	114.38
421.394	115.38
421.617	90.38
421.839	93.38
422.062	85.38
422.285	95.38
422.507	103.38
422.73	105.38
422.953	80.38
423.175	82.38
423.398	89.38
423.621	87.38
423.843	77.38
424.066	83.38
424.288	91.38
424.511	99.38
424.733	114.38
424.956	119.38
425.178	104.38
425.401	118.38
425.623	117.38
425.846	98.38
426.068	101.38
426.291	101.38
426.513	90.38
426.735	95.38
426.958	100.38
427.18	126.38
427.402	176.38
427.625	279.38
427.847	236.38
428.069	185.38
428.292	109.38
428.514	88.38
428.736	93.38
428.958	80.38
429.181	67.38
429.403	84.38
429.625	82.38
429.847	91.38
430.069	117.38
430.292	100.38
430.514	97.38
430.736	84.38
430.958	88.38
431.18	74.38
431.402	81.38
431.624	92.38
431.846	85.38
432.068	76.38
432.29	90.38
432.512	85.38
432.734	94.38
432.956	83.38
433.178	83.38
433.4	96.38
433.622	97.38
433.844	89.38
434.066	92.38
434.287	98.38
434.509	81.38
434.731	97.38
434.953	84.38
435.175	85.38
435.397	87.38
435.618	84.38
435.84	104.38
436.062	115.38
436.284	124.38
436.505	104.38
436.727	85.38
436.949	89.38
437.17	100.38
437.392	98.38
437.614	111.38
437.835	135.38
438.057	157.38
438.278	125.38
438.5	121.38
438.721	135.38
438.943	97.38
439.165	80.38
439.386	91.38
439.608	102.38
439.829	104.38
440.05	154.38
440.272	163.38
440.493	115.38
440.715	84.38
440.936	91.38
441.158	96.38
441.379	89.38
441.6	98.38
441.822	101.38
442.043	100.38
442.264	121.38
442.486	105.38
442.707	102.38
442.928	124.38
443.149	183.38
443.371	170.38
443.592	128.38
443.813	112.38
444.034	119.38
444.255	100.38
444.476	82.38
444.698	72.38
444.919	76.38
445.14	123.38
445.361	151.38
445.582	126.38
445.803	192.38
446.024	173.38
446.245	146.38
446.466	105.38
446.687	89.38
446.908	82.38
447.129	90.38
447.35	95.38
447.571	97.38
447.792	99.38
448.013	104.38
448.234	120.38
448.455	104.38
448.675	145.38
448.896	128.38
449.117	108.38
449.338	114.38
449.559	135.38
449.779	164.38
450	93.38
450.221	101.38
450.442	111.38
450.662	108.38
450.883	129.38
451.104	141.38
451.324	110.38
451.545	104.38
451.766	90.38
451.986	84.38
452.207	95.38
452.428	92.38
452.648	103.38
452.869	115.38
453.089	133.38
453.31	158.38
453.53	96.38
453.751	94.38
453.971	118.38
454.192	157.38
454.412	99.38
454.633	82.38
454.853	82.38
455.073	91.38
455.294	104.38
455.514	114.38
455.734	98.38
455.955	73.38
456.175	82.38
456.395	79.38
456.616	72.38
456.836	83.38
457.056	59.38
457.276	78.38
457.497	84.38
457.717	106.38
457.937	85.38
458.157	96.38
458.377	111.38
458.598	130.38
458.818	234.38
459.038	252.38
459.258	159.38
459.478	99.38
459.698	92.38
459.918	85.38
460.138	82.38
460.358	91.38
460.578	103.38
460.798	89.38
461.018	94.38
461.238	93.38
461.458	89.38
461.678	73.38
461.898	85.38
462.118	86.38
462.338	88.38
462.558	104.38
462.777	81.38
462.997	94.38
463.217	108.38
463.437	94.38
463.657	92.38
463.876	86.38
464.096	96.38
464.316	108.38
464.536	100.38
464.755	103.38
464.975	136.38
465.195	284.38
465.414	278.38
465.634	109.38
465.854	102.38
466.073	86.38
466.293	97.38
466.512	90.38
466.732	86.38
466.951	92.38
467.171	103.38
467.391	120.38
467.61	157.38
467.829	217.38
468.049	574.38
468.268	877.38
468.488	225.38
468.707	106.38
468.927	77.38
469.146	90.38
469.365	90.38
469.585	91.38
469.804	118.38
470.023	106.38
470.243	105.38
470.462	122.38
470.681	131.38
470.901	95.38
471.12	115.38
471.339	100.38
471.558	116.38
471.777	164.38
471.997	298.38
472.216	1121.38
472.435	2549.38
472.654	582.38
472.873	164.38
473.092	96.38
473.311	101.38
473.53	91.38
473.749	84.38
473.968	111.38
474.187	115.38
474.406	97.38
474.625	95.38
474.844	92.38
475.063	88.38
475.282	92.38
475.501	101.38
475.72	87.38
475.939	92.38
476.158	83.38
476.377	84.38
476.596	86.38
476.814	93.38
477.033	100.38
477.252	92.38
477.471	95.38
477.69	85.38
477.908	93.38
478.127	106.38
478.346	97.38
478.564	89.38
478.783	109.38
479.002	109.38
479.22	118.38
479.439	129.38
479.658	138.38
479.876	113.38
480.095	121.38
480.313	129.38
480.532	180.38
480.751	298.38
480.969	1047.38
481.188	4453.38
481.406	2438.38
481.624	337.38
481.843	133.38
482.061	116.38
482.28	97.38
482.498	96.38
482.717	74.38
482.935	90.38
483.153	84.38
483.372	91.38
483.59	83.38
483.808	104.38
484.027	102.38
484.245	105.38
484.463	83.38
484.681	88.38
484.9	100.38
485.118	86.38
485.336	95.38
485.554	100.38
485.772	98.38
485.99	99.38
486.209	109.38
486.427	104.38
486.645	125.38
486.863	145.38
487.081	121.38
487.299	91.38
487.517	93.38
487.735	90.38
487.953	84.38
488.171	100.38
488.389	93.38
488.607	111.38
488.825	89.38
489.043	86.38
489.261	91.38
489.479	69.38
489.696	85.38
489.914	83.38
490.132	102.38
490.35	83.38
490.568	97.38
490.786	85.38
491.003	104.38
491.221	90.38
491.439	95.38
491.657	88.38
491.874	112.38
492.092	88.38
492.31	85.38
492.527	103.38
492.745	109.38
492.963	88.38
493.18	84.38
493.398	91.38
493.615	91.38
493.833	105.38
494.05	94.38
494.268	92.38
494.485	87.38
494.703	89.38
494.92	92.38
495.138	81.38
495.355	100.38
495.573	96.38
495.79	86.38
496.008	91.38
496.225	94.38
496.442	83.38
496.66	102.38
496.877	86.38
497.094	90.38
497.312	81.38
497.529	95.38
497.746	94.38
497.963	88.38
498.181	99.38
498.398	105.38
498.615	107.38
498.832	109.38
499.049	88.38
499.267	92.38
499.484	90.38
499.701	80.38
499.918	94.38
500.135	88.38
500.352	104.38
500.569	81.38
500.786	108.38
501.003	104.38
501.22	81.38
501.437	106.38
501.654	103.38
501.871	121.38
502.088	90.38
502.305	94.38
502.522	84.38
502.739	88.38
502.956	100.38
503.172	89.38
503.389	101.38
503.606	138.38
503.823	99.38
504.04	74.38
504.256	83.38
504.473	84.38
504.69	88.38
504.907	86.38
505.123	85.38
505.34	90.38
505.557	81.38
505.773	92.38
505.99	96.38
506.207	85.38
506.423	90.38
506.64	81.38
506.856	88.38
507.073	97.38
507.289	92.38
507.506	103.38
507.722	147.38
507.939	134.38
508.155	117.38
508.372	102.38
508.588	102.38
508.805	101.38
509.021	87.38
509.238	86.38
509.454	84.38
509.67	108.38
509.887	109.38
510.103	164.38
510.319	282.38
510.536	1117.38
510.752	4180.38
510.968	1067.38
511.184	195.38
511.401	142.38
511.617	124.38
511.833	121.38
512.049	90.38
512.265	93.38
512.481	97.38
512.698	94.38
512.914	100.38
