Data from Circ_1999_H10_HRD10591_00056.txt Node
Date: Wed Jan 03 11:23:23 EST 2024
User: Yrep
Spectrometer: HR+D1059
Trigger mode: 1
Integration Time (sec): 1.000000E-1
Scans to average: 1
Electric dark correction enabled: true
Nonlinearity correction enabled: false
Boxcar width: 0
XAxis mode: Wavelengths
Number of Pixels in Spectrum: 2048
>>>>>Begin Spectral Data<<<<<
223.165	-28.12
223.4	-28.12
223.635	-28.12
223.869	-19.12
224.104	-18.12
224.338	-19.12
224.573	-9.12
224.808	-2.12
225.042	4.88
225.277	-3.12
225.511	-6.12
225.746	3.88
225.98	11.88
226.215	2.88
226.449	24.88
226.683	16.88
226.918	23.88
227.152	15.88
227.387	29.88
227.621	36.88
227.856	36.88
228.09	45.88
228.324	59.88
228.559	48.88
228.793	73.88
229.027	67.88
229.262	61.88
229.496	79.88
229.73	115.88
229.964	94.88
230.199	85.88
230.433	79.88
230.667	77.88
230.901	77.88
231.136	85.88
231.37	83.88
231.604	82.88
231.838	78.88
232.072	92.88
232.306	73.88
232.541	95.88
232.775	79.88
233.009	82.88
233.243	80.88
233.477	91.88
233.711	80.88
233.945	88.88
234.179	69.88
234.413	78.88
234.647	96.88
234.881	86.88
235.115	74.88
235.349	75.88
235.583	74.88
235.817	76.88
236.051	92.88
236.285	81.88
236.519	80.88
236.753	72.88
236.987	93.88
237.221	84.88
237.455	104.88
237.689	77.88
237.922	69.88
238.156	81.88
238.39	69.88
238.624	76.88
238.858	76.88
239.091	68.88
239.325	60.88
239.559	71.88
239.793	91.88
240.027	81.88
240.26	69.88
240.494	99.88
240.728	81.88
240.961	94.88
241.195	84.88
241.429	75.88
241.662	71.88
241.896	71.88
242.13	71.88
242.363	58.88
242.597	87.88
242.83	67.88
243.064	88.88
243.298	98.88
243.531	81.88
243.765	83.88
243.998	68.88
244.232	90.88
244.465	84.88
244.699	91.88
244.932	84.88
245.166	81.88
245.399	68.88
245.633	86.88
245.866	88.88
246.099	74.88
246.333	89.88
246.566	82.88
246.8	67.88
247.033	78.88
247.266	81.88
247.5	79.88
247.733	87.88
247.966	73.88
248.2	78.88
248.433	92.88
248.666	80.88
248.899	84.88
249.133	84.88
249.366	114.88
249.599	115.88
249.832	90.88
250.066	88.88
250.299	77.88
250.532	93.88
250.765	79.88
250.998	93.88
251.231	103.88
251.465	91.88
251.698	80.88
251.931	70.88
252.164	75.88
252.397	71.88
252.63	71.88
252.863	83.88
253.096	86.88
253.329	93.88
253.562	85.88
253.795	88.88
254.028	74.88
254.261	77.88
254.494	85.88
254.727	84.88
254.96	73.88
255.193	80.88
255.426	88.88
255.659	102.88
255.892	103.88
256.124	97.88
256.357	97.88
256.59	69.88
256.823	90.88
257.056	89.88
257.289	81.88
257.521	75.88
257.754	74.88
257.987	87.88
258.22	90.88
258.452	93.88
258.685	107.88
258.918	87.88
259.151	76.88
259.383	87.88
259.616	91.88
259.849	97.88
260.081	96.88
260.314	102.88
260.547	96.88
260.779	97.88
261.012	112.88
261.244	112.88
261.477	109.88
261.71	121.88
261.942	170.88
262.175	174.88
262.407	113.88
262.64	78.88
262.872	84.88
263.105	85.88
263.337	91.88
263.57	77.88
263.802	102.88
264.035	82.88
264.267	84.88
264.499	83.88
264.732	88.88
264.964	82.88
265.197	100.88
265.429	105.88
265.661	86.88
265.894	81.88
266.126	87.88
266.358	74.88
266.591	93.88
266.823	69.88
267.055	86.88
267.287	80.88
267.52	89.88
267.752	80.88
267.984	89.88
268.216	75.88
268.448	80.88
268.681	96.88
268.913	94.88
269.145	92.88
269.377	74.88
269.609	88.88
269.841	80.88
270.073	71.88
270.306	100.88
270.538	88.88
270.77	84.88
271.002	90.88
271.234	84.88
271.466	101.88
271.698	88.88
271.93	100.88
272.162	84.88
272.394	91.88
272.626	93.88
272.858	82.88
273.09	88.88
273.322	84.88
273.553	87.88
273.785	94.88
274.017	88.88
274.249	90.88
274.481	95.88
274.713	91.88
274.945	90.88
275.176	97.88
275.408	118.88
275.64	124.88
275.872	145.88
276.104	111.88
276.335	111.88
276.567	151.88
276.799	194.88
277.031	207.88
277.262	249.88
277.494	182.88
277.726	103.88
277.957	105.88
278.189	105.88
278.421	98.88
278.652	93.88
278.884	93.88
279.115	94.88
279.347	103.88
279.579	111.88
279.81	148.88
280.042	236.88
280.273	338.88
280.505	227.88
280.736	115.88
280.968	96.88
281.199	80.88
281.431	87.88
281.662	91.88
281.894	88.88
282.125	119.88
282.356	168.88
282.588	213.88
282.819	156.88
283.051	117.88
283.282	93.88
283.513	97.88
283.745	89.88
283.976	98.88
284.207	81.88
284.439	90.88
284.67	91.88
284.901	88.88
285.132	93.88
285.364	94.88
285.595	91.88
285.826	91.88
286.057	96.88
286.288	101.88
286.52	80.88
286.751	74.88
286.982	92.88
287.213	86.88
287.444	86.88
287.675	95.88
287.906	104.88
288.138	99.88
288.369	115.88
288.6	100.88
288.831	108.88
289.062	88.88
289.293	93.88
289.524	87.88
289.755	83.88
289.986	81.88
290.217	92.88
290.448	83.88
290.679	80.88
290.91	100.88
291.141	94.88
291.371	73.88
291.602	74.88
291.833	95.88
292.064	91.88
292.295	95.88
292.526	95.88
292.757	82.88
292.987	88.88
293.218	88.88
293.449	96.88
293.68	93.88
293.91	84.88
294.141	96.88
294.372	89.88
294.603	90.88
294.833	83.88
295.064	96.88
295.295	84.88
295.525	100.88
295.756	109.88
295.987	166.88
296.217	220.88
296.448	203.88
296.679	101.88
296.909	92.88
297.14	91.88
297.37	82.88
297.601	91.88
297.831	102.88
298.062	105.88
298.292	80.88
298.523	105.88
298.753	75.88
298.984	86.88
299.214	92.88
299.445	93.88
299.675	95.88
299.905	95.88
300.136	95.88
300.366	88.88
300.597	83.88
300.827	111.88
301.057	109.88
301.288	148.88
301.518	104.88
301.748	97.88
301.979	108.88
302.209	99.88
302.439	86.88
302.669	91.88
302.9	101.88
303.13	86.88
303.36	112.88
303.59	159.88
303.82	167.88
304.051	97.88
304.281	81.88
304.511	97.88
304.741	94.88
304.971	96.88
305.201	90.88
305.431	101.88
305.661	68.88
305.891	90.88
306.121	106.88
306.352	100.88
306.582	130.88
306.812	128.88
307.042	143.88
307.272	188.88
307.502	205.88
307.731	204.88
307.961	147.88
308.191	89.88
308.421	86.88
308.651	88.88
308.881	103.88
309.111	100.88
309.341	91.88
309.571	117.88
309.8	115.88
310.03	118.88
310.26	122.88
310.49	94.88
310.72	124.88
310.949	135.88
311.179	123.88
311.409	108.88
311.639	123.88
311.868	121.88
312.098	93.88
312.328	85.88
312.557	123.88
312.787	147.88
313.017	116.88
313.246	111.88
313.476	101.88
313.706	75.88
313.935	93.88
314.165	119.88
314.394	125.88
314.624	111.88
314.853	113.88
315.083	89.88
315.312	101.88
315.542	100.88
315.771	86.88
316.001	96.88
316.23	93.88
316.46	89.88
316.689	108.88
316.919	97.88
317.148	121.88
317.377	109.88
317.607	102.88
317.836	105.88
318.065	96.88
318.295	95.88
318.524	104.88
318.753	106.88
318.983	101.88
319.212	115.88
319.441	137.88
319.67	130.88
319.9	103.88
320.129	107.88
320.358	94.88
320.587	107.88
320.816	103.88
321.046	127.88
321.275	114.88
321.504	97.88
321.733	118.88
321.962	95.88
322.191	114.88
322.42	120.88
322.649	126.88
322.878	127.88
323.108	134.88
323.337	164.88
323.566	177.88
323.795	195.88
324.024	274.88
324.253	574.88
324.482	1273.88
324.71	2681.88
324.939	3452.88
325.168	1232.88
325.397	355.88
325.626	198.88
325.855	165.88
326.084	165.88
326.313	174.88
326.542	208.88
326.77	287.88
326.999	612.88
327.228	1274.88
327.457	2344.88
327.686	1896.88
327.914	706.88
328.143	740.88
328.372	923.88
328.6	496.88
328.829	236.88
329.058	249.88
329.287	251.88
329.515	236.88
329.744	336.88
329.972	678.88
330.201	1437.88
330.43	2037.88
330.658	867.88
330.887	403.88
331.115	244.88
331.344	145.88
331.572	139.88
331.801	162.88
332.03	150.88
332.258	128.88
332.486	121.88
332.715	111.88
332.943	119.88
333.172	131.88
333.4	151.88
333.629	203.88
333.857	293.88
334.085	605.88
334.314	1286.88
334.542	2574.88
334.771	2321.88
334.999	588.88
335.227	211.88
335.455	143.88
335.684	131.88
335.912	136.88
336.14	122.88
336.369	117.88
336.597	121.88
336.825	120.88
337.053	97.88
337.281	85.88
337.51	111.88
337.738	110.88
337.966	108.88
338.194	132.88
338.422	119.88
338.65	95.88
338.878	105.88
339.106	103.88
339.334	103.88
339.562	102.88
339.79	98.88
340.018	96.88
340.246	111.88
340.474	105.88
340.702	88.88
340.93	96.88
341.158	92.88
341.386	118.88
341.614	130.88
341.842	107.88
342.07	108.88
342.298	108.88
342.526	106.88
342.754	94.88
342.981	90.88
343.209	95.88
343.437	103.88
343.665	90.88
343.893	95.88
344.12	103.88
344.348	98.88
344.576	101.88
344.804	83.88
345.031	105.88
345.259	99.88
345.487	104.88
345.714	97.88
345.942	105.88
346.17	93.88
346.397	88.88
346.625	95.88
346.853	79.88
347.08	93.88
347.308	97.88
347.535	112.88
347.763	124.88
347.99	108.88
348.218	113.88
348.445	136.88
348.673	130.88
348.9	112.88
349.128	107.88
349.355	92.88
349.583	100.88
349.81	93.88
350.037	100.88
350.265	95.88
350.492	97.88
350.72	102.88
350.947	117.88
351.174	134.88
351.402	135.88
351.629	129.88
351.856	128.88
352.083	128.88
352.311	123.88
352.538	137.88
352.765	145.88
352.992	121.88
353.22	117.88
353.447	121.88
353.674	112.88
353.901	107.88
354.128	95.88
354.355	96.88
354.583	92.88
354.81	86.88
355.037	90.88
355.264	91.88
355.491	81.88
355.718	93.88
355.945	76.88
356.172	102.88
356.399	93.88
356.626	97.88
356.853	86.88
357.08	75.88
357.307	91.88
357.534	89.88
357.761	96.88
357.988	94.88
358.215	106.88
358.441	97.88
358.668	70.88
358.895	97.88
359.122	83.88
359.349	83.88
359.576	107.88
359.802	136.88
360.029	197.88
360.256	176.88
360.483	141.88
360.709	105.88
360.936	97.88
361.163	105.88
361.39	116.88
361.616	116.88
361.843	106.88
362.07	121.88
362.296	116.88
362.523	94.88
362.749	110.88
362.976	116.88
363.203	108.88
363.429	89.88
363.656	98.88
363.882	86.88
364.109	98.88
364.335	103.88
364.562	102.88
364.788	94.88
365.015	109.88
365.241	115.88
365.468	136.88
365.694	128.88
365.92	126.88
366.147	100.88
366.373	81.88
366.599	90.88
366.826	103.88
367.052	103.88
367.278	111.88
367.505	91.88
367.731	107.88
367.957	101.88
368.184	97.88
368.41	121.88
368.636	134.88
368.862	160.88
369.089	137.88
369.315	117.88
369.541	112.88
369.767	96.88
369.993	96.88
370.219	95.88
370.445	95.88
370.672	91.88
370.898	93.88
371.124	94.88
371.35	89.88
371.576	81.88
371.802	95.88
372.028	99.88
372.254	88.88
372.48	85.88
372.706	84.88
372.932	82.88
373.158	84.88
373.384	95.88
373.61	101.88
373.835	101.88
374.061	99.88
374.287	101.88
374.513	78.88
374.739	89.88
374.965	84.88
375.191	84.88
375.416	96.88
375.642	79.88
375.868	101.88
376.094	94.88
376.319	96.88
376.545	89.88
376.771	99.88
376.997	87.88
377.222	92.88
377.448	99.88
377.674	84.88
377.899	92.88
378.125	93.88
378.35	97.88
378.576	87.88
378.802	90.88
379.027	93.88
379.253	75.88
379.478	90.88
379.704	92.88
379.929	85.88
380.155	94.88
380.38	94.88
380.606	85.88
380.831	94.88
381.057	99.88
381.282	104.88
381.507	96.88
381.733	104.88
381.958	97.88
382.184	93.88
382.409	88.88
382.634	95.88
382.86	97.88
383.085	107.88
383.31	92.88
383.535	104.88
383.761	90.88
383.986	97.88
384.211	95.88
384.436	96.88
384.662	96.88
384.887	119.88
385.112	97.88
385.337	97.88
385.562	119.88
385.787	102.88
386.013	108.88
386.238	126.88
386.463	123.88
386.688	100.88
386.913	96.88
387.138	96.88
387.363	103.88
387.588	104.88
387.813	95.88
388.038	102.88
388.263	103.88
388.488	98.88
388.713	88.88
388.938	92.88
389.163	91.88
389.387	81.88
389.612	92.88
389.837	85.88
390.062	99.88
390.287	91.88
390.512	94.88
390.736	106.88
390.961	85.88
391.186	81.88
391.411	77.88
391.636	83.88
391.86	79.88
392.085	80.88
392.31	79.88
392.534	73.88
392.759	86.88
392.984	88.88
393.208	90.88
393.433	95.88
393.658	87.88
393.882	85.88
394.107	77.88
394.331	73.88
394.556	77.88
394.78	85.88
395.005	88.88
395.229	77.88
395.454	99.88
395.678	91.88
395.903	84.88
396.127	93.88
396.352	86.88
396.576	85.88
396.801	93.88
397.025	78.88
397.249	78.88
397.474	94.88
397.698	83.88
397.922	76.88
398.147	94.88
398.371	95.88
398.595	91.88
398.82	105.88
399.044	91.88
399.268	83.88
399.492	103.88
399.717	77.88
399.941	87.88
400.165	97.88
400.389	90.88
400.613	81.88
400.837	89.88
401.062	88.88
401.286	94.88
401.51	102.88
401.734	101.88
401.958	106.88
402.182	187.88
402.406	259.88
402.63	183.88
402.854	113.88
403.078	93.88
403.302	86.88
403.526	84.88
403.75	81.88
403.974	91.88
404.198	84.88
404.422	107.88
404.645	104.88
404.869	119.88
405.093	131.88
405.317	144.88
405.541	145.88
405.765	138.88
405.988	151.88
406.212	286.88
406.436	442.88
406.66	290.88
406.883	149.88
407.107	134.88
407.331	119.88
407.555	116.88
407.778	94.88
408.002	107.88
408.226	95.88
408.449	104.88
408.673	101.88
408.896	94.88
409.12	105.88
409.344	85.88
409.567	88.88
409.791	109.88
410.014	88.88
410.238	102.88
410.461	94.88
410.685	72.88
410.908	101.88
411.132	108.88
411.355	122.88
411.578	82.88
411.802	77.88
412.025	96.88
412.249	107.88
412.472	132.88
412.695	151.88
412.919	113.88
413.142	104.88
413.365	96.88
413.589	82.88
413.812	87.88
414.035	87.88
414.258	99.88
414.482	88.88
414.705	94.88
414.928	90.88
415.151	95.88
415.374	100.88
415.597	79.88
415.821	95.88
416.044	87.88
416.267	96.88
416.49	86.88
416.713	83.88
416.936	84.88
417.159	85.88
417.382	93.88
417.605	103.88
417.828	132.88
418.051	114.88
418.274	90.88
418.497	86.88
418.72	87.88
418.943	84.88
419.166	87.88
419.389	99.88
419.611	82.88
419.834	90.88
420.057	77.88
420.28	100.88
420.503	88.88
420.726	94.88
420.948	108.88
421.171	98.88
421.394	100.88
421.617	82.88
421.839	98.88
422.062	90.88
422.285	91.88
422.507	110.88
422.73	116.88
422.953	83.88
423.175	87.88
423.398	80.88
423.621	91.88
423.843	77.88
424.066	97.88
424.288	92.88
424.511	105.88
424.733	116.88
424.956	153.88
425.178	103.88
425.401	116.88
425.623	125.88
425.846	91.88
426.068	106.88
426.291	99.88
426.513	104.88
426.735	78.88
426.958	110.88
427.18	123.88
427.402	216.88
427.625	353.88
427.847	295.88
428.069	251.88
428.292	153.88
428.514	102.88
428.736	92.88
428.958	99.88
429.181	88.88
429.403	97.88
429.625	95.88
429.847	90.88
430.069	115.88
430.292	112.88
430.514	79.88
430.736	94.88
430.958	81.88
431.18	79.88
431.402	91.88
431.624	86.88
431.846	79.88
432.068	75.88
432.29	104.88
432.512	89.88
432.734	90.88
432.956	102.88
433.178	106.88
433.4	108.88
433.622	94.88
433.844	94.88
434.066	96.88
434.287	105.88
434.509	94.88
434.731	94.88
434.953	84.88
435.175	80.88
435.397	95.88
435.618	81.88
435.84	111.88
436.062	147.88
436.284	149.88
436.505	123.88
436.727	101.88
436.949	113.88
437.17	84.88
437.392	97.88
437.614	108.88
437.835	151.88
438.057	197.88
438.278	149.88
438.5	111.88
438.721	151.88
438.943	119.88
439.165	97.88
439.386	89.88
439.608	109.88
439.829	135.88
440.05	180.88
440.272	200.88
440.493	139.88
440.715	97.88
440.936	74.88
441.158	89.88
441.379	91.88
441.6	119.88
441.822	106.88
442.043	116.88
442.264	128.88
442.486	125.88
442.707	114.88
442.928	144.88
443.149	203.88
443.371	198.88
443.592	147.88
443.813	159.88
444.034	120.88
444.255	79.88
444.476	83.88
444.698	85.88
444.919	91.88
445.14	145.88
445.361	152.88
445.582	147.88
445.803	227.88
446.024	205.88
446.245	188.88
446.466	138.88
446.687	100.88
446.908	90.88
447.129	81.88
447.35	107.88
447.571	124.88
447.792	104.88
448.013	124.88
448.234	123.88
448.455	124.88
448.675	136.88
448.896	157.88
449.117	102.88
449.338	117.88
449.559	164.88
449.779	165.88
450	106.88
450.221	92.88
450.442	108.88
450.662	111.88
450.883	151.88
451.104	154.88
451.324	119.88
451.545	109.88
451.766	95.88
451.986	94.88
452.207	107.88
452.428	107.88
452.648	117.88
452.869	159.88
453.089	173.88
453.31	183.88
453.53	123.88
453.751	122.88
453.971	134.88
454.192	175.88
454.412	111.88
454.633	96.88
454.853	88.88
455.073	96.88
455.294	97.88
455.514	121.88
455.734	105.88
455.955	91.88
456.175	87.88
456.395	81.88
456.616	88.88
456.836	83.88
457.056	83.88
457.276	79.88
457.497	89.88
457.717	78.88
457.937	88.88
458.157	78.88
458.377	112.88
458.598	160.88
458.818	275.88
459.038	302.88
459.258	190.88
459.478	105.88
459.698	93.88
459.918	95.88
460.138	84.88
460.358	84.88
460.578	101.88
460.798	87.88
461.018	103.88
461.238	95.88
461.458	75.88
461.678	85.88
461.898	84.88
462.118	89.88
462.338	84.88
462.558	78.88
462.777	94.88
462.997	115.88
463.217	126.88
463.437	111.88
463.657	92.88
463.876	106.88
464.096	101.88
464.316	97.88
464.536	98.88
464.755	103.88
464.975	155.88
465.195	339.88
465.414	328.88
465.634	133.88
465.854	94.88
466.073	87.88
466.293	97.88
466.512	96.88
466.732	100.88
466.951	112.88
467.171	99.88
467.391	116.88
467.61	180.88
467.829	298.88
468.049	787.88
468.268	1205.88
468.488	289.88
468.707	119.88
468.927	102.88
469.146	89.88
469.365	97.88
469.585	105.88
469.804	115.88
470.023	135.88
470.243	115.88
470.462	159.88
470.681	170.88
470.901	126.88
471.12	118.88
471.339	124.88
471.558	135.88
471.777	163.88
471.997	409.88
472.216	1588.88
472.435	3671.88
472.654	789.88
472.873	183.88
473.092	115.88
473.311	107.88
473.53	112.88
473.749	106.88
473.968	120.88
474.187	144.88
474.406	113.88
474.625	95.88
474.844	94.88
475.063	93.88
475.282	91.88
475.501	96.88
475.72	93.88
475.939	89.88
476.158	89.88
476.377	93.88
476.596	106.88
476.814	116.88
477.033	116.88
477.252	104.88
477.471	100.88
477.69	107.88
477.908	101.88
478.127	91.88
478.346	105.88
478.564	107.88
478.783	124.88
479.002	111.88
479.22	114.88
479.439	147.88
479.658	184.88
479.876	143.88
480.095	149.88
480.313	168.88
480.532	207.88
480.751	404.88
480.969	1488.88
481.188	6264.88
481.406	3483.88
481.624	471.88
481.843	152.88
482.061	115.88
482.28	100.88
482.498	105.88
482.717	110.88
482.935	95.88
483.153	109.88
483.372	89.88
483.59	105.88
483.808	104.88
484.027	100.88
484.245	101.88
484.463	104.88
484.681	97.88
484.9	82.88
485.118	93.88
485.336	101.88
485.554	117.88
485.772	101.88
485.99	105.88
486.209	116.88
486.427	116.88
486.645	137.88
486.863	157.88
487.081	123.88
487.299	102.88
487.517	89.88
487.735	86.88
487.953	89.88
488.171	94.88
488.389	101.88
488.607	107.88
488.825	92.88
489.043	90.88
489.261	94.88
489.479	91.88
489.696	71.88
489.914	83.88
490.132	96.88
490.35	83.88
490.568	96.88
490.786	97.88
491.003	96.88
491.221	103.88
491.439	112.88
491.657	94.88
491.874	89.88
492.092	95.88
492.31	101.88
492.527	100.88
492.745	100.88
492.963	94.88
493.18	94.88
493.398	102.88
493.615	100.88
493.833	102.88
494.05	85.88
494.268	86.88
494.485	95.88
494.703	87.88
494.92	94.88
495.138	89.88
495.355	96.88
495.573	88.88
495.79	94.88
496.008	101.88
496.225	85.88
496.442	92.88
496.66	117.88
496.877	96.88
497.094	104.88
497.312	99.88
497.529	91.88
497.746	82.88
497.963	96.88
498.181	106.88
498.398	100.88
498.615	119.88
498.832	131.88
499.049	105.88
499.267	86.88
499.484	90.88
499.701	91.88
499.918	104.88
500.135	92.88
500.352	87.88
500.569	95.88
500.786	97.88
501.003	103.88
501.22	105.88
501.437	108.88
501.654	103.88
501.871	153.88
502.088	96.88
502.305	93.88
502.522	92.88
502.739	107.88
502.956	106.88
503.172	89.88
503.389	105.88
503.606	147.88
503.823	133.88
504.04	97.88
504.256	107.88
504.473	86.88
504.69	82.88
504.907	102.88
505.123	96.88
505.34	105.88
505.557	101.88
505.773	101.88
505.99	93.88
506.207	86.88
506.423	85.88
506.64	95.88
506.856	94.88
507.073	88.88
507.289	107.88
507.506	125.88
507.722	150.88
507.939	150.88
508.155	104.88
508.372	98.88
508.588	108.88
508.805	99.88
509.021	116.88
509.238	109.88
509.454	113.88
509.67	113.88
509.887	135.88
510.103	174.88
510.319	345.88
510.536	1369.88
510.752	5097.88
510.968	1275.88
511.184	235.88
511.401	139.88
511.617	134.88
