Data from Circ_1999_H10_HRD10591_00057.txt Node
Date: Wed Jan 03 11:23:24 EST 2024
User: Yrep
Spectrometer: HR+D1059
Trigger mode: 1
Integration Time (sec): 1.000000E-1
Scans to average: 1
Electric dark correction enabled: true
Nonlinearity correction enabled: false
Boxcar width: 0
XAxis mode: Wavelengths
Number of Pixels in Spectrum: 2048
>>>>>Begin Spectral Data<<<<<
223.165	-22.62
223.4	-22.62
223.635	-22.62
223.869	-23.62
224.104	-22.62
224.338	-5.62
224.573	0.38
224.808	-16.62
225.042	-8.62
225.277	-10.62
225.511	-1.62
225.746	3.38
225.98	16.38
226.215	6.38
226.449	18.38
226.683	22.38
226.918	14.38
227.152	30.38
227.387	44.38
227.621	39.38
227.856	38.38
228.09	43.38
228.324	49.38
228.559	56.38
228.793	60.38
229.027	63.38
229.262	73.38
229.496	86.38
229.73	103.38
229.964	110.38
230.199	84.38
230.433	80.38
230.667	76.38
230.901	85.38
231.136	89.38
231.37	97.38
231.604	85.38
231.838	74.38
232.072	68.38
232.306	83.38
232.541	81.38
232.775	59.38
233.009	72.38
233.243	82.38
233.477	78.38
233.711	87.38
233.945	77.38
234.179	81.38
234.413	90.38
234.647	79.38
234.881	76.38
235.115	86.38
235.349	73.38
235.583	78.38
235.817	86.38
236.051	73.38
236.285	89.38
236.519	74.38
236.753	81.38
236.987	93.38
237.221	98.38
237.455	97.38
237.689	72.38
237.922	84.38
238.156	85.38
238.39	82.38
238.624	86.38
238.858	73.38
239.091	95.38
239.325	76.38
239.559	91.38
239.793	88.38
240.027	91.38
240.26	85.38
240.494	78.38
240.728	89.38
240.961	86.38
241.195	88.38
241.429	73.38
241.662	78.38
241.896	73.38
242.13	65.38
242.363	78.38
242.597	86.38
242.83	77.38
243.064	82.38
243.298	74.38
243.531	77.38
243.765	78.38
243.998	91.38
244.232	88.38
244.465	101.38
244.699	89.38
244.932	90.38
245.166	79.38
245.399	74.38
245.633	74.38
245.866	87.38
246.099	89.38
246.333	77.38
246.566	90.38
246.8	79.38
247.033	84.38
247.266	81.38
247.5	64.38
247.733	77.38
247.966	82.38
248.2	79.38
248.433	72.38
248.666	75.38
248.899	81.38
249.133	109.38
249.366	113.38
249.599	121.38
249.832	97.38
250.066	87.38
250.299	86.38
250.532	80.38
250.765	69.38
250.998	97.38
251.231	82.38
251.465	82.38
251.698	85.38
251.931	72.38
252.164	90.38
252.397	73.38
252.63	68.38
252.863	75.38
253.096	89.38
253.329	88.38
253.562	85.38
253.795	86.38
254.028	95.38
254.261	81.38
254.494	86.38
254.727	98.38
254.96	92.38
255.193	63.38
255.426	83.38
255.659	78.38
255.892	86.38
256.124	104.38
256.357	89.38
256.59	79.38
256.823	89.38
257.056	94.38
257.289	98.38
257.521	85.38
257.754	92.38
257.987	88.38
258.22	104.38
258.452	96.38
258.685	89.38
258.918	85.38
259.151	97.38
259.383	86.38
259.616	90.38
259.849	82.38
260.081	75.38
260.314	90.38
260.547	88.38
260.779	98.38
261.012	101.38
261.244	114.38
261.477	116.38
261.71	111.38
261.942	146.38
262.175	154.38
262.407	116.38
262.64	90.38
262.872	91.38
263.105	87.38
263.337	94.38
263.57	77.38
263.802	91.38
264.035	84.38
264.267	101.38
264.499	93.38
264.732	92.38
264.964	81.38
265.197	74.38
265.429	85.38
265.661	96.38
265.894	91.38
266.126	89.38
266.358	94.38
266.591	84.38
266.823	89.38
267.055	103.38
267.287	88.38
267.52	82.38
267.752	84.38
267.984	91.38
268.216	77.38
268.448	100.38
268.681	78.38
268.913	94.38
269.145	78.38
269.377	91.38
269.609	79.38
269.841	86.38
270.073	78.38
270.306	75.38
270.538	83.38
270.77	88.38
271.002	89.38
271.234	90.38
271.466	110.38
271.698	89.38
271.93	88.38
272.162	101.38
272.394	91.38
272.626	85.38
272.858	76.38
273.09	91.38
273.322	88.38
273.553	85.38
273.785	91.38
274.017	86.38
274.249	85.38
274.481	77.38
274.713	88.38
274.945	86.38
275.176	100.38
275.408	105.38
275.64	129.38
275.872	135.38
276.104	117.38
276.335	116.38
276.567	140.38
276.799	177.38
277.031	210.38
277.262	220.38
277.494	158.38
277.726	108.38
277.957	105.38
278.189	85.38
278.421	89.38
278.652	96.38
278.884	85.38
279.115	88.38
279.347	117.38
279.579	107.38
279.81	149.38
280.042	216.38
280.273	296.38
280.505	192.38
280.736	110.38
280.968	94.38
281.199	92.38
281.431	81.38
281.662	103.38
281.894	94.38
282.125	111.38
282.356	165.38
282.588	208.38
282.819	166.38
283.051	97.38
283.282	88.38
283.513	97.38
283.745	95.38
283.976	111.38
284.207	100.38
284.439	72.38
284.67	97.38
284.901	91.38
285.132	88.38
285.364	81.38
285.595	86.38
285.826	86.38
286.057	85.38
286.288	81.38
286.52	83.38
286.751	106.38
286.982	95.38
287.213	84.38
287.444	99.38
287.675	104.38
287.906	95.38
288.138	97.38
288.369	84.38
288.6	100.38
288.831	117.38
289.062	84.38
289.293	102.38
289.524	83.38
289.755	98.38
289.986	85.38
290.217	85.38
290.448	80.38
290.679	102.38
290.91	89.38
291.141	75.38
291.371	88.38
291.602	96.38
291.833	93.38
292.064	82.38
292.295	74.38
292.526	100.38
292.757	109.38
292.987	91.38
293.218	91.38
293.449	83.38
293.68	89.38
293.91	81.38
294.141	95.38
294.372	95.38
294.603	77.38
294.833	83.38
295.064	82.38
295.295	98.38
295.525	111.38
295.756	101.38
295.987	147.38
296.217	209.38
296.448	184.38
296.679	100.38
296.909	102.38
297.14	91.38
297.37	100.38
297.601	87.38
297.831	103.38
298.062	88.38
298.292	90.38
298.523	88.38
298.753	96.38
298.984	76.38
299.214	91.38
299.445	93.38
299.675	106.38
299.905	104.38
300.136	97.38
300.366	92.38
300.597	96.38
300.827	104.38
301.057	107.38
301.288	135.38
301.518	109.38
301.748	106.38
301.979	140.38
302.209	107.38
302.439	105.38
302.669	95.38
302.9	95.38
303.13	81.38
303.36	121.38
303.59	144.38
303.82	165.38
304.051	121.38
304.281	105.38
304.511	104.38
304.741	88.38
304.971	106.38
305.201	100.38
305.431	87.38
305.661	104.38
305.891	94.38
306.121	102.38
306.352	125.38
306.582	125.38
306.812	108.38
307.042	136.38
307.272	182.38
307.502	218.38
307.731	196.38
307.961	149.38
308.191	100.38
308.421	98.38
308.651	90.38
308.881	89.38
309.111	98.38
309.341	88.38
309.571	105.38
309.8	93.38
310.03	113.38
310.26	117.38
310.49	103.38
310.72	109.38
310.949	117.38
311.179	114.38
311.409	101.38
311.639	108.38
311.868	119.38
312.098	103.38
312.328	108.38
312.557	112.38
312.787	137.38
313.017	121.38
313.246	108.38
313.476	95.38
313.706	95.38
313.935	99.38
314.165	121.38
314.394	121.38
314.624	112.38
314.853	120.38
315.083	106.38
315.312	103.38
315.542	97.38
315.771	101.38
316.001	92.38
316.23	104.38
316.46	107.38
316.689	76.38
316.919	103.38
317.148	117.38
317.377	99.38
317.607	97.38
317.836	97.38
318.065	84.38
318.295	96.38
318.524	109.38
318.753	102.38
318.983	104.38
319.212	100.38
319.441	126.38
319.67	141.38
319.9	103.38
320.129	94.38
320.358	92.38
320.587	107.38
320.816	108.38
321.046	116.38
321.275	120.38
321.504	98.38
321.733	106.38
321.962	110.38
322.191	111.38
322.42	113.38
322.649	138.38
322.878	141.38
323.108	129.38
323.337	162.38
323.566	175.38
323.795	187.38
324.024	270.38
324.253	548.38
324.482	1127.38
324.71	2301.38
324.939	3097.38
325.168	1145.38
325.397	330.38
325.626	181.38
325.855	166.38
326.084	148.38
326.313	148.38
326.542	177.38
326.77	273.38
326.999	573.38
327.228	1151.38
327.457	2046.38
327.686	1697.38
327.914	638.38
328.143	674.38
328.372	911.38
328.6	472.38
328.829	225.38
329.058	224.38
329.287	239.38
329.515	233.38
329.744	309.38
329.972	620.38
330.201	1314.38
330.43	1938.38
330.658	860.38
330.887	377.38
331.115	243.38
331.344	148.38
331.572	132.38
331.801	148.38
332.03	127.38
332.258	125.38
332.486	118.38
332.715	109.38
332.943	118.38
333.172	129.38
333.4	142.38
333.629	193.38
333.857	295.38
334.085	559.38
334.314	1213.38
334.542	2391.38
334.771	2196.38
334.999	536.38
335.227	223.38
335.455	128.38
335.684	132.38
335.912	113.38
336.14	108.38
336.369	102.38
336.597	125.38
336.825	119.38
337.053	108.38
337.281	105.38
337.51	112.38
337.738	96.38
337.966	107.38
338.194	125.38
338.422	110.38
338.65	93.38
338.878	98.38
339.106	98.38
339.334	96.38
339.562	101.38
339.79	110.38
340.018	86.38
340.246	100.38
340.474	107.38
340.702	104.38
340.93	99.38
341.158	103.38
341.386	106.38
341.614	98.38
341.842	99.38
342.07	86.38
342.298	90.38
342.526	88.38
342.754	101.38
342.981	100.38
343.209	101.38
343.437	89.38
343.665	94.38
343.893	103.38
344.12	106.38
344.348	93.38
344.576	90.38
344.804	108.38
345.031	123.38
345.259	113.38
345.487	106.38
345.714	107.38
345.942	104.38
346.17	102.38
346.397	91.38
346.625	86.38
346.853	98.38
347.08	88.38
347.308	110.38
347.535	120.38
347.763	117.38
347.99	117.38
348.218	123.38
348.445	127.38
348.673	135.38
348.9	104.38
349.128	92.38
349.355	94.38
349.583	110.38
349.81	98.38
350.037	100.38
350.265	105.38
350.492	106.38
350.72	103.38
350.947	103.38
351.174	130.38
351.402	135.38
351.629	120.38
351.856	120.38
352.083	119.38
352.311	123.38
352.538	131.38
352.765	127.38
352.992	128.38
353.22	135.38
353.447	103.38
353.674	120.38
353.901	94.38
354.128	88.38
354.355	95.38
354.583	102.38
354.81	93.38
355.037	98.38
355.264	85.38
355.491	85.38
355.718	77.38
355.945	101.38
356.172	83.38
356.399	92.38
356.626	89.38
356.853	92.38
357.08	97.38
357.307	95.38
357.534	95.38
357.761	99.38
357.988	105.38
358.215	95.38
358.441	91.38
358.668	86.38
358.895	96.38
359.122	94.38
359.349	89.38
359.576	100.38
359.802	120.38
360.029	174.38
360.256	172.38
360.483	127.38
360.709	86.38
360.936	94.38
361.163	108.38
361.39	113.38
361.616	110.38
361.843	101.38
362.07	116.38
362.296	118.38
362.523	97.38
362.749	104.38
362.976	100.38
363.203	108.38
363.429	85.38
363.656	105.38
363.882	110.38
364.109	92.38
364.335	102.38
364.562	96.38
364.788	102.38
365.015	97.38
365.241	126.38
365.468	126.38
365.694	121.38
365.92	120.38
366.147	97.38
366.373	95.38
366.599	103.38
366.826	94.38
367.052	100.38
367.278	92.38
367.505	106.38
367.731	111.38
367.957	108.38
368.184	97.38
368.41	117.38
368.636	151.38
368.862	153.38
369.089	143.38
369.315	92.38
369.541	95.38
369.767	121.38
369.993	105.38
370.219	84.38
370.445	97.38
370.672	90.38
370.898	92.38
371.124	85.38
371.35	94.38
371.576	93.38
371.802	78.38
372.028	72.38
372.254	80.38
372.48	89.38
372.706	82.38
372.932	83.38
373.158	102.38
373.384	86.38
373.61	89.38
373.835	95.38
374.061	96.38
374.287	102.38
374.513	88.38
374.739	97.38
374.965	78.38
375.191	87.38
375.416	81.38
375.642	87.38
375.868	105.38
376.094	84.38
376.319	86.38
376.545	79.38
376.771	88.38
376.997	82.38
377.222	100.38
377.448	87.38
377.674	83.38
377.899	84.38
378.125	78.38
378.35	91.38
378.576	96.38
378.802	81.38
379.027	89.38
379.253	88.38
379.478	98.38
379.704	89.38
379.929	89.38
380.155	93.38
380.38	81.38
380.606	96.38
380.831	88.38
381.057	104.38
381.282	87.38
381.507	104.38
381.733	90.38
381.958	99.38
382.184	94.38
382.409	104.38
382.634	108.38
382.86	95.38
383.085	99.38
383.31	108.38
383.535	102.38
383.761	108.38
383.986	96.38
384.211	81.38
384.436	91.38
384.662	99.38
384.887	123.38
385.112	105.38
385.337	87.38
385.562	104.38
385.787	109.38
386.013	111.38
386.238	130.38
386.463	99.38
386.688	105.38
386.913	105.38
387.138	101.38
387.363	91.38
387.588	112.38
387.813	110.38
388.038	112.38
388.263	138.38
388.488	119.38
388.713	104.38
388.938	100.38
389.163	89.38
389.387	88.38
389.612	96.38
389.837	103.38
390.062	83.38
390.287	88.38
390.512	81.38
390.736	86.38
390.961	81.38
391.186	97.38
391.411	86.38
391.636	96.38
391.86	97.38
392.085	92.38
392.31	83.38
392.534	92.38
392.759	86.38
392.984	92.38
393.208	81.38
393.433	88.38
393.658	92.38
393.882	80.38
394.107	91.38
394.331	91.38
394.556	96.38
394.78	95.38
395.005	92.38
395.229	102.38
395.454	103.38
395.678	87.38
395.903	95.38
396.127	87.38
396.352	77.38
396.576	95.38
396.801	77.38
397.025	84.38
397.249	97.38
397.474	101.38
397.698	99.38
397.922	104.38
398.147	93.38
398.371	96.38
398.595	87.38
398.82	89.38
399.044	76.38
399.268	95.38
399.492	93.38
399.717	95.38
399.941	93.38
400.165	93.38
400.389	97.38
400.613	96.38
400.837	91.38
401.062	101.38
401.286	102.38
401.51	92.38
401.734	93.38
401.958	114.38
402.182	176.38
402.406	261.38
402.63	168.38
402.854	104.38
403.078	96.38
403.302	101.38
403.526	92.38
403.75	96.38
403.974	97.38
404.198	90.38
404.422	98.38
404.645	108.38
404.869	106.38
405.093	120.38
405.317	129.38
405.541	150.38
405.765	118.38
405.988	169.38
406.212	276.38
406.436	424.38
406.66	248.38
406.883	136.38
407.107	118.38
407.331	132.38
407.555	116.38
407.778	91.38
408.002	109.38
408.226	94.38
408.449	92.38
408.673	95.38
408.896	107.38
409.12	97.38
409.344	75.38
409.567	87.38
409.791	90.38
410.014	89.38
410.238	100.38
410.461	86.38
410.685	90.38
410.908	109.38
411.132	114.38
411.355	102.38
411.578	100.38
411.802	101.38
412.025	91.38
412.249	113.38
412.472	111.38
412.695	140.38
412.919	107.38
413.142	100.38
413.365	85.38
413.589	92.38
413.812	96.38
414.035	95.38
414.258	91.38
414.482	89.38
414.705	84.38
414.928	87.38
415.151	86.38
415.374	93.38
415.597	98.38
415.821	91.38
416.044	109.38
416.267	105.38
416.49	96.38
416.713	96.38
416.936	93.38
417.159	95.38
417.382	88.38
417.605	121.38
417.828	114.38
418.051	110.38
418.274	105.38
418.497	89.38
418.72	79.38
418.943	100.38
419.166	98.38
419.389	90.38
419.611	103.38
419.834	89.38
420.057	90.38
420.28	94.38
420.503	92.38
420.726	93.38
420.948	94.38
421.171	119.38
421.394	93.38
421.617	94.38
421.839	97.38
422.062	90.38
422.285	95.38
422.507	117.38
422.73	106.38
422.953	95.38
423.175	80.38
423.398	86.38
423.621	95.38
423.843	95.38
424.066	102.38
424.288	96.38
424.511	88.38
424.733	123.38
424.956	125.38
425.178	121.38
425.401	116.38
425.623	113.38
425.846	95.38
426.068	112.38
426.291	113.38
426.513	93.38
426.735	99.38
426.958	112.38
427.18	133.38
427.402	200.38
427.625	314.38
427.847	278.38
428.069	225.38
428.292	140.38
428.514	108.38
428.736	99.38
428.958	80.38
429.181	80.38
429.403	90.38
429.625	92.38
429.847	98.38
430.069	117.38
430.292	109.38
430.514	103.38
430.736	81.38
430.958	88.38
431.18	78.38
431.402	76.38
431.624	88.38
431.846	88.38
432.068	91.38
432.29	77.38
432.512	96.38
432.734	89.38
432.956	89.38
433.178	99.38
433.4	98.38
433.622	107.38
433.844	97.38
434.066	112.38
434.287	105.38
434.509	87.38
434.731	105.38
434.953	94.38
435.175	82.38
435.397	100.38
435.618	100.38
435.84	114.38
436.062	136.38
436.284	123.38
436.505	112.38
436.727	108.38
436.949	88.38
437.17	85.38
437.392	92.38
437.614	104.38
437.835	137.38
438.057	170.38
438.278	144.38
438.5	148.38
438.721	155.38
438.943	103.38
439.165	91.38
439.386	102.38
439.608	99.38
439.829	139.38
440.05	184.38
440.272	218.38
440.493	135.38
440.715	94.38
440.936	93.38
441.158	96.38
441.379	100.38
441.6	103.38
441.822	119.38
442.043	108.38
442.264	126.38
442.486	106.38
442.707	111.38
442.928	141.38
443.149	200.38
443.371	213.38
443.592	147.38
443.813	132.38
444.034	134.38
444.255	100.38
444.476	79.38
444.698	82.38
444.919	94.38
445.14	130.38
445.361	139.38
445.582	147.38
445.803	182.38
446.024	176.38
446.245	170.38
446.466	127.38
446.687	94.38
446.908	102.38
447.129	94.38
447.35	108.38
447.571	89.38
447.792	114.38
448.013	120.38
448.234	145.38
448.455	98.38
448.675	146.38
448.896	156.38
449.117	129.38
449.338	116.38
449.559	153.38
449.779	159.38
450	94.38
450.221	88.38
450.442	87.38
450.662	110.38
450.883	146.38
451.104	163.38
451.324	117.38
451.545	90.38
451.766	91.38
451.986	87.38
452.207	99.38
452.428	88.38
452.648	121.38
452.869	156.38
453.089	161.38
453.31	178.38
453.53	109.38
453.751	101.38
453.971	123.38
454.192	158.38
454.412	102.38
454.633	95.38
454.853	87.38
455.073	90.38
455.294	90.38
455.514	121.38
455.734	101.38
455.955	91.38
456.175	74.38
456.395	99.38
456.616	92.38
456.836	87.38
457.056	86.38
457.276	94.38
457.497	93.38
457.717	89.38
457.937	75.38
458.157	106.38
458.377	107.38
458.598	154.38
458.818	255.38
459.038	297.38
459.258	174.38
459.478	112.38
459.698	71.38
459.918	86.38
460.138	83.38
460.358	88.38
460.578	87.38
460.798	96.38
461.018	105.38
461.238	90.38
461.458	100.38
461.678	100.38
461.898	98.38
462.118	104.38
462.338	80.38
462.558	88.38
462.777	95.38
462.997	110.38
463.217	111.38
463.437	109.38
463.657	102.38
463.876	93.38
464.096	103.38
464.316	107.38
464.536	116.38
464.755	106.38
464.975	126.38
465.195	313.38
465.414	313.38
465.634	131.38
465.854	82.38
466.073	101.38
466.293	102.38
466.512	101.38
466.732	106.38
466.951	108.38
467.171	98.38
467.391	120.38
467.61	189.38
467.829	268.38
468.049	773.38
468.268	1135.38
468.488	273.38
468.707	120.38
468.927	99.38
469.146	105.38
469.365	101.38
469.585	102.38
469.804	133.38
470.023	117.38
470.243	120.38
470.462	131.38
470.681	172.38
470.901	113.38
471.12	97.38
471.339	125.38
471.558	126.38
471.777	175.38
471.997	374.38
472.216	1549.38
472.435	3552.38
472.654	761.38
472.873	191.38
473.092	122.38
473.311	112.38
473.53	101.38
473.749	108.38
473.968	125.38
474.187	146.38
474.406	123.38
474.625	94.38
474.844	82.38
475.063	77.38
475.282	94.38
475.501	83.38
475.72	93.38
475.939	87.38
476.158	93.38
476.377	86.38
476.596	91.38
476.814	119.38
477.033	112.38
477.252	104.38
477.471	104.38
477.69	97.38
477.908	96.38
478.127	107.38
478.346	105.38
478.564	105.38
478.783	125.38
479.002	103.38
479.22	123.38
479.439	153.38
479.658	148.38
479.876	156.38
480.095	137.38
480.313	165.38
480.532	209.38
480.751	371.38
480.969	1377.38
481.188	5976.38
481.406	3310.38
481.624	454.38
481.843	156.38
482.061	114.38
482.28	116.38
482.498	107.38
482.717	108.38
482.935	107.38
483.153	93.38
483.372	96.38
483.59	97.38
483.808	97.38
484.027	84.38
484.245	104.38
484.463	90.38
484.681	112.38
484.9	88.38
485.118	103.38
485.336	95.38
485.554	107.38
485.772	96.38
485.99	104.38
486.209	114.38
486.427	118.38
486.645	128.38
486.863	147.38
487.081	113.38
487.299	111.38
487.517	104.38
487.735	96.38
487.953	105.38
488.171	96.38
488.389	117.38
488.607	103.38
488.825	104.38
489.043	90.38
489.261	104.38
489.479	91.38
489.696	79.38
489.914	87.38
490.132	95.38
490.35	94.38
490.568	78.38
490.786	106.38
491.003	94.38
491.221	98.38
491.439	106.38
491.657	100.38
491.874	97.38
492.092	87.38
492.31	110.38
492.527	99.38
492.745	90.38
492.963	101.38
493.18	95.38
493.398	91.38
493.615	101.38
493.833	102.38
494.05	92.38
494.268	80.38
494.485	96.38
494.703	93.38
494.92	98.38
495.138	108.38
495.355	93.38
495.573	86.38
495.79	103.38
496.008	93.38
496.225	101.38
496.442	88.38
496.66	92.38
496.877	89.38
497.094	98.38
497.312	86.38
497.529	91.38
497.746	89.38
497.963	110.38
498.181	99.38
498.398	108.38
498.615	110.38
498.832	102.38
499.049	112.38
499.267	98.38
499.484	102.38
499.701	93.38
499.918	82.38
500.135	89.38
500.352	97.38
500.569	112.38
500.786	97.38
501.003	74.38
501.22	88.38
501.437	90.38
501.654	116.38
501.871	123.38
502.088	111.38
502.305	85.38
502.522	89.38
502.739	95.38
502.956	106.38
503.172	80.38
503.389	127.38
503.606	148.38
503.823	111.38
504.04	90.38
504.256	105.38
504.473	86.38
504.69	97.38
504.907	107.38
505.123	74.38
505.34	90.38
505.557	90.38
505.773	75.38
505.99	104.38
506.207	93.38
506.423	91.38
506.64	89.38
506.856	101.38
507.073	94.38
507.289	93.38
507.506	107.38
507.722	166.38
507.939	164.38
508.155	112.38
508.372	97.38
508.588	106.38
508.805	106.38
509.021	94.38
509.238	118.38
509.454	111.38
509.67	133.38
509.887	129.38
510.103	161.38
510.319	336.38
510.536	1351.38
510.752	5024.38
510.968	1220.38
511.184	242.38
