Data from Circ_1999_H10_HRD10591_00037.txt Node
Date: Wed Jan 03 11:23:20 EST 2024
User: Yrep
Spectrometer: HR+D1059
Trigger mode: 1
Integration Time (sec): 1.000000E-1
Scans to average: 1
Electric dark correction enabled: true
Nonlinearity correction enabled: false
Boxcar width: 0
XAxis mode: Wavelengths
Number of Pixels in Spectrum: 2048
>>>>>Begin Spectral Data<<<<<
223.165	-16.38
223.4	-16.38
223.635	-16.38
223.869	-32.38
224.104	-14.38
224.338	-20.38
224.573	-8.38
224.808	-8.38
225.042	-9.38
225.277	-0.38
225.511	-3.38
225.746	-6.38
225.98	2.62
226.215	16.62
226.449	24.62
226.683	22.62
226.918	31.62
227.152	21.62
227.387	29.62
227.621	38.62
227.856	33.62
228.09	71.62
228.324	56.62
228.559	51.62
228.793	53.62
229.027	63.62
229.262	53.62
229.496	83.62
229.73	92.62
229.964	101.62
230.199	80.62
230.433	77.62
230.667	92.62
230.901	83.62
231.136	82.62
231.37	76.62
231.604	75.62
231.838	75.62
232.072	86.62
232.306	75.62
232.541	87.62
232.775	78.62
233.009	89.62
233.243	83.62
233.477	71.62
233.711	77.62
233.945	77.62
234.179	80.62
234.413	60.62
234.647	85.62
234.881	88.62
235.115	93.62
235.349	82.62
235.583	58.62
235.817	82.62
236.051	64.62
236.285	89.62
236.519	98.62
236.753	95.62
236.987	76.62
237.221	96.62
237.455	88.62
237.689	79.62
237.922	71.62
238.156	67.62
238.39	89.62
238.624	66.62
238.858	73.62
239.091	65.62
239.325	81.62
239.559	99.62
239.793	91.62
240.027	89.62
240.26	75.62
240.494	82.62
240.728	77.62
240.961	85.62
241.195	90.62
241.429	68.62
241.662	72.62
241.896	92.62
242.13	76.62
242.363	85.62
242.597	84.62
242.83	91.62
243.064	80.62
243.298	72.62
243.531	79.62
243.765	86.62
243.998	100.62
244.232	80.62
244.465	88.62
244.699	91.62
244.932	78.62
245.166	88.62
245.399	80.62
245.633	79.62
245.866	89.62
246.099	75.62
246.333	71.62
246.566	81.62
246.8	75.62
247.033	81.62
247.266	81.62
247.5	75.62
247.733	80.62
247.966	91.62
248.2	80.62
248.433	77.62
248.666	87.62
248.899	81.62
249.133	91.62
249.366	115.62
249.599	116.62
249.832	88.62
250.066	83.62
250.299	96.62
250.532	89.62
250.765	86.62
250.998	78.62
251.231	81.62
251.465	86.62
251.698	98.62
251.931	83.62
252.164	89.62
252.397	81.62
252.63	81.62
252.863	75.62
253.096	96.62
253.329	95.62
253.562	87.62
253.795	81.62
254.028	70.62
254.261	94.62
254.494	88.62
254.727	93.62
254.96	94.62
255.193	80.62
255.426	95.62
255.659	87.62
255.892	87.62
256.124	99.62
256.357	97.62
256.59	95.62
256.823	77.62
257.056	105.62
257.289	88.62
257.521	95.62
257.754	79.62
257.987	80.62
258.22	103.62
258.452	103.62
258.685	87.62
258.918	89.62
259.151	87.62
259.383	101.62
259.616	92.62
259.849	80.62
260.081	96.62
260.314	88.62
260.547	80.62
260.779	98.62
261.012	121.62
261.244	117.62
261.477	96.62
261.71	115.62
261.942	130.62
262.175	163.62
262.407	93.62
262.64	80.62
262.872	90.62
263.105	92.62
263.337	84.62
263.57	81.62
263.802	75.62
264.035	87.62
264.267	94.62
264.499	87.62
264.732	88.62
264.964	89.62
265.197	79.62
265.429	86.62
265.661	73.62
265.894	80.62
266.126	100.62
266.358	78.62
266.591	86.62
266.823	77.62
267.055	82.62
267.287	91.62
267.52	90.62
267.752	74.62
267.984	77.62
268.216	85.62
268.448	92.62
268.681	97.62
268.913	90.62
269.145	78.62
269.377	85.62
269.609	80.62
269.841	77.62
270.073	90.62
270.306	89.62
270.538	87.62
270.77	85.62
271.002	91.62
271.234	102.62
271.466	99.62
271.698	98.62
271.93	81.62
272.162	95.62
272.394	83.62
272.626	91.62
272.858	99.62
273.09	87.62
273.322	79.62
273.553	82.62
273.785	94.62
274.017	90.62
274.249	89.62
274.481	86.62
274.713	85.62
274.945	95.62
275.176	98.62
275.408	101.62
275.64	120.62
275.872	125.62
276.104	101.62
276.335	105.62
276.567	128.62
276.799	163.62
277.031	194.62
277.262	216.62
277.494	149.62
277.726	113.62
277.957	96.62
278.189	93.62
278.421	91.62
278.652	93.62
278.884	86.62
279.115	93.62
279.347	99.62
279.579	109.62
279.81	140.62
280.042	201.62
280.273	273.62
280.505	192.62
280.736	127.62
280.968	84.62
281.199	99.62
281.431	97.62
281.662	87.62
281.894	93.62
282.125	123.62
282.356	156.62
282.588	182.62
282.819	140.62
283.051	104.62
283.282	85.62
283.513	93.62
283.745	85.62
283.976	82.62
284.207	97.62
284.439	77.62
284.67	95.62
284.901	94.62
285.132	97.62
285.364	83.62
285.595	89.62
285.826	95.62
286.057	97.62
286.288	93.62
286.52	87.62
286.751	99.62
286.982	75.62
287.213	85.62
287.444	88.62
287.675	82.62
287.906	98.62
288.138	86.62
288.369	103.62
288.6	103.62
288.831	97.62
289.062	89.62
289.293	98.62
289.524	84.62
289.755	91.62
289.986	93.62
290.217	82.62
290.448	85.62
290.679	84.62
290.91	89.62
291.141	94.62
291.371	86.62
291.602	75.62
291.833	74.62
292.064	60.62
292.295	95.62
292.526	93.62
292.757	87.62
292.987	83.62
293.218	85.62
293.449	85.62
293.68	87.62
293.91	80.62
294.141	67.62
294.372	79.62
294.603	80.62
294.833	92.62
295.064	97.62
295.295	89.62
295.525	116.62
295.756	114.62
295.987	131.62
296.217	203.62
296.448	167.62
296.679	107.62
296.909	104.62
297.14	87.62
297.37	94.62
297.601	110.62
297.831	88.62
298.062	94.62
298.292	105.62
298.523	104.62
298.753	105.62
298.984	93.62
299.214	104.62
299.445	98.62
299.675	101.62
299.905	83.62
300.136	99.62
300.366	86.62
300.597	99.62
300.827	102.62
301.057	107.62
301.288	128.62
301.518	103.62
301.748	96.62
301.979	133.62
302.209	105.62
302.439	92.62
302.669	99.62
302.9	102.62
303.13	105.62
303.36	121.62
303.59	140.62
303.82	152.62
304.051	121.62
304.281	81.62
304.511	88.62
304.741	91.62
304.971	95.62
305.201	90.62
305.431	94.62
305.661	99.62
305.891	94.62
306.121	99.62
306.352	102.62
306.582	115.62
306.812	124.62
307.042	134.62
307.272	175.62
307.502	189.62
307.731	182.62
307.961	137.62
308.191	90.62
308.421	84.62
308.651	90.62
308.881	103.62
309.111	107.62
309.341	107.62
309.571	108.62
309.8	107.62
310.03	117.62
310.26	109.62
310.49	111.62
310.72	115.62
310.949	125.62
311.179	119.62
311.409	103.62
311.639	105.62
311.868	111.62
312.098	105.62
312.328	95.62
312.557	143.62
312.787	124.62
313.017	119.62
313.246	94.62
313.476	96.62
313.706	91.62
313.935	117.62
314.165	118.62
314.394	125.62
314.624	103.62
314.853	89.62
315.083	121.62
315.312	100.62
315.542	85.62
315.771	97.62
316.001	95.62
316.23	90.62
316.46	85.62
316.689	81.62
316.919	107.62
317.148	111.62
317.377	93.62
317.607	98.62
317.836	106.62
318.065	92.62
318.295	101.62
318.524	101.62
318.753	98.62
318.983	113.62
319.212	120.62
319.441	114.62
319.67	121.62
319.9	117.62
320.129	100.62
320.358	109.62
320.587	106.62
320.816	111.62
321.046	115.62
321.275	113.62
321.504	108.62
321.733	97.62
321.962	101.62
322.191	102.62
322.42	104.62
322.649	137.62
322.878	124.62
323.108	140.62
323.337	145.62
323.566	161.62
323.795	189.62
324.024	279.62
324.253	505.62
324.482	1062.62
324.71	2178.62
324.939	2751.62
325.168	1057.62
325.397	300.62
325.626	183.62
325.855	141.62
326.084	134.62
326.313	145.62
326.542	174.62
326.77	275.62
326.999	529.62
327.228	1089.62
327.457	1932.62
327.686	1601.62
327.914	591.62
328.143	611.62
328.372	762.62
328.6	415.62
328.829	201.62
329.058	227.62
329.287	236.62
329.515	221.62
329.744	312.62
329.972	554.62
330.201	1231.62
330.43	1687.62
330.658	749.62
330.887	357.62
331.115	225.62
331.344	138.62
331.572	145.62
331.801	149.62
332.03	133.62
332.258	127.62
332.486	110.62
332.715	115.62
332.943	119.62
333.172	129.62
333.4	149.62
333.629	181.62
333.857	274.62
334.085	525.62
334.314	1116.62
334.542	2202.62
334.771	1953.62
334.999	490.62
335.227	185.62
335.455	138.62
335.684	122.62
335.912	103.62
336.14	106.62
336.369	118.62
336.597	121.62
336.825	118.62
337.053	93.62
337.281	113.62
337.51	104.62
337.738	108.62
337.966	96.62
338.194	116.62
338.422	116.62
338.65	126.62
338.878	101.62
339.106	93.62
339.334	96.62
339.562	97.62
339.79	96.62
340.018	100.62
340.246	94.62
340.474	112.62
340.702	100.62
340.93	110.62
341.158	107.62
341.386	119.62
341.614	112.62
341.842	103.62
342.07	111.62
342.298	99.62
342.526	104.62
342.754	98.62
342.981	89.62
343.209	91.62
343.437	109.62
343.665	89.62
343.893	93.62
344.12	107.62
344.348	94.62
344.576	89.62
344.804	93.62
345.031	97.62
345.259	119.62
345.487	106.62
345.714	98.62
345.942	95.62
346.17	104.62
346.397	88.62
346.625	88.62
346.853	98.62
347.08	102.62
347.308	103.62
347.535	110.62
347.763	119.62
347.99	114.62
348.218	114.62
348.445	136.62
348.673	134.62
348.9	98.62
349.128	97.62
349.355	108.62
349.583	103.62
349.81	97.62
350.037	95.62
350.265	95.62
350.492	91.62
350.72	96.62
350.947	103.62
351.174	118.62
351.402	138.62
351.629	104.62
351.856	120.62
352.083	119.62
352.311	122.62
352.538	156.62
352.765	138.62
352.992	129.62
353.22	126.62
353.447	117.62
353.674	113.62
353.901	95.62
354.128	102.62
354.355	92.62
354.583	105.62
354.81	107.62
355.037	118.62
355.264	108.62
355.491	94.62
355.718	91.62
355.945	97.62
356.172	100.62
356.399	94.62
356.626	97.62
356.853	110.62
357.08	94.62
357.307	101.62
357.534	96.62
357.761	103.62
357.988	82.62
358.215	104.62
358.441	101.62
358.668	103.62
358.895	97.62
359.122	101.62
359.349	103.62
359.576	111.62
359.802	127.62
360.029	151.62
360.256	148.62
360.483	127.62
360.709	93.62
360.936	109.62
361.163	114.62
361.39	104.62
361.616	102.62
361.843	101.62
362.07	118.62
362.296	117.62
362.523	107.62
362.749	105.62
362.976	107.62
363.203	104.62
363.429	103.62
363.656	109.62
363.882	94.62
364.109	102.62
364.335	97.62
364.562	94.62
364.788	97.62
365.015	99.62
365.241	109.62
365.468	124.62
365.694	137.62
365.92	111.62
366.147	94.62
366.373	101.62
366.599	93.62
366.826	93.62
367.052	91.62
367.278	105.62
367.505	96.62
367.731	94.62
367.957	105.62
368.184	103.62
368.41	114.62
368.636	155.62
368.862	143.62
369.089	119.62
369.315	92.62
369.541	97.62
369.767	94.62
369.993	115.62
370.219	95.62
370.445	90.62
370.672	82.62
370.898	95.62
371.124	93.62
371.35	95.62
371.576	77.62
371.802	97.62
372.028	93.62
372.254	90.62
372.48	85.62
372.706	91.62
372.932	93.62
373.158	85.62
373.384	97.62
373.61	102.62
373.835	82.62
374.061	91.62
374.287	105.62
374.513	94.62
374.739	94.62
374.965	97.62
375.191	84.62
375.416	93.62
375.642	76.62
375.868	107.62
376.094	99.62
376.319	100.62
376.545	94.62
376.771	101.62
376.997	110.62
377.222	106.62
377.448	89.62
377.674	95.62
377.899	85.62
378.125	101.62
378.35	82.62
378.576	91.62
378.802	80.62
379.027	83.62
379.253	97.62
379.478	96.62
379.704	86.62
379.929	103.62
380.155	89.62
380.38	93.62
380.606	89.62
380.831	86.62
381.057	86.62
381.282	98.62
381.507	91.62
381.733	98.62
381.958	107.62
382.184	114.62
382.409	97.62
382.634	97.62
382.86	85.62
383.085	103.62
383.31	101.62
383.535	91.62
383.761	102.62
383.986	91.62
384.211	109.62
384.436	116.62
384.662	109.62
384.887	97.62
385.112	104.62
385.337	107.62
385.562	113.62
385.787	122.62
386.013	116.62
386.238	138.62
386.463	118.62
386.688	117.62
386.913	104.62
387.138	97.62
387.363	110.62
387.588	105.62
387.813	104.62
388.038	109.62
388.263	118.62
388.488	111.62
388.713	110.62
388.938	97.62
389.163	119.62
389.387	106.62
389.612	77.62
389.837	94.62
390.062	84.62
390.287	93.62
390.512	93.62
390.736	87.62
390.961	83.62
391.186	80.62
391.411	98.62
391.636	92.62
391.86	95.62
392.085	98.62
392.31	103.62
392.534	79.62
392.759	105.62
392.984	86.62
393.208	99.62
393.433	107.62
393.658	94.62
393.882	77.62
394.107	89.62
394.331	89.62
394.556	87.62
394.78	95.62
395.005	79.62
395.229	76.62
395.454	86.62
395.678	80.62
395.903	76.62
396.127	87.62
396.352	85.62
396.576	90.62
396.801	105.62
397.025	82.62
397.249	86.62
397.474	97.62
397.698	94.62
397.922	93.62
398.147	94.62
398.371	81.62
398.595	89.62
398.82	95.62
399.044	95.62
399.268	82.62
399.492	82.62
399.717	81.62
399.941	89.62
400.165	101.62
400.389	89.62
400.613	91.62
400.837	84.62
401.062	91.62
401.286	91.62
401.51	86.62
401.734	91.62
401.958	120.62
402.182	153.62
402.406	226.62
402.63	173.62
402.854	118.62
403.078	88.62
403.302	97.62
403.526	86.62
403.75	80.62
403.974	87.62
404.198	99.62
404.422	103.62
404.645	105.62
404.869	120.62
405.093	125.62
405.317	144.62
405.541	136.62
405.765	124.62
405.988	152.62
406.212	265.62
406.436	385.62
406.66	235.62
406.883	135.62
407.107	105.62
407.331	105.62
407.555	103.62
407.778	103.62
408.002	97.62
408.226	97.62
408.449	98.62
408.673	97.62
408.896	102.62
409.12	91.62
409.344	78.62
409.567	86.62
409.791	95.62
410.014	88.62
410.238	94.62
410.461	99.62
410.685	110.62
410.908	105.62
411.132	122.62
411.355	97.62
411.578	90.62
411.802	84.62
412.025	92.62
412.249	107.62
412.472	140.62
412.695	151.62
412.919	115.62
413.142	86.62
413.365	88.62
413.589	83.62
413.812	101.62
414.035	97.62
414.258	87.62
414.482	104.62
414.705	114.62
414.928	94.62
415.151	88.62
415.374	86.62
415.597	87.62
415.821	88.62
416.044	89.62
416.267	98.62
416.49	87.62
416.713	99.62
416.936	110.62
417.159	97.62
417.382	108.62
417.605	117.62
417.828	121.62
418.051	117.62
418.274	92.62
418.497	99.62
418.72	82.62
418.943	88.62
419.166	98.62
419.389	90.62
419.611	96.62
419.834	107.62
420.057	82.62
420.28	86.62
420.503	74.62
420.726	82.62
420.948	114.62
421.171	116.62
421.394	118.62
421.617	87.62
421.839	99.62
422.062	87.62
422.285	87.62
422.507	110.62
422.73	128.62
422.953	90.62
423.175	103.62
423.398	89.62
423.621	89.62
423.843	96.62
424.066	94.62
424.288	85.62
424.511	102.62
424.733	111.62
424.956	136.62
425.178	131.62
425.401	116.62
425.623	103.62
425.846	114.62
426.068	104.62
426.291	83.62
426.513	94.62
426.735	106.62
426.958	96.62
427.18	125.62
427.402	206.62
427.625	303.62
427.847	271.62
428.069	237.62
428.292	139.62
428.514	106.62
428.736	104.62
428.958	93.62
429.181	107.62
429.403	107.62
429.625	96.62
429.847	94.62
430.069	114.62
430.292	105.62
430.514	72.62
430.736	87.62
430.958	78.62
431.18	78.62
431.402	78.62
431.624	90.62
431.846	90.62
432.068	93.62
432.29	93.62
432.512	89.62
432.734	83.62
432.956	98.62
433.178	92.62
433.4	95.62
433.622	93.62
433.844	98.62
434.066	94.62
434.287	103.62
434.509	90.62
434.731	92.62
434.953	86.62
435.175	85.62
435.397	89.62
435.618	101.62
435.84	119.62
436.062	144.62
436.284	123.62
436.505	114.62
436.727	116.62
436.949	115.62
437.17	96.62
437.392	97.62
437.614	91.62
437.835	144.62
438.057	172.62
438.278	133.62
438.5	111.62
438.721	137.62
438.943	121.62
439.165	91.62
439.386	98.62
439.608	103.62
439.829	125.62
440.05	155.62
440.272	186.62
440.493	118.62
440.715	95.62
440.936	96.62
441.158	94.62
441.379	101.62
441.6	104.62
441.822	98.62
442.043	113.62
442.264	137.62
442.486	117.62
442.707	113.62
442.928	128.62
443.149	194.62
443.371	206.62
443.592	140.62
443.813	133.62
444.034	104.62
444.255	99.62
444.476	93.62
444.698	88.62
444.919	90.62
445.14	150.62
445.361	119.62
445.582	149.62
445.803	208.62
446.024	197.62
446.245	184.62
446.466	135.62
446.687	95.62
446.908	91.62
447.129	80.62
447.35	83.62
447.571	107.62
447.792	112.62
448.013	117.62
448.234	130.62
448.455	120.62
448.675	141.62
448.896	159.62
449.117	126.62
449.338	111.62
449.559	160.62
449.779	167.62
450	97.62
450.221	105.62
450.442	88.62
450.662	112.62
450.883	146.62
451.104	158.62
451.324	113.62
451.545	94.62
451.766	92.62
451.986	97.62
452.207	103.62
452.428	108.62
452.648	112.62
452.869	148.62
453.089	164.62
453.31	171.62
453.53	94.62
453.751	98.62
453.971	116.62
454.192	165.62
454.412	99.62
454.633	92.62
454.853	99.62
455.073	88.62
455.294	105.62
455.514	135.62
455.734	103.62
455.955	102.62
456.175	98.62
456.395	98.62
456.616	87.62
456.836	73.62
457.056	102.62
457.276	83.62
457.497	102.62
457.717	96.62
457.937	99.62
458.157	98.62
458.377	102.62
458.598	145.62
458.818	261.62
459.038	271.62
459.258	155.62
459.478	114.62
459.698	101.62
459.918	89.62
460.138	90.62
460.358	91.62
460.578	104.62
460.798	98.62
461.018	88.62
461.238	103.62
461.458	78.62
461.678	80.62
461.898	101.62
462.118	96.62
462.338	83.62
462.558	105.62
462.777	106.62
462.997	105.62
463.217	113.62
463.437	89.62
463.657	87.62
463.876	89.62
464.096	86.62
464.316	96.62
464.536	118.62
464.755	106.62
464.975	136.62
465.195	284.62
465.414	277.62
465.634	128.62
465.854	107.62
466.073	101.62
466.293	98.62
466.512	103.62
466.732	96.62
466.951	90.62
467.171	94.62
467.391	110.62
467.61	166.62
467.829	237.62
468.049	669.62
468.268	989.62
468.488	264.62
468.707	113.62
468.927	96.62
469.146	96.62
469.365	93.62
469.585	96.62
469.804	120.62
470.023	130.62
470.243	119.62
470.462	136.62
470.681	159.62
470.901	110.62
471.12	113.62
471.339	106.62
471.558	140.62
471.777	173.62
471.997	344.62
472.216	1351.62
472.435	3089.62
472.654	674.62
472.873	171.62
473.092	126.62
473.311	96.62
473.53	102.62
473.749	81.62
473.968	106.62
474.187	136.62
474.406	122.62
474.625	93.62
474.844	77.62
475.063	90.62
475.282	87.62
475.501	86.62
475.72	101.62
475.939	85.62
476.158	94.62
476.377	92.62
476.596	93.62
476.814	92.62
477.033	106.62
477.252	86.62
477.471	99.62
477.69	111.62
477.908	94.62
478.127	102.62
478.346	97.62
478.564	102.62
478.783	113.62
479.002	109.62
479.22	107.62
479.439	123.62
479.658	162.62
479.876	133.62
480.095	127.62
480.313	149.62
480.532	179.62
480.751	319.62
480.969	1219.62
481.188	5238.62
481.406	2869.62
481.624	421.62
481.843	160.62
482.061	110.62
482.28	108.62
482.498	99.62
482.717	93.62
482.935	92.62
483.153	87.62
483.372	93.62
483.59	87.62
483.808	90.62
484.027	94.62
484.245	104.62
484.463	95.62
484.681	99.62
484.9	102.62
485.118	114.62
485.336	100.62
485.554	90.62
485.772	103.62
485.99	97.62
486.209	116.62
486.427	114.62
486.645	119.62
486.863	143.62
487.081	107.62
487.299	110.62
487.517	106.62
487.735	90.62
487.953	108.62
488.171	91.62
488.389	105.62
488.607	122.62
488.825	93.62
489.043	79.62
489.261	83.62
489.479	87.62
489.696	89.62
489.914	99.62
490.132	87.62
490.35	90.62
490.568	83.62
490.786	96.62
491.003	99.62
491.221	98.62
491.439	93.62
491.657	99.62
491.874	84.62
492.092	100.62
492.31	95.62
492.527	108.62
492.745	110.62
492.963	100.62
493.18	91.62
493.398	90.62
493.615	98.62
493.833	95.62
494.05	86.62
494.268	90.62
494.485	98.62
494.703	82.62
494.92	104.62
495.138	98.62
495.355	102.62
495.573	104.62
495.79	82.62
496.008	105.62
496.225	77.62
496.442	94.62
496.66	98.62
496.877	99.62
497.094	103.62
497.312	97.62
497.529	88.62
497.746	81.62
497.963	94.62
498.181	99.62
498.398	101.62
498.615	121.62
498.832	110.62
499.049	90.62
499.267	103.62
499.484	95.62
499.701	91.62
499.918	95.62
500.135	78.62
500.352	93.62
500.569	101.62
500.786	98.62
501.003	114.62
501.22	94.62
501.437	88.62
501.654	104.62
501.871	130.62
502.088	106.62
502.305	83.62
502.522	90.62
502.739	94.62
502.956	98.62
503.172	83.62
503.389	110.62
503.606	120.62
503.823	117.62
504.04	93.62
504.256	95.62
504.473	97.62
504.69	91.62
504.907	98.62
505.123	94.62
505.34	89.62
505.557	88.62
505.773	93.62
505.99	89.62
506.207	109.62
506.423	89.62
506.64	93.62
506.856	105.62
507.073	86.62
507.289	93.62
507.506	112.62
507.722	139.62
507.939	151.62
508.155	117.62
508.372	96.62
508.588	78.62
508.805	99.62
509.021	117.62
509.238	105.62
509.454	117.62
509.67	106.62
509.887	131.62
510.103	156.62
510.319	296.62
510.536	1135.62
510.752	4110.62
510.968	1056.62
511.184	204.62
511.401	131.62
511.617	116.62
