Data from Circ_1999_H10_HRD10591_00098.txt Node
Date: Wed Jan 03 11:23:32 EST 2024
User: Yrep
Spectrometer: HR+D1059
Trigger mode: 1
Integration Time (sec): 1.000000E-1
Scans to average: 1
Electric dark correction enabled: true
Nonlinearity correction enabled: false
Boxcar width: 0
XAxis mode: Wavelengths
Number of Pixels in Spectrum: 2048
>>>>>Begin Spectral Data<<<<<
223.165	-23
223.4	-23
223.635	-23
223.869	-15
224.104	-23
224.338	-29
224.573	-12
224.808	-26
225.042	-8
225.277	-12
225.511	3
225.746	-2
225.98	9
226.215	21
226.449	16
226.683	25
226.918	35
227.152	41
227.387	31
227.621	46
227.856	42
228.09	47
228.324	48
228.559	61
228.793	62
229.027	57
229.262	73
229.496	85
229.73	106
229.964	116
230.199	89
230.433	75
230.667	80
230.901	79
231.136	89
231.37	87
231.604	76
231.838	90
232.072	89
232.306	92
232.541	81
232.775	91
233.009	82
233.243	76
233.477	84
233.711	81
233.945	87
234.179	87
234.413	78
234.647	89
234.881	90
235.115	93
235.349	81
235.583	90
235.817	81
236.051	77
236.285	79
236.519	98
236.753	85
236.987	83
237.221	104
237.455	96
237.689	91
237.922	86
238.156	64
238.39	87
238.624	87
238.858	84
239.091	81
239.325	87
239.559	92
239.793	82
240.027	91
240.26	71
240.494	86
240.728	84
240.961	83
241.195	83
241.429	83
241.662	75
241.896	76
242.13	80
242.363	95
242.597	82
242.83	80
243.064	88
243.298	67
243.531	95
243.765	90
243.998	89
244.232	94
244.465	100
244.699	92
244.932	88
245.166	93
245.399	79
245.633	68
245.866	77
246.099	77
246.333	64
246.566	75
246.8	85
247.033	75
247.266	91
247.5	71
247.733	82
247.966	89
248.2	94
248.433	99
248.666	81
248.899	81
249.133	92
249.366	117
249.599	120
249.832	90
250.066	91
250.299	96
250.532	86
250.765	97
250.998	87
251.231	87
251.465	93
251.698	101
251.931	91
252.164	95
252.397	74
252.63	72
252.863	97
253.096	82
253.329	62
253.562	81
253.795	87
254.028	96
254.261	85
254.494	92
254.727	82
254.96	79
255.193	89
255.426	68
255.659	83
255.892	107
256.124	108
256.357	97
256.59	91
256.823	97
257.056	92
257.289	87
257.521	90
257.754	84
257.987	96
258.22	97
258.452	112
258.685	111
258.918	101
259.151	104
259.383	93
259.616	95
259.849	106
260.081	95
260.314	91
260.547	117
260.779	113
261.012	139
261.244	142
261.477	129
261.71	127
261.942	172
262.175	211
262.407	110
262.64	96
262.872	103
263.105	99
263.337	88
263.57	93
263.802	110
264.035	87
264.267	84
264.499	84
264.732	96
264.964	80
265.197	96
265.429	67
265.661	85
265.894	87
266.126	82
266.358	92
266.591	92
266.823	84
267.055	93
267.287	92
267.52	84
267.752	97
267.984	99
268.216	81
268.448	97
268.681	93
268.913	95
269.145	103
269.377	99
269.609	86
269.841	93
270.073	93
270.306	98
270.538	99
270.77	93
271.002	83
271.234	99
271.466	108
271.698	98
271.93	103
272.162	97
272.394	112
272.626	100
272.858	87
273.09	104
273.322	88
273.553	90
273.785	111
274.017	101
274.249	97
274.481	83
274.713	90
274.945	99
275.176	101
275.408	114
275.64	148
275.872	180
276.104	137
276.335	121
276.567	155
276.799	213
277.031	264
277.262	315
277.494	228
277.726	110
277.957	108
278.189	95
278.421	95
278.652	87
278.884	99
279.115	90
279.347	112
279.579	130
279.81	177
280.042	311
280.273	463
280.505	284
280.736	133
280.968	107
281.199	102
281.431	99
281.662	109
281.894	108
282.125	116
282.356	195
282.588	265
282.819	185
283.051	100
283.282	102
283.513	101
283.745	78
283.976	105
284.207	91
284.439	106
284.67	97
284.901	89
285.132	79
285.364	96
285.595	101
285.826	85
286.057	107
286.288	107
286.52	97
286.751	96
286.982	99
287.213	87
287.444	91
287.675	102
287.906	82
288.138	96
288.369	106
288.6	100
288.831	92
289.062	92
289.293	97
289.524	96
289.755	97
289.986	98
290.217	85
290.448	91
290.679	87
290.91	97
291.141	83
291.371	90
291.602	98
291.833	95
292.064	88
292.295	112
292.526	106
292.757	96
292.987	93
293.218	86
293.449	91
293.68	101
293.91	105
294.141	82
294.372	90
294.603	86
294.833	100
295.064	92
295.295	96
295.525	106
295.756	132
295.987	160
296.217	225
296.448	202
296.679	116
296.909	95
297.14	97
297.37	84
297.601	78
297.831	93
298.062	106
298.292	106
298.523	97
298.753	112
298.984	88
299.214	101
299.445	106
299.675	108
299.905	109
300.136	97
300.366	99
300.597	97
300.827	118
301.057	127
301.288	142
301.518	127
301.748	129
301.979	153
302.209	127
302.439	102
302.669	98
302.9	105
303.13	119
303.36	153
303.59	194
303.82	217
304.051	126
304.281	111
304.511	111
304.741	105
304.971	102
305.201	99
305.431	92
305.661	107
305.891	107
306.121	114
306.352	127
306.582	150
306.812	120
307.042	162
307.272	236
307.502	271
307.731	245
307.961	172
308.191	99
308.421	96
308.651	98
308.881	89
309.111	91
309.341	109
309.571	125
309.8	120
310.03	128
310.26	129
310.49	123
310.72	127
310.949	141
311.179	136
311.409	111
311.639	126
311.868	113
312.098	120
312.328	116
312.557	135
312.787	160
313.017	131
313.246	115
313.476	112
313.706	105
313.935	115
314.165	153
314.394	135
314.624	124
314.853	117
315.083	112
315.312	103
315.542	105
315.771	109
316.001	106
316.23	99
316.46	97
316.689	86
316.919	106
317.148	116
317.377	112
317.607	111
317.836	119
318.065	108
318.295	103
318.524	92
318.753	108
318.983	109
319.212	120
319.441	137
319.67	137
319.9	111
320.129	97
320.358	117
320.587	113
320.816	108
321.046	120
321.275	123
321.504	111
321.733	111
321.962	132
322.191	135
322.42	137
322.649	146
322.878	154
323.108	163
323.337	190
323.566	189
323.795	243
324.024	304
324.253	662
324.482	1419
324.71	2925
324.939	3913
325.168	1400
325.397	378
325.626	214
325.855	190
326.084	181
326.313	192
326.542	234
326.77	358
326.999	679
327.228	1394
327.457	2617
327.686	2137
327.914	844
328.143	914
328.372	1252
328.6	628
328.829	274
329.058	285
329.287	312
329.515	284
329.744	421
329.972	862
330.201	1918
330.43	2785
330.658	1152
330.887	499
331.115	287
331.344	175
331.572	169
331.801	154
332.03	163
332.258	144
332.486	131
332.715	126
332.943	141
333.172	147
333.4	171
333.629	239
333.857	364
334.085	763
334.314	1682
334.542	3412
334.771	3123
334.999	746
335.227	274
335.455	169
335.684	135
335.912	131
336.14	113
336.369	132
336.597	145
336.825	128
337.053	103
337.281	100
337.51	113
337.738	122
337.966	119
338.194	143
338.422	135
338.65	123
338.878	105
339.106	87
339.334	100
339.562	102
339.79	116
340.018	108
340.246	107
340.474	121
340.702	108
340.93	94
341.158	108
341.386	121
341.614	126
341.842	106
342.07	111
342.298	99
342.526	99
342.754	104
342.981	92
343.209	85
343.437	108
343.665	100
343.893	91
344.12	114
344.348	117
344.576	95
344.804	120
345.031	122
345.259	124
345.487	131
345.714	123
345.942	109
346.17	97
346.397	114
346.625	105
346.853	96
347.08	112
347.308	117
347.535	120
347.763	138
347.99	122
348.218	133
348.445	136
348.673	115
348.9	120
349.128	104
349.355	85
349.583	99
349.81	97
350.037	109
350.265	105
350.492	108
350.72	114
350.947	125
351.174	160
351.402	139
351.629	118
351.856	121
352.083	134
352.311	147
352.538	157
352.765	155
352.992	155
353.22	140
353.447	144
353.674	116
353.901	103
354.128	93
354.355	99
354.583	107
354.81	106
355.037	105
355.264	87
355.491	96
355.718	100
355.945	91
356.172	95
356.399	101
356.626	101
356.853	100
357.08	91
357.307	95
357.534	80
357.761	97
357.988	100
358.215	103
358.441	99
358.668	96
358.895	99
359.122	108
359.349	93
359.576	123
359.802	138
360.029	189
360.256	191
360.483	155
360.709	119
360.936	101
361.163	119
361.39	132
361.616	124
361.843	120
362.07	123
362.296	129
362.523	118
362.749	132
362.976	105
363.203	94
363.429	108
363.656	114
363.882	92
364.109	99
364.335	114
364.562	104
364.788	103
365.015	119
365.241	111
365.468	132
365.694	154
365.92	121
366.147	111
366.373	102
366.599	92
366.826	102
367.052	100
367.278	95
367.505	117
367.731	111
367.957	116
368.184	122
368.41	123
368.636	144
368.862	161
369.089	147
369.315	108
369.541	110
369.767	108
369.993	115
370.219	100
370.445	106
370.672	94
370.898	91
371.124	98
371.35	100
371.576	82
371.802	94
372.028	89
372.254	101
372.48	91
372.706	88
372.932	96
373.158	99
373.384	112
373.61	101
373.835	95
374.061	90
374.287	100
374.513	99
374.739	96
374.965	91
375.191	94
375.416	91
375.642	109
375.868	103
376.094	93
376.319	102
376.545	90
376.771	93
376.997	97
377.222	96
377.448	87
377.674	100
377.899	94
378.125	92
378.35	93
378.576	115
378.802	98
379.027	101
379.253	95
379.478	94
379.704	93
379.929	83
380.155	104
380.38	99
380.606	92
380.831	95
381.057	89
381.282	99
381.507	100
381.733	114
381.958	100
382.184	94
382.409	110
382.634	111
382.86	105
383.085	99
383.31	91
383.535	99
383.761	112
383.986	95
384.211	108
384.436	107
384.662	104
384.887	114
385.112	109
385.337	109
385.562	107
385.787	124
386.013	121
386.238	131
386.463	116
386.688	94
386.913	99
387.138	105
387.363	99
387.588	103
387.813	101
388.038	91
388.263	100
388.488	118
388.713	90
388.938	93
389.163	87
389.387	86
389.612	96
389.837	90
390.062	86
390.287	96
390.512	94
390.736	98
390.961	83
391.186	106
391.411	80
391.636	95
391.86	86
392.085	93
392.31	115
392.534	97
392.759	88
392.984	84
393.208	90
393.433	97
393.658	91
393.882	75
394.107	81
394.331	83
394.556	81
394.78	87
395.005	87
395.229	79
395.454	97
395.678	93
395.903	101
396.127	86
396.352	97
396.576	92
396.801	98
397.025	91
397.249	89
397.474	97
397.698	94
397.922	101
398.147	112
398.371	93
398.595	100
398.82	86
399.044	96
399.268	97
399.492	98
399.717	94
399.941	87
400.165	99
400.389	105
400.613	105
400.837	94
401.062	101
401.286	112
401.51	112
401.734	126
401.958	131
402.182	212
402.406	274
402.63	204
402.854	126
403.078	107
403.302	106
403.526	99
403.75	101
403.974	85
404.198	87
404.422	99
404.645	110
404.869	128
405.093	137
405.317	186
405.541	171
405.765	136
405.988	182
406.212	353
406.436	498
406.66	308
406.883	167
407.107	126
407.331	121
407.555	130
407.778	117
408.002	110
408.226	94
408.449	103
408.673	104
408.896	125
409.12	117
409.344	96
409.567	101
409.791	92
410.014	97
410.238	98
410.461	105
410.685	110
410.908	108
411.132	132
411.355	93
411.578	103
411.802	87
412.025	93
412.249	113
412.472	128
412.695	169
412.919	138
413.142	110
413.365	96
413.589	108
413.812	92
414.035	108
414.258	101
414.482	100
414.705	82
414.928	84
415.151	88
415.374	87
415.597	96
415.821	104
416.044	97
416.267	107
416.49	95
416.713	92
416.936	114
417.159	99
417.382	108
417.605	138
417.828	128
418.051	113
418.274	102
418.497	89
418.72	97
418.943	84
419.166	97
419.389	98
419.611	100
419.834	101
420.057	84
420.28	105
420.503	106
420.726	89
420.948	104
421.171	119
421.394	99
421.617	92
421.839	83
422.062	89
422.285	106
422.507	115
422.73	111
422.953	103
423.175	101
423.398	92
423.621	103
423.843	100
424.066	92
424.288	106
424.511	112
424.733	123
424.956	156
425.178	122
425.401	119
425.623	125
425.846	105
426.068	111
426.291	109
426.513	103
426.735	107
426.958	120
427.18	138
427.402	247
427.625	391
427.847	350
428.069	263
428.292	168
428.514	102
428.736	100
428.958	89
429.181	100
429.403	91
429.625	107
429.847	102
430.069	127
430.292	113
430.514	96
430.736	95
430.958	85
431.18	103
431.402	95
431.624	83
431.846	94
432.068	96
432.29	100
432.512	100
432.734	86
432.956	90
433.178	97
433.4	118
433.622	101
433.844	101
434.066	96
434.287	113
434.509	105
434.731	110
434.953	95
435.175	109
435.397	98
435.618	109
435.84	139
436.062	149
436.284	142
436.505	125
436.727	116
436.949	98
437.17	99
437.392	107
437.614	133
437.835	147
438.057	197
438.278	150
438.5	127
438.721	166
438.943	115
439.165	99
439.386	95
439.608	108
439.829	146
440.05	190
440.272	244
440.493	141
440.715	92
440.936	111
441.158	105
441.379	108
441.6	111
441.822	127
442.043	116
442.264	139
442.486	131
442.707	120
442.928	157
443.149	233
443.371	224
443.592	171
443.813	157
444.034	129
444.255	102
444.476	83
444.698	100
444.919	99
445.14	155
445.361	149
445.582	162
445.803	233
446.024	228
446.245	204
446.466	148
446.687	106
446.908	106
447.129	107
447.35	111
447.571	98
447.792	112
448.013	142
448.234	151
448.455	124
448.675	157
448.896	145
449.117	131
449.338	116
449.559	165
449.779	174
450	128
450.221	108
450.442	106
450.662	121
450.883	166
451.104	183
451.324	123
451.545	96
451.766	102
451.986	112
452.207	99
452.428	104
452.648	123
452.869	165
453.089	175
453.31	215
453.53	117
453.751	115
453.971	154
454.192	190
454.412	123
454.633	103
454.853	109
455.073	96
455.294	106
455.514	130
455.734	96
455.955	103
456.175	89
456.395	93
456.616	87
456.836	96
457.056	101
457.276	105
457.497	83
457.717	88
457.937	98
458.157	105
458.377	122
458.598	165
458.818	304
459.038	335
459.258	205
459.478	118
459.698	105
459.918	92
460.138	89
460.358	82
460.578	101
460.798	105
461.018	123
461.238	89
461.458	96
461.678	101
461.898	105
462.118	84
462.338	97
462.558	95
462.777	93
462.997	111
463.217	139
463.437	124
463.657	98
463.876	100
464.096	100
464.316	119
464.536	143
464.755	129
464.975	159
465.195	385
465.414	368
465.634	155
465.854	108
466.073	100
466.293	97
466.512	111
466.732	111
466.951	112
467.171	114
467.391	138
467.61	199
467.829	344
468.049	1137
468.268	1683
468.488	374
468.707	145
468.927	105
469.146	93
469.365	105
469.585	107
469.804	131
470.023	133
470.243	131
470.462	141
470.681	199
470.901	125
471.12	111
471.339	134
471.558	139
471.777	213
471.997	499
472.216	2105
472.435	4951
472.654	1041
472.873	247
473.092	129
473.311	123
473.53	112
473.749	104
473.968	115
474.187	146
474.406	136
474.625	105
474.844	106
475.063	95
475.282	103
475.501	104
475.72	90
475.939	100
476.158	92
476.377	107
476.596	92
476.814	119
477.033	124
477.252	106
477.471	106
477.69	108
477.908	116
478.127	88
478.346	106
478.564	114
478.783	131
479.002	135
479.22	109
479.439	154
479.658	191
479.876	154
480.095	155
480.313	179
480.532	230
480.751	466
480.969	1885
481.188	8227
481.406	4709
481.624	600
481.843	201
482.061	132
482.28	107
482.498	105
482.717	104
482.935	102
483.153	112
483.372	109
483.59	108
483.808	100
484.027	101
484.245	103
484.463	108
484.681	115
484.9	103
485.118	103
485.336	114
485.554	101
485.772	113
485.99	109
486.209	95
486.427	121
486.645	151
486.863	169
487.081	126
487.299	103
487.517	108
487.735	111
487.953	96
488.171	86
488.389	107
488.607	121
488.825	104
489.043	111
489.261	109
489.479	92
489.696	112
489.914	100
490.132	98
490.35	84
490.568	96
490.786	107
491.003	114
491.221	85
491.439	103
491.657	92
491.874	112
492.092	101
492.31	95
492.527	104
492.745	111
492.963	94
493.18	105
493.398	105
493.615	99
493.833	92
494.05	105
494.268	93
494.485	91
494.703	99
494.92	94
495.138	88
495.355	99
495.573	111
495.79	91
496.008	96
496.225	89
496.442	96
496.66	111
496.877	84
497.094	115
497.312	92
497.529	82
497.746	103
497.963	89
498.181	101
498.398	132
498.615	124
498.832	116
499.049	105
499.267	109
499.484	77
499.701	92
499.918	94
500.135	95
500.352	102
500.569	101
500.786	112
501.003	101
501.22	112
501.437	89
501.654	123
501.871	164
502.088	117
502.305	97
502.522	108
502.739	95
502.956	99
503.172	101
503.389	114
503.606	172
503.823	130
504.04	115
504.256	117
504.473	82
504.69	99
504.907	95
505.123	107
505.34	105
505.557	100
505.773	101
505.99	91
506.207	101
506.423	97
506.64	101
506.856	108
507.073	103
507.289	110
507.506	120
507.722	171
507.939	184
508.155	122
508.372	104
508.588	104
508.805	110
509.021	109
509.238	107
509.454	127
509.67	114
509.887	133
510.103	181
510.319	356
510.536	1478
510.752	5509
510.968	1395
511.184	257
511.401	173
511.617	139
511.833	134
512.049	121
512.265	105
512.481	93
512.698	107
512.914	110
513.13	106
513.346	106
513.562	121
513.778	107
513.994	133
514.21	159
514.426	219
514.642	271
514.858	239
515.074	345
515.29	1293
515.506	4892
515.721	1626
515.937	324
516.153	182
516.369	157
516.585	120
516.801	128
517.016	120
517.232	104
517.448	111
517.664	121
517.879	114
518.095	102
518.311	147
518.527	140
518.742	114
518.958	101
519.173	113
519.389	120
519.605	105
519.82	116
520.036	153
520.251	192
520.467	168
520.682	165
520.898	160
521.113	180
521.329	276
521.544	507
521.76	1746
521.975	8097
522.19	4725
522.406	872
522.621	247
522.836	157
523.052	151
523.267	122
523.482	127
523.698	141
523.913	194
524.128	160
524.343	128
524.559	111
524.774	111
524.989	109
525.204	145
525.419	132
525.634	109
525.849	114
526.064	101
526.28	92
526.495	89
526.71	105
526.925	107
527.14	100
527.355	105
527.57	105
527.785	112
527.999	111
528.214	95
528.429	100
528.644	80
528.859	110
529.074	108
529.289	202
529.503	447
529.718	174
529.933	99
530.148	95
530.363	101
530.577	107
530.792	95
531.007	109
531.221	102
531.436	103
531.651	99
531.865	100
532.08	88
532.295	105
532.509	98
532.724	97
532.938	99
533.153	103
533.367	97
533.582	95
533.796	91
534.011	105
534.225	100
534.44	99
534.654	87
534.868	111
535.083	104
535.297	106
535.511	136
535.726	155
535.94	109
536.154	113
536.369	106
536.583	99
536.797	99
537.011	92
537.225	114
537.44	98
537.654	106
537.868	97
538.082	94
538.296	91
538.51	112
538.724	96
538.938	89
539.153	116
539.367	171
539.581	127
539.795	105
540.009	95
540.222	98
540.436	98
540.65	108
540.864	92
541.078	107
541.292	105
541.506	92
541.72	108
541.934	112
542.147	103
542.361	90
542.575	98
542.789	108
543.002	107
543.216	109
543.43	138
543.644	103
543.857	90
544.071	102
544.285	101
544.498	90
544.712	100
544.925	98
545.139	94
545.352	86
545.566	105
545.779	97
545.993	103
546.206	103
546.42	112
546.633	110
546.847	108
547.06	90
547.274	95
547.487	85
547.7	96
547.914	82
548.127	83
548.34	92
548.554	86
548.767	93
548.98	81
549.193	95
549.407	99
549.62	97
549.833	90
550.046	95
550.259	97
550.473	95
550.686	102
550.899	104
551.112	85
551.325	104
551.538	117
551.751	105
551.964	99
552.177	91
552.39	80
552.603	96
552.816	93
553.029	95
553.242	114
553.455	124
553.667	157
553.88	146
554.093	118
554.306	144
554.519	153
554.732	102
554.944	109
555.157	100
555.37	83
555.583	90
555.795	100
556.008	101
556.221	100
556.433	90
556.646	92
556.859	92
557.071	105
557.284	104
557.496	101
557.709	92
557.921	99
558.134	97
558.346	90
558.559	97
558.771	88
558.984	101
559.196	98
559.409	100
559.621	108
559.833	94
560.046	101
560.258	128
560.47	179
560.683	125
560.895	90
561.107	97
561.32	87
561.532	94
561.744	96
561.956	87
562.168	104
562.381	105
562.593	101
562.805	104
563.017	93
563.229	97
563.441	103
563.653	92
563.865	87
564.077	87
564.289	95
564.501	88
564.713	101
564.925	113
565.137	124
565.349	108
565.561	90
565.773	74
565.985	90
566.197	102
566.408	101
566.62	87
566.832	100
567.044	95
567.255	87
567.467	84
567.679	99
567.891	104
568.102	101
568.314	91
568.526	87
568.737	101
568.949	94
569.161	94
569.372	77
569.584	89
569.795	119
570.007	172
570.218	482
570.43	223
570.641	103
570.853	81
571.064	94
571.276	95
571.487	95
571.698	90
571.91	83
572.121	96
572.333	92
572.544	87
572.755	90
572.966	79
573.178	96
573.389	102
573.6	110
573.811	94
