Data from Circ_1999_H10_HRD10591_00070.txt Node
Date: Wed Jan 03 11:23:26 EST 2024
User: Yrep
Spectrometer: HR+D1059
Trigger mode: 1
Integration Time (sec): 1.000000E-1
Scans to average: 1
Electric dark correction enabled: true
Nonlinearity correction enabled: false
Boxcar width: 0
XAxis mode: Wavelengths
Number of Pixels in Spectrum: 2048
>>>>>Begin Spectral Data<<<<<
223.165	-14.94
223.4	-14.94
223.635	-14.94
223.869	-21.94
224.104	-12.94
224.338	-23.94
224.573	-23.94
224.808	-15.94
225.042	-5.94
225.277	2.06
225.511	0.06
225.746	4.06
225.98	15.06
226.215	19.06
226.449	13.06
226.683	15.06
226.918	17.06
227.152	34.06
227.387	40.06
227.621	42.06
227.856	31.06
228.09	43.06
228.324	61.06
228.559	64.06
228.793	71.06
229.027	75.06
229.262	72.06
229.496	87.06
229.73	87.06
229.964	92.06
230.199	88.06
230.433	80.06
230.667	79.06
230.901	72.06
231.136	71.06
231.37	80.06
231.604	77.06
231.838	87.06
232.072	81.06
232.306	69.06
232.541	78.06
232.775	71.06
233.009	81.06
233.243	90.06
233.477	80.06
233.711	93.06
233.945	68.06
234.179	77.06
234.413	81.06
234.647	84.06
234.881	73.06
235.115	81.06
235.349	68.06
235.583	76.06
235.817	86.06
236.051	80.06
236.285	77.06
236.519	83.06
236.753	63.06
236.987	76.06
237.221	95.06
237.455	94.06
237.689	77.06
237.922	74.06
238.156	83.06
238.39	71.06
238.624	85.06
238.858	67.06
239.091	82.06
239.325	96.06
239.559	78.06
239.793	64.06
240.027	78.06
240.26	72.06
240.494	77.06
240.728	80.06
240.961	77.06
241.195	79.06
241.429	78.06
241.662	70.06
241.896	69.06
242.13	80.06
242.363	87.06
242.597	79.06
242.83	95.06
243.064	85.06
243.298	84.06
243.531	75.06
243.765	87.06
243.998	81.06
244.232	85.06
244.465	75.06
244.699	88.06
244.932	76.06
245.166	61.06
245.399	63.06
245.633	76.06
245.866	67.06
246.099	86.06
246.333	83.06
246.566	78.06
246.8	89.06
247.033	88.06
247.266	83.06
247.5	73.06
247.733	78.06
247.966	76.06
248.2	67.06
248.433	72.06
248.666	78.06
248.899	83.06
249.133	106.06
249.366	105.06
249.599	121.06
249.832	100.06
250.066	87.06
250.299	93.06
250.532	93.06
250.765	91.06
250.998	91.06
251.231	81.06
251.465	84.06
251.698	92.06
251.931	85.06
252.164	95.06
252.397	74.06
252.63	81.06
252.863	86.06
253.096	85.06
253.329	83.06
253.562	89.06
253.795	80.06
254.028	97.06
254.261	82.06
254.494	88.06
254.727	93.06
254.96	85.06
255.193	84.06
255.426	76.06
255.659	91.06
255.892	101.06
256.124	112.06
256.357	95.06
256.59	71.06
256.823	86.06
257.056	105.06
257.289	103.06
257.521	103.06
257.754	77.06
257.987	77.06
258.22	84.06
258.452	104.06
258.685	101.06
258.918	93.06
259.151	97.06
259.383	92.06
259.616	86.06
259.849	80.06
260.081	89.06
260.314	102.06
260.547	99.06
260.779	113.06
261.012	124.06
261.244	121.06
261.477	111.06
261.71	116.06
261.942	151.06
262.175	174.06
262.407	109.06
262.64	100.06
262.872	100.06
263.105	85.06
263.337	79.06
263.57	84.06
263.802	88.06
264.035	88.06
264.267	79.06
264.499	91.06
264.732	85.06
264.964	88.06
265.197	93.06
265.429	88.06
265.661	99.06
265.894	80.06
266.126	76.06
266.358	82.06
266.591	86.06
266.823	96.06
267.055	75.06
267.287	101.06
267.52	88.06
267.752	101.06
267.984	99.06
268.216	91.06
268.448	87.06
268.681	93.06
268.913	99.06
269.145	87.06
269.377	96.06
269.609	104.06
269.841	88.06
270.073	81.06
270.306	91.06
270.538	84.06
270.77	89.06
271.002	81.06
271.234	97.06
271.466	105.06
271.698	104.06
271.93	83.06
272.162	84.06
272.394	83.06
272.626	84.06
272.858	86.06
273.09	76.06
273.322	90.06
273.553	88.06
273.785	87.06
274.017	81.06
274.249	85.06
274.481	84.06
274.713	91.06
274.945	92.06
275.176	93.06
275.408	109.06
275.64	121.06
275.872	144.06
276.104	121.06
276.335	106.06
276.567	121.06
276.799	163.06
277.031	226.06
277.262	261.06
277.494	173.06
277.726	113.06
277.957	94.06
278.189	99.06
278.421	103.06
278.652	93.06
278.884	87.06
279.115	96.06
279.347	88.06
279.579	126.06
279.81	147.06
280.042	251.06
280.273	344.06
280.505	223.06
280.736	112.06
280.968	103.06
281.199	103.06
281.431	102.06
281.662	93.06
281.894	105.06
282.125	108.06
282.356	156.06
282.588	230.06
282.819	143.06
283.051	92.06
283.282	88.06
283.513	84.06
283.745	84.06
283.976	84.06
284.207	81.06
284.439	87.06
284.67	87.06
284.901	110.06
285.132	80.06
285.364	95.06
285.595	73.06
285.826	87.06
286.057	93.06
286.288	73.06
286.52	88.06
286.751	93.06
286.982	95.06
287.213	85.06
287.444	96.06
287.675	99.06
287.906	100.06
288.138	94.06
288.369	111.06
288.6	109.06
288.831	87.06
289.062	94.06
289.293	103.06
289.524	99.06
289.755	106.06
289.986	86.06
290.217	82.06
290.448	94.06
290.679	97.06
290.91	100.06
291.141	92.06
291.371	85.06
291.602	79.06
291.833	96.06
292.064	86.06
292.295	98.06
292.526	94.06
292.757	97.06
292.987	108.06
293.218	63.06
293.449	86.06
293.68	86.06
293.91	102.06
294.141	91.06
294.372	84.06
294.603	89.06
294.833	88.06
295.064	91.06
295.295	93.06
295.525	104.06
295.756	111.06
295.987	155.06
296.217	216.06
296.448	176.06
296.679	119.06
296.909	89.06
297.14	93.06
297.37	99.06
297.601	96.06
297.831	87.06
298.062	94.06
298.292	109.06
298.523	81.06
298.753	96.06
298.984	90.06
299.214	100.06
299.445	113.06
299.675	106.06
299.905	116.06
300.136	97.06
300.366	83.06
300.597	106.06
300.827	110.06
301.057	103.06
301.288	131.06
301.518	99.06
301.748	110.06
301.979	136.06
302.209	110.06
302.439	101.06
302.669	108.06
302.9	101.06
303.13	105.06
303.36	116.06
303.59	160.06
303.82	172.06
304.051	117.06
304.281	102.06
304.511	101.06
304.741	87.06
304.971	84.06
305.201	89.06
305.431	90.06
305.661	90.06
305.891	97.06
306.121	89.06
306.352	133.06
306.582	131.06
306.812	103.06
307.042	136.06
307.272	201.06
307.502	225.06
307.731	217.06
307.961	161.06
308.191	103.06
308.421	92.06
308.651	91.06
308.881	92.06
309.111	95.06
309.341	96.06
309.571	99.06
309.8	101.06
310.03	100.06
310.26	122.06
310.49	110.06
310.72	121.06
310.949	145.06
311.179	124.06
311.409	107.06
311.639	107.06
311.868	115.06
312.098	116.06
312.328	111.06
312.557	134.06
312.787	142.06
313.017	107.06
313.246	96.06
313.476	104.06
313.706	109.06
313.935	119.06
314.165	106.06
314.394	116.06
314.624	125.06
314.853	120.06
315.083	108.06
315.312	93.06
315.542	93.06
315.771	110.06
316.001	104.06
316.23	102.06
316.46	92.06
316.689	98.06
316.919	120.06
317.148	118.06
317.377	101.06
317.607	127.06
317.836	97.06
318.065	108.06
318.295	99.06
318.524	93.06
318.753	83.06
318.983	98.06
319.212	112.06
319.441	147.06
319.67	125.06
319.9	95.06
320.129	92.06
320.358	100.06
320.587	114.06
320.816	122.06
321.046	132.06
321.275	103.06
321.504	101.06
321.733	106.06
321.962	101.06
322.191	111.06
322.42	128.06
322.649	136.06
322.878	135.06
323.108	139.06
323.337	160.06
323.566	181.06
323.795	215.06
324.024	275.06
324.253	553.06
324.482	1143.06
324.71	2393.06
324.939	3170.06
325.168	1173.06
325.397	331.06
325.626	175.06
325.855	156.06
326.084	160.06
326.313	166.06
326.542	186.06
326.77	274.06
326.999	553.06
327.228	1131.06
327.457	2102.06
327.686	1761.06
327.914	683.06
328.143	763.06
328.372	967.06
328.6	516.06
328.829	231.06
329.058	240.06
329.287	254.06
329.515	206.06
329.744	344.06
329.972	667.06
330.201	1435.06
330.43	2125.06
330.658	947.06
330.887	395.06
331.115	233.06
331.344	143.06
331.572	151.06
331.801	153.06
332.03	147.06
332.258	124.06
332.486	111.06
332.715	105.06
332.943	134.06
333.172	147.06
333.4	159.06
333.629	206.06
333.857	304.06
334.085	585.06
334.314	1307.06
334.542	2548.06
334.771	2399.06
334.999	583.06
335.227	225.06
335.455	146.06
335.684	135.06
335.912	124.06
336.14	113.06
336.369	117.06
336.597	135.06
336.825	106.06
337.053	108.06
337.281	96.06
337.51	86.06
337.738	114.06
337.966	105.06
338.194	131.06
338.422	100.06
338.65	97.06
338.878	103.06
339.106	109.06
339.334	114.06
339.562	93.06
339.79	95.06
340.018	94.06
340.246	94.06
340.474	105.06
340.702	111.06
340.93	95.06
341.158	99.06
341.386	115.06
341.614	107.06
341.842	109.06
342.07	93.06
342.298	97.06
342.526	102.06
342.754	106.06
342.981	78.06
343.209	94.06
343.437	104.06
343.665	93.06
343.893	95.06
344.12	97.06
344.348	92.06
344.576	96.06
344.804	107.06
345.031	115.06
345.259	124.06
345.487	113.06
345.714	106.06
345.942	104.06
346.17	85.06
346.397	107.06
346.625	107.06
346.853	102.06
347.08	101.06
347.308	106.06
347.535	116.06
347.763	111.06
347.99	112.06
348.218	118.06
348.445	117.06
348.673	116.06
348.9	104.06
349.128	83.06
349.355	98.06
349.583	94.06
349.81	99.06
350.037	99.06
350.265	100.06
350.492	107.06
350.72	97.06
350.947	104.06
351.174	128.06
351.402	121.06
351.629	107.06
351.856	110.06
352.083	110.06
352.311	119.06
352.538	127.06
352.765	131.06
352.992	135.06
353.22	127.06
353.447	115.06
353.674	99.06
353.901	96.06
354.128	97.06
354.355	108.06
354.583	98.06
354.81	96.06
355.037	78.06
355.264	86.06
355.491	105.06
355.718	94.06
355.945	101.06
356.172	93.06
356.399	107.06
356.626	100.06
356.853	91.06
357.08	99.06
357.307	91.06
357.534	72.06
357.761	91.06
357.988	99.06
358.215	103.06
358.441	103.06
358.668	95.06
358.895	87.06
359.122	91.06
359.349	93.06
359.576	87.06
359.802	131.06
360.029	171.06
360.256	160.06
360.483	123.06
360.709	96.06
360.936	94.06
361.163	101.06
361.39	123.06
361.616	101.06
361.843	93.06
362.07	102.06
362.296	113.06
362.523	107.06
362.749	113.06
362.976	112.06
363.203	85.06
363.429	91.06
363.656	95.06
363.882	81.06
364.109	96.06
364.335	90.06
364.562	90.06
364.788	107.06
365.015	99.06
365.241	128.06
365.468	137.06
365.694	135.06
365.92	112.06
366.147	107.06
366.373	114.06
366.599	110.06
366.826	101.06
367.052	86.06
367.278	104.06
367.505	97.06
367.731	106.06
367.957	94.06
368.184	109.06
368.41	120.06
368.636	136.06
368.862	175.06
369.089	149.06
369.315	108.06
369.541	103.06
369.767	105.06
369.993	96.06
370.219	100.06
370.445	90.06
370.672	93.06
370.898	93.06
371.124	80.06
371.35	93.06
371.576	96.06
371.802	83.06
372.028	78.06
372.254	90.06
372.48	108.06
372.706	94.06
372.932	78.06
373.158	87.06
373.384	95.06
373.61	94.06
373.835	86.06
374.061	102.06
374.287	87.06
374.513	88.06
374.739	87.06
374.965	103.06
375.191	83.06
375.416	80.06
375.642	97.06
375.868	93.06
376.094	103.06
376.319	93.06
376.545	103.06
376.771	81.06
376.997	97.06
377.222	84.06
377.448	80.06
377.674	92.06
377.899	84.06
378.125	86.06
378.35	80.06
378.576	88.06
378.802	86.06
379.027	73.06
379.253	100.06
379.478	97.06
379.704	92.06
379.929	85.06
380.155	99.06
380.38	109.06
380.606	119.06
380.831	110.06
381.057	96.06
381.282	108.06
381.507	89.06
381.733	88.06
381.958	102.06
382.184	98.06
382.409	108.06
382.634	111.06
382.86	91.06
383.085	98.06
383.31	96.06
383.535	97.06
383.761	109.06
383.986	87.06
384.211	96.06
384.436	98.06
384.662	111.06
384.887	106.06
385.112	104.06
385.337	89.06
385.562	89.06
385.787	112.06
386.013	106.06
386.238	115.06
386.463	118.06
386.688	110.06
386.913	104.06
387.138	105.06
387.363	107.06
387.588	89.06
387.813	88.06
388.038	92.06
388.263	110.06
388.488	107.06
388.713	88.06
388.938	100.06
389.163	91.06
389.387	106.06
389.612	105.06
389.837	93.06
390.062	95.06
390.287	89.06
390.512	98.06
390.736	85.06
390.961	84.06
391.186	88.06
391.411	84.06
391.636	96.06
391.86	90.06
392.085	83.06
392.31	85.06
392.534	68.06
392.759	78.06
392.984	78.06
393.208	99.06
393.433	93.06
393.658	91.06
393.882	93.06
394.107	90.06
394.331	77.06
394.556	78.06
394.78	81.06
395.005	88.06
395.229	84.06
395.454	94.06
395.678	107.06
395.903	83.06
396.127	79.06
396.352	95.06
396.576	84.06
396.801	78.06
397.025	88.06
397.249	87.06
397.474	96.06
397.698	95.06
397.922	88.06
398.147	86.06
398.371	83.06
398.595	73.06
398.82	97.06
399.044	88.06
399.268	95.06
399.492	85.06
399.717	83.06
399.941	80.06
400.165	90.06
400.389	95.06
400.613	96.06
400.837	92.06
401.062	89.06
401.286	101.06
401.51	94.06
401.734	108.06
401.958	125.06
402.182	187.06
402.406	277.06
402.63	193.06
402.854	117.06
403.078	95.06
403.302	101.06
403.526	85.06
403.75	91.06
403.974	89.06
404.198	87.06
404.422	94.06
404.645	90.06
404.869	112.06
405.093	134.06
405.317	147.06
405.541	155.06
405.765	140.06
405.988	168.06
406.212	275.06
406.436	453.06
406.66	277.06
406.883	152.06
407.107	121.06
407.331	108.06
407.555	113.06
407.778	100.06
408.002	107.06
408.226	107.06
408.449	101.06
408.673	103.06
408.896	89.06
409.12	101.06
409.344	84.06
409.567	88.06
409.791	92.06
410.014	96.06
410.238	94.06
410.461	106.06
410.685	71.06
410.908	86.06
411.132	114.06
411.355	101.06
411.578	103.06
411.802	100.06
412.025	97.06
412.249	115.06
412.472	113.06
412.695	148.06
412.919	108.06
413.142	88.06
413.365	83.06
413.589	101.06
413.812	88.06
414.035	103.06
414.258	89.06
414.482	83.06
414.705	85.06
414.928	99.06
415.151	86.06
415.374	97.06
415.597	92.06
415.821	95.06
416.044	92.06
416.267	97.06
416.49	88.06
416.713	88.06
416.936	92.06
417.159	91.06
417.382	90.06
417.605	124.06
417.828	127.06
418.051	102.06
418.274	95.06
418.497	90.06
418.72	91.06
418.943	85.06
419.166	87.06
419.389	78.06
419.611	96.06
419.834	101.06
420.057	93.06
420.28	111.06
420.503	95.06
420.726	79.06
420.948	100.06
421.171	109.06
421.394	111.06
421.617	90.06
421.839	87.06
422.062	88.06
422.285	94.06
422.507	115.06
422.73	110.06
422.953	82.06
423.175	73.06
423.398	89.06
423.621	102.06
423.843	95.06
424.066	94.06
424.288	99.06
424.511	92.06
424.733	106.06
424.956	121.06
425.178	128.06
425.401	100.06
425.623	105.06
425.846	106.06
426.068	100.06
426.291	105.06
426.513	97.06
426.735	100.06
426.958	111.06
427.18	131.06
427.402	202.06
427.625	328.06
427.847	295.06
428.069	233.06
428.292	137.06
428.514	111.06
428.736	81.06
428.958	91.06
429.181	87.06
429.403	93.06
429.625	106.06
429.847	92.06
430.069	106.06
430.292	97.06
430.514	99.06
430.736	88.06
430.958	76.06
431.18	89.06
431.402	113.06
431.624	79.06
431.846	79.06
432.068	88.06
432.29	85.06
432.512	91.06
432.734	94.06
432.956	90.06
433.178	103.06
433.4	93.06
433.622	91.06
433.844	89.06
434.066	102.06
434.287	80.06
434.509	95.06
434.731	94.06
434.953	81.06
435.175	80.06
435.397	95.06
435.618	103.06
435.84	106.06
436.062	136.06
436.284	122.06
436.505	95.06
436.727	103.06
436.949	84.06
437.17	86.06
437.392	104.06
437.614	103.06
437.835	125.06
438.057	185.06
438.278	152.06
438.5	119.06
438.721	137.06
438.943	97.06
439.165	85.06
439.386	93.06
439.608	100.06
439.829	112.06
440.05	160.06
440.272	198.06
440.493	121.06
440.715	87.06
440.936	87.06
441.158	94.06
441.379	95.06
441.6	112.06
441.822	124.06
442.043	113.06
442.264	130.06
442.486	115.06
442.707	125.06
442.928	139.06
443.149	202.06
443.371	200.06
443.592	149.06
443.813	125.06
444.034	131.06
444.255	88.06
444.476	81.06
444.698	96.06
444.919	81.06
445.14	136.06
445.361	122.06
445.582	145.06
445.803	225.06
446.024	188.06
446.245	169.06
446.466	122.06
446.687	88.06
446.908	100.06
447.129	115.06
447.35	99.06
447.571	96.06
447.792	99.06
448.013	126.06
448.234	140.06
448.455	124.06
448.675	127.06
448.896	140.06
449.117	112.06
449.338	119.06
449.559	137.06
449.779	149.06
450	107.06
450.221	98.06
450.442	99.06
450.662	105.06
450.883	147.06
451.104	159.06
451.324	128.06
451.545	103.06
451.766	91.06
451.986	88.06
452.207	106.06
452.428	96.06
452.648	113.06
452.869	148.06
453.089	163.06
453.31	185.06
453.53	117.06
453.751	95.06
453.971	131.06
454.192	154.06
454.412	108.06
454.633	102.06
454.853	99.06
455.073	81.06
455.294	96.06
455.514	108.06
455.734	103.06
455.955	93.06
456.175	83.06
456.395	89.06
456.616	90.06
456.836	80.06
457.056	78.06
457.276	93.06
457.497	96.06
457.717	94.06
457.937	86.06
458.157	97.06
458.377	101.06
458.598	165.06
458.818	287.06
459.038	298.06
459.258	179.06
459.478	119.06
459.698	101.06
459.918	71.06
460.138	83.06
460.358	89.06
460.578	101.06
460.798	91.06
461.018	96.06
461.238	94.06
461.458	102.06
461.678	74.06
461.898	81.06
462.118	96.06
462.338	79.06
462.558	91.06
462.777	91.06
462.997	105.06
463.217	124.06
463.437	117.06
463.657	96.06
463.876	108.06
464.096	104.06
464.316	100.06
464.536	106.06
464.755	125.06
464.975	159.06
465.195	328.06
465.414	323.06
465.634	123.06
465.854	88.06
466.073	97.06
466.293	84.06
466.512	97.06
466.732	91.06
466.951	101.06
467.171	119.06
467.391	114.06
467.61	201.06
467.829	299.06
468.049	869.06
468.268	1327.06
468.488	295.06
468.707	125.06
468.927	103.06
469.146	91.06
469.365	95.06
469.585	95.06
469.804	122.06
470.023	125.06
470.243	131.06
470.462	159.06
470.681	170.06
470.901	111.06
471.12	119.06
471.339	110.06
471.558	135.06
471.777	199.06
471.997	418.06
472.216	1709.06
472.435	3902.06
472.654	855.06
472.873	220.06
473.092	125.06
473.311	106.06
473.53	110.06
473.749	92.06
473.968	123.06
474.187	129.06
474.406	131.06
474.625	101.06
474.844	84.06
475.063	83.06
475.282	78.06
475.501	86.06
475.72	88.06
475.939	88.06
476.158	92.06
476.377	95.06
476.596	104.06
476.814	110.06
477.033	116.06
477.252	99.06
477.471	92.06
477.69	98.06
477.908	108.06
478.127	95.06
478.346	107.06
478.564	102.06
478.783	101.06
479.002	108.06
479.22	118.06
479.439	138.06
479.658	168.06
479.876	139.06
480.095	139.06
480.313	162.06
480.532	208.06
480.751	384.06
480.969	1491.06
481.188	6571.06
481.406	3700.06
481.624	495.06
481.843	173.06
482.061	137.06
482.28	108.06
482.498	108.06
482.717	100.06
482.935	111.06
483.153	88.06
483.372	95.06
483.59	89.06
483.808	92.06
484.027	88.06
484.245	101.06
484.463	111.06
484.681	104.06
484.9	109.06
485.118	100.06
485.336	95.06
485.554	95.06
485.772	111.06
485.99	116.06
486.209	117.06
486.427	108.06
486.645	106.06
486.863	136.06
487.081	125.06
487.299	100.06
487.517	105.06
487.735	91.06
487.953	99.06
488.171	103.06
488.389	106.06
488.607	112.06
488.825	119.06
489.043	94.06
489.261	92.06
489.479	96.06
489.696	89.06
489.914	97.06
490.132	81.06
490.35	90.06
490.568	73.06
490.786	88.06
491.003	93.06
491.221	106.06
491.439	102.06
491.657	106.06
491.874	101.06
492.092	93.06
492.31	104.06
492.527	108.06
492.745	94.06
492.963	103.06
493.18	89.06
493.398	95.06
493.615	111.06
493.833	99.06
494.05	97.06
494.268	100.06
494.485	84.06
494.703	81.06
494.92	88.06
495.138	97.06
495.355	100.06
495.573	95.06
495.79	89.06
496.008	94.06
496.225	88.06
496.442	97.06
496.66	97.06
496.877	97.06
497.094	96.06
497.312	97.06
497.529	102.06
497.746	92.06
497.963	89.06
498.181	103.06
498.398	111.06
498.615	134.06
498.832	111.06
499.049	103.06
499.267	89.06
499.484	96.06
499.701	90.06
499.918	79.06
500.135	87.06
500.352	83.06
500.569	100.06
500.786	94.06
501.003	101.06
501.22	87.06
501.437	95.06
501.654	105.06
501.871	154.06
502.088	104.06
502.305	105.06
502.522	101.06
502.739	89.06
502.956	97.06
503.172	112.06
503.389	120.06
503.606	149.06
503.823	121.06
504.04	92.06
504.256	92.06
504.473	99.06
504.69	86.06
504.907	108.06
505.123	93.06
505.34	95.06
505.557	87.06
505.773	112.06
505.99	92.06
506.207	96.06
506.423	116.06
506.64	96.06
506.856	105.06
507.073	101.06
507.289	96.06
507.506	125.06
507.722	145.06
507.939	148.06
508.155	116.06
508.372	103.06
508.588	97.06
508.805	108.06
509.021	103.06
509.238	107.06
509.454	111.06
509.67	115.06
509.887	126.06
510.103	164.06
510.319	336.06
510.536	1383.06
510.752	5269.06
510.968	1313.06
511.184	236.06
