Data from Circ_1999_H10_HRD10591_00076.txt Node
Date: Wed Jan 03 11:23:27 EST 2024
User: Yrep
Spectrometer: HR+D1059
Trigger mode: 1
Integration Time (sec): 1.000000E-1
Scans to average: 1
Electric dark correction enabled: true
Nonlinearity correction enabled: false
Boxcar width: 0
XAxis mode: Wavelengths
Number of Pixels in Spectrum: 2048
>>>>>Begin Spectral Data<<<<<
223.165	-19.5
223.4	-19.5
223.635	-19.5
223.869	-28.5
224.104	-22.5
224.338	-22.5
224.573	-36.5
224.808	-10.5
225.042	-9.5
225.277	-9.5
225.511	2.5
225.746	18.5
225.98	16.5
226.215	16.5
226.449	18.5
226.683	13.5
226.918	29.5
227.152	43.5
227.387	28.5
227.621	49.5
227.856	57.5
228.09	57.5
228.324	51.5
228.559	42.5
228.793	67.5
229.027	75.5
229.262	77.5
229.496	109.5
229.73	104.5
229.964	101.5
230.199	82.5
230.433	78.5
230.667	76.5
230.901	83.5
231.136	67.5
231.37	81.5
231.604	90.5
231.838	76.5
232.072	70.5
232.306	93.5
232.541	97.5
232.775	82.5
233.009	86.5
233.243	76.5
233.477	92.5
233.711	83.5
233.945	83.5
234.179	81.5
234.413	79.5
234.647	79.5
234.881	78.5
235.115	81.5
235.349	88.5
235.583	85.5
235.817	96.5
236.051	82.5
236.285	93.5
236.519	87.5
236.753	86.5
236.987	83.5
237.221	97.5
237.455	89.5
237.689	82.5
237.922	74.5
238.156	70.5
238.39	74.5
238.624	76.5
238.858	73.5
239.091	79.5
239.325	99.5
239.559	93.5
239.793	90.5
240.027	91.5
240.26	77.5
240.494	81.5
240.728	72.5
240.961	86.5
241.195	74.5
241.429	82.5
241.662	91.5
241.896	80.5
242.13	85.5
242.363	93.5
242.597	85.5
242.83	94.5
243.064	79.5
243.298	66.5
243.531	72.5
243.765	86.5
243.998	64.5
244.232	89.5
244.465	99.5
244.699	79.5
244.932	76.5
245.166	77.5
245.399	81.5
245.633	75.5
245.866	93.5
246.099	76.5
246.333	90.5
246.566	86.5
246.8	72.5
247.033	89.5
247.266	92.5
247.5	93.5
247.733	87.5
247.966	94.5
248.2	76.5
248.433	88.5
248.666	86.5
248.899	93.5
249.133	93.5
249.366	117.5
249.599	106.5
249.832	82.5
250.066	96.5
250.299	75.5
250.532	101.5
250.765	84.5
250.998	83.5
251.231	85.5
251.465	88.5
251.698	72.5
251.931	92.5
252.164	77.5
252.397	90.5
252.63	87.5
252.863	94.5
253.096	75.5
253.329	91.5
253.562	83.5
253.795	74.5
254.028	83.5
254.261	97.5
254.494	72.5
254.727	98.5
254.96	87.5
255.193	95.5
255.426	86.5
255.659	88.5
255.892	109.5
256.124	96.5
256.357	92.5
256.59	98.5
256.823	94.5
257.056	96.5
257.289	99.5
257.521	75.5
257.754	88.5
257.987	74.5
258.22	97.5
258.452	104.5
258.685	102.5
258.918	88.5
259.151	89.5
259.383	86.5
259.616	85.5
259.849	92.5
260.081	107.5
260.314	89.5
260.547	101.5
260.779	98.5
261.012	127.5
261.244	122.5
261.477	118.5
261.71	108.5
261.942	159.5
262.175	185.5
262.407	116.5
262.64	82.5
262.872	106.5
263.105	89.5
263.337	98.5
263.57	89.5
263.802	84.5
264.035	77.5
264.267	89.5
264.499	93.5
264.732	85.5
264.964	90.5
265.197	88.5
265.429	97.5
265.661	85.5
265.894	87.5
266.126	81.5
266.358	92.5
266.591	97.5
266.823	82.5
267.055	85.5
267.287	93.5
267.52	97.5
267.752	86.5
267.984	83.5
268.216	83.5
268.448	95.5
268.681	87.5
268.913	89.5
269.145	89.5
269.377	81.5
269.609	84.5
269.841	90.5
270.073	89.5
270.306	87.5
270.538	79.5
270.77	91.5
271.002	83.5
271.234	100.5
271.466	102.5
271.698	95.5
271.93	82.5
272.162	108.5
272.394	87.5
272.626	97.5
272.858	95.5
273.09	78.5
273.322	93.5
273.553	88.5
273.785	94.5
274.017	88.5
274.249	95.5
274.481	90.5
274.713	108.5
274.945	91.5
275.176	89.5
275.408	113.5
275.64	139.5
275.872	144.5
276.104	119.5
276.335	105.5
276.567	124.5
276.799	186.5
277.031	234.5
277.262	280.5
277.494	184.5
277.726	110.5
277.957	89.5
278.189	87.5
278.421	103.5
278.652	115.5
278.884	98.5
279.115	102.5
279.347	105.5
279.579	110.5
279.81	169.5
280.042	262.5
280.273	381.5
280.505	253.5
280.736	126.5
280.968	93.5
281.199	99.5
281.431	94.5
281.662	93.5
281.894	104.5
282.125	114.5
282.356	150.5
282.588	220.5
282.819	147.5
283.051	102.5
283.282	103.5
283.513	115.5
283.745	95.5
283.976	87.5
284.207	91.5
284.439	100.5
284.67	92.5
284.901	99.5
285.132	82.5
285.364	86.5
285.595	82.5
285.826	92.5
286.057	87.5
286.288	93.5
286.52	99.5
286.751	104.5
286.982	99.5
287.213	84.5
287.444	96.5
287.675	96.5
287.906	83.5
288.138	88.5
288.369	110.5
288.6	106.5
288.831	102.5
289.062	96.5
289.293	90.5
289.524	98.5
289.755	99.5
289.986	97.5
290.217	89.5
290.448	81.5
290.679	90.5
290.91	96.5
291.141	93.5
291.371	84.5
291.602	95.5
291.833	100.5
292.064	89.5
292.295	88.5
292.526	90.5
292.757	93.5
292.987	101.5
293.218	96.5
293.449	93.5
293.68	99.5
293.91	100.5
294.141	110.5
294.372	92.5
294.603	95.5
294.833	88.5
295.064	89.5
295.295	96.5
295.525	106.5
295.756	142.5
295.987	158.5
296.217	201.5
296.448	184.5
296.679	102.5
296.909	109.5
297.14	99.5
297.37	81.5
297.601	91.5
297.831	89.5
298.062	114.5
298.292	103.5
298.523	92.5
298.753	97.5
298.984	98.5
299.214	99.5
299.445	107.5
299.675	113.5
299.905	107.5
300.136	88.5
300.366	84.5
300.597	95.5
300.827	107.5
301.057	109.5
301.288	134.5
301.518	120.5
301.748	117.5
301.979	125.5
302.209	103.5
302.439	91.5
302.669	91.5
302.9	104.5
303.13	119.5
303.36	126.5
303.59	174.5
303.82	192.5
304.051	118.5
304.281	90.5
304.511	117.5
304.741	106.5
304.971	91.5
305.201	99.5
305.431	91.5
305.661	92.5
305.891	92.5
306.121	103.5
306.352	125.5
306.582	135.5
306.812	133.5
307.042	151.5
307.272	224.5
307.502	241.5
307.731	231.5
307.961	150.5
308.191	106.5
308.421	110.5
308.651	118.5
308.881	94.5
309.111	110.5
309.341	110.5
309.571	121.5
309.8	120.5
310.03	108.5
310.26	118.5
310.49	113.5
310.72	113.5
310.949	147.5
311.179	130.5
311.409	105.5
311.639	113.5
311.868	117.5
312.098	118.5
312.328	109.5
312.557	127.5
312.787	128.5
313.017	140.5
313.246	101.5
313.476	99.5
313.706	98.5
313.935	108.5
314.165	134.5
314.394	137.5
314.624	119.5
314.853	129.5
315.083	108.5
315.312	105.5
315.542	93.5
315.771	112.5
316.001	98.5
316.23	81.5
316.46	99.5
316.689	96.5
316.919	110.5
317.148	104.5
317.377	114.5
317.607	113.5
317.836	118.5
318.065	95.5
318.295	105.5
318.524	92.5
318.753	89.5
318.983	103.5
319.212	115.5
319.441	141.5
319.67	123.5
319.9	93.5
320.129	97.5
320.358	110.5
320.587	102.5
320.816	121.5
321.046	130.5
321.275	123.5
321.504	108.5
321.733	104.5
321.962	109.5
322.191	107.5
322.42	129.5
322.649	144.5
322.878	125.5
323.108	139.5
323.337	163.5
323.566	182.5
323.795	214.5
324.024	296.5
324.253	573.5
324.482	1250.5
324.71	2558.5
324.939	3414.5
325.168	1250.5
325.397	371.5
325.626	201.5
325.855	177.5
326.084	161.5
326.313	173.5
326.542	210.5
326.77	296.5
326.999	596.5
327.228	1243.5
327.457	2359.5
327.686	1921.5
327.914	739.5
328.143	765.5
328.372	1003.5
328.6	548.5
328.829	254.5
329.058	265.5
329.287	267.5
329.515	236.5
329.744	351.5
329.972	714.5
330.201	1452.5
330.43	2199.5
330.658	961.5
330.887	415.5
331.115	269.5
331.344	175.5
331.572	143.5
331.801	173.5
332.03	153.5
332.258	130.5
332.486	122.5
332.715	135.5
332.943	114.5
333.172	146.5
333.4	160.5
333.629	200.5
333.857	318.5
334.085	626.5
334.314	1326.5
334.542	2720.5
334.771	2510.5
334.999	622.5
335.227	230.5
335.455	156.5
335.684	130.5
335.912	113.5
336.14	127.5
336.369	124.5
336.597	119.5
336.825	119.5
337.053	113.5
337.281	103.5
337.51	105.5
337.738	112.5
337.966	98.5
338.194	122.5
338.422	120.5
338.65	109.5
338.878	99.5
339.106	103.5
339.334	115.5
339.562	102.5
339.79	108.5
340.018	116.5
340.246	112.5
340.474	105.5
340.702	109.5
340.93	116.5
341.158	101.5
341.386	107.5
341.614	112.5
341.842	110.5
342.07	103.5
342.298	102.5
342.526	93.5
342.754	113.5
342.981	95.5
343.209	105.5
343.437	100.5
343.665	102.5
343.893	95.5
344.12	92.5
344.348	95.5
344.576	99.5
344.804	98.5
345.031	129.5
345.259	110.5
345.487	107.5
345.714	117.5
345.942	115.5
346.17	102.5
346.397	98.5
346.625	95.5
346.853	94.5
347.08	106.5
347.308	110.5
347.535	117.5
347.763	123.5
347.99	109.5
348.218	118.5
348.445	157.5
348.673	122.5
348.9	101.5
349.128	106.5
349.355	92.5
349.583	110.5
349.81	95.5
350.037	107.5
350.265	109.5
350.492	101.5
350.72	116.5
350.947	114.5
351.174	137.5
351.402	142.5
351.629	123.5
351.856	124.5
352.083	128.5
352.311	127.5
352.538	139.5
352.765	135.5
352.992	141.5
353.22	166.5
353.447	112.5
353.674	109.5
353.901	102.5
354.128	86.5
354.355	110.5
354.583	102.5
354.81	112.5
355.037	114.5
355.264	103.5
355.491	82.5
355.718	97.5
355.945	87.5
356.172	96.5
356.399	85.5
356.626	99.5
356.853	80.5
357.08	102.5
357.307	110.5
357.534	97.5
357.761	78.5
357.988	75.5
358.215	90.5
358.441	90.5
358.668	92.5
358.895	115.5
359.122	105.5
359.349	90.5
359.576	103.5
359.802	130.5
360.029	179.5
360.256	163.5
360.483	127.5
360.709	99.5
360.936	106.5
361.163	114.5
361.39	107.5
361.616	117.5
361.843	90.5
362.07	118.5
362.296	118.5
362.523	104.5
362.749	109.5
362.976	104.5
363.203	93.5
363.429	110.5
363.656	93.5
363.882	97.5
364.109	91.5
364.335	90.5
364.562	114.5
364.788	105.5
365.015	106.5
365.241	114.5
365.468	126.5
365.694	135.5
365.92	110.5
366.147	111.5
366.373	92.5
366.599	102.5
366.826	102.5
367.052	99.5
367.278	100.5
367.505	108.5
367.731	105.5
367.957	110.5
368.184	103.5
368.41	130.5
368.636	143.5
368.862	152.5
369.089	149.5
369.315	109.5
369.541	108.5
369.767	109.5
369.993	98.5
370.219	108.5
370.445	91.5
370.672	100.5
370.898	83.5
371.124	104.5
371.35	98.5
371.576	101.5
371.802	88.5
372.028	98.5
372.254	99.5
372.48	92.5
372.706	89.5
372.932	82.5
373.158	79.5
373.384	75.5
373.61	87.5
373.835	110.5
374.061	83.5
374.287	98.5
374.513	94.5
374.739	100.5
374.965	91.5
375.191	98.5
375.416	85.5
375.642	90.5
375.868	87.5
376.094	87.5
376.319	98.5
376.545	90.5
376.771	84.5
376.997	89.5
377.222	99.5
377.448	97.5
377.674	84.5
377.899	97.5
378.125	89.5
378.35	90.5
378.576	79.5
378.802	98.5
379.027	98.5
379.253	103.5
379.478	81.5
379.704	98.5
379.929	117.5
380.155	94.5
380.38	96.5
380.606	102.5
380.831	119.5
381.057	97.5
381.282	104.5
381.507	88.5
381.733	101.5
381.958	96.5
382.184	99.5
382.409	96.5
382.634	101.5
382.86	95.5
383.085	91.5
383.31	102.5
383.535	109.5
383.761	107.5
383.986	97.5
384.211	102.5
384.436	105.5
384.662	105.5
384.887	122.5
385.112	109.5
385.337	107.5
385.562	112.5
385.787	107.5
386.013	127.5
386.238	129.5
386.463	119.5
386.688	104.5
386.913	94.5
387.138	96.5
387.363	98.5
387.588	99.5
387.813	98.5
388.038	99.5
388.263	115.5
388.488	104.5
388.713	85.5
388.938	91.5
389.163	86.5
389.387	79.5
389.612	101.5
389.837	102.5
390.062	102.5
390.287	94.5
390.512	91.5
390.736	99.5
390.961	81.5
391.186	86.5
391.411	94.5
391.636	86.5
391.86	98.5
392.085	91.5
392.31	88.5
392.534	90.5
392.759	90.5
392.984	89.5
393.208	86.5
393.433	98.5
393.658	79.5
393.882	82.5
394.107	79.5
394.331	96.5
394.556	101.5
394.78	90.5
395.005	85.5
395.229	101.5
395.454	73.5
395.678	85.5
395.903	81.5
396.127	93.5
396.352	91.5
396.576	88.5
396.801	94.5
397.025	104.5
397.249	87.5
397.474	94.5
397.698	105.5
397.922	87.5
398.147	83.5
398.371	86.5
398.595	85.5
398.82	86.5
399.044	74.5
399.268	77.5
399.492	91.5
399.717	90.5
399.941	103.5
400.165	85.5
400.389	104.5
400.613	89.5
400.837	81.5
401.062	97.5
401.286	115.5
401.51	109.5
401.734	100.5
401.958	135.5
402.182	193.5
402.406	276.5
402.63	200.5
402.854	106.5
403.078	105.5
403.302	106.5
403.526	83.5
403.75	98.5
403.974	90.5
404.198	99.5
404.422	113.5
404.645	102.5
404.869	109.5
405.093	120.5
405.317	172.5
405.541	170.5
405.765	127.5
405.988	171.5
406.212	303.5
406.436	473.5
406.66	281.5
406.883	128.5
407.107	112.5
407.331	118.5
407.555	130.5
407.778	124.5
408.002	102.5
408.226	104.5
408.449	101.5
408.673	88.5
408.896	112.5
409.12	114.5
409.344	86.5
409.567	89.5
409.791	99.5
410.014	101.5
410.238	97.5
410.461	103.5
410.685	102.5
410.908	98.5
411.132	108.5
411.355	120.5
411.578	100.5
411.802	94.5
412.025	92.5
412.249	117.5
412.472	123.5
412.695	144.5
412.919	120.5
413.142	97.5
413.365	89.5
413.589	96.5
413.812	88.5
414.035	99.5
414.258	90.5
414.482	93.5
414.705	92.5
414.928	104.5
415.151	81.5
415.374	92.5
415.597	96.5
415.821	76.5
416.044	105.5
416.267	105.5
416.49	91.5
416.713	90.5
416.936	93.5
417.159	93.5
417.382	105.5
417.605	117.5
417.828	129.5
418.051	111.5
418.274	75.5
418.497	94.5
418.72	94.5
418.943	89.5
419.166	83.5
419.389	76.5
419.611	98.5
419.834	90.5
420.057	96.5
420.28	98.5
420.503	102.5
420.726	94.5
420.948	107.5
421.171	125.5
421.394	96.5
421.617	106.5
421.839	101.5
422.062	95.5
422.285	103.5
422.507	115.5
422.73	121.5
422.953	79.5
423.175	97.5
423.398	95.5
423.621	91.5
423.843	83.5
424.066	96.5
424.288	82.5
424.511	98.5
424.733	129.5
424.956	147.5
425.178	118.5
425.401	121.5
425.623	115.5
425.846	90.5
426.068	115.5
426.291	114.5
426.513	96.5
426.735	83.5
426.958	123.5
427.18	133.5
427.402	207.5
427.625	348.5
427.847	311.5
428.069	245.5
428.292	146.5
428.514	107.5
428.736	94.5
428.958	94.5
429.181	89.5
429.403	96.5
429.625	109.5
429.847	103.5
430.069	104.5
430.292	94.5
430.514	86.5
430.736	85.5
430.958	107.5
431.18	91.5
431.402	105.5
431.624	85.5
431.846	82.5
432.068	99.5
432.29	75.5
432.512	84.5
432.734	91.5
432.956	96.5
433.178	98.5
433.4	103.5
433.622	109.5
433.844	78.5
434.066	90.5
434.287	101.5
434.509	85.5
434.731	105.5
434.953	93.5
435.175	103.5
435.397	107.5
435.618	85.5
435.84	111.5
436.062	144.5
436.284	130.5
436.505	118.5
436.727	107.5
436.949	89.5
437.17	90.5
437.392	96.5
437.614	126.5
437.835	150.5
438.057	184.5
438.278	141.5
438.5	137.5
438.721	138.5
438.943	110.5
439.165	93.5
439.386	96.5
439.608	107.5
439.829	130.5
440.05	174.5
440.272	195.5
440.493	120.5
440.715	97.5
440.936	70.5
441.158	80.5
441.379	94.5
441.6	99.5
441.822	104.5
442.043	98.5
442.264	122.5
442.486	131.5
442.707	122.5
442.928	147.5
443.149	225.5
443.371	217.5
443.592	149.5
443.813	150.5
444.034	130.5
444.255	109.5
444.476	100.5
444.698	85.5
444.919	92.5
445.14	137.5
445.361	135.5
445.582	154.5
445.803	193.5
446.024	188.5
446.245	192.5
446.466	123.5
446.687	106.5
446.908	94.5
447.129	109.5
447.35	86.5
447.571	103.5
447.792	96.5
448.013	128.5
448.234	128.5
448.455	123.5
448.675	127.5
448.896	142.5
449.117	106.5
449.338	120.5
449.559	154.5
449.779	151.5
450	105.5
450.221	89.5
450.442	99.5
450.662	128.5
450.883	159.5
451.104	163.5
451.324	124.5
451.545	115.5
451.766	100.5
451.986	94.5
452.207	114.5
452.428	105.5
452.648	134.5
452.869	161.5
453.089	155.5
453.31	188.5
453.53	110.5
453.751	104.5
453.971	137.5
454.192	167.5
454.412	116.5
454.633	87.5
454.853	98.5
455.073	93.5
455.294	78.5
455.514	113.5
455.734	108.5
455.955	94.5
456.175	87.5
456.395	87.5
456.616	93.5
456.836	94.5
457.056	102.5
457.276	87.5
457.497	87.5
457.717	94.5
457.937	86.5
458.157	109.5
458.377	105.5
458.598	147.5
458.818	288.5
459.038	323.5
459.258	181.5
459.478	110.5
459.698	102.5
459.918	85.5
460.138	100.5
460.358	96.5
460.578	109.5
460.798	107.5
461.018	92.5
461.238	87.5
461.458	94.5
461.678	87.5
461.898	83.5
462.118	88.5
462.338	91.5
462.558	86.5
462.777	99.5
462.997	108.5
463.217	125.5
463.437	97.5
463.657	99.5
463.876	97.5
464.096	105.5
464.316	109.5
464.536	119.5
464.755	100.5
464.975	154.5
465.195	337.5
465.414	340.5
465.634	120.5
465.854	107.5
466.073	115.5
466.293	92.5
466.512	93.5
466.732	90.5
466.951	105.5
467.171	108.5
467.391	125.5
467.61	217.5
467.829	294.5
468.049	874.5
468.268	1389.5
468.488	303.5
468.707	134.5
468.927	110.5
469.146	85.5
469.365	96.5
469.585	108.5
469.804	126.5
470.023	133.5
470.243	125.5
470.462	143.5
470.681	189.5
470.901	119.5
471.12	112.5
471.339	106.5
471.558	128.5
471.777	193.5
471.997	390.5
472.216	1733.5
472.435	4050.5
472.654	896.5
472.873	214.5
473.092	127.5
473.311	116.5
473.53	107.5
473.749	110.5
473.968	110.5
474.187	128.5
474.406	108.5
474.625	80.5
474.844	95.5
475.063	96.5
475.282	84.5
475.501	103.5
475.72	101.5
475.939	99.5
476.158	103.5
476.377	107.5
476.596	100.5
476.814	112.5
477.033	121.5
477.252	118.5
477.471	93.5
477.69	98.5
477.908	106.5
478.127	96.5
478.346	106.5
478.564	107.5
478.783	134.5
479.002	119.5
479.22	123.5
479.439	141.5
479.658	145.5
479.876	141.5
480.095	142.5
480.313	161.5
480.532	217.5
480.751	398.5
480.969	1516.5
481.188	6816.5
481.406	3823.5
481.624	521.5
481.843	157.5
482.061	126.5
482.28	118.5
482.498	91.5
482.717	101.5
482.935	95.5
483.153	110.5
483.372	98.5
483.59	106.5
483.808	85.5
484.027	91.5
484.245	108.5
484.463	106.5
484.681	110.5
484.9	101.5
485.118	97.5
485.336	94.5
485.554	109.5
485.772	98.5
485.99	113.5
486.209	114.5
486.427	122.5
486.645	151.5
486.863	156.5
487.081	123.5
487.299	91.5
487.517	113.5
487.735	100.5
487.953	88.5
488.171	99.5
488.389	114.5
488.607	115.5
488.825	102.5
489.043	91.5
489.261	105.5
489.479	93.5
489.696	97.5
489.914	85.5
490.132	107.5
490.35	103.5
490.568	92.5
490.786	91.5
491.003	94.5
491.221	84.5
491.439	92.5
491.657	95.5
491.874	99.5
492.092	98.5
492.31	103.5
492.527	114.5
492.745	117.5
492.963	94.5
493.18	89.5
493.398	110.5
493.615	114.5
493.833	107.5
494.05	105.5
494.268	93.5
494.485	101.5
494.703	99.5
494.92	101.5
495.138	95.5
495.355	91.5
495.573	86.5
495.79	99.5
496.008	102.5
496.225	94.5
496.442	86.5
496.66	82.5
496.877	103.5
497.094	101.5
497.312	88.5
497.529	105.5
497.746	96.5
497.963	85.5
498.181	94.5
498.398	115.5
498.615	131.5
498.832	120.5
499.049	90.5
499.267	84.5
499.484	85.5
499.701	93.5
499.918	92.5
500.135	99.5
500.352	113.5
500.569	102.5
500.786	93.5
501.003	95.5
501.22	90.5
501.437	95.5
501.654	102.5
501.871	153.5
502.088	99.5
502.305	97.5
502.522	100.5
502.739	94.5
502.956	99.5
503.172	102.5
503.389	120.5
503.606	145.5
503.823	111.5
504.04	110.5
504.256	106.5
504.473	80.5
504.69	103.5
504.907	81.5
505.123	93.5
505.34	96.5
505.557	82.5
505.773	97.5
505.99	86.5
506.207	104.5
506.423	91.5
506.64	85.5
506.856	101.5
507.073	81.5
507.289	85.5
507.506	126.5
507.722	158.5
507.939	169.5
508.155	122.5
508.372	105.5
508.588	95.5
508.805	108.5
509.021	98.5
509.238	112.5
509.454	96.5
509.67	112.5
509.887	126.5
510.103	165.5
510.319	305.5
510.536	1413.5
510.752	5119.5
510.968	1292.5
511.184	240.5
511.401	158.5
511.617	135.5
511.833	115.5
512.049	115.5
512.265	96.5
512.481	104.5
512.698	104.5
512.914	104.5
513.13	100.5
513.346	116.5
513.562	96.5
513.778	113.5
513.994	127.5
514.21	134.5
514.426	187.5
514.642	230.5
514.858	195.5
515.074	333.5
515.29	1135.5
515.506	4321.5
515.721	1444.5
515.937	302.5
516.153	168.5
516.369	133.5
516.585	119.5
516.801	124.5
517.016	107.5
517.232	98.5
517.448	106.5
517.664	117.5
517.879	117.5
518.095	110.5
518.311	101.5
518.527	121.5
518.742	105.5
518.958	91.5
519.173	111.5
519.389	123.5
519.605	110.5
519.82	107.5
520.036	129.5
520.251	187.5
520.467	161.5
520.682	128.5
520.898	155.5
521.113	178.5
521.329	249.5
521.544	461.5
521.76	1498.5
521.975	7125.5
522.19	4227.5
522.406	767.5
522.621	223.5
522.836	139.5
523.052	126.5
523.267	113.5
523.482	118.5
523.698	127.5
523.913	185.5
524.128	146.5
524.343	107.5
524.559	104.5
524.774	98.5
524.989	95.5
525.204	149.5
525.419	139.5
525.634	104.5
525.849	91.5
526.064	96.5
526.28	101.5
526.495	88.5
526.71	109.5
526.925	94.5
527.14	99.5
527.355	101.5
527.57	91.5
527.785	84.5
527.999	92.5
528.214	96.5
528.429	103.5
528.644	96.5
528.859	111.5
529.074	113.5
