Data from Circ_1999_H10_HRD10591_00027.txt Node
Date: Wed Jan 03 11:23:18 EST 2024
User: Yrep
Spectrometer: HR+D1059
Trigger mode: 1
Integration Time (sec): 1.000000E-1
Scans to average: 1
Electric dark correction enabled: true
Nonlinearity correction enabled: false
Boxcar width: 0
XAxis mode: Wavelengths
Number of Pixels in Spectrum: 2048
>>>>>Begin Spectral Data<<<<<
223.165	-27.69
223.4	-27.69
223.635	-27.69
223.869	0.31
224.104	-28.69
224.338	-18.69
224.573	-16.69
224.808	-11.69
225.042	5.31
225.277	3.31
225.511	-17.69
225.746	0.31
225.98	-0.69
226.215	21.31
226.449	7.31
226.683	27.31
226.918	26.31
227.152	30.31
227.387	39.31
227.621	49.31
227.856	51.31
228.09	47.31
228.324	45.31
228.559	53.31
228.793	63.31
229.027	68.31
229.262	83.31
229.496	79.31
229.73	98.31
229.964	99.31
230.199	97.31
230.433	70.31
230.667	86.31
230.901	77.31
231.136	85.31
231.37	71.31
231.604	86.31
231.838	77.31
232.072	85.31
232.306	94.31
232.541	94.31
232.775	97.31
233.009	76.31
233.243	74.31
233.477	84.31
233.711	90.31
233.945	80.31
234.179	89.31
234.413	76.31
234.647	66.31
234.881	77.31
235.115	73.31
235.349	76.31
235.583	80.31
235.817	71.31
236.051	78.31
236.285	75.31
236.519	91.31
236.753	80.31
236.987	99.31
237.221	99.31
237.455	93.31
237.689	77.31
237.922	69.31
238.156	76.31
238.39	83.31
238.624	76.31
238.858	87.31
239.091	91.31
239.325	95.31
239.559	82.31
239.793	88.31
240.027	108.31
240.26	82.31
240.494	89.31
240.728	82.31
240.961	86.31
241.195	65.31
241.429	69.31
241.662	77.31
241.896	85.31
242.13	88.31
242.363	75.31
242.597	81.31
242.83	69.31
243.064	67.31
243.298	77.31
243.531	83.31
243.765	95.31
243.998	92.31
244.232	103.31
244.465	91.31
244.699	81.31
244.932	78.31
245.166	96.31
245.399	86.31
245.633	86.31
245.866	89.31
246.099	75.31
246.333	84.31
246.566	79.31
246.8	84.31
247.033	76.31
247.266	90.31
247.5	90.31
247.733	76.31
247.966	97.31
248.2	87.31
248.433	84.31
248.666	87.31
248.899	77.31
249.133	91.31
249.366	110.31
249.599	97.31
249.832	99.31
250.066	84.31
250.299	98.31
250.532	89.31
250.765	78.31
250.998	89.31
251.231	97.31
251.465	93.31
251.698	80.31
251.931	94.31
252.164	83.31
252.397	79.31
252.63	85.31
252.863	92.31
253.096	90.31
253.329	93.31
253.562	89.31
253.795	67.31
254.028	95.31
254.261	80.31
254.494	99.31
254.727	93.31
254.96	76.31
255.193	90.31
255.426	79.31
255.659	84.31
255.892	96.31
256.124	102.31
256.357	88.31
256.59	95.31
256.823	97.31
257.056	83.31
257.289	85.31
257.521	99.31
257.754	83.31
257.987	81.31
258.22	89.31
258.452	100.31
258.685	100.31
258.918	82.31
259.151	86.31
259.383	85.31
259.616	74.31
259.849	85.31
260.081	95.31
260.314	86.31
260.547	99.31
260.779	93.31
261.012	107.31
261.244	110.31
261.477	111.31
261.71	112.31
261.942	143.31
262.175	163.31
262.407	110.31
262.64	93.31
262.872	98.31
263.105	93.31
263.337	99.31
263.57	83.31
263.802	77.31
264.035	86.31
264.267	97.31
264.499	96.31
264.732	94.31
264.964	100.31
265.197	101.31
265.429	95.31
265.661	77.31
265.894	77.31
266.126	81.31
266.358	84.31
266.591	88.31
266.823	81.31
267.055	80.31
267.287	98.31
267.52	77.31
267.752	95.31
267.984	92.31
268.216	103.31
268.448	89.31
268.681	86.31
268.913	97.31
269.145	82.31
269.377	93.31
269.609	69.31
269.841	85.31
270.073	101.31
270.306	87.31
270.538	93.31
270.77	102.31
271.002	101.31
271.234	103.31
271.466	101.31
271.698	102.31
271.93	95.31
272.162	92.31
272.394	103.31
272.626	98.31
272.858	95.31
273.09	81.31
273.322	103.31
273.553	77.31
273.785	83.31
274.017	97.31
274.249	61.31
274.481	101.31
274.713	84.31
274.945	83.31
275.176	98.31
275.408	112.31
275.64	117.31
275.872	117.31
276.104	97.31
276.335	103.31
276.567	129.31
276.799	177.31
277.031	182.31
277.262	193.31
277.494	131.31
277.726	105.31
277.957	101.31
278.189	89.31
278.421	97.31
278.652	92.31
278.884	100.31
279.115	100.31
279.347	77.31
279.579	93.31
279.81	127.31
280.042	205.31
280.273	266.31
280.505	178.31
280.736	99.31
280.968	91.31
281.199	90.31
281.431	99.31
281.662	86.31
281.894	111.31
282.125	124.31
282.356	158.31
282.588	215.31
282.819	146.31
283.051	92.31
283.282	91.31
283.513	95.31
283.745	85.31
283.976	89.31
284.207	90.31
284.439	101.31
284.67	95.31
284.901	96.31
285.132	96.31
285.364	79.31
285.595	81.31
285.826	87.31
286.057	96.31
286.288	99.31
286.52	91.31
286.751	95.31
286.982	93.31
287.213	98.31
287.444	107.31
287.675	101.31
287.906	98.31
288.138	103.31
288.369	102.31
288.6	101.31
288.831	109.31
289.062	93.31
289.293	95.31
289.524	96.31
289.755	97.31
289.986	84.31
290.217	91.31
290.448	93.31
290.679	97.31
290.91	101.31
291.141	89.31
291.371	98.31
291.602	97.31
291.833	98.31
292.064	83.31
292.295	88.31
292.526	96.31
292.757	96.31
292.987	102.31
293.218	93.31
293.449	112.31
293.68	97.31
293.91	85.31
294.141	102.31
294.372	90.31
294.603	91.31
294.833	84.31
295.064	94.31
295.295	94.31
295.525	103.31
295.756	123.31
295.987	145.31
296.217	188.31
296.448	171.31
296.679	111.31
296.909	97.31
297.14	105.31
297.37	101.31
297.601	98.31
297.831	107.31
298.062	99.31
298.292	93.31
298.523	101.31
298.753	92.31
298.984	96.31
299.214	106.31
299.445	106.31
299.675	109.31
299.905	119.31
300.136	97.31
300.366	107.31
300.597	98.31
300.827	112.31
301.057	117.31
301.288	130.31
301.518	124.31
301.748	107.31
301.979	119.31
302.209	98.31
302.439	95.31
302.669	97.31
302.9	93.31
303.13	102.31
303.36	113.31
303.59	142.31
303.82	159.31
304.051	111.31
304.281	100.31
304.511	98.31
304.741	91.31
304.971	100.31
305.201	88.31
305.431	88.31
305.661	98.31
305.891	92.31
306.121	97.31
306.352	122.31
306.582	130.31
306.812	123.31
307.042	132.31
307.272	174.31
307.502	201.31
307.731	197.31
307.961	135.31
308.191	95.31
308.421	105.31
308.651	111.31
308.881	108.31
309.111	112.31
309.341	103.31
309.571	113.31
309.8	119.31
310.03	117.31
310.26	114.31
310.49	110.31
310.72	116.31
310.949	140.31
311.179	134.31
311.409	108.31
311.639	111.31
311.868	111.31
312.098	108.31
312.328	103.31
312.557	121.31
312.787	138.31
313.017	131.31
313.246	110.31
313.476	98.31
313.706	104.31
313.935	122.31
314.165	125.31
314.394	118.31
314.624	131.31
314.853	103.31
315.083	102.31
315.312	111.31
315.542	91.31
315.771	103.31
316.001	100.31
316.23	94.31
316.46	89.31
316.689	94.31
316.919	95.31
317.148	100.31
317.377	106.31
317.607	92.31
317.836	97.31
318.065	104.31
318.295	96.31
318.524	92.31
318.753	109.31
318.983	97.31
319.212	112.31
319.441	140.31
319.67	114.31
319.9	106.31
320.129	110.31
320.358	105.31
320.587	108.31
320.816	125.31
321.046	118.31
321.275	106.31
321.504	113.31
321.733	115.31
321.962	99.31
322.191	108.31
322.42	141.31
322.649	120.31
322.878	126.31
323.108	133.31
323.337	161.31
323.566	163.31
323.795	194.31
324.024	243.31
324.253	476.31
324.482	1028.31
324.71	2090.31
324.939	2685.31
325.168	1043.31
325.397	306.31
325.626	187.31
325.855	148.31
326.084	137.31
326.313	130.31
326.542	194.31
326.77	263.31
326.999	531.31
327.228	1026.31
327.457	1858.31
327.686	1506.31
327.914	576.31
328.143	567.31
328.372	700.31
328.6	397.31
328.829	210.31
329.058	213.31
329.287	215.31
329.515	197.31
329.744	252.31
329.972	469.31
330.201	1024.31
330.43	1513.31
330.658	678.31
330.887	331.31
331.115	231.31
331.344	149.31
331.572	128.31
331.801	139.31
332.03	139.31
332.258	125.31
332.486	100.31
332.715	123.31
332.943	146.31
333.172	116.31
333.4	143.31
333.629	176.31
333.857	251.31
334.085	450.31
334.314	941.31
334.542	1808.31
334.771	1675.31
334.999	435.31
335.227	181.31
335.455	137.31
335.684	138.31
335.912	118.31
336.14	121.31
336.369	126.31
336.597	127.31
336.825	128.31
337.053	109.31
337.281	100.31
337.51	93.31
337.738	108.31
337.966	104.31
338.194	109.31
338.422	103.31
338.65	109.31
338.878	105.31
339.106	102.31
339.334	108.31
339.562	87.31
339.79	104.31
340.018	112.31
340.246	115.31
340.474	117.31
340.702	110.31
340.93	107.31
341.158	95.31
341.386	114.31
341.614	116.31
341.842	120.31
342.07	95.31
342.298	96.31
342.526	90.31
342.754	103.31
342.981	93.31
343.209	97.31
343.437	106.31
343.665	96.31
343.893	99.31
344.12	89.31
344.348	102.31
344.576	79.31
344.804	109.31
345.031	114.31
345.259	133.31
345.487	107.31
345.714	111.31
345.942	107.31
346.17	105.31
346.397	86.31
346.625	99.31
346.853	103.31
347.08	97.31
347.308	105.31
347.535	111.31
347.763	139.31
347.99	121.31
348.218	125.31
348.445	138.31
348.673	123.31
348.9	119.31
349.128	107.31
349.355	97.31
349.583	102.31
349.81	97.31
350.037	118.31
350.265	97.31
350.492	103.31
350.72	110.31
350.947	122.31
351.174	138.31
351.402	147.31
351.629	132.31
351.856	116.31
352.083	126.31
352.311	148.31
352.538	140.31
352.765	149.31
352.992	141.31
353.22	117.31
353.447	108.31
353.674	103.31
353.901	102.31
354.128	91.31
354.355	100.31
354.583	96.31
354.81	100.31
355.037	98.31
355.264	114.31
355.491	101.31
355.718	96.31
355.945	98.31
356.172	105.31
356.399	97.31
356.626	98.31
356.853	97.31
357.08	103.31
357.307	104.31
357.534	83.31
357.761	90.31
357.988	107.31
358.215	106.31
358.441	106.31
358.668	98.31
358.895	104.31
359.122	110.31
359.349	110.31
359.576	103.31
359.802	133.31
360.029	158.31
360.256	164.31
360.483	132.31
360.709	100.31
360.936	94.31
361.163	105.31
361.39	130.31
361.616	103.31
361.843	100.31
362.07	113.31
362.296	119.31
362.523	117.31
362.749	100.31
362.976	91.31
363.203	99.31
363.429	101.31
363.656	91.31
363.882	75.31
364.109	92.31
364.335	90.31
364.562	121.31
364.788	107.31
365.015	124.31
365.241	113.31
365.468	134.31
365.694	118.31
365.92	102.31
366.147	117.31
366.373	115.31
366.599	98.31
366.826	95.31
367.052	107.31
367.278	99.31
367.505	102.31
367.731	106.31
367.957	100.31
368.184	94.31
368.41	110.31
368.636	158.31
368.862	147.31
369.089	134.31
369.315	108.31
369.541	115.31
369.767	98.31
369.993	90.31
370.219	102.31
370.445	95.31
370.672	92.31
370.898	99.31
371.124	86.31
371.35	108.31
371.576	96.31
371.802	83.31
372.028	88.31
372.254	92.31
372.48	84.31
372.706	108.31
372.932	90.31
373.158	92.31
373.384	93.31
373.61	86.31
373.835	93.31
374.061	87.31
374.287	106.31
374.513	102.31
374.739	109.31
374.965	86.31
375.191	90.31
375.416	102.31
375.642	103.31
375.868	97.31
376.094	94.31
376.319	84.31
376.545	90.31
376.771	89.31
376.997	91.31
377.222	101.31
377.448	95.31
377.674	104.31
377.899	92.31
378.125	95.31
378.35	106.31
378.576	96.31
378.802	98.31
379.027	97.31
379.253	95.31
379.478	104.31
379.704	94.31
379.929	100.31
380.155	108.31
380.38	102.31
380.606	112.31
380.831	109.31
381.057	122.31
381.282	99.31
381.507	99.31
381.733	100.31
381.958	95.31
382.184	105.31
382.409	116.31
382.634	114.31
382.86	116.31
383.085	125.31
383.31	122.31
383.535	118.31
383.761	109.31
383.986	93.31
384.211	109.31
384.436	86.31
384.662	89.31
384.887	130.31
385.112	119.31
385.337	115.31
385.562	123.31
385.787	108.31
386.013	114.31
386.238	131.31
386.463	112.31
386.688	117.31
386.913	118.31
387.138	114.31
387.363	109.31
387.588	112.31
387.813	101.31
388.038	108.31
388.263	121.31
388.488	109.31
388.713	99.31
388.938	102.31
389.163	103.31
389.387	104.31
389.612	89.31
389.837	92.31
390.062	93.31
390.287	87.31
390.512	93.31
390.736	89.31
390.961	102.31
391.186	93.31
391.411	99.31
391.636	105.31
391.86	102.31
392.085	96.31
392.31	95.31
392.534	89.31
392.759	84.31
392.984	96.31
393.208	97.31
393.433	82.31
393.658	105.31
393.882	88.31
394.107	95.31
394.331	96.31
394.556	102.31
394.78	105.31
395.005	82.31
395.229	84.31
395.454	88.31
395.678	78.31
395.903	92.31
396.127	111.31
396.352	88.31
396.576	89.31
396.801	94.31
397.025	99.31
397.249	100.31
397.474	90.31
397.698	78.31
397.922	103.31
398.147	93.31
398.371	94.31
398.595	86.31
398.82	102.31
399.044	83.31
399.268	90.31
399.492	94.31
399.717	92.31
399.941	93.31
400.165	100.31
400.389	102.31
400.613	98.31
400.837	82.31
401.062	98.31
401.286	97.31
401.51	102.31
401.734	107.31
401.958	123.31
402.182	176.31
402.406	254.31
402.63	183.31
402.854	124.31
403.078	101.31
403.302	94.31
403.526	107.31
403.75	85.31
403.974	98.31
404.198	99.31
404.422	101.31
404.645	100.31
404.869	100.31
405.093	115.31
405.317	141.31
405.541	123.31
405.765	133.31
405.988	170.31
406.212	285.31
406.436	415.31
406.66	243.31
406.883	143.31
407.107	117.31
407.331	104.31
407.555	108.31
407.778	110.31
408.002	101.31
408.226	105.31
408.449	96.31
408.673	105.31
408.896	105.31
409.12	102.31
409.344	100.31
409.567	103.31
409.791	99.31
410.014	107.31
410.238	97.31
410.461	97.31
410.685	101.31
410.908	110.31
411.132	118.31
411.355	106.31
411.578	105.31
411.802	107.31
412.025	98.31
412.249	117.31
412.472	118.31
412.695	139.31
412.919	108.31
413.142	107.31
413.365	100.31
413.589	84.31
413.812	105.31
414.035	106.31
414.258	102.31
414.482	93.31
414.705	110.31
414.928	104.31
415.151	100.31
415.374	117.31
415.597	94.31
415.821	83.31
416.044	90.31
416.267	100.31
416.49	91.31
416.713	107.31
416.936	103.31
417.159	110.31
417.382	112.31
417.605	102.31
417.828	110.31
418.051	102.31
418.274	103.31
418.497	102.31
418.72	90.31
418.943	79.31
419.166	87.31
419.389	85.31
419.611	102.31
419.834	100.31
420.057	115.31
420.28	102.31
420.503	99.31
420.726	80.31
420.948	104.31
421.171	99.31
421.394	110.31
421.617	102.31
421.839	106.31
422.062	83.31
422.285	96.31
422.507	117.31
422.73	123.31
422.953	98.31
423.175	109.31
423.398	77.31
423.621	96.31
423.843	82.31
424.066	81.31
424.288	100.31
424.511	103.31
424.733	109.31
424.956	131.31
425.178	114.31
425.401	107.31
425.623	111.31
425.846	106.31
426.068	104.31
426.291	99.31
426.513	113.31
426.735	81.31
426.958	103.31
427.18	124.31
427.402	182.31
427.625	295.31
427.847	246.31
428.069	187.31
428.292	133.31
428.514	99.31
428.736	89.31
428.958	103.31
429.181	87.31
429.403	90.31
429.625	103.31
429.847	118.31
430.069	116.31
430.292	90.31
430.514	92.31
430.736	103.31
430.958	88.31
431.18	92.31
431.402	95.31
431.624	87.31
431.846	79.31
432.068	101.31
432.29	91.31
432.512	103.31
432.734	78.31
432.956	88.31
433.178	105.31
433.4	97.31
433.622	100.31
433.844	95.31
434.066	88.31
434.287	109.31
434.509	98.31
434.731	103.31
434.953	85.31
435.175	89.31
435.397	91.31
435.618	85.31
435.84	107.31
436.062	134.31
436.284	129.31
436.505	116.31
436.727	99.31
436.949	103.31
437.17	105.31
437.392	95.31
437.614	102.31
437.835	145.31
438.057	163.31
438.278	144.31
438.5	116.31
438.721	118.31
438.943	112.31
439.165	106.31
439.386	102.31
439.608	112.31
439.829	124.31
440.05	155.31
440.272	158.31
440.493	116.31
440.715	95.31
440.936	123.31
441.158	98.31
441.379	96.31
441.6	101.31
441.822	133.31
442.043	118.31
442.264	128.31
442.486	120.31
442.707	120.31
442.928	124.31
443.149	186.31
443.371	198.31
443.592	132.31
443.813	120.31
444.034	112.31
444.255	95.31
444.476	84.31
444.698	107.31
444.919	97.31
445.14	143.31
445.361	118.31
445.582	131.31
445.803	189.31
446.024	164.31
446.245	153.31
446.466	130.31
446.687	107.31
446.908	100.31
447.129	98.31
447.35	110.31
447.571	105.31
447.792	98.31
448.013	126.31
448.234	139.31
448.455	118.31
448.675	130.31
448.896	136.31
449.117	109.31
449.338	125.31
449.559	133.31
449.779	143.31
450	107.31
450.221	108.31
450.442	93.31
450.662	118.31
450.883	153.31
451.104	168.31
451.324	125.31
451.545	85.31
451.766	101.31
451.986	115.31
452.207	101.31
452.428	109.31
452.648	141.31
452.869	133.31
453.089	149.31
453.31	162.31
453.53	128.31
453.751	107.31
453.971	137.31
454.192	164.31
454.412	115.31
454.633	94.31
454.853	98.31
455.073	91.31
455.294	95.31
455.514	117.31
455.734	111.31
455.955	99.31
456.175	98.31
456.395	86.31
456.616	96.31
456.836	94.31
457.056	91.31
457.276	102.31
457.497	94.31
457.717	85.31
457.937	77.31
458.157	91.31
458.377	110.31
458.598	145.31
458.818	251.31
459.038	270.31
459.258	165.31
459.478	95.31
459.698	96.31
459.918	95.31
460.138	110.31
460.358	96.31
460.578	102.31
460.798	95.31
461.018	101.31
461.238	89.31
461.458	95.31
461.678	90.31
461.898	99.31
462.118	96.31
462.338	98.31
462.558	96.31
462.777	90.31
462.997	113.31
463.217	99.31
463.437	111.31
463.657	93.31
463.876	100.31
464.096	97.31
464.316	106.31
464.536	108.31
464.755	111.31
464.975	151.31
465.195	304.31
465.414	274.31
465.634	121.31
465.854	89.31
466.073	101.31
466.293	91.31
466.512	81.31
466.732	108.31
466.951	95.31
467.171	94.31
467.391	114.31
467.61	160.31
467.829	223.31
468.049	609.31
468.268	897.31
468.488	234.31
468.707	116.31
468.927	105.31
469.146	94.31
469.365	104.31
469.585	107.31
469.804	115.31
470.023	115.31
470.243	109.31
470.462	117.31
470.681	146.31
470.901	111.31
471.12	96.31
471.339	92.31
471.558	127.31
471.777	160.31
471.997	340.31
472.216	1178.31
472.435	2697.31
472.654	600.31
472.873	169.31
473.092	103.31
473.311	109.31
473.53	101.31
473.749	105.31
473.968	130.31
474.187	125.31
474.406	111.31
474.625	109.31
474.844	94.31
475.063	85.31
475.282	83.31
475.501	96.31
475.72	112.31
475.939	93.31
476.158	85.31
476.377	96.31
476.596	105.31
476.814	98.31
477.033	95.31
477.252	104.31
477.471	90.31
477.69	95.31
477.908	99.31
478.127	102.31
478.346	101.31
478.564	109.31
478.783	128.31
479.002	138.31
479.22	118.31
479.439	137.31
479.658	152.31
479.876	130.31
480.095	133.31
480.313	156.31
480.532	171.31
480.751	326.31
480.969	1078.31
481.188	4627.31
481.406	2598.31
481.624	372.31
481.843	139.31
482.061	122.31
482.28	102.31
482.498	106.31
482.717	99.31
482.935	111.31
483.153	94.31
483.372	91.31
483.59	98.31
483.808	99.31
484.027	114.31
484.245	100.31
484.463	94.31
484.681	110.31
484.9	93.31
485.118	110.31
485.336	92.31
485.554	126.31
485.772	104.31
485.99	111.31
486.209	109.31
486.427	118.31
486.645	135.31
486.863	145.31
487.081	115.31
487.299	106.31
487.517	108.31
487.735	99.31
487.953	113.31
488.171	114.31
488.389	109.31
488.607	109.31
488.825	111.31
489.043	98.31
489.261	112.31
489.479	89.31
489.696	94.31
489.914	96.31
490.132	93.31
490.35	75.31
490.568	84.31
490.786	102.31
491.003	94.31
491.221	93.31
491.439	101.31
491.657	106.31
491.874	101.31
492.092	101.31
492.31	101.31
492.527	100.31
492.745	113.31
492.963	93.31
493.18	100.31
493.398	87.31
493.615	103.31
493.833	89.31
494.05	104.31
494.268	96.31
494.485	85.31
494.703	103.31
494.92	100.31
495.138	96.31
495.355	94.31
495.573	101.31
495.79	112.31
496.008	94.31
496.225	94.31
496.442	94.31
496.66	92.31
496.877	110.31
497.094	101.31
497.312	99.31
497.529	99.31
497.746	83.31
497.963	91.31
498.181	95.31
498.398	101.31
498.615	131.31
498.832	103.31
499.049	106.31
499.267	105.31
499.484	86.31
499.701	98.31
499.918	107.31
500.135	106.31
500.352	86.31
500.569	106.31
500.786	107.31
501.003	83.31
501.22	95.31
501.437	93.31
501.654	113.31
501.871	143.31
502.088	100.31
502.305	94.31
502.522	99.31
502.739	93.31
502.956	105.31
503.172	111.31
503.389	104.31
503.606	132.31
503.823	133.31
504.04	106.31
504.256	90.31
504.473	103.31
504.69	102.31
504.907	100.31
505.123	95.31
505.34	82.31
505.557	91.31
505.773	89.31
505.99	96.31
506.207	90.31
506.423	87.31
506.64	89.31
506.856	107.31
507.073	95.31
507.289	96.31
507.506	130.31
507.722	155.31
507.939	143.31
508.155	116.31
508.372	103.31
508.588	99.31
508.805	109.31
509.021	102.31
509.238	112.31
509.454	121.31
509.67	128.31
509.887	140.31
