Data from Circ_1999_H10_HRD10591_00072.txt Node
Date: Wed Jan 03 11:23:27 EST 2024
User: Yrep
Spectrometer: HR+D1059
Trigger mode: 1
Integration Time (sec): 1.000000E-1
Scans to average: 1
Electric dark correction enabled: true
Nonlinearity correction enabled: false
Boxcar width: 0
XAxis mode: Wavelengths
Number of Pixels in Spectrum: 2048
>>>>>Begin Spectral Data<<<<<
223.165	-0.69
223.4	-0.69
223.635	-0.69
223.869	-12.69
224.104	-17.69
224.338	-5.69
224.573	-27.69
224.808	-20.69
225.042	-5.69
225.277	-9.69
225.511	-7.69
225.746	16.31
225.98	-5.69
226.215	-5.69
226.449	19.31
226.683	13.31
226.918	33.31
227.152	37.31
227.387	51.31
227.621	31.31
227.856	49.31
228.09	36.31
228.324	54.31
228.559	59.31
228.793	39.31
229.027	63.31
229.262	73.31
229.496	74.31
229.73	106.31
229.964	98.31
230.199	88.31
230.433	80.31
230.667	78.31
230.901	83.31
231.136	89.31
231.37	89.31
231.604	76.31
231.838	66.31
232.072	63.31
232.306	87.31
232.541	88.31
232.775	87.31
233.009	78.31
233.243	74.31
233.477	71.31
233.711	78.31
233.945	75.31
234.179	86.31
234.413	87.31
234.647	70.31
234.881	80.31
235.115	85.31
235.349	70.31
235.583	87.31
235.817	90.31
236.051	77.31
236.285	93.31
236.519	87.31
236.753	77.31
236.987	86.31
237.221	87.31
237.455	102.31
237.689	86.31
237.922	93.31
238.156	88.31
238.39	80.31
238.624	83.31
238.858	73.31
239.091	87.31
239.325	91.31
239.559	90.31
239.793	96.31
240.027	84.31
240.26	75.31
240.494	79.31
240.728	81.31
240.961	79.31
241.195	80.31
241.429	92.31
241.662	74.31
241.896	88.31
242.13	85.31
242.363	88.31
242.597	81.31
242.83	86.31
243.064	81.31
243.298	93.31
243.531	73.31
243.765	81.31
243.998	76.31
244.232	89.31
244.465	80.31
244.699	95.31
244.932	80.31
245.166	65.31
245.399	75.31
245.633	85.31
245.866	85.31
246.099	79.31
246.333	82.31
246.566	90.31
246.8	93.31
247.033	90.31
247.266	81.31
247.5	77.31
247.733	83.31
247.966	80.31
248.2	87.31
248.433	76.31
248.666	82.31
248.899	87.31
249.133	109.31
249.366	106.31
249.599	123.31
249.832	99.31
250.066	90.31
250.299	89.31
250.532	91.31
250.765	73.31
250.998	86.31
251.231	82.31
251.465	80.31
251.698	73.31
251.931	85.31
252.164	84.31
252.397	80.31
252.63	88.31
252.863	86.31
253.096	83.31
253.329	74.31
253.562	78.31
253.795	78.31
254.028	87.31
254.261	95.31
254.494	81.31
254.727	74.31
254.96	83.31
255.193	83.31
255.426	77.31
255.659	92.31
255.892	109.31
256.124	102.31
256.357	88.31
256.59	93.31
256.823	94.31
257.056	95.31
257.289	115.31
257.521	86.31
257.754	93.31
257.987	91.31
258.22	97.31
258.452	109.31
258.685	103.31
258.918	83.31
259.151	96.31
259.383	91.31
259.616	90.31
259.849	89.31
260.081	99.31
260.314	90.31
260.547	96.31
260.779	104.31
261.012	126.31
261.244	133.31
261.477	114.31
261.71	105.31
261.942	172.31
262.175	177.31
262.407	114.31
262.64	93.31
262.872	85.31
263.105	103.31
263.337	81.31
263.57	87.31
263.802	85.31
264.035	87.31
264.267	93.31
264.499	91.31
264.732	83.31
264.964	90.31
265.197	94.31
265.429	92.31
265.661	94.31
265.894	77.31
266.126	77.31
266.358	91.31
266.591	89.31
266.823	84.31
267.055	81.31
267.287	93.31
267.52	94.31
267.752	87.31
267.984	80.31
268.216	97.31
268.448	91.31
268.681	86.31
268.913	91.31
269.145	78.31
269.377	87.31
269.609	91.31
269.841	89.31
270.073	85.31
270.306	87.31
270.538	84.31
270.77	80.31
271.002	86.31
271.234	91.31
271.466	97.31
271.698	90.31
271.93	66.31
272.162	88.31
272.394	98.31
272.626	84.31
272.858	106.31
273.09	74.31
273.322	97.31
273.553	80.31
273.785	98.31
274.017	103.31
274.249	94.31
274.481	90.31
274.713	90.31
274.945	93.31
275.176	84.31
275.408	102.31
275.64	123.31
275.872	128.31
276.104	124.31
276.335	107.31
276.567	145.31
276.799	191.31
277.031	218.31
277.262	243.31
277.494	179.31
277.726	121.31
277.957	97.31
278.189	88.31
278.421	88.31
278.652	81.31
278.884	94.31
279.115	87.31
279.347	117.31
279.579	106.31
279.81	156.31
280.042	252.31
280.273	355.31
280.505	227.31
280.736	119.31
280.968	96.31
281.199	91.31
281.431	107.31
281.662	101.31
281.894	99.31
282.125	117.31
282.356	159.31
282.588	240.31
282.819	162.31
283.051	102.31
283.282	95.31
283.513	89.31
283.745	81.31
283.976	99.31
284.207	96.31
284.439	73.31
284.67	92.31
284.901	106.31
285.132	96.31
285.364	95.31
285.595	94.31
285.826	86.31
286.057	81.31
286.288	99.31
286.52	85.31
286.751	85.31
286.982	94.31
287.213	95.31
287.444	104.31
287.675	94.31
287.906	95.31
288.138	107.31
288.369	117.31
288.6	98.31
288.831	107.31
289.062	97.31
289.293	85.31
289.524	85.31
289.755	78.31
289.986	100.31
290.217	94.31
290.448	87.31
290.679	106.31
290.91	105.31
291.141	93.31
291.371	90.31
291.602	98.31
291.833	93.31
292.064	83.31
292.295	91.31
292.526	102.31
292.757	81.31
292.987	86.31
293.218	85.31
293.449	89.31
293.68	86.31
293.91	86.31
294.141	90.31
294.372	95.31
294.603	96.31
294.833	85.31
295.064	95.31
295.295	104.31
295.525	93.31
295.756	115.31
295.987	145.31
296.217	216.31
296.448	172.31
296.679	112.31
296.909	98.31
297.14	87.31
297.37	97.31
297.601	90.31
297.831	105.31
298.062	90.31
298.292	105.31
298.523	98.31
298.753	104.31
298.984	96.31
299.214	79.31
299.445	101.31
299.675	94.31
299.905	112.31
300.136	96.31
300.366	90.31
300.597	102.31
300.827	101.31
301.057	118.31
301.288	122.31
301.518	125.31
301.748	112.31
301.979	114.31
302.209	107.31
302.439	112.31
302.669	101.31
302.9	91.31
303.13	103.31
303.36	127.31
303.59	171.31
303.82	182.31
304.051	108.31
304.281	103.31
304.511	103.31
304.741	101.31
304.971	99.31
305.201	102.31
305.431	86.31
305.661	95.31
305.891	91.31
306.121	118.31
306.352	129.31
306.582	147.31
306.812	124.31
307.042	151.31
307.272	197.31
307.502	211.31
307.731	228.31
307.961	135.31
308.191	104.31
308.421	98.31
308.651	105.31
308.881	102.31
309.111	98.31
309.341	118.31
309.571	104.31
309.8	109.31
310.03	126.31
310.26	116.31
310.49	101.31
310.72	113.31
310.949	136.31
311.179	142.31
311.409	104.31
311.639	109.31
311.868	115.31
312.098	104.31
312.328	122.31
312.557	139.31
312.787	149.31
313.017	114.31
313.246	122.31
313.476	108.31
313.706	104.31
313.935	109.31
314.165	140.31
314.394	120.31
314.624	109.31
314.853	114.31
315.083	110.31
315.312	107.31
315.542	89.31
315.771	99.31
316.001	114.31
316.23	93.31
316.46	91.31
316.689	90.31
316.919	114.31
317.148	105.31
317.377	99.31
317.607	107.31
317.836	112.31
318.065	99.31
318.295	112.31
318.524	105.31
318.753	100.31
318.983	97.31
319.212	126.31
319.441	133.31
319.67	147.31
319.9	99.31
320.129	107.31
320.358	106.31
320.587	105.31
320.816	123.31
321.046	117.31
321.275	105.31
321.504	105.31
321.733	101.31
321.962	99.31
322.191	118.31
322.42	126.31
322.649	139.31
322.878	129.31
323.108	145.31
323.337	166.31
323.566	173.31
323.795	210.31
324.024	271.31
324.253	534.31
324.482	1169.31
324.71	2360.31
324.939	3104.31
325.168	1209.31
325.397	361.31
325.626	179.31
325.855	174.31
326.084	160.31
326.313	153.31
326.542	193.31
326.77	311.31
326.999	599.31
327.228	1159.31
327.457	2109.31
327.686	1755.31
327.914	690.31
328.143	751.31
328.372	981.31
328.6	509.31
328.829	237.31
329.058	247.31
329.287	257.31
329.515	241.31
329.744	331.31
329.972	653.31
330.201	1466.31
330.43	2105.31
330.658	909.31
330.887	401.31
331.115	250.31
331.344	161.31
331.572	152.31
331.801	153.31
332.03	153.31
332.258	131.31
332.486	109.31
332.715	128.31
332.943	133.31
333.172	137.31
333.4	153.31
333.629	190.31
333.857	293.31
334.085	606.31
334.314	1280.31
334.542	2555.31
334.771	2363.31
334.999	593.31
335.227	220.31
335.455	140.31
335.684	137.31
335.912	117.31
336.14	112.31
336.369	115.31
336.597	131.31
336.825	134.31
337.053	109.31
337.281	90.31
337.51	97.31
337.738	103.31
337.966	98.31
338.194	130.31
338.422	115.31
338.65	96.31
338.878	104.31
339.106	94.31
339.334	95.31
339.562	92.31
339.79	109.31
340.018	101.31
340.246	110.31
340.474	110.31
340.702	108.31
340.93	112.31
341.158	98.31
341.386	115.31
341.614	114.31
341.842	100.31
342.07	99.31
342.298	93.31
342.526	95.31
342.754	105.31
342.981	96.31
343.209	95.31
343.437	96.31
343.665	104.31
343.893	96.31
344.12	110.31
344.348	90.31
344.576	111.31
344.804	93.31
345.031	123.31
345.259	125.31
345.487	108.31
345.714	110.31
345.942	104.31
346.17	103.31
346.397	101.31
346.625	107.31
346.853	102.31
347.08	99.31
347.308	99.31
347.535	113.31
347.763	128.31
347.99	134.31
348.218	122.31
348.445	124.31
348.673	118.31
348.9	110.31
349.128	91.31
349.355	94.31
349.583	107.31
349.81	98.31
350.037	101.31
350.265	91.31
350.492	104.31
350.72	100.31
350.947	122.31
351.174	135.31
351.402	136.31
351.629	114.31
351.856	107.31
352.083	120.31
352.311	120.31
352.538	150.31
352.765	153.31
352.992	137.31
353.22	135.31
353.447	122.31
353.674	112.31
353.901	96.31
354.128	99.31
354.355	94.31
354.583	92.31
354.81	95.31
355.037	96.31
355.264	89.31
355.491	88.31
355.718	93.31
355.945	85.31
356.172	89.31
356.399	103.31
356.626	91.31
356.853	83.31
357.08	85.31
357.307	87.31
357.534	99.31
357.761	98.31
357.988	99.31
358.215	102.31
358.441	95.31
358.668	96.31
358.895	95.31
359.122	95.31
359.349	92.31
359.576	111.31
359.802	136.31
360.029	182.31
360.256	165.31
360.483	145.31
360.709	98.31
360.936	112.31
361.163	104.31
361.39	115.31
361.616	124.31
361.843	107.31
362.07	115.31
362.296	113.31
362.523	109.31
362.749	102.31
362.976	107.31
363.203	90.31
363.429	91.31
363.656	105.31
363.882	91.31
364.109	85.31
364.335	82.31
364.562	116.31
364.788	93.31
365.015	123.31
365.241	121.31
365.468	140.31
365.694	152.31
365.92	130.31
366.147	102.31
366.373	112.31
366.599	115.31
366.826	108.31
367.052	103.31
367.278	102.31
367.505	109.31
367.731	107.31
367.957	106.31
368.184	98.31
368.41	117.31
368.636	148.31
368.862	153.31
369.089	141.31
369.315	94.31
369.541	102.31
369.767	96.31
369.993	90.31
370.219	103.31
370.445	99.31
370.672	87.31
370.898	89.31
371.124	93.31
371.35	81.31
371.576	94.31
371.802	102.31
372.028	97.31
372.254	86.31
372.48	93.31
372.706	97.31
372.932	86.31
373.158	85.31
373.384	79.31
373.61	104.31
373.835	99.31
374.061	91.31
374.287	96.31
374.513	101.31
374.739	100.31
374.965	86.31
375.191	73.31
375.416	90.31
375.642	90.31
375.868	83.31
376.094	95.31
376.319	92.31
376.545	92.31
376.771	90.31
376.997	110.31
377.222	92.31
377.448	89.31
377.674	83.31
377.899	87.31
378.125	84.31
378.35	89.31
378.576	90.31
378.802	82.31
379.027	102.31
379.253	97.31
379.478	102.31
379.704	100.31
379.929	91.31
380.155	97.31
380.38	99.31
380.606	101.31
380.831	107.31
381.057	106.31
381.282	94.31
381.507	89.31
381.733	97.31
381.958	105.31
382.184	102.31
382.409	112.31
382.634	107.31
382.86	99.31
383.085	92.31
383.31	85.31
383.535	96.31
383.761	94.31
383.986	99.31
384.211	96.31
384.436	94.31
384.662	102.31
384.887	107.31
385.112	98.31
385.337	93.31
385.562	108.31
385.787	105.31
386.013	115.31
386.238	121.31
386.463	116.31
386.688	99.31
386.913	86.31
387.138	107.31
387.363	98.31
387.588	99.31
387.813	109.31
388.038	106.31
388.263	122.31
388.488	111.31
388.713	82.31
388.938	96.31
389.163	79.31
389.387	104.31
389.612	104.31
389.837	93.31
390.062	91.31
390.287	96.31
390.512	90.31
390.736	106.31
390.961	91.31
391.186	79.31
391.411	102.31
391.636	86.31
391.86	79.31
392.085	104.31
392.31	98.31
392.534	87.31
392.759	83.31
392.984	97.31
393.208	91.31
393.433	104.31
393.658	105.31
393.882	90.31
394.107	88.31
394.331	79.31
394.556	92.31
394.78	91.31
395.005	86.31
395.229	83.31
395.454	86.31
395.678	77.31
395.903	95.31
396.127	82.31
396.352	98.31
396.576	89.31
396.801	94.31
397.025	111.31
397.249	89.31
397.474	80.31
397.698	87.31
397.922	95.31
398.147	87.31
398.371	96.31
398.595	92.31
398.82	93.31
399.044	81.31
399.268	87.31
399.492	93.31
399.717	92.31
399.941	84.31
400.165	96.31
400.389	103.31
400.613	93.31
400.837	93.31
401.062	101.31
401.286	109.31
401.51	104.31
401.734	110.31
401.958	134.31
402.182	192.31
402.406	286.31
402.63	210.31
402.854	121.31
403.078	101.31
403.302	88.31
403.526	99.31
403.75	85.31
403.974	104.31
404.198	97.31
404.422	85.31
404.645	105.31
404.869	113.31
405.093	109.31
405.317	132.31
405.541	152.31
405.765	150.31
405.988	178.31
406.212	325.31
406.436	473.31
406.66	282.31
406.883	142.31
407.107	123.31
407.331	111.31
407.555	118.31
407.778	108.31
408.002	101.31
408.226	105.31
408.449	97.31
408.673	94.31
408.896	98.31
409.12	103.31
409.344	97.31
409.567	97.31
409.791	110.31
410.014	98.31
410.238	94.31
410.461	91.31
410.685	86.31
410.908	102.31
411.132	103.31
411.355	105.31
411.578	96.31
411.802	100.31
412.025	83.31
412.249	125.31
412.472	123.31
412.695	143.31
412.919	121.31
413.142	100.31
413.365	109.31
413.589	90.31
413.812	89.31
414.035	98.31
414.258	108.31
414.482	99.31
414.705	103.31
414.928	104.31
415.151	84.31
415.374	107.31
415.597	99.31
415.821	103.31
416.044	101.31
416.267	97.31
416.49	89.31
416.713	100.31
416.936	102.31
417.159	85.31
417.382	88.31
417.605	123.31
417.828	140.31
418.051	102.31
418.274	88.31
418.497	96.31
418.72	86.31
418.943	101.31
419.166	87.31
419.389	93.31
419.611	86.31
419.834	99.31
420.057	90.31
420.28	98.31
420.503	90.31
420.726	94.31
420.948	102.31
421.171	103.31
421.394	110.31
421.617	96.31
421.839	87.31
422.062	94.31
422.285	101.31
422.507	110.31
422.73	126.31
422.953	93.31
423.175	88.31
423.398	102.31
423.621	91.31
423.843	94.31
424.066	96.31
424.288	96.31
424.511	106.31
424.733	97.31
424.956	149.31
425.178	124.31
425.401	118.31
425.623	110.31
425.846	104.31
426.068	92.31
426.291	109.31
426.513	87.31
426.735	88.31
426.958	115.31
427.18	146.31
427.402	214.31
427.625	342.31
427.847	294.31
428.069	232.31
428.292	135.31
428.514	88.31
428.736	94.31
428.958	94.31
429.181	88.31
429.403	96.31
429.625	92.31
429.847	102.31
430.069	117.31
430.292	99.31
430.514	88.31
430.736	91.31
430.958	104.31
431.18	93.31
431.402	87.31
431.624	98.31
431.846	90.31
432.068	92.31
432.29	91.31
432.512	90.31
432.734	95.31
432.956	86.31
433.178	110.31
433.4	95.31
433.622	99.31
433.844	105.31
434.066	106.31
434.287	90.31
434.509	90.31
434.731	86.31
434.953	99.31
435.175	101.31
435.397	106.31
435.618	98.31
435.84	114.31
436.062	149.31
436.284	117.31
436.505	110.31
436.727	122.31
436.949	100.31
437.17	93.31
437.392	91.31
437.614	111.31
437.835	142.31
438.057	171.31
438.278	140.31
438.5	123.31
438.721	137.31
438.943	112.31
439.165	97.31
439.386	93.31
439.608	103.31
439.829	112.31
440.05	163.31
440.272	177.31
440.493	114.31
440.715	100.31
440.936	96.31
441.158	96.31
441.379	88.31
441.6	103.31
441.822	115.31
442.043	101.31
442.264	125.31
442.486	128.31
442.707	127.31
442.928	138.31
443.149	193.31
443.371	209.31
443.592	138.31
443.813	139.31
444.034	122.31
444.255	111.31
444.476	103.31
444.698	81.31
444.919	99.31
445.14	153.31
445.361	154.31
445.582	151.31
445.803	197.31
446.024	190.31
446.245	179.31
446.466	135.31
446.687	99.31
446.908	107.31
447.129	85.31
447.35	98.31
447.571	98.31
447.792	91.31
448.013	133.31
448.234	145.31
448.455	114.31
448.675	128.31
448.896	160.31
449.117	121.31
449.338	130.31
449.559	166.31
449.779	151.31
450	115.31
450.221	93.31
450.442	98.31
450.662	134.31
450.883	154.31
451.104	162.31
451.324	115.31
451.545	96.31
451.766	89.31
451.986	96.31
452.207	105.31
452.428	113.31
452.648	126.31
452.869	161.31
453.089	165.31
453.31	182.31
453.53	119.31
453.751	98.31
453.971	138.31
454.192	171.31
454.412	129.31
454.633	94.31
454.853	96.31
455.073	104.31
455.294	93.31
455.514	107.31
455.734	99.31
455.955	93.31
456.175	91.31
456.395	89.31
456.616	88.31
456.836	109.31
457.056	100.31
457.276	79.31
457.497	91.31
457.717	92.31
457.937	90.31
458.157	92.31
458.377	111.31
458.598	162.31
458.818	291.31
459.038	302.31
459.258	177.31
459.478	107.31
459.698	85.31
459.918	97.31
460.138	86.31
460.358	86.31
460.578	98.31
460.798	96.31
461.018	98.31
461.238	104.31
461.458	97.31
461.678	82.31
461.898	87.31
462.118	90.31
462.338	86.31
462.558	91.31
462.777	98.31
462.997	109.31
463.217	122.31
463.437	117.31
463.657	90.31
463.876	94.31
464.096	107.31
464.316	120.31
464.536	109.31
464.755	119.31
464.975	161.31
465.195	325.31
465.414	329.31
465.634	134.31
465.854	105.31
466.073	110.31
466.293	99.31
466.512	92.31
466.732	95.31
466.951	93.31
467.171	113.31
467.391	114.31
467.61	199.31
467.829	301.31
468.049	845.31
468.268	1304.31
468.488	303.31
468.707	139.31
468.927	91.31
469.146	79.31
469.365	98.31
469.585	102.31
469.804	117.31
470.023	133.31
470.243	112.31
470.462	149.31
470.681	179.31
470.901	123.31
471.12	102.31
471.339	117.31
471.558	135.31
471.777	196.31
471.997	414.31
472.216	1657.31
472.435	3881.31
472.654	837.31
472.873	202.31
473.092	128.31
473.311	108.31
473.53	106.31
473.749	105.31
473.968	118.31
474.187	137.31
474.406	130.31
474.625	91.31
474.844	102.31
475.063	91.31
475.282	102.31
475.501	87.31
475.72	93.31
475.939	85.31
476.158	105.31
476.377	95.31
476.596	110.31
476.814	138.31
477.033	121.31
477.252	109.31
477.471	116.31
477.69	97.31
477.908	92.31
478.127	102.31
478.346	104.31
478.564	118.31
478.783	124.31
479.002	121.31
479.22	113.31
479.439	118.31
479.658	176.31
479.876	166.31
480.095	151.31
480.313	161.31
480.532	215.31
480.751	394.31
480.969	1482.31
481.188	6485.31
481.406	3657.31
481.624	491.31
481.843	177.31
482.061	119.31
482.28	105.31
482.498	100.31
482.717	104.31
482.935	109.31
483.153	91.31
483.372	106.31
483.59	83.31
483.808	107.31
484.027	94.31
484.245	98.31
484.463	116.31
484.681	104.31
484.9	113.31
485.118	112.31
485.336	104.31
485.554	103.31
485.772	112.31
485.99	113.31
486.209	116.31
486.427	119.31
486.645	152.31
486.863	168.31
487.081	107.31
487.299	110.31
487.517	115.31
487.735	87.31
487.953	88.31
488.171	104.31
488.389	100.31
488.607	124.31
488.825	116.31
489.043	100.31
489.261	103.31
489.479	91.31
489.696	103.31
489.914	86.31
490.132	98.31
490.35	102.31
490.568	95.31
490.786	98.31
491.003	97.31
491.221	105.31
491.439	109.31
491.657	112.31
491.874	99.31
492.092	111.31
492.31	108.31
492.527	95.31
492.745	98.31
492.963	97.31
493.18	98.31
493.398	101.31
493.615	102.31
493.833	88.31
494.05	71.31
494.268	94.31
494.485	98.31
494.703	93.31
494.92	97.31
495.138	98.31
495.355	111.31
495.573	89.31
495.79	98.31
496.008	111.31
496.225	100.31
496.442	101.31
496.66	103.31
496.877	112.31
497.094	98.31
497.312	102.31
497.529	91.31
497.746	96.31
497.963	113.31
498.181	109.31
498.398	104.31
498.615	130.31
498.832	118.31
499.049	86.31
499.267	100.31
499.484	89.31
499.701	88.31
499.918	96.31
500.135	97.31
500.352	108.31
500.569	94.31
500.786	102.31
501.003	96.31
501.22	83.31
501.437	98.31
501.654	122.31
501.871	139.31
502.088	119.31
502.305	93.31
502.522	99.31
502.739	103.31
502.956	91.31
503.172	103.31
503.389	122.31
503.606	152.31
503.823	130.31
504.04	104.31
504.256	106.31
504.473	93.31
504.69	89.31
504.907	86.31
505.123	102.31
505.34	88.31
505.557	98.31
505.773	94.31
505.99	89.31
506.207	112.31
506.423	86.31
506.64	104.31
506.856	109.31
507.073	93.31
507.289	105.31
507.506	119.31
507.722	167.31
507.939	169.31
508.155	112.31
508.372	87.31
508.588	104.31
508.805	96.31
509.021	114.31
509.238	109.31
509.454	105.31
509.67	117.31
509.887	145.31
510.103	174.31
510.319	337.31
510.536	1461.31
510.752	5239.31
