Data from Circ_1999_H10_HRD10591_00022.txt Node
Date: Wed Jan 03 11:23:17 EST 2024
User: Yrep
Spectrometer: HR+D1059
Trigger mode: 1
Integration Time (sec): 1.000000E-1
Scans to average: 1
Electric dark correction enabled: true
Nonlinearity correction enabled: false
Boxcar width: 0
XAxis mode: Wavelengths
Number of Pixels in Spectrum: 2048
>>>>>Begin Spectral Data<<<<<
223.165	-35.44
223.4	-35.44
223.635	-35.44
223.869	-21.44
224.104	-21.44
224.338	-23.44
224.573	-21.44
224.808	-17.44
225.042	-16.44
225.277	-1.44
225.511	15.56
225.746	13.56
225.98	12.56
226.215	7.56
226.449	18.56
226.683	32.56
226.918	28.56
227.152	29.56
227.387	38.56
227.621	32.56
227.856	55.56
228.09	56.56
228.324	37.56
228.559	55.56
228.793	52.56
229.027	51.56
229.262	68.56
229.496	75.56
229.73	105.56
229.964	105.56
230.199	89.56
230.433	84.56
230.667	79.56
230.901	71.56
231.136	79.56
231.37	71.56
231.604	79.56
231.838	96.56
232.072	78.56
232.306	80.56
232.541	85.56
232.775	74.56
233.009	85.56
233.243	71.56
233.477	81.56
233.711	93.56
233.945	86.56
234.179	77.56
234.413	77.56
234.647	75.56
234.881	80.56
235.115	92.56
235.349	75.56
235.583	88.56
235.817	79.56
236.051	74.56
236.285	79.56
236.519	84.56
236.753	71.56
236.987	86.56
237.221	85.56
237.455	103.56
237.689	88.56
237.922	72.56
238.156	74.56
238.39	68.56
238.624	68.56
238.858	70.56
239.091	78.56
239.325	76.56
239.559	84.56
239.793	77.56
240.027	64.56
240.26	86.56
240.494	69.56
240.728	80.56
240.961	70.56
241.195	71.56
241.429	67.56
241.662	73.56
241.896	71.56
242.13	78.56
242.363	93.56
242.597	100.56
242.83	78.56
243.064	77.56
243.298	76.56
243.531	79.56
243.765	81.56
243.998	87.56
244.232	93.56
244.465	93.56
244.699	75.56
244.932	79.56
245.166	79.56
245.399	74.56
245.633	94.56
245.866	81.56
246.099	81.56
246.333	77.56
246.566	95.56
246.8	97.56
247.033	83.56
247.266	75.56
247.5	85.56
247.733	78.56
247.966	76.56
248.2	90.56
248.433	80.56
248.666	83.56
248.899	89.56
249.133	78.56
249.366	92.56
249.599	115.56
249.832	86.56
250.066	75.56
250.299	104.56
250.532	97.56
250.765	90.56
250.998	86.56
251.231	81.56
251.465	84.56
251.698	73.56
251.931	84.56
252.164	84.56
252.397	87.56
252.63	86.56
252.863	86.56
253.096	84.56
253.329	72.56
253.562	82.56
253.795	73.56
254.028	79.56
254.261	95.56
254.494	87.56
254.727	87.56
254.96	79.56
255.193	85.56
255.426	86.56
255.659	84.56
255.892	92.56
256.124	98.56
256.357	89.56
256.59	84.56
256.823	73.56
257.056	91.56
257.289	88.56
257.521	72.56
257.754	98.56
257.987	78.56
258.22	89.56
258.452	98.56
258.685	93.56
258.918	74.56
259.151	85.56
259.383	84.56
259.616	78.56
259.849	79.56
260.081	90.56
260.314	93.56
260.547	97.56
260.779	109.56
261.012	117.56
261.244	104.56
261.477	116.56
261.71	105.56
261.942	138.56
262.175	152.56
262.407	92.56
262.64	76.56
262.872	81.56
263.105	83.56
263.337	95.56
263.57	74.56
263.802	94.56
264.035	85.56
264.267	76.56
264.499	92.56
264.732	94.56
264.964	82.56
265.197	86.56
265.429	83.56
265.661	84.56
265.894	79.56
266.126	88.56
266.358	93.56
266.591	80.56
266.823	69.56
267.055	83.56
267.287	87.56
267.52	84.56
267.752	81.56
267.984	96.56
268.216	82.56
268.448	99.56
268.681	98.56
268.913	96.56
269.145	84.56
269.377	95.56
269.609	88.56
269.841	81.56
270.073	89.56
270.306	97.56
270.538	104.56
270.77	95.56
271.002	96.56
271.234	83.56
271.466	102.56
271.698	90.56
271.93	101.56
272.162	99.56
272.394	84.56
272.626	88.56
272.858	81.56
273.09	80.56
273.322	65.56
273.553	98.56
273.785	89.56
274.017	80.56
274.249	93.56
274.481	85.56
274.713	93.56
274.945	97.56
275.176	109.56
275.408	112.56
275.64	119.56
275.872	122.56
276.104	122.56
276.335	115.56
276.567	126.56
276.799	170.56
277.031	204.56
277.262	214.56
277.494	163.56
277.726	116.56
277.957	95.56
278.189	99.56
278.421	86.56
278.652	81.56
278.884	109.56
279.115	90.56
279.347	88.56
279.579	79.56
279.81	142.56
280.042	202.56
280.273	304.56
280.505	185.56
280.736	122.56
280.968	86.56
281.199	112.56
281.431	81.56
281.662	89.56
281.894	98.56
282.125	97.56
282.356	149.56
282.588	194.56
282.819	153.56
283.051	96.56
283.282	96.56
283.513	109.56
283.745	85.56
283.976	82.56
284.207	94.56
284.439	100.56
284.67	96.56
284.901	91.56
285.132	84.56
285.364	85.56
285.595	99.56
285.826	86.56
286.057	94.56
286.288	92.56
286.52	94.56
286.751	84.56
286.982	86.56
287.213	91.56
287.444	81.56
287.675	88.56
287.906	80.56
288.138	90.56
288.369	108.56
288.6	96.56
288.831	92.56
289.062	105.56
289.293	92.56
289.524	90.56
289.755	90.56
289.986	95.56
290.217	80.56
290.448	76.56
290.679	92.56
290.91	92.56
291.141	88.56
291.371	89.56
291.602	90.56
291.833	96.56
292.064	95.56
292.295	87.56
292.526	105.56
292.757	88.56
292.987	92.56
293.218	104.56
293.449	97.56
293.68	100.56
293.91	90.56
294.141	86.56
294.372	96.56
294.603	92.56
294.833	98.56
295.064	87.56
295.295	87.56
295.525	101.56
295.756	112.56
295.987	128.56
296.217	195.56
296.448	164.56
296.679	113.56
296.909	108.56
297.14	93.56
297.37	82.56
297.601	93.56
297.831	99.56
298.062	96.56
298.292	100.56
298.523	94.56
298.753	102.56
298.984	109.56
299.214	92.56
299.445	91.56
299.675	95.56
299.905	105.56
300.136	88.56
300.366	112.56
300.597	96.56
300.827	100.56
301.057	119.56
301.288	129.56
301.518	110.56
301.748	108.56
301.979	117.56
302.209	97.56
302.439	104.56
302.669	93.56
302.9	106.56
303.13	92.56
303.36	113.56
303.59	139.56
303.82	156.56
304.051	110.56
304.281	100.56
304.511	98.56
304.741	92.56
304.971	80.56
305.201	93.56
305.431	92.56
305.661	84.56
305.891	102.56
306.121	109.56
306.352	111.56
306.582	135.56
306.812	119.56
307.042	149.56
307.272	179.56
307.502	193.56
307.731	188.56
307.961	143.56
308.191	92.56
308.421	95.56
308.651	100.56
308.881	92.56
309.111	98.56
309.341	102.56
309.571	117.56
309.8	111.56
310.03	121.56
310.26	108.56
310.49	108.56
310.72	135.56
310.949	134.56
311.179	124.56
311.409	118.56
311.639	102.56
311.868	99.56
312.098	101.56
312.328	95.56
312.557	126.56
312.787	142.56
313.017	129.56
313.246	109.56
313.476	109.56
313.706	104.56
313.935	107.56
314.165	116.56
314.394	133.56
314.624	122.56
314.853	107.56
315.083	97.56
315.312	104.56
315.542	99.56
315.771	95.56
316.001	100.56
316.23	102.56
316.46	107.56
316.689	101.56
316.919	103.56
317.148	109.56
317.377	111.56
317.607	108.56
317.836	109.56
318.065	94.56
318.295	110.56
318.524	89.56
318.753	108.56
318.983	96.56
319.212	110.56
319.441	134.56
319.67	113.56
319.9	101.56
320.129	105.56
320.358	88.56
320.587	114.56
320.816	112.56
321.046	121.56
321.275	104.56
321.504	114.56
321.733	100.56
321.962	105.56
322.191	112.56
322.42	128.56
322.649	136.56
322.878	121.56
323.108	143.56
323.337	157.56
323.566	162.56
323.795	211.56
324.024	248.56
324.253	504.56
324.482	1095.56
324.71	2174.56
324.939	2856.56
325.168	1076.56
325.397	329.56
325.626	194.56
325.855	156.56
326.084	154.56
326.313	159.56
326.542	191.56
326.77	291.56
326.999	556.56
327.228	1105.56
327.457	2009.56
327.686	1606.56
327.914	616.56
328.143	618.56
328.372	756.56
328.6	424.56
328.829	220.56
329.058	229.56
329.287	229.56
329.515	207.56
329.744	302.56
329.972	575.56
330.201	1150.56
330.43	1690.56
330.658	746.56
330.887	341.56
331.115	223.56
331.344	126.56
331.572	136.56
331.801	152.56
332.03	151.56
332.258	135.56
332.486	107.56
332.715	129.56
332.943	128.56
333.172	140.56
333.4	147.56
333.629	168.56
333.857	270.56
334.085	504.56
334.314	1069.56
334.542	2110.56
334.771	1892.56
334.999	509.56
335.227	183.56
335.455	149.56
335.684	124.56
335.912	117.56
336.14	104.56
336.369	126.56
336.597	124.56
336.825	108.56
337.053	96.56
337.281	108.56
337.51	113.56
337.738	104.56
337.966	97.56
338.194	118.56
338.422	117.56
338.65	92.56
338.878	107.56
339.106	110.56
339.334	92.56
339.562	113.56
339.79	106.56
340.018	108.56
340.246	102.56
340.474	99.56
340.702	107.56
340.93	89.56
341.158	105.56
341.386	105.56
341.614	113.56
341.842	95.56
342.07	109.56
342.298	106.56
342.526	99.56
342.754	89.56
342.981	97.56
343.209	87.56
343.437	105.56
343.665	97.56
343.893	94.56
344.12	101.56
344.348	97.56
344.576	101.56
344.804	110.56
345.031	133.56
345.259	110.56
345.487	121.56
345.714	116.56
345.942	97.56
346.17	89.56
346.397	102.56
346.625	104.56
346.853	96.56
347.08	105.56
347.308	112.56
347.535	118.56
347.763	132.56
347.99	114.56
348.218	117.56
348.445	134.56
348.673	113.56
348.9	97.56
349.128	109.56
349.355	85.56
349.583	90.56
349.81	108.56
350.037	100.56
350.265	102.56
350.492	87.56
350.72	92.56
350.947	97.56
351.174	129.56
351.402	140.56
351.629	106.56
351.856	95.56
352.083	120.56
352.311	133.56
352.538	152.56
352.765	144.56
352.992	130.56
353.22	140.56
353.447	125.56
353.674	90.56
353.901	89.56
354.128	88.56
354.355	95.56
354.583	96.56
354.81	95.56
355.037	92.56
355.264	93.56
355.491	82.56
355.718	77.56
355.945	84.56
356.172	87.56
356.399	94.56
356.626	98.56
356.853	111.56
357.08	119.56
357.307	98.56
357.534	105.56
357.761	91.56
357.988	91.56
358.215	106.56
358.441	103.56
358.668	94.56
358.895	96.56
359.122	90.56
359.349	104.56
359.576	99.56
359.802	127.56
360.029	178.56
360.256	164.56
360.483	131.56
360.709	93.56
360.936	103.56
361.163	113.56
361.39	114.56
361.616	103.56
361.843	104.56
362.07	113.56
362.296	110.56
362.523	105.56
362.749	93.56
362.976	99.56
363.203	78.56
363.429	95.56
363.656	107.56
363.882	95.56
364.109	96.56
364.335	111.56
364.562	106.56
364.788	106.56
365.015	102.56
365.241	129.56
365.468	138.56
365.694	126.56
365.92	102.56
366.147	98.56
366.373	97.56
366.599	99.56
366.826	110.56
367.052	102.56
367.278	94.56
367.505	91.56
367.731	100.56
367.957	87.56
368.184	105.56
368.41	125.56
368.636	134.56
368.862	150.56
369.089	137.56
369.315	120.56
369.541	93.56
369.767	112.56
369.993	105.56
370.219	79.56
370.445	89.56
370.672	94.56
370.898	91.56
371.124	98.56
371.35	92.56
371.576	89.56
371.802	78.56
372.028	96.56
372.254	93.56
372.48	95.56
372.706	95.56
372.932	85.56
373.158	88.56
373.384	102.56
373.61	101.56
373.835	97.56
374.061	93.56
374.287	98.56
374.513	101.56
374.739	103.56
374.965	83.56
375.191	93.56
375.416	98.56
375.642	88.56
375.868	108.56
376.094	98.56
376.319	88.56
376.545	97.56
376.771	100.56
376.997	88.56
377.222	104.56
377.448	85.56
377.674	77.56
377.899	91.56
378.125	82.56
378.35	96.56
378.576	95.56
378.802	96.56
379.027	89.56
379.253	100.56
379.478	95.56
379.704	104.56
379.929	86.56
380.155	98.56
380.38	110.56
380.606	102.56
380.831	116.56
381.057	106.56
381.282	89.56
381.507	107.56
381.733	91.56
381.958	113.56
382.184	108.56
382.409	96.56
382.634	110.56
382.86	106.56
383.085	105.56
383.31	109.56
383.535	96.56
383.761	90.56
383.986	98.56
384.211	101.56
384.436	111.56
384.662	114.56
384.887	115.56
385.112	119.56
385.337	106.56
385.562	114.56
385.787	109.56
386.013	129.56
386.238	135.56
386.463	127.56
386.688	112.56
386.913	114.56
387.138	105.56
387.363	117.56
387.588	95.56
387.813	108.56
388.038	110.56
388.263	129.56
388.488	127.56
388.713	101.56
388.938	87.56
389.163	106.56
389.387	92.56
389.612	92.56
389.837	80.56
390.062	96.56
390.287	98.56
390.512	97.56
390.736	87.56
390.961	103.56
391.186	101.56
391.411	90.56
391.636	99.56
391.86	79.56
392.085	76.56
392.31	92.56
392.534	82.56
392.759	91.56
392.984	88.56
393.208	93.56
393.433	94.56
393.658	89.56
393.882	85.56
394.107	95.56
394.331	98.56
394.556	93.56
394.78	97.56
395.005	89.56
395.229	98.56
395.454	81.56
395.678	85.56
395.903	87.56
396.127	84.56
396.352	110.56
396.576	86.56
396.801	98.56
397.025	113.56
397.249	86.56
397.474	98.56
397.698	90.56
397.922	90.56
398.147	86.56
398.371	92.56
398.595	96.56
398.82	105.56
399.044	80.56
399.268	97.56
399.492	89.56
399.717	88.56
399.941	95.56
400.165	90.56
400.389	94.56
400.613	91.56
400.837	88.56
401.062	89.56
401.286	105.56
401.51	104.56
401.734	107.56
401.958	122.56
402.182	177.56
402.406	237.56
402.63	172.56
402.854	122.56
403.078	89.56
403.302	93.56
403.526	84.56
403.75	90.56
403.974	109.56
404.198	104.56
404.422	85.56
404.645	102.56
404.869	95.56
405.093	129.56
405.317	154.56
405.541	163.56
405.765	129.56
405.988	164.56
406.212	276.56
406.436	420.56
406.66	256.56
406.883	133.56
407.107	114.56
407.331	95.56
407.555	114.56
407.778	94.56
408.002	102.56
408.226	94.56
408.449	100.56
408.673	93.56
408.896	96.56
409.12	93.56
409.344	98.56
409.567	98.56
409.791	98.56
410.014	106.56
410.238	96.56
410.461	96.56
410.685	90.56
410.908	95.56
411.132	106.56
411.355	102.56
411.578	95.56
411.802	94.56
412.025	104.56
412.249	101.56
412.472	125.56
412.695	142.56
412.919	111.56
413.142	107.56
413.365	95.56
413.589	99.56
413.812	77.56
414.035	101.56
414.258	89.56
414.482	91.56
414.705	93.56
414.928	99.56
415.151	106.56
415.374	94.56
415.597	101.56
415.821	110.56
416.044	110.56
416.267	96.56
416.49	85.56
416.713	95.56
416.936	95.56
417.159	86.56
417.382	100.56
417.605	99.56
417.828	125.56
418.051	90.56
418.274	97.56
418.497	89.56
418.72	93.56
418.943	76.56
419.166	89.56
419.389	91.56
419.611	100.56
419.834	97.56
420.057	92.56
420.28	106.56
420.503	86.56
420.726	90.56
420.948	94.56
421.171	95.56
421.394	97.56
421.617	95.56
421.839	84.56
422.062	102.56
422.285	96.56
422.507	97.56
422.73	123.56
422.953	94.56
423.175	94.56
423.398	103.56
423.621	90.56
423.843	95.56
424.066	91.56
424.288	81.56
424.511	112.56
424.733	119.56
424.956	111.56
425.178	109.56
425.401	114.56
425.623	122.56
425.846	111.56
426.068	107.56
426.291	103.56
426.513	105.56
426.735	113.56
426.958	109.56
427.18	134.56
427.402	209.56
427.625	314.56
427.847	260.56
428.069	217.56
428.292	128.56
428.514	109.56
428.736	98.56
428.958	90.56
429.181	97.56
429.403	98.56
429.625	100.56
429.847	90.56
430.069	112.56
430.292	95.56
430.514	92.56
430.736	95.56
430.958	98.56
431.18	86.56
431.402	91.56
431.624	94.56
431.846	87.56
432.068	89.56
432.29	79.56
432.512	88.56
432.734	84.56
432.956	91.56
433.178	91.56
433.4	109.56
433.622	93.56
433.844	75.56
434.066	86.56
434.287	95.56
434.509	97.56
434.731	105.56
434.953	102.56
435.175	101.56
435.397	92.56
435.618	114.56
435.84	103.56
436.062	135.56
436.284	120.56
436.505	93.56
436.727	101.56
436.949	94.56
437.17	93.56
437.392	92.56
437.614	98.56
437.835	127.56
438.057	178.56
438.278	156.56
438.5	118.56
438.721	138.56
438.943	128.56
439.165	87.56
439.386	83.56
439.608	86.56
439.829	114.56
440.05	161.56
440.272	191.56
440.493	105.56
440.715	93.56
440.936	95.56
441.158	94.56
441.379	92.56
441.6	103.56
441.822	107.56
442.043	104.56
442.264	118.56
442.486	123.56
442.707	116.56
442.928	119.56
443.149	203.56
443.371	184.56
443.592	167.56
443.813	137.56
444.034	113.56
444.255	98.56
444.476	103.56
444.698	85.56
444.919	80.56
445.14	130.56
445.361	121.56
445.582	134.56
445.803	196.56
446.024	178.56
446.245	181.56
446.466	133.56
446.687	105.56
446.908	102.56
447.129	91.56
447.35	98.56
447.571	93.56
447.792	93.56
448.013	109.56
448.234	143.56
448.455	119.56
448.675	129.56
448.896	151.56
449.117	109.56
449.338	108.56
449.559	148.56
449.779	142.56
450	94.56
450.221	90.56
450.442	97.56
450.662	110.56
450.883	152.56
451.104	171.56
451.324	110.56
451.545	101.56
451.766	76.56
451.986	91.56
452.207	106.56
452.428	96.56
452.648	117.56
452.869	138.56
453.089	166.56
453.31	156.56
453.53	113.56
453.751	106.56
453.971	137.56
454.192	174.56
454.412	112.56
454.633	91.56
454.853	90.56
455.073	92.56
455.294	104.56
455.514	120.56
455.734	93.56
455.955	82.56
456.175	82.56
456.395	96.56
456.616	85.56
456.836	85.56
457.056	96.56
457.276	79.56
457.497	88.56
457.717	77.56
457.937	96.56
458.157	94.56
458.377	99.56
458.598	151.56
458.818	264.56
459.038	271.56
459.258	170.56
459.478	112.56
459.698	88.56
459.918	85.56
460.138	82.56
460.358	99.56
460.578	101.56
460.798	95.56
461.018	108.56
461.238	91.56
461.458	78.56
461.678	92.56
461.898	88.56
462.118	84.56
462.338	100.56
462.558	89.56
462.777	87.56
462.997	104.56
463.217	111.56
463.437	90.56
463.657	91.56
463.876	93.56
464.096	91.56
464.316	107.56
464.536	104.56
464.755	114.56
464.975	148.56
465.195	308.56
465.414	304.56
465.634	124.56
465.854	104.56
466.073	121.56
466.293	88.56
466.512	94.56
466.732	93.56
466.951	114.56
467.171	107.56
467.391	112.56
467.61	178.56
467.829	257.56
468.049	644.56
468.268	954.56
468.488	239.56
468.707	106.56
468.927	97.56
469.146	95.56
469.365	92.56
469.585	104.56
469.804	128.56
470.023	125.56
470.243	105.56
470.462	146.56
470.681	156.56
470.901	120.56
471.12	106.56
471.339	103.56
471.558	133.56
471.777	146.56
471.997	349.56
472.216	1312.56
472.435	2936.56
472.654	680.56
472.873	177.56
473.092	113.56
473.311	114.56
473.53	108.56
473.749	89.56
473.968	114.56
474.187	135.56
474.406	107.56
474.625	92.56
474.844	95.56
475.063	101.56
475.282	87.56
475.501	85.56
475.72	108.56
475.939	104.56
476.158	90.56
476.377	99.56
476.596	93.56
476.814	103.56
477.033	115.56
477.252	97.56
477.471	93.56
477.69	91.56
477.908	108.56
478.127	97.56
478.346	94.56
478.564	108.56
478.783	116.56
479.002	106.56
479.22	110.56
479.439	144.56
479.658	166.56
479.876	122.56
480.095	145.56
480.313	155.56
480.532	167.56
480.751	325.56
480.969	1161.56
481.188	5083.56
481.406	2842.56
481.624	408.56
481.843	145.56
482.061	126.56
482.28	103.56
482.498	116.56
482.717	83.56
482.935	97.56
483.153	103.56
483.372	96.56
483.59	100.56
483.808	94.56
484.027	89.56
484.245	99.56
484.463	91.56
484.681	95.56
484.9	106.56
485.118	87.56
485.336	105.56
485.554	92.56
485.772	109.56
485.99	106.56
486.209	120.56
486.427	123.56
486.645	139.56
486.863	147.56
487.081	125.56
487.299	102.56
487.517	109.56
487.735	105.56
487.953	109.56
488.171	93.56
488.389	101.56
488.607	127.56
488.825	76.56
489.043	80.56
489.261	106.56
489.479	81.56
489.696	96.56
489.914	88.56
490.132	90.56
490.35	106.56
490.568	93.56
490.786	93.56
491.003	89.56
491.221	102.56
491.439	92.56
491.657	100.56
491.874	104.56
492.092	102.56
492.31	103.56
492.527	108.56
492.745	104.56
492.963	85.56
493.18	102.56
493.398	110.56
493.615	105.56
493.833	99.56
494.05	112.56
494.268	85.56
494.485	77.56
494.703	85.56
494.92	113.56
495.138	81.56
495.355	92.56
495.573	86.56
495.79	78.56
496.008	89.56
496.225	94.56
496.442	82.56
496.66	90.56
496.877	76.56
497.094	101.56
497.312	88.56
497.529	69.56
497.746	85.56
497.963	98.56
498.181	99.56
498.398	112.56
498.615	119.56
498.832	105.56
499.049	88.56
499.267	83.56
499.484	88.56
499.701	103.56
499.918	94.56
500.135	102.56
500.352	102.56
500.569	111.56
500.786	90.56
501.003	89.56
501.22	103.56
501.437	98.56
501.654	94.56
501.871	153.56
502.088	103.56
502.305	89.56
502.522	86.56
502.739	93.56
502.956	89.56
503.172	109.56
503.389	112.56
503.606	150.56
503.823	115.56
504.04	101.56
504.256	86.56
504.473	103.56
504.69	103.56
504.907	108.56
505.123	87.56
505.34	96.56
505.557	97.56
505.773	95.56
505.99	101.56
506.207	101.56
506.423	98.56
506.64	91.56
506.856	97.56
507.073	97.56
507.289	106.56
507.506	97.56
507.722	150.56
507.939	150.56
508.155	103.56
508.372	106.56
508.588	106.56
508.805	112.56
509.021	118.56
509.238	111.56
509.454	124.56
509.67	117.56
509.887	132.56
510.103	180.56
510.319	291.56
510.536	1287.56
510.752	4648.56
510.968	1196.56
511.184	224.56
