Data from Circ_1999_H10_HRD10591_00078.txt Node
Date: Wed Jan 03 11:23:28 EST 2024
User: Yrep
Spectrometer: HR+D1059
Trigger mode: 1
Integration Time (sec): 1.000000E-1
Scans to average: 1
Electric dark correction enabled: true
Nonlinearity correction enabled: false
Boxcar width: 0
XAxis mode: Wavelengths
Number of Pixels in Spectrum: 2048
>>>>>Begin Spectral Data<<<<<
223.165	-13.88
223.4	-13.88
223.635	-13.88
223.869	-17.88
224.104	-10.88
224.338	-14.88
224.573	-24.88
224.808	-11.88
225.042	-16.88
225.277	-0.88
225.511	7.12
225.746	3.12
225.98	8.12
226.215	-3.88
226.449	26.12
226.683	14.12
226.918	27.12
227.152	30.12
227.387	37.12
227.621	40.12
227.856	38.12
228.09	51.12
228.324	59.12
228.559	53.12
228.793	48.12
229.027	78.12
229.262	67.12
229.496	90.12
229.73	108.12
229.964	100.12
230.199	74.12
230.433	88.12
230.667	86.12
230.901	85.12
231.136	78.12
231.37	84.12
231.604	96.12
231.838	77.12
232.072	85.12
232.306	86.12
232.541	82.12
232.775	91.12
233.009	82.12
233.243	88.12
233.477	88.12
233.711	84.12
233.945	84.12
234.179	74.12
234.413	80.12
234.647	68.12
234.881	96.12
235.115	88.12
235.349	80.12
235.583	81.12
235.817	71.12
236.051	91.12
236.285	78.12
236.519	91.12
236.753	88.12
236.987	90.12
237.221	82.12
237.455	90.12
237.689	81.12
237.922	82.12
238.156	100.12
238.39	75.12
238.624	82.12
238.858	76.12
239.091	78.12
239.325	83.12
239.559	84.12
239.793	97.12
240.027	79.12
240.26	80.12
240.494	92.12
240.728	85.12
240.961	81.12
241.195	71.12
241.429	81.12
241.662	83.12
241.896	87.12
242.13	78.12
242.363	83.12
242.597	90.12
242.83	86.12
243.064	94.12
243.298	91.12
243.531	75.12
243.765	91.12
243.998	74.12
244.232	96.12
244.465	99.12
244.699	92.12
244.932	79.12
245.166	80.12
245.399	84.12
245.633	82.12
245.866	87.12
246.099	75.12
246.333	99.12
246.566	83.12
246.8	75.12
247.033	87.12
247.266	71.12
247.5	95.12
247.733	85.12
247.966	85.12
248.2	72.12
248.433	79.12
248.666	79.12
248.899	92.12
249.133	94.12
249.366	95.12
249.599	104.12
249.832	88.12
250.066	77.12
250.299	98.12
250.532	88.12
250.765	74.12
250.998	82.12
251.231	76.12
251.465	80.12
251.698	76.12
251.931	87.12
252.164	80.12
252.397	84.12
252.63	77.12
252.863	80.12
253.096	93.12
253.329	94.12
253.562	84.12
253.795	85.12
254.028	96.12
254.261	65.12
254.494	74.12
254.727	90.12
254.96	90.12
255.193	91.12
255.426	98.12
255.659	89.12
255.892	100.12
256.124	92.12
256.357	89.12
256.59	78.12
256.823	89.12
257.056	98.12
257.289	91.12
257.521	87.12
257.754	95.12
257.987	92.12
258.22	95.12
258.452	105.12
258.685	86.12
258.918	90.12
259.151	86.12
259.383	89.12
259.616	82.12
259.849	87.12
260.081	87.12
260.314	87.12
260.547	84.12
260.779	91.12
261.012	110.12
261.244	112.12
261.477	115.12
261.71	113.12
261.942	159.12
262.175	182.12
262.407	102.12
262.64	92.12
262.872	75.12
263.105	103.12
263.337	93.12
263.57	95.12
263.802	97.12
264.035	76.12
264.267	76.12
264.499	90.12
264.732	94.12
264.964	85.12
265.197	79.12
265.429	88.12
265.661	87.12
265.894	101.12
266.126	91.12
266.358	79.12
266.591	98.12
266.823	87.12
267.055	87.12
267.287	83.12
267.52	93.12
267.752	87.12
267.984	74.12
268.216	82.12
268.448	94.12
268.681	86.12
268.913	85.12
269.145	82.12
269.377	86.12
269.609	89.12
269.841	92.12
270.073	66.12
270.306	83.12
270.538	94.12
270.77	99.12
271.002	98.12
271.234	85.12
271.466	81.12
271.698	91.12
271.93	89.12
272.162	94.12
272.394	104.12
272.626	86.12
272.858	84.12
273.09	79.12
273.322	100.12
273.553	97.12
273.785	95.12
274.017	94.12
274.249	89.12
274.481	93.12
274.713	98.12
274.945	94.12
275.176	109.12
275.408	103.12
275.64	118.12
275.872	145.12
276.104	111.12
276.335	101.12
276.567	129.12
276.799	184.12
277.031	200.12
277.262	228.12
277.494	204.12
277.726	113.12
277.957	94.12
278.189	98.12
278.421	91.12
278.652	103.12
278.884	92.12
279.115	97.12
279.347	110.12
279.579	111.12
279.81	134.12
280.042	241.12
280.273	328.12
280.505	202.12
280.736	125.12
280.968	101.12
281.199	82.12
281.431	97.12
281.662	106.12
281.894	99.12
282.125	115.12
282.356	158.12
282.588	193.12
282.819	144.12
283.051	97.12
283.282	104.12
283.513	91.12
283.745	93.12
283.976	92.12
284.207	85.12
284.439	86.12
284.67	87.12
284.901	80.12
285.132	92.12
285.364	99.12
285.595	97.12
285.826	88.12
286.057	94.12
286.288	98.12
286.52	94.12
286.751	82.12
286.982	79.12
287.213	104.12
287.444	103.12
287.675	90.12
287.906	92.12
288.138	99.12
288.369	106.12
288.6	107.12
288.831	84.12
289.062	90.12
289.293	93.12
289.524	85.12
289.755	75.12
289.986	79.12
290.217	95.12
290.448	108.12
290.679	96.12
290.91	98.12
291.141	96.12
291.371	92.12
291.602	105.12
291.833	91.12
292.064	84.12
292.295	91.12
292.526	91.12
292.757	83.12
292.987	87.12
293.218	92.12
293.449	84.12
293.68	91.12
293.91	82.12
294.141	90.12
294.372	85.12
294.603	96.12
294.833	96.12
295.064	105.12
295.295	82.12
295.525	106.12
295.756	129.12
295.987	162.12
296.217	193.12
296.448	174.12
296.679	109.12
296.909	86.12
297.14	94.12
297.37	102.12
297.601	96.12
297.831	111.12
298.062	100.12
298.292	94.12
298.523	89.12
298.753	84.12
298.984	100.12
299.214	83.12
299.445	95.12
299.675	103.12
299.905	106.12
300.136	97.12
300.366	90.12
300.597	104.12
300.827	108.12
301.057	112.12
301.288	152.12
301.518	98.12
301.748	109.12
301.979	125.12
302.209	108.12
302.439	109.12
302.669	93.12
302.9	95.12
303.13	99.12
303.36	143.12
303.59	164.12
303.82	175.12
304.051	132.12
304.281	105.12
304.511	104.12
304.741	113.12
304.971	92.12
305.201	106.12
305.431	104.12
305.661	100.12
305.891	91.12
306.121	115.12
306.352	121.12
306.582	112.12
306.812	127.12
307.042	131.12
307.272	196.12
307.502	231.12
307.731	210.12
307.961	141.12
308.191	114.12
308.421	91.12
308.651	101.12
308.881	99.12
309.111	110.12
309.341	113.12
309.571	95.12
309.8	110.12
310.03	116.12
310.26	110.12
310.49	106.12
310.72	99.12
310.949	145.12
311.179	134.12
311.409	105.12
311.639	107.12
311.868	115.12
312.098	96.12
312.328	120.12
312.557	126.12
312.787	143.12
313.017	121.12
313.246	104.12
313.476	99.12
313.706	110.12
313.935	99.12
314.165	116.12
314.394	131.12
314.624	116.12
314.853	101.12
315.083	103.12
315.312	101.12
315.542	100.12
315.771	109.12
316.001	103.12
316.23	100.12
316.46	102.12
316.689	90.12
316.919	99.12
317.148	106.12
317.377	101.12
317.607	113.12
317.836	95.12
318.065	97.12
318.295	91.12
318.524	95.12
318.753	98.12
318.983	119.12
319.212	117.12
319.441	140.12
319.67	143.12
319.9	112.12
320.129	110.12
320.358	111.12
320.587	86.12
320.816	112.12
321.046	120.12
321.275	120.12
321.504	103.12
321.733	106.12
321.962	109.12
322.191	105.12
322.42	119.12
322.649	131.12
322.878	140.12
323.108	148.12
323.337	161.12
323.566	168.12
323.795	184.12
324.024	253.12
324.253	528.12
324.482	1036.12
324.71	2113.12
324.939	2747.12
325.168	1066.12
325.397	320.12
325.626	178.12
325.855	159.12
326.084	157.12
326.313	156.12
326.542	194.12
326.77	278.12
326.999	530.12
327.228	1070.12
327.457	1915.12
327.686	1594.12
327.914	653.12
328.143	686.12
328.372	887.12
328.6	465.12
328.829	206.12
329.058	214.12
329.287	228.12
329.515	215.12
329.744	328.12
329.972	626.12
330.201	1330.12
330.43	1915.12
330.658	833.12
330.887	373.12
331.115	223.12
331.344	158.12
331.572	141.12
331.801	152.12
332.03	145.12
332.258	131.12
332.486	95.12
332.715	106.12
332.943	130.12
333.172	142.12
333.4	155.12
333.629	187.12
333.857	307.12
334.085	589.12
334.314	1223.12
334.542	2366.12
334.771	2218.12
334.999	538.12
335.227	199.12
335.455	146.12
335.684	130.12
335.912	108.12
336.14	129.12
336.369	115.12
336.597	120.12
336.825	118.12
337.053	100.12
337.281	115.12
337.51	97.12
337.738	103.12
337.966	119.12
338.194	121.12
338.422	115.12
338.65	87.12
338.878	99.12
339.106	108.12
339.334	113.12
339.562	90.12
339.79	111.12
340.018	100.12
340.246	102.12
340.474	116.12
340.702	98.12
340.93	96.12
341.158	111.12
341.386	122.12
341.614	119.12
341.842	95.12
342.07	98.12
342.298	91.12
342.526	100.12
342.754	94.12
342.981	86.12
343.209	87.12
343.437	114.12
343.665	108.12
343.893	104.12
344.12	99.12
344.348	85.12
344.576	105.12
344.804	94.12
345.031	114.12
345.259	124.12
345.487	117.12
345.714	98.12
345.942	94.12
346.17	103.12
346.397	98.12
346.625	107.12
346.853	92.12
347.08	103.12
347.308	98.12
347.535	107.12
347.763	114.12
347.99	124.12
348.218	115.12
348.445	137.12
348.673	121.12
348.9	106.12
349.128	110.12
349.355	107.12
349.583	111.12
349.81	95.12
350.037	91.12
350.265	111.12
350.492	106.12
350.72	97.12
350.947	115.12
351.174	150.12
351.402	131.12
351.629	117.12
351.856	101.12
352.083	125.12
352.311	128.12
352.538	121.12
352.765	143.12
352.992	139.12
353.22	138.12
353.447	107.12
353.674	108.12
353.901	85.12
354.128	112.12
354.355	110.12
354.583	108.12
354.81	100.12
355.037	92.12
355.264	92.12
355.491	90.12
355.718	95.12
355.945	104.12
356.172	94.12
356.399	99.12
356.626	81.12
356.853	81.12
357.08	98.12
357.307	101.12
357.534	88.12
357.761	110.12
357.988	86.12
358.215	89.12
358.441	100.12
358.668	100.12
358.895	102.12
359.122	97.12
359.349	99.12
359.576	89.12
359.802	136.12
360.029	175.12
360.256	151.12
360.483	122.12
360.709	106.12
360.936	109.12
361.163	106.12
361.39	104.12
361.616	113.12
361.843	99.12
362.07	111.12
362.296	122.12
362.523	103.12
362.749	104.12
362.976	98.12
363.203	103.12
363.429	112.12
363.656	110.12
363.882	98.12
364.109	104.12
364.335	100.12
364.562	106.12
364.788	108.12
365.015	97.12
365.241	127.12
365.468	121.12
365.694	144.12
365.92	110.12
366.147	93.12
366.373	102.12
366.599	84.12
366.826	97.12
367.052	100.12
367.278	107.12
367.505	100.12
367.731	85.12
367.957	93.12
368.184	111.12
368.41	119.12
368.636	139.12
368.862	156.12
369.089	141.12
369.315	102.12
369.541	107.12
369.767	91.12
369.993	102.12
370.219	102.12
370.445	97.12
370.672	97.12
370.898	89.12
371.124	85.12
371.35	95.12
371.576	74.12
371.802	102.12
372.028	90.12
372.254	95.12
372.48	96.12
372.706	86.12
372.932	92.12
373.158	90.12
373.384	91.12
373.61	89.12
373.835	96.12
374.061	96.12
374.287	94.12
374.513	74.12
374.739	86.12
374.965	89.12
375.191	91.12
375.416	79.12
375.642	95.12
375.868	113.12
376.094	87.12
376.319	86.12
376.545	100.12
376.771	103.12
376.997	86.12
377.222	103.12
377.448	98.12
377.674	88.12
377.899	89.12
378.125	105.12
378.35	95.12
378.576	94.12
378.802	92.12
379.027	101.12
379.253	72.12
379.478	99.12
379.704	98.12
379.929	89.12
380.155	83.12
380.38	107.12
380.606	92.12
380.831	88.12
381.057	100.12
381.282	87.12
381.507	105.12
381.733	106.12
381.958	101.12
382.184	105.12
382.409	90.12
382.634	119.12
382.86	104.12
383.085	102.12
383.31	116.12
383.535	112.12
383.761	110.12
383.986	101.12
384.211	93.12
384.436	94.12
384.662	87.12
384.887	100.12
385.112	103.12
385.337	86.12
385.562	113.12
385.787	106.12
386.013	112.12
386.238	120.12
386.463	112.12
386.688	124.12
386.913	93.12
387.138	99.12
387.363	99.12
387.588	98.12
387.813	96.12
388.038	110.12
388.263	110.12
388.488	116.12
388.713	82.12
388.938	99.12
389.163	99.12
389.387	110.12
389.612	92.12
389.837	83.12
390.062	98.12
390.287	82.12
390.512	83.12
390.736	94.12
390.961	92.12
391.186	96.12
391.411	105.12
391.636	95.12
391.86	86.12
392.085	91.12
392.31	87.12
392.534	102.12
392.759	90.12
392.984	86.12
393.208	90.12
393.433	96.12
393.658	77.12
393.882	99.12
394.107	87.12
394.331	89.12
394.556	86.12
394.78	87.12
395.005	97.12
395.229	100.12
395.454	87.12
395.678	88.12
395.903	91.12
396.127	87.12
396.352	87.12
396.576	86.12
396.801	105.12
397.025	88.12
397.249	95.12
397.474	96.12
397.698	89.12
397.922	96.12
398.147	88.12
398.371	95.12
398.595	94.12
398.82	92.12
399.044	91.12
399.268	83.12
399.492	90.12
399.717	103.12
399.941	100.12
400.165	117.12
400.389	106.12
400.613	90.12
400.837	89.12
401.062	91.12
401.286	91.12
401.51	92.12
401.734	111.12
401.958	129.12
402.182	169.12
402.406	244.12
402.63	185.12
402.854	106.12
403.078	100.12
403.302	105.12
403.526	111.12
403.75	101.12
403.974	94.12
404.198	90.12
404.422	102.12
404.645	98.12
404.869	106.12
405.093	128.12
405.317	147.12
405.541	143.12
405.765	134.12
405.988	158.12
406.212	288.12
406.436	410.12
406.66	259.12
406.883	153.12
407.107	135.12
407.331	111.12
407.555	120.12
407.778	104.12
408.002	107.12
408.226	105.12
408.449	93.12
408.673	82.12
408.896	101.12
409.12	96.12
409.344	96.12
409.567	97.12
409.791	105.12
410.014	96.12
410.238	94.12
410.461	96.12
410.685	105.12
410.908	109.12
411.132	100.12
411.355	92.12
411.578	94.12
411.802	107.12
412.025	96.12
412.249	97.12
412.472	126.12
412.695	118.12
412.919	123.12
413.142	96.12
413.365	96.12
413.589	94.12
413.812	90.12
414.035	106.12
414.258	98.12
414.482	97.12
414.705	87.12
414.928	92.12
415.151	95.12
415.374	91.12
415.597	87.12
415.821	108.12
416.044	112.12
416.267	89.12
416.49	86.12
416.713	96.12
416.936	92.12
417.159	83.12
417.382	106.12
417.605	118.12
417.828	116.12
418.051	118.12
418.274	101.12
418.497	93.12
418.72	78.12
418.943	87.12
419.166	92.12
419.389	102.12
419.611	91.12
419.834	83.12
420.057	82.12
420.28	101.12
420.503	94.12
420.726	106.12
420.948	94.12
421.171	107.12
421.394	103.12
421.617	88.12
421.839	89.12
422.062	86.12
422.285	100.12
422.507	120.12
422.73	119.12
422.953	95.12
423.175	93.12
423.398	99.12
423.621	99.12
423.843	82.12
424.066	96.12
424.288	91.12
424.511	102.12
424.733	113.12
424.956	121.12
425.178	111.12
425.401	110.12
425.623	107.12
425.846	110.12
426.068	118.12
426.291	112.12
426.513	89.12
426.735	113.12
426.958	101.12
427.18	118.12
427.402	199.12
427.625	291.12
427.847	272.12
428.069	227.12
428.292	142.12
428.514	104.12
428.736	99.12
428.958	97.12
429.181	89.12
429.403	82.12
429.625	93.12
429.847	113.12
430.069	121.12
430.292	85.12
430.514	104.12
430.736	88.12
430.958	86.12
431.18	83.12
431.402	91.12
431.624	90.12
431.846	99.12
432.068	71.12
432.29	92.12
432.512	95.12
432.734	81.12
432.956	96.12
433.178	105.12
433.4	98.12
433.622	79.12
433.844	94.12
434.066	83.12
434.287	98.12
434.509	94.12
434.731	105.12
434.953	99.12
435.175	83.12
435.397	110.12
435.618	104.12
435.84	105.12
436.062	117.12
436.284	125.12
436.505	111.12
436.727	104.12
436.949	84.12
437.17	99.12
437.392	91.12
437.614	103.12
437.835	136.12
438.057	176.12
438.278	141.12
438.5	116.12
438.721	130.12
438.943	113.12
439.165	87.12
439.386	94.12
439.608	112.12
439.829	112.12
440.05	154.12
440.272	186.12
440.493	115.12
440.715	99.12
440.936	108.12
441.158	89.12
441.379	92.12
441.6	96.12
441.822	103.12
442.043	108.12
442.264	117.12
442.486	113.12
442.707	114.12
442.928	130.12
443.149	187.12
443.371	178.12
443.592	149.12
443.813	130.12
444.034	125.12
444.255	89.12
444.476	102.12
444.698	90.12
444.919	105.12
445.14	147.12
445.361	139.12
445.582	124.12
445.803	211.12
446.024	179.12
446.245	174.12
446.466	116.12
446.687	92.12
446.908	91.12
447.129	98.12
447.35	114.12
447.571	97.12
447.792	108.12
448.013	109.12
448.234	146.12
448.455	124.12
448.675	137.12
448.896	136.12
449.117	121.12
449.338	116.12
449.559	137.12
449.779	154.12
450	111.12
450.221	88.12
450.442	80.12
450.662	125.12
450.883	155.12
451.104	164.12
451.324	111.12
451.545	103.12
451.766	78.12
451.986	95.12
452.207	96.12
452.428	108.12
452.648	117.12
452.869	133.12
453.089	166.12
453.31	178.12
453.53	120.12
453.751	110.12
453.971	134.12
454.192	158.12
454.412	115.12
454.633	104.12
454.853	102.12
455.073	92.12
455.294	110.12
455.514	112.12
455.734	88.12
455.955	85.12
456.175	88.12
456.395	80.12
456.616	79.12
456.836	85.12
457.056	100.12
457.276	92.12
457.497	91.12
457.717	91.12
457.937	97.12
458.157	86.12
458.377	108.12
458.598	144.12
458.818	259.12
459.038	268.12
459.258	174.12
459.478	110.12
459.698	101.12
459.918	83.12
460.138	94.12
460.358	97.12
460.578	91.12
460.798	96.12
461.018	110.12
461.238	94.12
461.458	80.12
461.678	76.12
461.898	87.12
462.118	88.12
462.338	84.12
462.558	97.12
462.777	105.12
462.997	97.12
463.217	132.12
463.437	92.12
463.657	88.12
463.876	99.12
464.096	104.12
464.316	113.12
464.536	115.12
464.755	115.12
464.975	147.12
465.195	297.12
465.414	297.12
465.634	111.12
465.854	92.12
466.073	88.12
466.293	100.12
466.512	90.12
466.732	102.12
466.951	101.12
467.171	114.12
467.391	119.12
467.61	184.12
467.829	285.12
468.049	808.12
468.268	1222.12
468.488	282.12
468.707	136.12
468.927	108.12
469.146	110.12
469.365	98.12
469.585	107.12
469.804	111.12
470.023	121.12
470.243	107.12
470.462	156.12
470.681	171.12
470.901	119.12
471.12	108.12
471.339	119.12
471.558	128.12
471.777	185.12
471.997	401.12
472.216	1616.12
472.435	3656.12
472.654	818.12
472.873	192.12
473.092	116.12
473.311	93.12
473.53	92.12
473.749	82.12
473.968	102.12
474.187	137.12
474.406	120.12
474.625	94.12
474.844	91.12
475.063	93.12
475.282	100.12
475.501	93.12
475.72	95.12
475.939	94.12
476.158	109.12
476.377	91.12
476.596	111.12
476.814	109.12
477.033	112.12
477.252	95.12
477.471	99.12
477.69	106.12
477.908	115.12
478.127	107.12
478.346	118.12
478.564	116.12
478.783	121.12
479.002	104.12
479.22	107.12
479.439	147.12
479.658	161.12
479.876	167.12
480.095	140.12
480.313	148.12
480.532	197.12
480.751	378.12
480.969	1422.12
481.188	6260.12
481.406	3450.12
481.624	469.12
481.843	165.12
482.061	124.12
482.28	99.12
482.498	92.12
482.717	103.12
482.935	97.12
483.153	98.12
483.372	102.12
483.59	97.12
483.808	84.12
484.027	115.12
484.245	97.12
484.463	97.12
484.681	108.12
484.9	110.12
485.118	87.12
485.336	104.12
485.554	111.12
485.772	89.12
485.99	120.12
486.209	119.12
486.427	119.12
486.645	149.12
486.863	154.12
487.081	136.12
487.299	115.12
487.517	112.12
487.735	110.12
487.953	107.12
488.171	114.12
488.389	118.12
488.607	125.12
488.825	92.12
489.043	104.12
489.261	91.12
489.479	91.12
489.696	93.12
489.914	90.12
490.132	106.12
490.35	94.12
490.568	100.12
490.786	95.12
491.003	105.12
491.221	105.12
491.439	109.12
491.657	90.12
491.874	95.12
492.092	95.12
492.31	97.12
492.527	110.12
492.745	96.12
492.963	86.12
493.18	98.12
493.398	104.12
493.615	106.12
493.833	101.12
494.05	87.12
494.268	106.12
494.485	83.12
494.703	103.12
494.92	101.12
495.138	87.12
495.355	85.12
495.573	110.12
495.79	103.12
496.008	108.12
496.225	90.12
496.442	97.12
496.66	89.12
496.877	93.12
497.094	102.12
497.312	89.12
497.529	98.12
497.746	95.12
497.963	84.12
498.181	97.12
498.398	96.12
498.615	130.12
498.832	108.12
499.049	100.12
499.267	84.12
499.484	94.12
499.701	95.12
499.918	107.12
500.135	90.12
500.352	96.12
500.569	98.12
500.786	99.12
501.003	96.12
501.22	90.12
501.437	98.12
501.654	116.12
501.871	146.12
502.088	100.12
502.305	89.12
502.522	100.12
502.739	90.12
502.956	88.12
503.172	103.12
503.389	111.12
503.606	130.12
503.823	113.12
504.04	95.12
504.256	96.12
504.473	104.12
504.69	98.12
504.907	108.12
505.123	94.12
505.34	106.12
505.557	102.12
505.773	93.12
505.99	110.12
506.207	98.12
506.423	84.12
506.64	111.12
506.856	104.12
507.073	96.12
507.289	120.12
507.506	125.12
507.722	154.12
507.939	146.12
508.155	106.12
508.372	103.12
508.588	105.12
508.805	108.12
509.021	126.12
509.238	106.12
509.454	101.12
509.67	113.12
509.887	118.12
510.103	171.12
510.319	338.12
510.536	1355.12
510.752	4889.12
