Data from Circ_1999_H10_HRD10591_00081.txt Node
Date: Wed Jan 03 11:23:28 EST 2024
User: Yrep
Spectrometer: HR+D1059
Trigger mode: 1
Integration Time (sec): 1.000000E-1
Scans to average: 1
Electric dark correction enabled: true
Nonlinearity correction enabled: false
Boxcar width: 0
XAxis mode: Wavelengths
Number of Pixels in Spectrum: 2048
>>>>>Begin Spectral Data<<<<<
223.165	-11.38
223.4	-11.38
223.635	-11.38
223.869	-25.38
224.104	-9.38
224.338	-18.38
224.573	-18.38
224.808	-10.38
225.042	-14.38
225.277	-15.38
225.511	-14.38
225.746	11.62
225.98	22.62
226.215	13.62
226.449	19.62
226.683	9.62
226.918	31.62
227.152	28.62
227.387	58.62
227.621	52.62
227.856	51.62
228.09	60.62
228.324	53.62
228.559	50.62
228.793	59.62
229.027	73.62
229.262	65.62
229.496	93.62
229.73	116.62
229.964	120.62
230.199	75.62
230.433	84.62
230.667	65.62
230.901	82.62
231.136	79.62
231.37	66.62
231.604	78.62
231.838	87.62
232.072	93.62
232.306	90.62
232.541	89.62
232.775	94.62
233.009	82.62
233.243	90.62
233.477	74.62
233.711	90.62
233.945	89.62
234.179	79.62
234.413	85.62
234.647	86.62
234.881	90.62
235.115	88.62
235.349	84.62
235.583	76.62
235.817	90.62
236.051	73.62
236.285	81.62
236.519	73.62
236.753	94.62
236.987	81.62
237.221	103.62
237.455	93.62
237.689	90.62
237.922	80.62
238.156	76.62
238.39	88.62
238.624	80.62
238.858	72.62
239.091	67.62
239.325	87.62
239.559	93.62
239.793	92.62
240.027	88.62
240.26	88.62
240.494	75.62
240.728	79.62
240.961	67.62
241.195	88.62
241.429	78.62
241.662	89.62
241.896	93.62
242.13	88.62
242.363	71.62
242.597	78.62
242.83	64.62
243.064	74.62
243.298	82.62
243.531	98.62
243.765	94.62
243.998	81.62
244.232	97.62
244.465	94.62
244.699	87.62
244.932	73.62
245.166	82.62
245.399	75.62
245.633	82.62
245.866	87.62
246.099	73.62
246.333	84.62
246.566	106.62
246.8	87.62
247.033	82.62
247.266	85.62
247.5	104.62
247.733	79.62
247.966	92.62
248.2	91.62
248.433	86.62
248.666	81.62
248.899	82.62
249.133	94.62
249.366	98.62
249.599	123.62
249.832	93.62
250.066	93.62
250.299	89.62
250.532	86.62
250.765	80.62
250.998	83.62
251.231	81.62
251.465	92.62
251.698	88.62
251.931	101.62
252.164	89.62
252.397	94.62
252.63	79.62
252.863	76.62
253.096	76.62
253.329	92.62
253.562	78.62
253.795	96.62
254.028	77.62
254.261	82.62
254.494	91.62
254.727	82.62
254.96	89.62
255.193	77.62
255.426	89.62
255.659	104.62
255.892	107.62
256.124	104.62
256.357	98.62
256.59	88.62
256.823	116.62
257.056	94.62
257.289	95.62
257.521	92.62
257.754	93.62
257.987	86.62
258.22	105.62
258.452	120.62
258.685	125.62
258.918	97.62
259.151	95.62
259.383	89.62
259.616	80.62
259.849	85.62
260.081	88.62
260.314	82.62
260.547	98.62
260.779	110.62
261.012	118.62
261.244	131.62
261.477	128.62
261.71	122.62
261.942	163.62
262.175	187.62
262.407	115.62
262.64	95.62
262.872	107.62
263.105	92.62
263.337	82.62
263.57	74.62
263.802	84.62
264.035	104.62
264.267	84.62
264.499	92.62
264.732	86.62
264.964	88.62
265.197	78.62
265.429	92.62
265.661	81.62
265.894	94.62
266.126	83.62
266.358	93.62
266.591	91.62
266.823	81.62
267.055	107.62
267.287	90.62
267.52	96.62
267.752	98.62
267.984	97.62
268.216	90.62
268.448	91.62
268.681	115.62
268.913	89.62
269.145	87.62
269.377	74.62
269.609	90.62
269.841	76.62
270.073	93.62
270.306	91.62
270.538	100.62
270.77	98.62
271.002	92.62
271.234	101.62
271.466	106.62
271.698	97.62
271.93	97.62
272.162	91.62
272.394	88.62
272.626	81.62
272.858	93.62
273.09	92.62
273.322	95.62
273.553	94.62
273.785	100.62
274.017	88.62
274.249	94.62
274.481	91.62
274.713	87.62
274.945	97.62
275.176	109.62
275.408	124.62
275.64	139.62
275.872	149.62
276.104	132.62
276.335	138.62
276.567	153.62
276.799	205.62
277.031	270.62
277.262	306.62
277.494	220.62
277.726	109.62
277.957	107.62
278.189	106.62
278.421	107.62
278.652	92.62
278.884	106.62
279.115	112.62
279.347	92.62
279.579	114.62
279.81	175.62
280.042	293.62
280.273	425.62
280.505	275.62
280.736	113.62
280.968	103.62
281.199	107.62
281.431	99.62
281.662	119.62
281.894	94.62
282.125	126.62
282.356	160.62
282.588	237.62
282.819	177.62
283.051	110.62
283.282	96.62
283.513	101.62
283.745	91.62
283.976	87.62
284.207	93.62
284.439	95.62
284.67	83.62
284.901	89.62
285.132	87.62
285.364	94.62
285.595	83.62
285.826	89.62
286.057	99.62
286.288	93.62
286.52	90.62
286.751	95.62
286.982	94.62
287.213	87.62
287.444	91.62
287.675	85.62
287.906	99.62
288.138	107.62
288.369	120.62
288.6	105.62
288.831	102.62
289.062	88.62
289.293	99.62
289.524	93.62
289.755	92.62
289.986	111.62
290.217	99.62
290.448	88.62
290.679	99.62
290.91	91.62
291.141	95.62
291.371	90.62
291.602	88.62
291.833	83.62
292.064	87.62
292.295	84.62
292.526	105.62
292.757	97.62
292.987	99.62
293.218	84.62
293.449	84.62
293.68	94.62
293.91	95.62
294.141	91.62
294.372	106.62
294.603	98.62
294.833	98.62
295.064	95.62
295.295	89.62
295.525	103.62
295.756	128.62
295.987	162.62
296.217	222.62
296.448	186.62
296.679	120.62
296.909	96.62
297.14	95.62
297.37	97.62
297.601	90.62
297.831	95.62
298.062	109.62
298.292	99.62
298.523	96.62
298.753	100.62
298.984	107.62
299.214	101.62
299.445	108.62
299.675	109.62
299.905	112.62
300.136	109.62
300.366	96.62
300.597	92.62
300.827	113.62
301.057	132.62
301.288	129.62
301.518	110.62
301.748	122.62
301.979	147.62
302.209	121.62
302.439	121.62
302.669	124.62
302.9	108.62
303.13	107.62
303.36	143.62
303.59	186.62
303.82	207.62
304.051	114.62
304.281	111.62
304.511	103.62
304.741	94.62
304.971	100.62
305.201	110.62
305.431	92.62
305.661	93.62
305.891	82.62
306.121	112.62
306.352	146.62
306.582	153.62
306.812	124.62
307.042	158.62
307.272	224.62
307.502	262.62
307.731	239.62
307.961	159.62
308.191	104.62
308.421	105.62
308.651	109.62
308.881	86.62
309.111	103.62
309.341	113.62
309.571	115.62
309.8	137.62
310.03	130.62
310.26	116.62
310.49	105.62
310.72	124.62
310.949	168.62
311.179	142.62
311.409	106.62
311.639	105.62
311.868	112.62
312.098	109.62
312.328	135.62
312.557	155.62
312.787	172.62
313.017	129.62
313.246	110.62
313.476	105.62
313.706	103.62
313.935	110.62
314.165	136.62
314.394	153.62
314.624	129.62
314.853	119.62
315.083	105.62
315.312	104.62
315.542	99.62
315.771	98.62
316.001	82.62
316.23	88.62
316.46	88.62
316.689	109.62
316.919	103.62
317.148	124.62
317.377	116.62
317.607	118.62
317.836	119.62
318.065	105.62
318.295	110.62
318.524	103.62
318.753	107.62
318.983	112.62
319.212	122.62
319.441	163.62
319.67	147.62
319.9	109.62
320.129	96.62
320.358	109.62
320.587	120.62
320.816	128.62
321.046	140.62
321.275	111.62
321.504	106.62
321.733	115.62
321.962	119.62
322.191	118.62
322.42	130.62
322.649	159.62
322.878	153.62
323.108	156.62
323.337	180.62
323.566	183.62
323.795	231.62
324.024	295.62
324.253	610.62
324.482	1369.62
324.71	2765.62
324.939	3603.62
325.168	1353.62
325.397	397.62
325.626	211.62
325.855	163.62
326.084	161.62
326.313	188.62
326.542	221.62
326.77	317.62
326.999	647.62
327.228	1302.62
327.457	2391.62
327.686	2013.62
327.914	789.62
328.143	888.62
328.372	1164.62
328.6	602.62
328.829	281.62
329.058	294.62
329.287	303.62
329.515	264.62
329.744	405.62
329.972	834.62
330.201	1837.62
330.43	2638.62
330.658	1133.62
330.887	483.62
331.115	300.62
331.344	151.62
331.572	152.62
331.801	176.62
332.03	165.62
332.258	131.62
332.486	122.62
332.715	124.62
332.943	131.62
333.172	149.62
333.4	175.62
333.629	233.62
333.857	354.62
334.085	743.62
334.314	1611.62
334.542	3230.62
334.771	2957.62
334.999	721.62
335.227	252.62
335.455	169.62
335.684	156.62
335.912	141.62
336.14	139.62
336.369	134.62
336.597	150.62
336.825	137.62
337.053	100.62
337.281	113.62
337.51	105.62
337.738	102.62
337.966	103.62
338.194	129.62
338.422	120.62
338.65	113.62
338.878	110.62
339.106	106.62
339.334	104.62
339.562	107.62
339.79	115.62
340.018	101.62
340.246	123.62
340.474	118.62
340.702	107.62
340.93	93.62
341.158	113.62
341.386	118.62
341.614	136.62
341.842	115.62
342.07	105.62
342.298	113.62
342.526	105.62
342.754	93.62
342.981	99.62
343.209	96.62
343.437	91.62
343.665	91.62
343.893	104.62
344.12	94.62
344.348	99.62
344.576	101.62
344.804	102.62
345.031	139.62
345.259	128.62
345.487	117.62
345.714	107.62
345.942	105.62
346.17	119.62
346.397	94.62
346.625	92.62
346.853	105.62
347.08	115.62
347.308	129.62
347.535	124.62
347.763	134.62
347.99	122.62
348.218	132.62
348.445	142.62
348.673	131.62
348.9	109.62
349.128	107.62
349.355	92.62
349.583	99.62
349.81	90.62
350.037	105.62
350.265	116.62
350.492	109.62
350.72	111.62
350.947	132.62
351.174	144.62
351.402	170.62
351.629	125.62
351.856	109.62
352.083	142.62
352.311	159.62
352.538	169.62
352.765	149.62
352.992	160.62
353.22	143.62
353.447	110.62
353.674	122.62
353.901	101.62
354.128	107.62
354.355	94.62
354.583	95.62
354.81	111.62
355.037	104.62
355.264	109.62
355.491	93.62
355.718	100.62
355.945	84.62
356.172	93.62
356.399	90.62
356.626	100.62
356.853	100.62
357.08	84.62
357.307	92.62
357.534	92.62
357.761	95.62
357.988	101.62
358.215	110.62
358.441	107.62
358.668	106.62
358.895	100.62
359.122	103.62
359.349	100.62
359.576	118.62
359.802	161.62
360.029	189.62
360.256	193.62
360.483	149.62
360.709	112.62
360.936	115.62
361.163	112.62
361.39	140.62
361.616	116.62
361.843	121.62
362.07	112.62
362.296	127.62
362.523	119.62
362.749	116.62
362.976	116.62
363.203	100.62
363.429	96.62
363.656	100.62
363.882	91.62
364.109	107.62
364.335	90.62
364.562	107.62
364.788	106.62
365.015	115.62
365.241	112.62
365.468	144.62
365.694	144.62
365.92	125.62
366.147	113.62
366.373	114.62
366.599	104.62
366.826	106.62
367.052	113.62
367.278	119.62
367.505	111.62
367.731	112.62
367.957	121.62
368.184	125.62
368.41	123.62
368.636	168.62
368.862	171.62
369.089	153.62
369.315	116.62
369.541	111.62
369.767	100.62
369.993	110.62
370.219	105.62
370.445	114.62
370.672	98.62
370.898	107.62
371.124	82.62
371.35	91.62
371.576	78.62
371.802	87.62
372.028	90.62
372.254	90.62
372.48	90.62
372.706	90.62
372.932	91.62
373.158	95.62
373.384	98.62
373.61	97.62
373.835	93.62
374.061	99.62
374.287	108.62
374.513	102.62
374.739	101.62
374.965	91.62
375.191	93.62
375.416	75.62
375.642	86.62
375.868	106.62
376.094	95.62
376.319	95.62
376.545	89.62
376.771	78.62
376.997	91.62
377.222	93.62
377.448	104.62
377.674	94.62
377.899	97.62
378.125	101.62
378.35	97.62
378.576	98.62
378.802	99.62
379.027	102.62
379.253	93.62
379.478	100.62
379.704	91.62
379.929	72.62
380.155	100.62
380.38	108.62
380.606	95.62
380.831	95.62
381.057	97.62
381.282	92.62
381.507	114.62
381.733	100.62
381.958	116.62
382.184	101.62
382.409	105.62
382.634	111.62
382.86	92.62
383.085	103.62
383.31	97.62
383.535	95.62
383.761	89.62
383.986	106.62
384.211	97.62
384.436	101.62
384.662	100.62
384.887	102.62
385.112	110.62
385.337	108.62
385.562	103.62
385.787	108.62
386.013	140.62
386.238	136.62
386.463	112.62
386.688	107.62
386.913	121.62
387.138	109.62
387.363	100.62
387.588	92.62
387.813	112.62
388.038	107.62
388.263	112.62
388.488	104.62
388.713	90.62
388.938	88.62
389.163	100.62
389.387	94.62
389.612	95.62
389.837	99.62
390.062	107.62
390.287	93.62
390.512	91.62
390.736	100.62
390.961	89.62
391.186	83.62
391.411	97.62
391.636	89.62
391.86	81.62
392.085	95.62
392.31	96.62
392.534	98.62
392.759	89.62
392.984	98.62
393.208	93.62
393.433	95.62
393.658	86.62
393.882	91.62
394.107	92.62
394.331	86.62
394.556	81.62
394.78	97.62
395.005	87.62
395.229	88.62
395.454	78.62
395.678	100.62
395.903	94.62
396.127	95.62
396.352	102.62
396.576	96.62
396.801	100.62
397.025	88.62
397.249	88.62
397.474	88.62
397.698	86.62
397.922	95.62
398.147	93.62
398.371	92.62
398.595	83.62
398.82	100.62
399.044	88.62
399.268	91.62
399.492	93.62
399.717	97.62
399.941	93.62
400.165	107.62
400.389	110.62
400.613	91.62
400.837	108.62
401.062	98.62
401.286	103.62
401.51	104.62
401.734	110.62
401.958	126.62
402.182	200.62
402.406	311.62
402.63	217.62
402.854	121.62
403.078	111.62
403.302	113.62
403.526	114.62
403.75	99.62
403.974	99.62
404.198	96.62
404.422	119.62
404.645	91.62
404.869	114.62
405.093	155.62
405.317	162.62
405.541	167.62
405.765	147.62
405.988	193.62
406.212	341.62
406.436	489.62
406.66	332.62
406.883	150.62
407.107	115.62
407.331	118.62
407.555	131.62
407.778	126.62
408.002	109.62
408.226	107.62
408.449	115.62
408.673	101.62
408.896	93.62
409.12	113.62
409.344	97.62
409.567	105.62
409.791	87.62
410.014	101.62
410.238	99.62
410.461	99.62
410.685	95.62
410.908	81.62
411.132	121.62
411.355	105.62
411.578	97.62
411.802	100.62
412.025	105.62
412.249	107.62
412.472	139.62
412.695	154.62
412.919	118.62
413.142	104.62
413.365	101.62
413.589	91.62
413.812	104.62
414.035	100.62
414.258	105.62
414.482	114.62
414.705	96.62
414.928	91.62
415.151	92.62
415.374	89.62
415.597	103.62
415.821	101.62
416.044	97.62
416.267	115.62
416.49	99.62
416.713	95.62
416.936	98.62
417.159	103.62
417.382	107.62
417.605	119.62
417.828	123.62
418.051	111.62
418.274	102.62
418.497	96.62
418.72	96.62
418.943	97.62
419.166	77.62
419.389	87.62
419.611	88.62
419.834	101.62
420.057	113.62
420.28	96.62
420.503	108.62
420.726	78.62
420.948	103.62
421.171	107.62
421.394	109.62
421.617	98.62
421.839	98.62
422.062	100.62
422.285	101.62
422.507	123.62
422.73	104.62
422.953	102.62
423.175	109.62
423.398	104.62
423.621	89.62
423.843	83.62
424.066	92.62
424.288	96.62
424.511	92.62
424.733	115.62
424.956	122.62
425.178	124.62
425.401	123.62
425.623	113.62
425.846	113.62
426.068	123.62
426.291	117.62
426.513	110.62
426.735	104.62
426.958	106.62
427.18	151.62
427.402	223.62
427.625	388.62
427.847	337.62
428.069	264.62
428.292	169.62
428.514	109.62
428.736	105.62
428.958	91.62
429.181	111.62
429.403	80.62
429.625	96.62
429.847	101.62
430.069	131.62
430.292	117.62
430.514	88.62
430.736	95.62
430.958	95.62
431.18	114.62
431.402	84.62
431.624	96.62
431.846	82.62
432.068	86.62
432.29	97.62
432.512	89.62
432.734	86.62
432.956	104.62
433.178	93.62
433.4	106.62
433.622	97.62
433.844	93.62
434.066	106.62
434.287	102.62
434.509	112.62
434.731	97.62
434.953	90.62
435.175	101.62
435.397	103.62
435.618	99.62
435.84	120.62
436.062	147.62
436.284	132.62
436.505	113.62
436.727	108.62
436.949	106.62
437.17	99.62
437.392	100.62
437.614	126.62
437.835	155.62
438.057	191.62
438.278	165.62
438.5	141.62
438.721	151.62
438.943	114.62
439.165	100.62
439.386	93.62
439.608	99.62
439.829	144.62
440.05	185.62
440.272	227.62
440.493	143.62
440.715	100.62
440.936	103.62
441.158	103.62
441.379	99.62
441.6	107.62
441.822	139.62
442.043	110.62
442.264	135.62
442.486	127.62
442.707	111.62
442.928	152.62
443.149	225.62
443.371	235.62
443.592	161.62
443.813	160.62
444.034	129.62
444.255	99.62
444.476	111.62
444.698	109.62
444.919	89.62
445.14	129.62
445.361	149.62
445.582	162.62
445.803	231.62
446.024	221.62
446.245	191.62
446.466	151.62
446.687	112.62
446.908	102.62
447.129	99.62
447.35	97.62
447.571	100.62
447.792	113.62
448.013	137.62
448.234	167.62
448.455	122.62
448.675	123.62
448.896	153.62
449.117	122.62
449.338	129.62
449.559	156.62
449.779	169.62
450	119.62
450.221	101.62
450.442	108.62
450.662	120.62
450.883	165.62
451.104	199.62
451.324	133.62
451.545	94.62
451.766	82.62
451.986	90.62
452.207	115.62
452.428	113.62
452.648	109.62
452.869	153.62
453.089	180.62
453.31	201.62
453.53	122.62
453.751	112.62
453.971	169.62
454.192	185.62
454.412	117.62
454.633	95.62
454.853	106.62
455.073	95.62
455.294	106.62
455.514	112.62
455.734	110.62
455.955	98.62
456.175	94.62
456.395	83.62
456.616	97.62
456.836	87.62
457.056	100.62
457.276	80.62
457.497	97.62
457.717	96.62
457.937	114.62
458.157	84.62
458.377	124.62
458.598	179.62
458.818	321.62
459.038	355.62
459.258	208.62
459.478	115.62
459.698	97.62
459.918	100.62
460.138	97.62
460.358	102.62
460.578	99.62
460.798	110.62
461.018	104.62
461.238	87.62
461.458	101.62
461.678	77.62
461.898	84.62
462.118	111.62
462.338	108.62
462.558	108.62
462.777	104.62
462.997	112.62
463.217	128.62
463.437	115.62
463.657	107.62
463.876	100.62
464.096	113.62
464.316	118.62
464.536	138.62
464.755	107.62
464.975	160.62
465.195	378.62
465.414	362.62
465.634	138.62
465.854	102.62
466.073	85.62
466.293	88.62
466.512	95.62
466.732	87.62
466.951	111.62
467.171	111.62
467.391	142.62
467.61	221.62
467.829	326.62
468.049	1000.62
468.268	1543.62
468.488	331.62
468.707	132.62
468.927	96.62
469.146	99.62
469.365	103.62
469.585	108.62
469.804	137.62
470.023	147.62
470.243	119.62
470.462	149.62
470.681	199.62
470.901	119.62
471.12	127.62
471.339	116.62
471.558	150.62
471.777	227.62
471.997	500.62
472.216	1971.62
472.435	4664.62
472.654	975.62
472.873	227.62
473.092	135.62
473.311	111.62
473.53	128.62
473.749	114.62
473.968	122.62
474.187	147.62
474.406	120.62
474.625	103.62
474.844	101.62
475.063	79.62
475.282	106.62
475.501	88.62
475.72	92.62
475.939	95.62
476.158	94.62
476.377	94.62
476.596	115.62
476.814	121.62
477.033	125.62
477.252	96.62
477.471	102.62
477.69	109.62
477.908	103.62
478.127	101.62
478.346	106.62
478.564	118.62
478.783	128.62
479.002	127.62
479.22	122.62
479.439	150.62
479.658	183.62
479.876	156.62
480.095	142.62
480.313	190.62
480.532	240.62
480.751	460.62
480.969	1828.62
481.188	7967.62
481.406	4333.62
481.624	547.62
481.843	170.62
482.061	130.62
482.28	108.62
482.498	112.62
482.717	110.62
482.935	98.62
483.153	97.62
483.372	105.62
483.59	93.62
483.808	104.62
484.027	104.62
484.245	103.62
484.463	108.62
484.681	118.62
484.9	98.62
485.118	113.62
485.336	110.62
485.554	113.62
485.772	112.62
485.99	123.62
486.209	114.62
486.427	131.62
486.645	146.62
486.863	173.62
487.081	119.62
487.299	111.62
487.517	95.62
487.735	105.62
487.953	101.62
488.171	105.62
488.389	121.62
488.607	121.62
488.825	101.62
489.043	100.62
489.261	115.62
489.479	98.62
489.696	100.62
489.914	95.62
490.132	99.62
490.35	90.62
490.568	109.62
490.786	96.62
491.003	96.62
491.221	106.62
491.439	100.62
491.657	103.62
491.874	89.62
492.092	92.62
492.31	94.62
492.527	118.62
492.745	123.62
492.963	102.62
493.18	95.62
493.398	92.62
493.615	103.62
493.833	101.62
494.05	98.62
494.268	89.62
494.485	113.62
494.703	100.62
494.92	107.62
495.138	107.62
495.355	104.62
495.573	76.62
495.79	97.62
496.008	101.62
496.225	104.62
496.442	86.62
496.66	99.62
496.877	89.62
497.094	90.62
497.312	91.62
497.529	89.62
497.746	99.62
497.963	108.62
498.181	113.62
498.398	117.62
498.615	138.62
498.832	128.62
499.049	106.62
499.267	94.62
499.484	96.62
499.701	81.62
499.918	96.62
500.135	110.62
500.352	105.62
500.569	125.62
500.786	103.62
501.003	101.62
501.22	84.62
501.437	91.62
501.654	101.62
501.871	157.62
502.088	118.62
502.305	95.62
502.522	104.62
502.739	109.62
502.956	91.62
503.172	113.62
503.389	121.62
503.606	169.62
503.823	136.62
504.04	97.62
504.256	114.62
504.473	93.62
504.69	93.62
504.907	102.62
505.123	91.62
505.34	97.62
505.557	107.62
505.773	109.62
505.99	100.62
506.207	100.62
506.423	105.62
506.64	97.62
506.856	93.62
507.073	102.62
507.289	99.62
507.506	120.62
507.722	174.62
507.939	181.62
508.155	120.62
508.372	94.62
508.588	99.62
508.805	100.62
509.021	98.62
