Data from Circ_1999_H10_HRD10591_00068.txt Node
Date: Wed Jan 03 11:23:26 EST 2024
User: Yrep
Spectrometer: HR+D1059
Trigger mode: 1
Integration Time (sec): 1.000000E-1
Scans to average: 1
Electric dark correction enabled: true
Nonlinearity correction enabled: false
Boxcar width: 0
XAxis mode: Wavelengths
Number of Pixels in Spectrum: 2048
>>>>>Begin Spectral Data<<<<<
223.165	-8.69
223.4	-8.69
223.635	-8.69
223.869	-22.69
224.104	-19.69
224.338	-15.69
224.573	-3.69
224.808	-4.69
225.042	-3.69
225.277	-3.69
225.511	3.31
225.746	-6.69
225.98	4.31
226.215	16.31
226.449	6.31
226.683	13.31
226.918	27.31
227.152	18.31
227.387	47.31
227.621	36.31
227.856	48.31
228.09	51.31
228.324	57.31
228.559	63.31
228.793	57.31
229.027	61.31
229.262	63.31
229.496	70.31
229.73	108.31
229.964	86.31
230.199	73.31
230.433	91.31
230.667	75.31
230.901	69.31
231.136	76.31
231.37	96.31
231.604	79.31
231.838	76.31
232.072	94.31
232.306	76.31
232.541	86.31
232.775	77.31
233.009	85.31
233.243	77.31
233.477	86.31
233.711	81.31
233.945	73.31
234.179	76.31
234.413	83.31
234.647	81.31
234.881	84.31
235.115	80.31
235.349	100.31
235.583	95.31
235.817	86.31
236.051	84.31
236.285	103.31
236.519	73.31
236.753	81.31
236.987	76.31
237.221	101.31
237.455	91.31
237.689	82.31
237.922	91.31
238.156	79.31
238.39	86.31
238.624	82.31
238.858	78.31
239.091	73.31
239.325	86.31
239.559	84.31
239.793	79.31
240.027	80.31
240.26	84.31
240.494	88.31
240.728	81.31
240.961	73.31
241.195	77.31
241.429	73.31
241.662	81.31
241.896	74.31
242.13	88.31
242.363	82.31
242.597	77.31
242.83	90.31
243.064	81.31
243.298	80.31
243.531	74.31
243.765	87.31
243.998	81.31
244.232	91.31
244.465	87.31
244.699	80.31
244.932	60.31
245.166	83.31
245.399	82.31
245.633	64.31
245.866	79.31
246.099	72.31
246.333	81.31
246.566	74.31
246.8	74.31
247.033	73.31
247.266	74.31
247.5	75.31
247.733	80.31
247.966	85.31
248.2	80.31
248.433	96.31
248.666	81.31
248.899	86.31
249.133	92.31
249.366	104.31
249.599	92.31
249.832	96.31
250.066	83.31
250.299	88.31
250.532	90.31
250.765	75.31
250.998	94.31
251.231	86.31
251.465	81.31
251.698	83.31
251.931	91.31
252.164	73.31
252.397	89.31
252.63	98.31
252.863	72.31
253.096	90.31
253.329	94.31
253.562	81.31
253.795	76.31
254.028	82.31
254.261	100.31
254.494	90.31
254.727	90.31
254.96	81.31
255.193	77.31
255.426	92.31
255.659	85.31
255.892	89.31
256.124	92.31
256.357	99.31
256.59	79.31
256.823	97.31
257.056	93.31
257.289	102.31
257.521	94.31
257.754	88.31
257.987	93.31
258.22	93.31
258.452	100.31
258.685	89.31
258.918	91.31
259.151	95.31
259.383	78.31
259.616	92.31
259.849	80.31
260.081	98.31
260.314	80.31
260.547	90.31
260.779	91.31
261.012	125.31
261.244	118.31
261.477	100.31
261.71	103.31
261.942	158.31
262.175	168.31
262.407	101.31
262.64	93.31
262.872	88.31
263.105	91.31
263.337	95.31
263.57	87.31
263.802	95.31
264.035	95.31
264.267	81.31
264.499	88.31
264.732	89.31
264.964	86.31
265.197	89.31
265.429	95.31
265.661	91.31
265.894	89.31
266.126	81.31
266.358	92.31
266.591	74.31
266.823	97.31
267.055	79.31
267.287	92.31
267.52	91.31
267.752	89.31
267.984	85.31
268.216	93.31
268.448	73.31
268.681	87.31
268.913	87.31
269.145	92.31
269.377	79.31
269.609	76.31
269.841	90.31
270.073	83.31
270.306	88.31
270.538	95.31
270.77	97.31
271.002	90.31
271.234	94.31
271.466	84.31
271.698	92.31
271.93	91.31
272.162	93.31
272.394	88.31
272.626	84.31
272.858	81.31
273.09	91.31
273.322	96.31
273.553	102.31
273.785	95.31
274.017	88.31
274.249	93.31
274.481	79.31
274.713	88.31
274.945	94.31
275.176	96.31
275.408	106.31
275.64	123.31
275.872	151.31
276.104	133.31
276.335	118.31
276.567	126.31
276.799	186.31
277.031	189.31
277.262	222.31
277.494	176.31
277.726	109.31
277.957	91.31
278.189	93.31
278.421	88.31
278.652	98.31
278.884	80.31
279.115	89.31
279.347	100.31
279.579	108.31
279.81	149.31
280.042	227.31
280.273	323.31
280.505	235.31
280.736	115.31
280.968	92.31
281.199	85.31
281.431	100.31
281.662	91.31
281.894	104.31
282.125	103.31
282.356	149.31
282.588	206.31
282.819	145.31
283.051	96.31
283.282	92.31
283.513	93.31
283.745	107.31
283.976	83.31
284.207	86.31
284.439	85.31
284.67	101.31
284.901	77.31
285.132	103.31
285.364	83.31
285.595	94.31
285.826	96.31
286.057	89.31
286.288	78.31
286.52	81.31
286.751	100.31
286.982	89.31
287.213	94.31
287.444	91.31
287.675	95.31
287.906	85.31
288.138	105.31
288.369	104.31
288.6	107.31
288.831	100.31
289.062	97.31
289.293	80.31
289.524	90.31
289.755	81.31
289.986	89.31
290.217	82.31
290.448	76.31
290.679	85.31
290.91	93.31
291.141	89.31
291.371	81.31
291.602	87.31
291.833	88.31
292.064	79.31
292.295	93.31
292.526	105.31
292.757	85.31
292.987	100.31
293.218	97.31
293.449	84.31
293.68	78.31
293.91	86.31
294.141	90.31
294.372	102.31
294.603	94.31
294.833	91.31
295.064	78.31
295.295	77.31
295.525	99.31
295.756	122.31
295.987	157.31
296.217	203.31
296.448	171.31
296.679	108.31
296.909	88.31
297.14	90.31
297.37	95.31
297.601	92.31
297.831	89.31
298.062	99.31
298.292	94.31
298.523	94.31
298.753	92.31
298.984	95.31
299.214	78.31
299.445	95.31
299.675	106.31
299.905	110.31
300.136	102.31
300.366	99.31
300.597	91.31
300.827	104.31
301.057	124.31
301.288	110.31
301.518	112.31
301.748	104.31
301.979	139.31
302.209	105.31
302.439	105.31
302.669	92.31
302.9	94.31
303.13	99.31
303.36	121.31
303.59	161.31
303.82	185.31
304.051	126.31
304.281	97.31
304.511	80.31
304.741	95.31
304.971	92.31
305.201	104.31
305.431	86.31
305.661	88.31
305.891	100.31
306.121	102.31
306.352	126.31
306.582	125.31
306.812	116.31
307.042	149.31
307.272	196.31
307.502	224.31
307.731	211.31
307.961	155.31
308.191	84.31
308.421	93.31
308.651	86.31
308.881	104.31
309.111	103.31
309.341	112.31
309.571	117.31
309.8	116.31
310.03	110.31
310.26	114.31
310.49	117.31
310.72	116.31
310.949	138.31
311.179	118.31
311.409	111.31
311.639	114.31
311.868	95.31
312.098	109.31
312.328	98.31
312.557	114.31
312.787	128.31
313.017	126.31
313.246	127.31
313.476	106.31
313.706	110.31
313.935	119.31
314.165	113.31
314.394	129.31
314.624	118.31
314.853	115.31
315.083	87.31
315.312	80.31
315.542	90.31
315.771	103.31
316.001	75.31
316.23	94.31
316.46	95.31
316.689	95.31
316.919	92.31
317.148	111.31
317.377	106.31
317.607	100.31
317.836	94.31
318.065	94.31
318.295	104.31
318.524	78.31
318.753	103.31
318.983	105.31
319.212	107.31
319.441	118.31
319.67	138.31
319.9	117.31
320.129	107.31
320.358	113.31
320.587	103.31
320.816	112.31
321.046	112.31
321.275	103.31
321.504	100.31
321.733	108.31
321.962	108.31
322.191	119.31
322.42	126.31
322.649	133.31
322.878	134.31
323.108	139.31
323.337	167.31
323.566	184.31
323.795	205.31
324.024	275.31
324.253	505.31
324.482	1105.31
324.71	2148.31
324.939	2840.31
325.168	1065.31
325.397	315.31
325.626	190.31
325.855	157.31
326.084	147.31
326.313	165.31
326.542	198.31
326.77	285.31
326.999	546.31
327.228	1081.31
327.457	1969.31
327.686	1589.31
327.914	661.31
328.143	715.31
328.372	900.31
328.6	489.31
328.829	237.31
329.058	223.31
329.287	244.31
329.515	226.31
329.744	328.31
329.972	677.31
330.201	1399.31
330.43	2025.31
330.658	861.31
330.887	380.31
331.115	222.31
331.344	140.31
331.572	119.31
331.801	137.31
332.03	146.31
332.258	131.31
332.486	108.31
332.715	131.31
332.943	133.31
333.172	141.31
333.4	145.31
333.629	202.31
333.857	295.31
334.085	585.31
334.314	1264.31
334.542	2470.31
334.771	2231.31
334.999	567.31
335.227	234.31
335.455	157.31
335.684	141.31
335.912	109.31
336.14	118.31
336.369	115.31
336.597	140.31
336.825	114.31
337.053	101.31
337.281	94.31
337.51	105.31
337.738	106.31
337.966	112.31
338.194	109.31
338.422	100.31
338.65	98.31
338.878	88.31
339.106	125.31
339.334	109.31
339.562	85.31
339.79	98.31
340.018	87.31
340.246	91.31
340.474	90.31
340.702	94.31
340.93	109.31
341.158	106.31
341.386	125.31
341.614	112.31
341.842	113.31
342.07	102.31
342.298	95.31
342.526	100.31
342.754	80.31
342.981	107.31
343.209	100.31
343.437	106.31
343.665	85.31
343.893	98.31
344.12	84.31
344.348	110.31
344.576	90.31
344.804	112.31
345.031	107.31
345.259	132.31
345.487	115.31
345.714	99.31
345.942	102.31
346.17	103.31
346.397	92.31
346.625	109.31
346.853	97.31
347.08	87.31
347.308	112.31
347.535	116.31
347.763	108.31
347.99	104.31
348.218	109.31
348.445	127.31
348.673	110.31
348.9	92.31
349.128	111.31
349.355	100.31
349.583	97.31
349.81	96.31
350.037	86.31
350.265	93.31
350.492	101.31
350.72	104.31
350.947	127.31
351.174	132.31
351.402	135.31
351.629	115.31
351.856	108.31
352.083	103.31
352.311	125.31
352.538	141.31
352.765	132.31
352.992	129.31
353.22	120.31
353.447	114.31
353.674	117.31
353.901	102.31
354.128	98.31
354.355	90.31
354.583	105.31
354.81	109.31
355.037	89.31
355.264	80.31
355.491	96.31
355.718	90.31
355.945	100.31
356.172	95.31
356.399	88.31
356.626	86.31
356.853	98.31
357.08	93.31
357.307	88.31
357.534	70.31
357.761	98.31
357.988	98.31
358.215	92.31
358.441	97.31
358.668	99.31
358.895	87.31
359.122	100.31
359.349	98.31
359.576	107.31
359.802	124.31
360.029	151.31
360.256	153.31
360.483	121.31
360.709	89.31
360.936	92.31
361.163	105.31
361.39	107.31
361.616	112.31
361.843	100.31
362.07	110.31
362.296	106.31
362.523	113.31
362.749	115.31
362.976	115.31
363.203	94.31
363.429	94.31
363.656	99.31
363.882	89.31
364.109	98.31
364.335	89.31
364.562	109.31
364.788	111.31
365.015	111.31
365.241	127.31
365.468	132.31
365.694	134.31
365.92	112.31
366.147	110.31
366.373	102.31
366.599	89.31
366.826	96.31
367.052	88.31
367.278	95.31
367.505	96.31
367.731	102.31
367.957	112.31
368.184	113.31
368.41	113.31
368.636	136.31
368.862	147.31
369.089	143.31
369.315	109.31
369.541	100.31
369.767	86.31
369.993	89.31
370.219	95.31
370.445	96.31
370.672	79.31
370.898	98.31
371.124	104.31
371.35	90.31
371.576	83.31
371.802	81.31
372.028	83.31
372.254	102.31
372.48	86.31
372.706	76.31
372.932	93.31
373.158	106.31
373.384	101.31
373.61	88.31
373.835	98.31
374.061	79.31
374.287	96.31
374.513	85.31
374.739	100.31
374.965	75.31
375.191	82.31
375.416	87.31
375.642	88.31
375.868	90.31
376.094	95.31
376.319	94.31
376.545	89.31
376.771	80.31
376.997	97.31
377.222	105.31
377.448	109.31
377.674	104.31
377.899	89.31
378.125	90.31
378.35	100.31
378.576	89.31
378.802	88.31
379.027	87.31
379.253	108.31
379.478	85.31
379.704	81.31
379.929	86.31
380.155	97.31
380.38	109.31
380.606	97.31
380.831	101.31
381.057	96.31
381.282	83.31
381.507	86.31
381.733	96.31
381.958	101.31
382.184	96.31
382.409	106.31
382.634	103.31
382.86	97.31
383.085	94.31
383.31	110.31
383.535	100.31
383.761	89.31
383.986	94.31
384.211	98.31
384.436	106.31
384.662	107.31
384.887	104.31
385.112	104.31
385.337	117.31
385.562	92.31
385.787	93.31
386.013	101.31
386.238	123.31
386.463	105.31
386.688	126.31
386.913	92.31
387.138	115.31
387.363	97.31
387.588	114.31
387.813	81.31
388.038	92.31
388.263	93.31
388.488	110.31
388.713	95.31
388.938	97.31
389.163	99.31
389.387	86.31
389.612	103.31
389.837	93.31
390.062	76.31
390.287	87.31
390.512	94.31
390.736	95.31
390.961	91.31
391.186	83.31
391.411	80.31
391.636	100.31
391.86	94.31
392.085	87.31
392.31	91.31
392.534	84.31
392.759	93.31
392.984	94.31
393.208	99.31
393.433	85.31
393.658	97.31
393.882	88.31
394.107	92.31
394.331	103.31
394.556	83.31
394.78	70.31
395.005	92.31
395.229	85.31
395.454	99.31
395.678	93.31
395.903	93.31
396.127	84.31
396.352	98.31
396.576	92.31
396.801	77.31
397.025	98.31
397.249	71.31
397.474	92.31
397.698	79.31
397.922	95.31
398.147	84.31
398.371	102.31
398.595	95.31
398.82	87.31
399.044	94.31
399.268	76.31
399.492	83.31
399.717	90.31
399.941	87.31
400.165	85.31
400.389	97.31
400.613	99.31
400.837	96.31
401.062	96.31
401.286	109.31
401.51	87.31
401.734	96.31
401.958	112.31
402.182	185.31
402.406	260.31
402.63	185.31
402.854	101.31
403.078	99.31
403.302	87.31
403.526	101.31
403.75	97.31
403.974	94.31
404.198	97.31
404.422	94.31
404.645	78.31
404.869	103.31
405.093	126.31
405.317	146.31
405.541	143.31
405.765	136.31
405.988	162.31
406.212	268.31
406.436	429.31
406.66	277.31
406.883	143.31
407.107	126.31
407.331	111.31
407.555	123.31
407.778	118.31
408.002	95.31
408.226	88.31
408.449	92.31
408.673	89.31
408.896	107.31
409.12	94.31
409.344	107.31
409.567	69.31
409.791	92.31
410.014	93.31
410.238	91.31
410.461	91.31
410.685	90.31
410.908	93.31
411.132	119.31
411.355	105.31
411.578	109.31
411.802	97.31
412.025	96.31
412.249	116.31
412.472	143.31
412.695	161.31
412.919	107.31
413.142	99.31
413.365	89.31
413.589	79.31
413.812	93.31
414.035	100.31
414.258	81.31
414.482	90.31
414.705	85.31
414.928	82.31
415.151	79.31
415.374	85.31
415.597	77.31
415.821	96.31
416.044	85.31
416.267	99.31
416.49	103.31
416.713	101.31
416.936	88.31
417.159	96.31
417.382	110.31
417.605	128.31
417.828	104.31
418.051	95.31
418.274	96.31
418.497	87.31
418.72	89.31
418.943	85.31
419.166	69.31
419.389	86.31
419.611	91.31
419.834	90.31
420.057	94.31
420.28	107.31
420.503	99.31
420.726	88.31
420.948	89.31
421.171	101.31
421.394	107.31
421.617	86.31
421.839	88.31
422.062	94.31
422.285	96.31
422.507	95.31
422.73	112.31
422.953	88.31
423.175	90.31
423.398	96.31
423.621	87.31
423.843	75.31
424.066	92.31
424.288	85.31
424.511	97.31
424.733	93.31
424.956	120.31
425.178	112.31
425.401	101.31
425.623	112.31
425.846	114.31
426.068	85.31
426.291	112.31
426.513	92.31
426.735	91.31
426.958	104.31
427.18	135.31
427.402	197.31
427.625	336.31
427.847	278.31
428.069	212.31
428.292	124.31
428.514	95.31
428.736	96.31
428.958	93.31
429.181	87.31
429.403	96.31
429.625	96.31
429.847	105.31
430.069	107.31
430.292	98.31
430.514	87.31
430.736	95.31
430.958	84.31
431.18	75.31
431.402	82.31
431.624	87.31
431.846	87.31
432.068	83.31
432.29	93.31
432.512	80.31
432.734	79.31
432.956	109.31
433.178	99.31
433.4	104.31
433.622	88.31
433.844	97.31
434.066	102.31
434.287	100.31
434.509	87.31
434.731	79.31
434.953	93.31
435.175	98.31
435.397	98.31
435.618	96.31
435.84	84.31
436.062	134.31
436.284	119.31
436.505	105.31
436.727	90.31
436.949	75.31
437.17	87.31
437.392	102.31
437.614	101.31
437.835	140.31
438.057	165.31
438.278	140.31
438.5	123.31
438.721	140.31
438.943	122.31
439.165	101.31
439.386	98.31
439.608	100.31
439.829	128.31
440.05	163.31
440.272	182.31
440.493	116.31
440.715	87.31
440.936	101.31
441.158	94.31
441.379	99.31
441.6	108.31
441.822	119.31
442.043	111.31
442.264	116.31
442.486	124.31
442.707	117.31
442.928	139.31
443.149	186.31
443.371	191.31
443.592	146.31
443.813	139.31
444.034	132.31
444.255	92.31
444.476	92.31
444.698	91.31
444.919	96.31
445.14	136.31
445.361	150.31
445.582	150.31
445.803	175.31
446.024	166.31
446.245	160.31
446.466	132.31
446.687	102.31
446.908	105.31
447.129	86.31
447.35	100.31
447.571	111.31
447.792	100.31
448.013	129.31
448.234	144.31
448.455	111.31
448.675	133.31
448.896	140.31
449.117	113.31
449.338	133.31
449.559	152.31
449.779	139.31
450	89.31
450.221	97.31
450.442	107.31
450.662	107.31
450.883	154.31
451.104	157.31
451.324	113.31
451.545	98.31
451.766	84.31
451.986	92.31
452.207	85.31
452.428	105.31
452.648	131.31
452.869	145.31
453.089	165.31
453.31	173.31
453.53	127.31
453.751	112.31
453.971	135.31
454.192	156.31
454.412	111.31
454.633	104.31
454.853	90.31
455.073	93.31
455.294	118.31
455.514	112.31
455.734	95.31
455.955	90.31
456.175	104.31
456.395	94.31
456.616	88.31
456.836	82.31
457.056	105.31
457.276	74.31
457.497	82.31
457.717	102.31
457.937	91.31
458.157	100.31
458.377	116.31
458.598	152.31
458.818	279.31
459.038	301.31
459.258	160.31
459.478	99.31
459.698	91.31
459.918	92.31
460.138	89.31
460.358	88.31
460.578	102.31
460.798	100.31
461.018	104.31
461.238	98.31
461.458	100.31
461.678	74.31
461.898	99.31
462.118	73.31
462.338	91.31
462.558	81.31
462.777	85.31
462.997	96.31
463.217	109.31
463.437	95.31
463.657	93.31
463.876	92.31
464.096	108.31
464.316	91.31
464.536	116.31
464.755	96.31
464.975	158.31
465.195	304.31
465.414	314.31
465.634	124.31
465.854	102.31
466.073	105.31
466.293	102.31
466.512	88.31
466.732	97.31
466.951	93.31
467.171	104.31
467.391	133.31
467.61	172.31
467.829	270.31
468.049	841.31
468.268	1256.31
468.488	279.31
468.707	105.31
468.927	95.31
469.146	88.31
469.365	97.31
469.585	100.31
469.804	122.31
470.023	112.31
470.243	109.31
470.462	125.31
470.681	164.31
470.901	122.31
471.12	109.31
471.339	127.31
471.558	133.31
471.777	174.31
471.997	403.31
472.216	1672.31
472.435	3745.31
472.654	825.31
472.873	207.31
473.092	110.31
473.311	121.31
473.53	96.31
473.749	101.31
473.968	114.31
474.187	149.31
474.406	112.31
474.625	110.31
474.844	88.31
475.063	89.31
475.282	84.31
475.501	87.31
475.72	97.31
475.939	86.31
476.158	90.31
476.377	87.31
476.596	100.31
476.814	100.31
477.033	109.31
477.252	85.31
477.471	98.31
477.69	97.31
477.908	103.31
478.127	119.31
478.346	109.31
478.564	106.31
478.783	125.31
479.002	120.31
479.22	120.31
479.439	153.31
479.658	146.31
479.876	135.31
480.095	123.31
480.313	169.31
480.532	200.31
480.751	387.31
480.969	1435.31
481.188	6270.31
481.406	3503.31
481.624	471.31
481.843	155.31
482.061	119.31
482.28	99.31
482.498	103.31
482.717	110.31
482.935	92.31
483.153	93.31
483.372	98.31
483.59	93.31
483.808	86.31
484.027	101.31
484.245	118.31
484.463	87.31
484.681	95.31
484.9	87.31
485.118	109.31
485.336	94.31
485.554	98.31
485.772	98.31
485.99	110.31
486.209	116.31
486.427	131.31
486.645	132.31
486.863	149.31
487.081	120.31
487.299	108.31
487.517	102.31
487.735	104.31
487.953	97.31
488.171	92.31
488.389	94.31
488.607	93.31
488.825	95.31
489.043	89.31
489.261	92.31
489.479	92.31
489.696	100.31
489.914	97.31
490.132	98.31
490.35	101.31
490.568	102.31
490.786	87.31
491.003	88.31
491.221	100.31
491.439	99.31
491.657	89.31
491.874	101.31
492.092	105.31
492.31	97.31
492.527	99.31
492.745	99.31
492.963	83.31
493.18	81.31
493.398	103.31
493.615	93.31
493.833	102.31
494.05	102.31
494.268	87.31
494.485	81.31
494.703	90.31
494.92	102.31
495.138	85.31
495.355	101.31
495.573	80.31
495.79	93.31
496.008	85.31
496.225	88.31
496.442	110.31
496.66	98.31
496.877	90.31
497.094	104.31
497.312	92.31
497.529	104.31
497.746	88.31
497.963	98.31
498.181	95.31
498.398	97.31
498.615	132.31
498.832	101.31
499.049	91.31
499.267	86.31
499.484	96.31
499.701	86.31
499.918	100.31
500.135	86.31
500.352	85.31
500.569	85.31
500.786	105.31
501.003	97.31
501.22	97.31
501.437	97.31
501.654	118.31
501.871	132.31
502.088	101.31
502.305	100.31
502.522	90.31
502.739	105.31
502.956	96.31
503.172	100.31
503.389	123.31
503.606	142.31
503.823	121.31
504.04	109.31
504.256	100.31
504.473	89.31
504.69	77.31
504.907	113.31
505.123	93.31
505.34	80.31
505.557	91.31
505.773	83.31
505.99	80.31
506.207	96.31
506.423	94.31
506.64	115.31
506.856	105.31
507.073	106.31
507.289	103.31
507.506	135.31
507.722	149.31
507.939	170.31
508.155	124.31
508.372	101.31
508.588	120.31
508.805	97.31
509.021	105.31
509.238	109.31
509.454	105.31
509.67	118.31
509.887	131.31
510.103	165.31
510.319	325.31
510.536	1364.31
510.752	5002.31
510.968	1276.31
511.184	238.31
511.401	158.31
511.617	128.31
