Data from Circ_1999_H10_HRD10591_00059.txt Node
Date: Wed Jan 03 11:23:24 EST 2024
User: Yrep
Spectrometer: HR+D1059
Trigger mode: 1
Integration Time (sec): 1.000000E-1
Scans to average: 1
Electric dark correction enabled: true
Nonlinearity correction enabled: false
Boxcar width: 0
XAxis mode: Wavelengths
Number of Pixels in Spectrum: 2048
>>>>>Begin Spectral Data<<<<<
223.165	-14.25
223.4	-14.25
223.635	-14.25
223.869	-7.25
224.104	-15.25
224.338	-13.25
224.573	-14.25
224.808	-12.25
225.042	-2.25
225.277	-4.25
225.511	4.75
225.746	-13.25
225.98	6.75
226.215	0.75
226.449	10.75
226.683	8.75
226.918	32.75
227.152	31.75
227.387	35.75
227.621	26.75
227.856	40.75
228.09	54.75
228.324	58.75
228.559	48.75
228.793	52.75
229.027	59.75
229.262	71.75
229.496	66.75
229.73	94.75
229.964	99.75
230.199	74.75
230.433	100.75
230.667	77.75
230.901	81.75
231.136	76.75
231.37	78.75
231.604	84.75
231.838	78.75
232.072	80.75
232.306	80.75
232.541	83.75
232.775	78.75
233.009	74.75
233.243	88.75
233.477	84.75
233.711	75.75
233.945	66.75
234.179	76.75
234.413	84.75
234.647	85.75
234.881	73.75
235.115	81.75
235.349	62.75
235.583	72.75
235.817	80.75
236.051	72.75
236.285	87.75
236.519	64.75
236.753	83.75
236.987	94.75
237.221	93.75
237.455	93.75
237.689	82.75
237.922	79.75
238.156	88.75
238.39	84.75
238.624	86.75
238.858	67.75
239.091	80.75
239.325	79.75
239.559	93.75
239.793	82.75
240.027	79.75
240.26	97.75
240.494	85.75
240.728	72.75
240.961	82.75
241.195	78.75
241.429	81.75
241.662	67.75
241.896	81.75
242.13	81.75
242.363	78.75
242.597	103.75
242.83	88.75
243.064	76.75
243.298	81.75
243.531	77.75
243.765	80.75
243.998	70.75
244.232	90.75
244.465	102.75
244.699	79.75
244.932	96.75
245.166	92.75
245.399	78.75
245.633	85.75
245.866	83.75
246.099	76.75
246.333	68.75
246.566	79.75
246.8	76.75
247.033	73.75
247.266	78.75
247.5	76.75
247.733	77.75
247.966	84.75
248.2	77.75
248.433	75.75
248.666	71.75
248.899	73.75
249.133	77.75
249.366	116.75
249.599	99.75
249.832	88.75
250.066	84.75
250.299	80.75
250.532	82.75
250.765	84.75
250.998	87.75
251.231	87.75
251.465	80.75
251.698	82.75
251.931	88.75
252.164	84.75
252.397	76.75
252.63	75.75
252.863	71.75
253.096	75.75
253.329	88.75
253.562	82.75
253.795	86.75
254.028	84.75
254.261	87.75
254.494	92.75
254.727	69.75
254.96	81.75
255.193	87.75
255.426	81.75
255.659	100.75
255.892	111.75
256.124	95.75
256.357	90.75
256.59	75.75
256.823	85.75
257.056	84.75
257.289	102.75
257.521	85.75
257.754	88.75
257.987	90.75
258.22	83.75
258.452	92.75
258.685	93.75
258.918	99.75
259.151	91.75
259.383	80.75
259.616	96.75
259.849	77.75
260.081	87.75
260.314	91.75
260.547	93.75
260.779	101.75
261.012	117.75
261.244	98.75
261.477	110.75
261.71	115.75
261.942	155.75
262.175	173.75
262.407	96.75
262.64	89.75
262.872	94.75
263.105	88.75
263.337	86.75
263.57	83.75
263.802	91.75
264.035	88.75
264.267	78.75
264.499	74.75
264.732	87.75
264.964	91.75
265.197	75.75
265.429	79.75
265.661	66.75
265.894	78.75
266.126	94.75
266.358	77.75
266.591	82.75
266.823	85.75
267.055	84.75
267.287	94.75
267.52	79.75
267.752	86.75
267.984	87.75
268.216	72.75
268.448	90.75
268.681	74.75
268.913	79.75
269.145	91.75
269.377	77.75
269.609	77.75
269.841	89.75
270.073	93.75
270.306	93.75
270.538	94.75
270.77	74.75
271.002	93.75
271.234	98.75
271.466	97.75
271.698	93.75
271.93	73.75
272.162	76.75
272.394	90.75
272.626	67.75
272.858	65.75
273.09	82.75
273.322	93.75
273.553	84.75
273.785	85.75
274.017	79.75
274.249	76.75
274.481	77.75
274.713	79.75
274.945	102.75
275.176	95.75
275.408	111.75
275.64	123.75
275.872	126.75
276.104	107.75
276.335	95.75
276.567	122.75
276.799	165.75
277.031	205.75
277.262	243.75
277.494	159.75
277.726	94.75
277.957	93.75
278.189	96.75
278.421	72.75
278.652	76.75
278.884	99.75
279.115	87.75
279.347	92.75
279.579	126.75
279.81	149.75
280.042	217.75
280.273	314.75
280.505	212.75
280.736	114.75
280.968	96.75
281.199	88.75
281.431	92.75
281.662	86.75
281.894	98.75
282.125	119.75
282.356	162.75
282.588	191.75
282.819	135.75
283.051	91.75
283.282	90.75
283.513	100.75
283.745	97.75
283.976	75.75
284.207	80.75
284.439	101.75
284.67	82.75
284.901	85.75
285.132	97.75
285.364	75.75
285.595	95.75
285.826	88.75
286.057	86.75
286.288	94.75
286.52	93.75
286.751	88.75
286.982	90.75
287.213	95.75
287.444	92.75
287.675	87.75
287.906	92.75
288.138	103.75
288.369	81.75
288.6	93.75
288.831	103.75
289.062	97.75
289.293	96.75
289.524	78.75
289.755	91.75
289.986	67.75
290.217	74.75
290.448	92.75
290.679	77.75
290.91	86.75
291.141	91.75
291.371	66.75
291.602	77.75
291.833	86.75
292.064	86.75
292.295	87.75
292.526	91.75
292.757	92.75
292.987	89.75
293.218	82.75
293.449	79.75
293.68	68.75
293.91	86.75
294.141	97.75
294.372	80.75
294.603	94.75
294.833	91.75
295.064	64.75
295.295	91.75
295.525	104.75
295.756	105.75
295.987	142.75
296.217	192.75
296.448	182.75
296.679	105.75
296.909	95.75
297.14	84.75
297.37	75.75
297.601	87.75
297.831	93.75
298.062	102.75
298.292	108.75
298.523	84.75
298.753	91.75
298.984	74.75
299.214	94.75
299.445	91.75
299.675	92.75
299.905	97.75
300.136	92.75
300.366	93.75
300.597	91.75
300.827	92.75
301.057	116.75
301.288	127.75
301.518	108.75
301.748	105.75
301.979	127.75
302.209	93.75
302.439	102.75
302.669	102.75
302.9	85.75
303.13	108.75
303.36	112.75
303.59	154.75
303.82	180.75
304.051	119.75
304.281	91.75
304.511	78.75
304.741	84.75
304.971	94.75
305.201	83.75
305.431	97.75
305.661	91.75
305.891	97.75
306.121	83.75
306.352	112.75
306.582	118.75
306.812	112.75
307.042	141.75
307.272	188.75
307.502	204.75
307.731	198.75
307.961	142.75
308.191	101.75
308.421	91.75
308.651	91.75
308.881	99.75
309.111	95.75
309.341	99.75
309.571	117.75
309.8	108.75
310.03	111.75
310.26	124.75
310.49	107.75
310.72	114.75
310.949	138.75
311.179	115.75
311.409	99.75
311.639	123.75
311.868	111.75
312.098	103.75
312.328	114.75
312.557	123.75
312.787	139.75
313.017	110.75
313.246	108.75
313.476	81.75
313.706	107.75
313.935	113.75
314.165	119.75
314.394	116.75
314.624	109.75
314.853	107.75
315.083	96.75
315.312	84.75
315.542	75.75
315.771	104.75
316.001	97.75
316.23	96.75
316.46	100.75
316.689	95.75
316.919	98.75
317.148	100.75
317.377	95.75
317.607	115.75
317.836	113.75
318.065	95.75
318.295	90.75
318.524	86.75
318.753	86.75
318.983	104.75
319.212	94.75
319.441	121.75
319.67	130.75
319.9	93.75
320.129	89.75
320.358	111.75
320.587	110.75
320.816	113.75
321.046	113.75
321.275	100.75
321.504	95.75
321.733	96.75
321.962	111.75
322.191	126.75
322.42	122.75
322.649	132.75
322.878	118.75
323.108	156.75
323.337	158.75
323.566	173.75
323.795	208.75
324.024	250.75
324.253	520.75
324.482	1127.75
324.71	2215.75
324.939	2922.75
325.168	1119.75
325.397	306.75
325.626	183.75
325.855	145.75
326.084	163.75
326.313	152.75
326.542	199.75
326.77	294.75
326.999	550.75
327.228	1105.75
327.457	1985.75
327.686	1624.75
327.914	636.75
328.143	690.75
328.372	853.75
328.6	480.75
328.829	226.75
329.058	236.75
329.287	239.75
329.515	207.75
329.744	299.75
329.972	622.75
330.201	1283.75
330.43	1886.75
330.658	820.75
330.887	380.75
331.115	230.75
331.344	156.75
331.572	138.75
331.801	148.75
332.03	149.75
332.258	125.75
332.486	95.75
332.715	98.75
332.943	123.75
333.172	122.75
333.4	141.75
333.629	187.75
333.857	273.75
334.085	559.75
334.314	1196.75
334.542	2380.75
334.771	2150.75
334.999	543.75
335.227	197.75
335.455	134.75
335.684	134.75
335.912	127.75
336.14	117.75
336.369	106.75
336.597	117.75
336.825	119.75
337.053	106.75
337.281	90.75
337.51	77.75
337.738	99.75
337.966	104.75
338.194	132.75
338.422	97.75
338.65	106.75
338.878	91.75
339.106	99.75
339.334	102.75
339.562	97.75
339.79	104.75
340.018	96.75
340.246	89.75
340.474	94.75
340.702	111.75
340.93	91.75
341.158	105.75
341.386	109.75
341.614	123.75
341.842	94.75
342.07	95.75
342.298	88.75
342.526	92.75
342.754	97.75
342.981	110.75
343.209	81.75
343.437	106.75
343.665	94.75
343.893	88.75
344.12	98.75
344.348	98.75
344.576	88.75
344.804	112.75
345.031	103.75
345.259	114.75
345.487	106.75
345.714	105.75
345.942	109.75
346.17	103.75
346.397	106.75
346.625	94.75
346.853	96.75
347.08	97.75
347.308	108.75
347.535	118.75
347.763	121.75
347.99	117.75
348.218	96.75
348.445	133.75
348.673	116.75
348.9	107.75
349.128	106.75
349.355	106.75
349.583	101.75
349.81	91.75
350.037	108.75
350.265	95.75
350.492	93.75
350.72	108.75
350.947	109.75
351.174	143.75
351.402	132.75
351.629	111.75
351.856	118.75
352.083	110.75
352.311	123.75
352.538	123.75
352.765	146.75
352.992	133.75
353.22	144.75
353.447	119.75
353.674	98.75
353.901	85.75
354.128	88.75
354.355	101.75
354.583	102.75
354.81	90.75
355.037	82.75
355.264	88.75
355.491	95.75
355.718	99.75
355.945	77.75
356.172	103.75
356.399	110.75
356.626	79.75
356.853	87.75
357.08	83.75
357.307	82.75
357.534	74.75
357.761	91.75
357.988	104.75
358.215	92.75
358.441	96.75
358.668	97.75
358.895	97.75
359.122	104.75
359.349	101.75
359.576	96.75
359.802	122.75
360.029	174.75
360.256	152.75
360.483	133.75
360.709	102.75
360.936	101.75
361.163	107.75
361.39	109.75
361.616	103.75
361.843	92.75
362.07	97.75
362.296	120.75
362.523	104.75
362.749	101.75
362.976	102.75
363.203	103.75
363.429	97.75
363.656	106.75
363.882	101.75
364.109	98.75
364.335	86.75
364.562	108.75
364.788	96.75
365.015	114.75
365.241	103.75
365.468	144.75
365.694	130.75
365.92	110.75
366.147	86.75
366.373	98.75
366.599	104.75
366.826	88.75
367.052	94.75
367.278	103.75
367.505	104.75
367.731	102.75
367.957	106.75
368.184	107.75
368.41	106.75
368.636	137.75
368.862	152.75
369.089	139.75
369.315	100.75
369.541	106.75
369.767	91.75
369.993	98.75
370.219	104.75
370.445	89.75
370.672	93.75
370.898	87.75
371.124	89.75
371.35	73.75
371.576	85.75
371.802	70.75
372.028	92.75
372.254	93.75
372.48	95.75
372.706	77.75
372.932	90.75
373.158	76.75
373.384	77.75
373.61	89.75
373.835	89.75
374.061	92.75
374.287	96.75
374.513	100.75
374.739	87.75
374.965	101.75
375.191	91.75
375.416	83.75
375.642	85.75
375.868	88.75
376.094	95.75
376.319	87.75
376.545	94.75
376.771	91.75
376.997	111.75
377.222	94.75
377.448	87.75
377.674	94.75
377.899	93.75
378.125	81.75
378.35	84.75
378.576	91.75
378.802	91.75
379.027	85.75
379.253	90.75
379.478	93.75
379.704	95.75
379.929	91.75
380.155	96.75
380.38	107.75
380.606	87.75
380.831	87.75
381.057	100.75
381.282	99.75
381.507	105.75
381.733	106.75
381.958	87.75
382.184	101.75
382.409	98.75
382.634	109.75
382.86	98.75
383.085	102.75
383.31	99.75
383.535	110.75
383.761	110.75
383.986	98.75
384.211	88.75
384.436	80.75
384.662	104.75
384.887	100.75
385.112	96.75
385.337	92.75
385.562	103.75
385.787	102.75
386.013	130.75
386.238	140.75
386.463	125.75
386.688	96.75
386.913	113.75
387.138	103.75
387.363	88.75
387.588	94.75
387.813	90.75
388.038	96.75
388.263	107.75
388.488	102.75
388.713	100.75
388.938	97.75
389.163	87.75
389.387	94.75
389.612	83.75
389.837	86.75
390.062	96.75
390.287	89.75
390.512	87.75
390.736	84.75
390.961	79.75
391.186	90.75
391.411	87.75
391.636	83.75
391.86	72.75
392.085	82.75
392.31	84.75
392.534	101.75
392.759	82.75
392.984	78.75
393.208	92.75
393.433	90.75
393.658	100.75
393.882	86.75
394.107	93.75
394.331	80.75
394.556	78.75
394.78	83.75
395.005	100.75
395.229	88.75
395.454	67.75
395.678	91.75
395.903	93.75
396.127	96.75
396.352	89.75
396.576	74.75
396.801	86.75
397.025	85.75
397.249	85.75
397.474	77.75
397.698	88.75
397.922	89.75
398.147	93.75
398.371	94.75
398.595	93.75
398.82	80.75
399.044	79.75
399.268	80.75
399.492	81.75
399.717	83.75
399.941	95.75
400.165	99.75
400.389	101.75
400.613	88.75
400.837	94.75
401.062	104.75
401.286	99.75
401.51	96.75
401.734	95.75
401.958	121.75
402.182	182.75
402.406	240.75
402.63	188.75
402.854	110.75
403.078	101.75
403.302	84.75
403.526	92.75
403.75	90.75
403.974	91.75
404.198	91.75
404.422	102.75
404.645	95.75
404.869	106.75
405.093	123.75
405.317	146.75
405.541	144.75
405.765	129.75
405.988	160.75
406.212	271.75
406.436	429.75
406.66	252.75
406.883	143.75
407.107	126.75
407.331	109.75
407.555	110.75
407.778	108.75
408.002	99.75
408.226	93.75
408.449	96.75
408.673	85.75
408.896	90.75
409.12	97.75
409.344	92.75
409.567	95.75
409.791	92.75
410.014	83.75
410.238	93.75
410.461	93.75
410.685	102.75
410.908	77.75
411.132	98.75
411.355	117.75
411.578	87.75
411.802	96.75
412.025	108.75
412.249	98.75
412.472	123.75
412.695	142.75
412.919	110.75
413.142	92.75
413.365	79.75
413.589	84.75
413.812	90.75
414.035	96.75
414.258	104.75
414.482	106.75
414.705	77.75
414.928	91.75
415.151	69.75
415.374	97.75
415.597	101.75
415.821	101.75
416.044	107.75
416.267	99.75
416.49	96.75
416.713	94.75
416.936	93.75
417.159	95.75
417.382	100.75
417.605	115.75
417.828	111.75
418.051	112.75
418.274	93.75
418.497	79.75
418.72	85.75
418.943	79.75
419.166	69.75
419.389	72.75
419.611	103.75
419.834	99.75
420.057	102.75
420.28	92.75
420.503	86.75
420.726	90.75
420.948	90.75
421.171	102.75
421.394	114.75
421.617	109.75
421.839	92.75
422.062	95.75
422.285	94.75
422.507	98.75
422.73	115.75
422.953	92.75
423.175	88.75
423.398	114.75
423.621	94.75
423.843	92.75
424.066	83.75
424.288	99.75
424.511	98.75
424.733	118.75
424.956	124.75
425.178	107.75
425.401	111.75
425.623	121.75
425.846	100.75
426.068	102.75
426.291	110.75
426.513	93.75
426.735	96.75
426.958	107.75
427.18	130.75
427.402	212.75
427.625	310.75
427.847	277.75
428.069	203.75
428.292	119.75
428.514	99.75
428.736	92.75
428.958	82.75
429.181	87.75
429.403	92.75
429.625	84.75
429.847	100.75
430.069	114.75
430.292	104.75
430.514	83.75
430.736	76.75
430.958	102.75
431.18	83.75
431.402	86.75
431.624	99.75
431.846	87.75
432.068	75.75
432.29	88.75
432.512	94.75
432.734	91.75
432.956	96.75
433.178	101.75
433.4	104.75
433.622	99.75
433.844	99.75
434.066	91.75
434.287	95.75
434.509	96.75
434.731	95.75
434.953	84.75
435.175	92.75
435.397	91.75
435.618	96.75
435.84	106.75
436.062	126.75
436.284	137.75
436.505	101.75
436.727	109.75
436.949	94.75
437.17	93.75
437.392	99.75
437.614	104.75
437.835	143.75
438.057	174.75
438.278	134.75
438.5	112.75
438.721	149.75
438.943	118.75
439.165	100.75
439.386	86.75
439.608	105.75
439.829	123.75
440.05	146.75
440.272	202.75
440.493	119.75
440.715	90.75
440.936	98.75
441.158	94.75
441.379	93.75
441.6	104.75
441.822	118.75
442.043	106.75
442.264	126.75
442.486	120.75
442.707	108.75
442.928	138.75
443.149	199.75
443.371	192.75
443.592	142.75
443.813	144.75
444.034	110.75
444.255	110.75
444.476	94.75
444.698	96.75
444.919	95.75
445.14	142.75
445.361	150.75
445.582	157.75
445.803	214.75
446.024	172.75
446.245	175.75
446.466	125.75
446.687	96.75
446.908	90.75
447.129	96.75
447.35	98.75
447.571	96.75
447.792	98.75
448.013	112.75
448.234	142.75
448.455	120.75
448.675	140.75
448.896	148.75
449.117	106.75
449.338	115.75
449.559	157.75
449.779	143.75
450	94.75
450.221	93.75
450.442	100.75
450.662	112.75
450.883	152.75
451.104	159.75
451.324	135.75
451.545	88.75
451.766	93.75
451.986	96.75
452.207	94.75
452.428	104.75
452.648	120.75
452.869	151.75
453.089	157.75
453.31	170.75
453.53	128.75
453.751	107.75
453.971	131.75
454.192	166.75
454.412	115.75
454.633	104.75
454.853	92.75
455.073	99.75
455.294	84.75
455.514	113.75
455.734	93.75
455.955	82.75
456.175	95.75
456.395	68.75
456.616	88.75
456.836	83.75
457.056	87.75
457.276	89.75
457.497	87.75
457.717	93.75
457.937	93.75
458.157	93.75
458.377	106.75
458.598	154.75
458.818	276.75
459.038	300.75
459.258	169.75
459.478	110.75
459.698	87.75
459.918	76.75
460.138	78.75
460.358	80.75
460.578	91.75
460.798	91.75
461.018	82.75
461.238	96.75
461.458	101.75
461.678	98.75
461.898	84.75
462.118	86.75
462.338	79.75
462.558	100.75
462.777	94.75
462.997	98.75
463.217	112.75
463.437	95.75
463.657	80.75
463.876	101.75
464.096	78.75
464.316	121.75
464.536	102.75
464.755	110.75
464.975	142.75
465.195	312.75
465.414	319.75
465.634	122.75
465.854	91.75
466.073	102.75
466.293	101.75
466.512	69.75
466.732	84.75
466.951	106.75
467.171	110.75
467.391	124.75
467.61	178.75
467.829	262.75
468.049	770.75
468.268	1143.75
468.488	268.75
468.707	132.75
468.927	87.75
469.146	97.75
469.365	103.75
469.585	107.75
469.804	118.75
470.023	139.75
470.243	120.75
470.462	130.75
470.681	150.75
470.901	117.75
471.12	112.75
471.339	119.75
471.558	140.75
471.777	182.75
471.997	399.75
472.216	1535.75
472.435	3445.75
472.654	763.75
472.873	183.75
473.092	103.75
473.311	100.75
473.53	97.75
473.749	105.75
473.968	117.75
474.187	145.75
474.406	114.75
474.625	95.75
474.844	88.75
475.063	85.75
475.282	88.75
475.501	80.75
475.72	88.75
475.939	82.75
476.158	79.75
476.377	90.75
476.596	92.75
476.814	99.75
477.033	119.75
477.252	100.75
477.471	79.75
477.69	91.75
477.908	99.75
478.127	87.75
478.346	86.75
478.564	106.75
478.783	120.75
479.002	106.75
479.22	110.75
479.439	145.75
479.658	158.75
479.876	140.75
480.095	137.75
480.313	156.75
480.532	188.75
480.751	354.75
480.969	1349.75
481.188	5912.75
481.406	3280.75
481.624	446.75
481.843	164.75
482.061	132.75
482.28	95.75
482.498	86.75
482.717	98.75
482.935	87.75
483.153	108.75
483.372	96.75
483.59	93.75
483.808	91.75
484.027	95.75
484.245	86.75
484.463	115.75
484.681	99.75
484.9	101.75
485.118	100.75
485.336	105.75
485.554	121.75
485.772	119.75
485.99	123.75
486.209	120.75
486.427	106.75
486.645	140.75
486.863	151.75
487.081	124.75
487.299	101.75
487.517	91.75
487.735	109.75
487.953	89.75
488.171	94.75
488.389	109.75
488.607	121.75
488.825	100.75
489.043	74.75
489.261	96.75
489.479	91.75
489.696	100.75
489.914	93.75
490.132	100.75
490.35	77.75
490.568	82.75
490.786	85.75
491.003	95.75
491.221	91.75
491.439	99.75
491.657	90.75
491.874	109.75
492.092	96.75
492.31	105.75
492.527	100.75
492.745	100.75
492.963	96.75
493.18	88.75
493.398	109.75
493.615	105.75
493.833	91.75
494.05	92.75
494.268	71.75
494.485	116.75
494.703	85.75
494.92	90.75
495.138	97.75
495.355	92.75
495.573	93.75
495.79	99.75
496.008	92.75
496.225	91.75
496.442	91.75
496.66	96.75
496.877	104.75
497.094	100.75
497.312	94.75
497.529	93.75
497.746	83.75
497.963	85.75
498.181	94.75
498.398	100.75
498.615	123.75
498.832	120.75
499.049	85.75
499.267	99.75
499.484	102.75
499.701	85.75
499.918	95.75
500.135	98.75
500.352	78.75
500.569	96.75
500.786	109.75
501.003	95.75
501.22	83.75
501.437	94.75
501.654	95.75
501.871	143.75
502.088	104.75
502.305	95.75
502.522	79.75
502.739	87.75
502.956	95.75
503.172	86.75
503.389	110.75
503.606	122.75
503.823	118.75
504.04	86.75
504.256	107.75
504.473	80.75
504.69	92.75
504.907	95.75
505.123	81.75
505.34	96.75
505.557	94.75
505.773	86.75
505.99	104.75
506.207	94.75
506.423	75.75
506.64	94.75
506.856	97.75
507.073	94.75
507.289	102.75
507.506	116.75
507.722	140.75
507.939	142.75
508.155	96.75
508.372	107.75
508.588	104.75
508.805	122.75
509.021	105.75
509.238	107.75
509.454	107.75
509.67	112.75
509.887	131.75
510.103	168.75
510.319	320.75
510.536	1321.75
510.752	4779.75
510.968	1223.75
511.184	228.75
511.401	158.75
511.617	122.75
511.833	139.75
512.049	103.75
