Data from Circ_1999_H10_HRD10591_00061.txt Node
Date: Wed Jan 03 11:23:24 EST 2024
User: Yrep
Spectrometer: HR+D1059
Trigger mode: 1
Integration Time (sec): 1.000000E-1
Scans to average: 1
Electric dark correction enabled: true
Nonlinearity correction enabled: false
Boxcar width: 0
XAxis mode: Wavelengths
Number of Pixels in Spectrum: 2048
>>>>>Begin Spectral Data<<<<<
223.165	-19.56
223.4	-19.56
223.635	-19.56
223.869	-14.56
224.104	-17.56
224.338	-23.56
224.573	-9.56
224.808	-8.56
225.042	-7.56
225.277	-11.56
225.511	-9.56
225.746	3.44
225.98	12.44
226.215	12.44
226.449	12.44
226.683	24.44
226.918	34.44
227.152	22.44
227.387	42.44
227.621	34.44
227.856	46.44
228.09	47.44
228.324	62.44
228.559	54.44
228.793	49.44
229.027	63.44
229.262	83.44
229.496	72.44
229.73	106.44
229.964	116.44
230.199	81.44
230.433	87.44
230.667	84.44
230.901	84.44
231.136	90.44
231.37	83.44
231.604	77.44
231.838	86.44
232.072	86.44
232.306	87.44
232.541	84.44
232.775	83.44
233.009	84.44
233.243	76.44
233.477	87.44
233.711	95.44
233.945	94.44
234.179	86.44
234.413	83.44
234.647	91.44
234.881	85.44
235.115	87.44
235.349	88.44
235.583	94.44
235.817	79.44
236.051	100.44
236.285	80.44
236.519	81.44
236.753	75.44
236.987	80.44
237.221	103.44
237.455	79.44
237.689	81.44
237.922	74.44
238.156	95.44
238.39	80.44
238.624	90.44
238.858	87.44
239.091	74.44
239.325	91.44
239.559	101.44
239.793	93.44
240.027	80.44
240.26	87.44
240.494	67.44
240.728	66.44
240.961	89.44
241.195	74.44
241.429	89.44
241.662	76.44
241.896	60.44
242.13	80.44
242.363	86.44
242.597	75.44
242.83	74.44
243.064	84.44
243.298	78.44
243.531	80.44
243.765	84.44
243.998	87.44
244.232	83.44
244.465	106.44
244.699	112.44
244.932	79.44
245.166	73.44
245.399	72.44
245.633	82.44
245.866	73.44
246.099	78.44
246.333	102.44
246.566	90.44
246.8	83.44
247.033	88.44
247.266	80.44
247.5	74.44
247.733	73.44
247.966	92.44
248.2	83.44
248.433	75.44
248.666	93.44
248.899	87.44
249.133	103.44
249.366	108.44
249.599	98.44
249.832	78.44
250.066	89.44
250.299	87.44
250.532	95.44
250.765	81.44
250.998	75.44
251.231	81.44
251.465	85.44
251.698	82.44
251.931	98.44
252.164	71.44
252.397	80.44
252.63	80.44
252.863	93.44
253.096	82.44
253.329	78.44
253.562	84.44
253.795	84.44
254.028	86.44
254.261	80.44
254.494	82.44
254.727	85.44
254.96	106.44
255.193	82.44
255.426	80.44
255.659	86.44
255.892	87.44
256.124	108.44
256.357	79.44
256.59	78.44
256.823	81.44
257.056	97.44
257.289	91.44
257.521	89.44
257.754	100.44
257.987	89.44
258.22	82.44
258.452	115.44
258.685	104.44
258.918	96.44
259.151	78.44
259.383	89.44
259.616	88.44
259.849	85.44
260.081	99.44
260.314	85.44
260.547	98.44
260.779	105.44
261.012	124.44
261.244	114.44
261.477	111.44
261.71	121.44
261.942	170.44
262.175	176.44
262.407	105.44
262.64	90.44
262.872	94.44
263.105	76.44
263.337	78.44
263.57	85.44
263.802	77.44
264.035	87.44
264.267	90.44
264.499	103.44
264.732	94.44
264.964	103.44
265.197	86.44
265.429	93.44
265.661	83.44
265.894	85.44
266.126	82.44
266.358	87.44
266.591	80.44
266.823	87.44
267.055	87.44
267.287	92.44
267.52	81.44
267.752	90.44
267.984	83.44
268.216	80.44
268.448	89.44
268.681	96.44
268.913	91.44
269.145	90.44
269.377	95.44
269.609	82.44
269.841	96.44
270.073	96.44
270.306	96.44
270.538	79.44
270.77	83.44
271.002	87.44
271.234	85.44
271.466	101.44
271.698	81.44
271.93	88.44
272.162	94.44
272.394	93.44
272.626	87.44
272.858	81.44
273.09	90.44
273.322	91.44
273.553	97.44
273.785	79.44
274.017	97.44
274.249	82.44
274.481	77.44
274.713	94.44
274.945	111.44
275.176	108.44
275.408	115.44
275.64	117.44
275.872	152.44
276.104	116.44
276.335	104.44
276.567	136.44
276.799	181.44
277.031	224.44
277.262	227.44
277.494	181.44
277.726	127.44
277.957	112.44
278.189	86.44
278.421	86.44
278.652	99.44
278.884	108.44
279.115	96.44
279.347	101.44
279.579	111.44
279.81	154.44
280.042	255.44
280.273	333.44
280.505	228.44
280.736	125.44
280.968	98.44
281.199	107.44
281.431	105.44
281.662	101.44
281.894	90.44
282.125	102.44
282.356	173.44
282.588	212.44
282.819	158.44
283.051	109.44
283.282	112.44
283.513	99.44
283.745	103.44
283.976	93.44
284.207	96.44
284.439	88.44
284.67	110.44
284.901	89.44
285.132	94.44
285.364	84.44
285.595	74.44
285.826	75.44
286.057	86.44
286.288	88.44
286.52	98.44
286.751	107.44
286.982	89.44
287.213	95.44
287.444	100.44
287.675	100.44
287.906	96.44
288.138	99.44
288.369	109.44
288.6	104.44
288.831	94.44
289.062	98.44
289.293	99.44
289.524	76.44
289.755	95.44
289.986	79.44
290.217	99.44
290.448	97.44
290.679	83.44
290.91	95.44
291.141	83.44
291.371	97.44
291.602	91.44
291.833	86.44
292.064	93.44
292.295	99.44
292.526	95.44
292.757	98.44
292.987	95.44
293.218	82.44
293.449	84.44
293.68	92.44
293.91	88.44
294.141	85.44
294.372	90.44
294.603	83.44
294.833	91.44
295.064	95.44
295.295	110.44
295.525	94.44
295.756	118.44
295.987	152.44
296.217	195.44
296.448	168.44
296.679	110.44
296.909	105.44
297.14	102.44
297.37	91.44
297.601	84.44
297.831	87.44
298.062	100.44
298.292	90.44
298.523	101.44
298.753	101.44
298.984	95.44
299.214	94.44
299.445	108.44
299.675	118.44
299.905	121.44
300.136	105.44
300.366	103.44
300.597	97.44
300.827	102.44
301.057	123.44
301.288	143.44
301.518	111.44
301.748	113.44
301.979	120.44
302.209	93.44
302.439	97.44
302.669	98.44
302.9	100.44
303.13	104.44
303.36	119.44
303.59	169.44
303.82	183.44
304.051	129.44
304.281	97.44
304.511	101.44
304.741	93.44
304.971	78.44
305.201	113.44
305.431	87.44
305.661	109.44
305.891	86.44
306.121	108.44
306.352	139.44
306.582	125.44
306.812	131.44
307.042	151.44
307.272	210.44
307.502	210.44
307.731	214.44
307.961	144.44
308.191	101.44
308.421	98.44
308.651	98.44
308.881	107.44
309.111	107.44
309.341	106.44
309.571	108.44
309.8	115.44
310.03	117.44
310.26	130.44
310.49	116.44
310.72	122.44
310.949	139.44
311.179	120.44
311.409	121.44
311.639	110.44
311.868	103.44
312.098	90.44
312.328	120.44
312.557	117.44
312.787	142.44
313.017	136.44
313.246	92.44
313.476	126.44
313.706	99.44
313.935	118.44
314.165	106.44
314.394	149.44
314.624	135.44
314.853	130.44
315.083	124.44
315.312	95.44
315.542	90.44
315.771	91.44
316.001	82.44
316.23	98.44
316.46	88.44
316.689	96.44
316.919	111.44
317.148	123.44
317.377	109.44
317.607	123.44
317.836	110.44
318.065	99.44
318.295	97.44
318.524	105.44
318.753	102.44
318.983	99.44
319.212	116.44
319.441	131.44
319.67	124.44
319.9	99.44
320.129	98.44
320.358	104.44
320.587	110.44
320.816	115.44
321.046	125.44
321.275	117.44
321.504	96.44
321.733	105.44
321.962	107.44
322.191	122.44
322.42	126.44
322.649	122.44
322.878	145.44
323.108	154.44
323.337	167.44
323.566	174.44
323.795	221.44
324.024	294.44
324.253	584.44
324.482	1245.44
324.71	2542.44
324.939	3331.44
325.168	1202.44
325.397	354.44
325.626	193.44
325.855	177.44
326.084	160.44
326.313	152.44
326.542	198.44
326.77	314.44
326.999	623.44
327.228	1291.44
327.457	2365.44
327.686	1896.44
327.914	704.44
328.143	710.44
328.372	899.44
328.6	483.44
328.829	231.44
329.058	246.44
329.287	251.44
329.515	227.44
329.744	334.44
329.972	636.44
330.201	1352.44
330.43	1979.44
330.658	892.44
330.887	402.44
331.115	250.44
331.344	146.44
331.572	145.44
331.801	155.44
332.03	144.44
332.258	129.44
332.486	138.44
332.715	134.44
332.943	144.44
333.172	141.44
333.4	158.44
333.629	200.44
333.857	310.44
334.085	566.44
334.314	1195.44
334.542	2470.44
334.771	2276.44
334.999	571.44
335.227	214.44
335.455	141.44
335.684	127.44
335.912	124.44
336.14	111.44
336.369	122.44
336.597	135.44
336.825	134.44
337.053	103.44
337.281	118.44
337.51	109.44
337.738	110.44
337.966	107.44
338.194	127.44
338.422	103.44
338.65	121.44
338.878	117.44
339.106	108.44
339.334	99.44
339.562	96.44
339.79	104.44
340.018	99.44
340.246	103.44
340.474	101.44
340.702	108.44
340.93	100.44
341.158	104.44
341.386	98.44
341.614	112.44
341.842	110.44
342.07	98.44
342.298	98.44
342.526	101.44
342.754	102.44
342.981	107.44
343.209	90.44
343.437	100.44
343.665	91.44
343.893	75.44
344.12	88.44
344.348	109.44
344.576	102.44
344.804	100.44
345.031	114.44
345.259	124.44
345.487	108.44
345.714	105.44
345.942	104.44
346.17	103.44
346.397	114.44
346.625	99.44
346.853	99.44
347.08	111.44
347.308	119.44
347.535	120.44
347.763	120.44
347.99	113.44
348.218	115.44
348.445	126.44
348.673	131.44
348.9	113.44
349.128	113.44
349.355	97.44
349.583	105.44
349.81	103.44
350.037	105.44
350.265	110.44
350.492	96.44
350.72	105.44
350.947	105.44
351.174	139.44
351.402	146.44
351.629	131.44
351.856	120.44
352.083	115.44
352.311	121.44
352.538	129.44
352.765	131.44
352.992	137.44
353.22	146.44
353.447	135.44
353.674	102.44
353.901	103.44
354.128	100.44
354.355	96.44
354.583	101.44
354.81	99.44
355.037	100.44
355.264	104.44
355.491	107.44
355.718	85.44
355.945	97.44
356.172	97.44
356.399	100.44
356.626	95.44
356.853	109.44
357.08	104.44
357.307	98.44
357.534	94.44
357.761	100.44
357.988	106.44
358.215	103.44
358.441	89.44
358.668	93.44
358.895	101.44
359.122	99.44
359.349	86.44
359.576	115.44
359.802	121.44
360.029	174.44
360.256	165.44
360.483	137.44
360.709	99.44
360.936	115.44
361.163	113.44
361.39	111.44
361.616	113.44
361.843	100.44
362.07	112.44
362.296	121.44
362.523	112.44
362.749	102.44
362.976	108.44
363.203	105.44
363.429	92.44
363.656	96.44
363.882	106.44
364.109	97.44
364.335	83.44
364.562	106.44
364.788	113.44
365.015	105.44
365.241	129.44
365.468	140.44
365.694	139.44
365.92	100.44
366.147	108.44
366.373	109.44
366.599	99.44
366.826	106.44
367.052	86.44
367.278	106.44
367.505	96.44
367.731	109.44
367.957	115.44
368.184	116.44
368.41	116.44
368.636	146.44
368.862	157.44
369.089	146.44
369.315	124.44
369.541	96.44
369.767	106.44
369.993	108.44
370.219	98.44
370.445	106.44
370.672	87.44
370.898	107.44
371.124	91.44
371.35	84.44
371.576	98.44
371.802	82.44
372.028	97.44
372.254	96.44
372.48	102.44
372.706	90.44
372.932	87.44
373.158	104.44
373.384	97.44
373.61	109.44
373.835	93.44
374.061	89.44
374.287	108.44
374.513	100.44
374.739	93.44
374.965	109.44
375.191	98.44
375.416	93.44
375.642	97.44
375.868	100.44
376.094	97.44
376.319	106.44
376.545	96.44
376.771	93.44
376.997	100.44
377.222	100.44
377.448	89.44
377.674	98.44
377.899	98.44
378.125	91.44
378.35	114.44
378.576	89.44
378.802	108.44
379.027	101.44
379.253	98.44
379.478	80.44
379.704	104.44
379.929	106.44
380.155	104.44
380.38	107.44
380.606	95.44
380.831	99.44
381.057	99.44
381.282	99.44
381.507	99.44
381.733	107.44
381.958	111.44
382.184	101.44
382.409	113.44
382.634	98.44
382.86	104.44
383.085	103.44
383.31	93.44
383.535	102.44
383.761	86.44
383.986	111.44
384.211	100.44
384.436	100.44
384.662	98.44
384.887	111.44
385.112	104.44
385.337	100.44
385.562	103.44
385.787	98.44
386.013	110.44
386.238	122.44
386.463	124.44
386.688	107.44
386.913	111.44
387.138	108.44
387.363	100.44
387.588	101.44
387.813	88.44
388.038	95.44
388.263	102.44
388.488	111.44
388.713	104.44
388.938	103.44
389.163	99.44
389.387	93.44
389.612	107.44
389.837	94.44
390.062	86.44
390.287	99.44
390.512	92.44
390.736	85.44
390.961	86.44
391.186	107.44
391.411	96.44
391.636	89.44
391.86	93.44
392.085	70.44
392.31	101.44
392.534	102.44
392.759	99.44
392.984	92.44
393.208	91.44
393.433	84.44
393.658	94.44
393.882	87.44
394.107	92.44
394.331	87.44
394.556	94.44
394.78	88.44
395.005	94.44
395.229	82.44
395.454	95.44
395.678	72.44
395.903	96.44
396.127	105.44
396.352	97.44
396.576	81.44
396.801	91.44
397.025	78.44
397.249	85.44
397.474	85.44
397.698	90.44
397.922	92.44
398.147	99.44
398.371	86.44
398.595	100.44
398.82	83.44
399.044	90.44
399.268	93.44
399.492	91.44
399.717	92.44
399.941	97.44
400.165	101.44
400.389	99.44
400.613	101.44
400.837	99.44
401.062	92.44
401.286	90.44
401.51	98.44
401.734	104.44
401.958	118.44
402.182	192.44
402.406	278.44
402.63	192.44
402.854	101.44
403.078	113.44
403.302	106.44
403.526	79.44
403.75	95.44
403.974	92.44
404.198	105.44
404.422	103.44
404.645	97.44
404.869	103.44
405.093	127.44
405.317	165.44
405.541	162.44
405.765	126.44
405.988	163.44
406.212	282.44
406.436	456.44
406.66	265.44
406.883	153.44
407.107	120.44
407.331	117.44
407.555	146.44
407.778	111.44
408.002	97.44
408.226	95.44
408.449	107.44
408.673	88.44
408.896	93.44
409.12	106.44
409.344	94.44
409.567	90.44
409.791	86.44
410.014	89.44
410.238	109.44
410.461	97.44
410.685	95.44
410.908	106.44
411.132	105.44
411.355	96.44
411.578	95.44
411.802	94.44
412.025	102.44
412.249	99.44
412.472	106.44
412.695	138.44
412.919	135.44
413.142	107.44
413.365	91.44
413.589	104.44
413.812	96.44
414.035	105.44
414.258	105.44
414.482	88.44
414.705	90.44
414.928	92.44
415.151	101.44
415.374	94.44
415.597	90.44
415.821	76.44
416.044	102.44
416.267	111.44
416.49	86.44
416.713	88.44
416.936	89.44
417.159	90.44
417.382	105.44
417.605	110.44
417.828	111.44
418.051	105.44
418.274	106.44
418.497	79.44
418.72	97.44
418.943	87.44
419.166	95.44
419.389	90.44
419.611	95.44
419.834	99.44
420.057	94.44
420.28	87.44
420.503	102.44
420.726	80.44
420.948	117.44
421.171	123.44
421.394	101.44
421.617	98.44
421.839	94.44
422.062	105.44
422.285	99.44
422.507	106.44
422.73	104.44
422.953	103.44
423.175	92.44
423.398	82.44
423.621	95.44
423.843	90.44
424.066	97.44
424.288	105.44
424.511	106.44
424.733	103.44
424.956	132.44
425.178	131.44
425.401	119.44
425.623	113.44
425.846	93.44
426.068	108.44
426.291	104.44
426.513	105.44
426.735	110.44
426.958	114.44
427.18	134.44
427.402	218.44
427.625	340.44
427.847	287.44
428.069	240.44
428.292	140.44
428.514	100.44
428.736	84.44
428.958	88.44
429.181	99.44
429.403	94.44
429.625	103.44
429.847	101.44
430.069	122.44
430.292	110.44
430.514	109.44
430.736	81.44
430.958	107.44
431.18	97.44
431.402	98.44
431.624	88.44
431.846	82.44
432.068	92.44
432.29	107.44
432.512	101.44
432.734	97.44
432.956	104.44
433.178	113.44
433.4	104.44
433.622	103.44
433.844	104.44
434.066	106.44
434.287	97.44
434.509	98.44
434.731	95.44
434.953	106.44
435.175	92.44
435.397	96.44
435.618	95.44
435.84	110.44
436.062	134.44
436.284	140.44
436.505	106.44
436.727	110.44
436.949	91.44
437.17	80.44
437.392	98.44
437.614	112.44
437.835	141.44
438.057	180.44
438.278	147.44
438.5	130.44
438.721	160.44
438.943	135.44
439.165	103.44
439.386	91.44
439.608	105.44
439.829	114.44
440.05	166.44
440.272	206.44
440.493	122.44
440.715	95.44
440.936	83.44
441.158	101.44
441.379	108.44
441.6	113.44
441.822	110.44
442.043	109.44
442.264	137.44
442.486	122.44
442.707	109.44
442.928	143.44
443.149	199.44
443.371	188.44
443.592	163.44
443.813	153.44
444.034	134.44
444.255	111.44
444.476	112.44
444.698	87.44
444.919	88.44
445.14	139.44
445.361	145.44
445.582	154.44
445.803	188.44
446.024	192.44
446.245	165.44
446.466	136.44
446.687	108.44
446.908	102.44
447.129	98.44
447.35	99.44
447.571	105.44
447.792	114.44
448.013	110.44
448.234	127.44
448.455	129.44
448.675	134.44
448.896	137.44
449.117	127.44
449.338	124.44
449.559	148.44
449.779	161.44
450	96.44
450.221	99.44
450.442	110.44
450.662	116.44
450.883	161.44
451.104	176.44
451.324	123.44
451.545	95.44
451.766	91.44
451.986	81.44
452.207	99.44
452.428	103.44
452.648	128.44
452.869	175.44
453.089	166.44
453.31	181.44
453.53	120.44
453.751	97.44
453.971	141.44
454.192	178.44
454.412	124.44
454.633	106.44
454.853	103.44
455.073	94.44
455.294	99.44
455.514	112.44
455.734	94.44
455.955	82.44
456.175	83.44
456.395	94.44
456.616	98.44
456.836	95.44
457.056	89.44
457.276	80.44
457.497	94.44
457.717	91.44
457.937	92.44
458.157	107.44
458.377	102.44
458.598	149.44
458.818	282.44
459.038	300.44
459.258	181.44
459.478	117.44
459.698	94.44
459.918	88.44
460.138	92.44
460.358	70.44
460.578	104.44
460.798	90.44
461.018	99.44
461.238	98.44
461.458	79.44
461.678	86.44
461.898	91.44
462.118	97.44
462.338	84.44
462.558	104.44
462.777	103.44
462.997	112.44
463.217	120.44
463.437	107.44
463.657	101.44
463.876	111.44
464.096	110.44
464.316	114.44
464.536	123.44
464.755	124.44
464.975	152.44
465.195	310.44
465.414	324.44
465.634	114.44
465.854	101.44
466.073	94.44
466.293	96.44
466.512	106.44
466.732	95.44
466.951	95.44
467.171	102.44
467.391	138.44
467.61	186.44
467.829	287.44
468.049	814.44
468.268	1265.44
468.488	299.44
468.707	126.44
468.927	106.44
469.146	107.44
469.365	90.44
469.585	89.44
469.804	111.44
470.023	136.44
470.243	120.44
470.462	137.44
470.681	181.44
470.901	127.44
471.12	110.44
471.339	127.44
471.558	138.44
471.777	187.44
471.997	388.44
472.216	1587.44
472.435	3706.44
472.654	792.44
472.873	207.44
473.092	113.44
473.311	111.44
473.53	99.44
473.749	104.44
473.968	108.44
474.187	137.44
474.406	112.44
474.625	91.44
474.844	90.44
475.063	80.44
475.282	98.44
475.501	98.44
475.72	78.44
475.939	94.44
476.158	105.44
476.377	90.44
476.596	97.44
476.814	104.44
477.033	108.44
477.252	90.44
477.471	88.44
477.69	100.44
477.908	107.44
478.127	91.44
478.346	105.44
478.564	98.44
478.783	126.44
479.002	119.44
479.22	134.44
479.439	143.44
479.658	163.44
479.876	129.44
480.095	126.44
480.313	154.44
480.532	201.44
480.751	381.44
480.969	1394.44
481.188	6167.44
481.406	3438.44
481.624	476.44
481.843	168.44
482.061	117.44
482.28	114.44
482.498	104.44
482.717	118.44
482.935	96.44
483.153	98.44
483.372	104.44
483.59	90.44
483.808	86.44
484.027	94.44
484.245	104.44
484.463	95.44
484.681	98.44
484.9	94.44
485.118	103.44
485.336	100.44
485.554	111.44
485.772	100.44
485.99	111.44
486.209	114.44
486.427	120.44
486.645	154.44
486.863	136.44
487.081	126.44
487.299	118.44
487.517	117.44
487.735	96.44
487.953	100.44
488.171	97.44
488.389	104.44
488.607	130.44
488.825	104.44
489.043	90.44
489.261	84.44
489.479	97.44
489.696	97.44
489.914	91.44
490.132	104.44
490.35	100.44
490.568	91.44
490.786	91.44
491.003	112.44
491.221	99.44
491.439	102.44
491.657	93.44
491.874	96.44
492.092	97.44
492.31	86.44
492.527	86.44
492.745	104.44
492.963	106.44
493.18	103.44
493.398	99.44
493.615	103.44
493.833	94.44
494.05	91.44
494.268	99.44
494.485	99.44
494.703	89.44
494.92	104.44
495.138	98.44
495.355	94.44
495.573	94.44
495.79	100.44
496.008	86.44
496.225	98.44
496.442	102.44
496.66	97.44
496.877	99.44
497.094	99.44
497.312	91.44
497.529	87.44
497.746	96.44
497.963	104.44
498.181	100.44
498.398	104.44
498.615	120.44
498.832	110.44
499.049	104.44
499.267	100.44
499.484	77.44
499.701	78.44
499.918	91.44
500.135	98.44
500.352	108.44
500.569	100.44
500.786	108.44
501.003	100.44
501.22	101.44
501.437	87.44
501.654	100.44
501.871	140.44
502.088	108.44
502.305	108.44
502.522	111.44
502.739	95.44
502.956	106.44
503.172	100.44
503.389	106.44
503.606	154.44
503.823	114.44
504.04	100.44
504.256	86.44
504.473	100.44
504.69	103.44
504.907	105.44
505.123	92.44
505.34	85.44
505.557	93.44
505.773	100.44
505.99	95.44
506.207	101.44
506.423	77.44
506.64	79.44
506.856	94.44
507.073	103.44
507.289	93.44
507.506	113.44
507.722	165.44
507.939	148.44
508.155	112.44
508.372	84.44
508.588	99.44
508.805	110.44
509.021	99.44
509.238	118.44
509.454	105.44
509.67	111.44
509.887	120.44
510.103	183.44
