Data from Circ_1999_H10_HRD10591_00088.txt Node
Date: Wed Jan 03 11:23:30 EST 2024
User: Yrep
Spectrometer: HR+D1059
Trigger mode: 1
Integration Time (sec): 1.000000E-1
Scans to average: 1
Electric dark correction enabled: true
Nonlinearity correction enabled: false
Boxcar width: 0
XAxis mode: Wavelengths
Number of Pixels in Spectrum: 2048
>>>>>Begin Spectral Data<<<<<
223.165	-23.06
223.4	-23.06
223.635	-23.06
223.869	-4.06
224.104	-24.06
224.338	-18.06
224.573	-18.06
224.808	-5.06
225.042	-10.06
225.277	-13.06
225.511	-3.06
225.746	5.94
225.98	5.94
226.215	9.94
226.449	17.94
226.683	17.94
226.918	29.94
227.152	30.94
227.387	40.94
227.621	38.94
227.856	55.94
228.09	44.94
228.324	61.94
228.559	56.94
228.793	58.94
229.027	49.94
229.262	78.94
229.496	81.94
229.73	107.94
229.964	90.94
230.199	88.94
230.433	81.94
230.667	76.94
230.901	88.94
231.136	66.94
231.37	90.94
231.604	81.94
231.838	77.94
232.072	71.94
232.306	82.94
232.541	89.94
232.775	97.94
233.009	80.94
233.243	70.94
233.477	67.94
233.711	76.94
233.945	85.94
234.179	78.94
234.413	86.94
234.647	77.94
234.881	72.94
235.115	73.94
235.349	66.94
235.583	70.94
235.817	71.94
236.051	78.94
236.285	91.94
236.519	81.94
236.753	94.94
236.987	94.94
237.221	87.94
237.455	94.94
237.689	76.94
237.922	77.94
238.156	66.94
238.39	88.94
238.624	74.94
238.858	84.94
239.091	92.94
239.325	82.94
239.559	90.94
239.793	94.94
240.027	91.94
240.26	87.94
240.494	90.94
240.728	78.94
240.961	85.94
241.195	91.94
241.429	92.94
241.662	75.94
241.896	91.94
242.13	74.94
242.363	82.94
242.597	68.94
242.83	93.94
243.064	82.94
243.298	77.94
243.531	72.94
243.765	73.94
243.998	83.94
244.232	97.94
244.465	88.94
244.699	92.94
244.932	77.94
245.166	69.94
245.399	82.94
245.633	78.94
245.866	80.94
246.099	86.94
246.333	88.94
246.566	81.94
246.8	92.94
247.033	86.94
247.266	91.94
247.5	79.94
247.733	85.94
247.966	92.94
248.2	92.94
248.433	93.94
248.666	81.94
248.899	88.94
249.133	95.94
249.366	105.94
249.599	112.94
249.832	88.94
250.066	92.94
250.299	89.94
250.532	94.94
250.765	87.94
250.998	86.94
251.231	77.94
251.465	84.94
251.698	90.94
251.931	87.94
252.164	71.94
252.397	82.94
252.63	78.94
252.863	82.94
253.096	89.94
253.329	77.94
253.562	84.94
253.795	85.94
254.028	94.94
254.261	92.94
254.494	97.94
254.727	71.94
254.96	75.94
255.193	80.94
255.426	89.94
255.659	82.94
255.892	102.94
256.124	98.94
256.357	97.94
256.59	97.94
256.823	91.94
257.056	88.94
257.289	93.94
257.521	85.94
257.754	80.94
257.987	89.94
258.22	100.94
258.452	106.94
258.685	98.94
258.918	90.94
259.151	81.94
259.383	89.94
259.616	73.94
259.849	80.94
260.081	98.94
260.314	95.94
260.547	90.94
260.779	100.94
261.012	119.94
261.244	116.94
261.477	94.94
261.71	112.94
261.942	156.94
262.175	189.94
262.407	106.94
262.64	91.94
262.872	86.94
263.105	102.94
263.337	90.94
263.57	80.94
263.802	82.94
264.035	81.94
264.267	92.94
264.499	100.94
264.732	89.94
264.964	84.94
265.197	94.94
265.429	73.94
265.661	93.94
265.894	81.94
266.126	93.94
266.358	73.94
266.591	73.94
266.823	91.94
267.055	81.94
267.287	86.94
267.52	89.94
267.752	73.94
267.984	86.94
268.216	90.94
268.448	99.94
268.681	100.94
268.913	99.94
269.145	103.94
269.377	85.94
269.609	74.94
269.841	87.94
270.073	68.94
270.306	79.94
270.538	85.94
270.77	103.94
271.002	89.94
271.234	99.94
271.466	97.94
271.698	101.94
271.93	88.94
272.162	89.94
272.394	94.94
272.626	88.94
272.858	89.94
273.09	84.94
273.322	80.94
273.553	97.94
273.785	79.94
274.017	83.94
274.249	83.94
274.481	97.94
274.713	90.94
274.945	85.94
275.176	97.94
275.408	99.94
275.64	125.94
275.872	158.94
276.104	124.94
276.335	108.94
276.567	137.94
276.799	187.94
277.031	231.94
277.262	256.94
277.494	183.94
277.726	103.94
277.957	99.94
278.189	94.94
278.421	94.94
278.652	92.94
278.884	83.94
279.115	89.94
279.347	104.94
279.579	113.94
279.81	164.94
280.042	275.94
280.273	380.94
280.505	229.94
280.736	120.94
280.968	109.94
281.199	100.94
281.431	109.94
281.662	106.94
281.894	101.94
282.125	112.94
282.356	158.94
282.588	215.94
282.819	162.94
283.051	104.94
283.282	88.94
283.513	100.94
283.745	93.94
283.976	88.94
284.207	86.94
284.439	102.94
284.67	76.94
284.901	90.94
285.132	92.94
285.364	100.94
285.595	87.94
285.826	98.94
286.057	86.94
286.288	76.94
286.52	81.94
286.751	91.94
286.982	97.94
287.213	95.94
287.444	90.94
287.675	99.94
287.906	99.94
288.138	106.94
288.369	85.94
288.6	109.94
288.831	83.94
289.062	92.94
289.293	102.94
289.524	95.94
289.755	92.94
289.986	88.94
290.217	78.94
290.448	90.94
290.679	79.94
290.91	96.94
291.141	85.94
291.371	88.94
291.602	94.94
291.833	101.94
292.064	93.94
292.295	88.94
292.526	91.94
292.757	83.94
292.987	78.94
293.218	99.94
293.449	89.94
293.68	84.94
293.91	92.94
294.141	85.94
294.372	91.94
294.603	98.94
294.833	92.94
295.064	93.94
295.295	96.94
295.525	103.94
295.756	109.94
295.987	153.94
296.217	226.94
296.448	193.94
296.679	96.94
296.909	95.94
297.14	98.94
297.37	85.94
297.601	88.94
297.831	91.94
298.062	90.94
298.292	93.94
298.523	82.94
298.753	96.94
298.984	87.94
299.214	94.94
299.445	94.94
299.675	98.94
299.905	107.94
300.136	93.94
300.366	96.94
300.597	90.94
300.827	95.94
301.057	128.94
301.288	134.94
301.518	112.94
301.748	102.94
301.979	113.94
302.209	92.94
302.439	92.94
302.669	84.94
302.9	91.94
303.13	99.94
303.36	136.94
303.59	159.94
303.82	188.94
304.051	122.94
304.281	97.94
304.511	98.94
304.741	97.94
304.971	103.94
305.201	100.94
305.431	96.94
305.661	90.94
305.891	94.94
306.121	122.94
306.352	115.94
306.582	123.94
306.812	114.94
307.042	143.94
307.272	201.94
307.502	249.94
307.731	212.94
307.961	165.94
308.191	96.94
308.421	101.94
308.651	94.94
308.881	97.94
309.111	94.94
309.341	107.94
309.571	126.94
309.8	106.94
310.03	120.94
310.26	111.94
310.49	113.94
310.72	142.94
310.949	131.94
311.179	120.94
311.409	104.94
311.639	116.94
311.868	108.94
312.098	92.94
312.328	110.94
312.557	120.94
312.787	149.94
313.017	132.94
313.246	134.94
313.476	106.94
313.706	99.94
313.935	107.94
314.165	105.94
314.394	129.94
314.624	107.94
314.853	120.94
315.083	113.94
315.312	108.94
315.542	98.94
315.771	92.94
316.001	88.94
316.23	89.94
316.46	97.94
316.689	96.94
316.919	106.94
317.148	120.94
317.377	104.94
317.607	116.94
317.836	104.94
318.065	91.94
318.295	94.94
318.524	98.94
318.753	94.94
318.983	108.94
319.212	114.94
319.441	135.94
319.67	127.94
319.9	96.94
320.129	107.94
320.358	95.94
320.587	96.94
320.816	107.94
321.046	130.94
321.275	120.94
321.504	106.94
321.733	92.94
321.962	113.94
322.191	128.94
322.42	119.94
322.649	136.94
322.878	128.94
323.108	145.94
323.337	168.94
323.566	177.94
323.795	210.94
324.024	286.94
324.253	551.94
324.482	1172.94
324.71	2360.94
324.939	3067.94
325.168	1163.94
325.397	328.94
325.626	180.94
325.855	171.94
326.084	154.94
326.313	163.94
326.542	192.94
326.77	282.94
326.999	564.94
327.228	1116.94
327.457	2121.94
327.686	1745.94
327.914	708.94
328.143	791.94
328.372	1036.94
328.6	554.94
328.829	257.94
329.058	261.94
329.287	276.94
329.515	235.94
329.744	338.94
329.972	726.94
330.201	1577.94
330.43	2285.94
330.658	981.94
330.887	423.94
331.115	248.94
331.344	161.94
331.572	144.94
331.801	153.94
332.03	136.94
332.258	118.94
332.486	107.94
332.715	126.94
332.943	124.94
333.172	157.94
333.4	165.94
333.629	209.94
333.857	321.94
334.085	650.94
334.314	1439.94
334.542	2810.94
334.771	2528.94
334.999	617.94
335.227	232.94
335.455	163.94
335.684	139.94
335.912	125.94
336.14	118.94
336.369	117.94
336.597	135.94
336.825	120.94
337.053	103.94
337.281	101.94
337.51	112.94
337.738	111.94
337.966	104.94
338.194	118.94
338.422	113.94
338.65	106.94
338.878	111.94
339.106	90.94
339.334	98.94
339.562	98.94
339.79	111.94
340.018	99.94
340.246	101.94
340.474	113.94
340.702	97.94
340.93	89.94
341.158	106.94
341.386	108.94
341.614	100.94
341.842	109.94
342.07	90.94
342.298	101.94
342.526	90.94
342.754	88.94
342.981	96.94
343.209	77.94
343.437	87.94
343.665	81.94
343.893	90.94
344.12	98.94
344.348	94.94
344.576	112.94
344.804	108.94
345.031	118.94
345.259	128.94
345.487	112.94
345.714	118.94
345.942	105.94
346.17	94.94
346.397	100.94
346.625	103.94
346.853	105.94
347.08	110.94
347.308	109.94
347.535	103.94
347.763	114.94
347.99	110.94
348.218	103.94
348.445	107.94
348.673	118.94
348.9	104.94
349.128	91.94
349.355	92.94
349.583	101.94
349.81	116.94
350.037	118.94
350.265	95.94
350.492	97.94
350.72	98.94
350.947	118.94
351.174	141.94
351.402	137.94
351.629	115.94
351.856	119.94
352.083	125.94
352.311	117.94
352.538	136.94
352.765	138.94
352.992	129.94
353.22	133.94
353.447	128.94
353.674	102.94
353.901	98.94
354.128	90.94
354.355	82.94
354.583	101.94
354.81	103.94
355.037	109.94
355.264	117.94
355.491	94.94
355.718	95.94
355.945	91.94
356.172	104.94
356.399	83.94
356.626	97.94
356.853	90.94
357.08	103.94
357.307	89.94
357.534	98.94
357.761	93.94
357.988	92.94
358.215	95.94
358.441	105.94
358.668	97.94
358.895	100.94
359.122	88.94
359.349	89.94
359.576	105.94
359.802	132.94
360.029	175.94
360.256	178.94
360.483	131.94
360.709	105.94
360.936	114.94
361.163	106.94
361.39	104.94
361.616	111.94
361.843	104.94
362.07	128.94
362.296	106.94
362.523	109.94
362.749	104.94
362.976	105.94
363.203	113.94
363.429	90.94
363.656	104.94
363.882	92.94
364.109	85.94
364.335	100.94
364.562	102.94
364.788	88.94
365.015	105.94
365.241	119.94
365.468	132.94
365.694	140.94
365.92	120.94
366.147	101.94
366.373	84.94
366.599	91.94
366.826	96.94
367.052	102.94
367.278	89.94
367.505	108.94
367.731	95.94
367.957	108.94
368.184	101.94
368.41	121.94
368.636	158.94
368.862	150.94
369.089	139.94
369.315	112.94
369.541	94.94
369.767	99.94
369.993	91.94
370.219	105.94
370.445	100.94
370.672	93.94
370.898	95.94
371.124	84.94
371.35	88.94
371.576	94.94
371.802	91.94
372.028	88.94
372.254	87.94
372.48	87.94
372.706	76.94
372.932	101.94
373.158	84.94
373.384	97.94
373.61	102.94
373.835	96.94
374.061	82.94
374.287	96.94
374.513	91.94
374.739	101.94
374.965	97.94
375.191	87.94
375.416	77.94
375.642	82.94
375.868	86.94
376.094	91.94
376.319	93.94
376.545	89.94
376.771	97.94
376.997	91.94
377.222	82.94
377.448	100.94
377.674	89.94
377.899	95.94
378.125	85.94
378.35	77.94
378.576	91.94
378.802	89.94
379.027	88.94
379.253	97.94
379.478	82.94
379.704	92.94
379.929	94.94
380.155	105.94
380.38	105.94
380.606	84.94
380.831	96.94
381.057	100.94
381.282	83.94
381.507	96.94
381.733	85.94
381.958	84.94
382.184	79.94
382.409	96.94
382.634	96.94
382.86	109.94
383.085	100.94
383.31	90.94
383.535	93.94
383.761	98.94
383.986	100.94
384.211	108.94
384.436	81.94
384.662	101.94
384.887	98.94
385.112	112.94
385.337	97.94
385.562	108.94
385.787	107.94
386.013	106.94
386.238	119.94
386.463	109.94
386.688	113.94
386.913	103.94
387.138	106.94
387.363	91.94
387.588	104.94
387.813	93.94
388.038	108.94
388.263	104.94
388.488	94.94
388.713	92.94
388.938	98.94
389.163	89.94
389.387	98.94
389.612	100.94
389.837	101.94
390.062	98.94
390.287	94.94
390.512	101.94
390.736	93.94
390.961	88.94
391.186	87.94
391.411	89.94
391.636	74.94
391.86	89.94
392.085	93.94
392.31	100.94
392.534	89.94
392.759	101.94
392.984	85.94
393.208	88.94
393.433	88.94
393.658	91.94
393.882	89.94
394.107	83.94
394.331	92.94
394.556	79.94
394.78	94.94
395.005	104.94
395.229	85.94
395.454	79.94
395.678	90.94
395.903	88.94
396.127	93.94
396.352	97.94
396.576	101.94
396.801	90.94
397.025	88.94
397.249	105.94
397.474	101.94
397.698	80.94
397.922	83.94
398.147	84.94
398.371	90.94
398.595	82.94
398.82	80.94
399.044	73.94
399.268	80.94
399.492	82.94
399.717	95.94
399.941	92.94
400.165	95.94
400.389	90.94
400.613	101.94
400.837	95.94
401.062	76.94
401.286	85.94
401.51	91.94
401.734	97.94
401.958	119.94
402.182	184.94
402.406	268.94
402.63	176.94
402.854	108.94
403.078	104.94
403.302	96.94
403.526	92.94
403.75	89.94
403.974	95.94
404.198	92.94
404.422	88.94
404.645	98.94
404.869	110.94
405.093	144.94
405.317	154.94
405.541	168.94
405.765	148.94
405.988	164.94
406.212	292.94
406.436	458.94
406.66	276.94
406.883	144.94
407.107	116.94
407.331	113.94
407.555	136.94
407.778	115.94
408.002	105.94
408.226	93.94
408.449	96.94
408.673	89.94
408.896	103.94
409.12	106.94
409.344	93.94
409.567	88.94
409.791	76.94
410.014	95.94
410.238	81.94
410.461	107.94
410.685	88.94
410.908	110.94
411.132	110.94
411.355	107.94
411.578	87.94
411.802	90.94
412.025	85.94
412.249	106.94
412.472	123.94
412.695	141.94
412.919	108.94
413.142	87.94
413.365	99.94
413.589	89.94
413.812	87.94
414.035	104.94
414.258	81.94
414.482	97.94
414.705	102.94
414.928	102.94
415.151	94.94
415.374	93.94
415.597	82.94
415.821	106.94
416.044	110.94
416.267	94.94
416.49	84.94
416.713	94.94
416.936	89.94
417.159	85.94
417.382	94.94
417.605	113.94
417.828	127.94
418.051	108.94
418.274	97.94
418.497	73.94
418.72	90.94
418.943	68.94
419.166	98.94
419.389	95.94
419.611	87.94
419.834	98.94
420.057	103.94
420.28	92.94
420.503	82.94
420.726	102.94
420.948	100.94
421.171	107.94
421.394	115.94
421.617	75.94
421.839	93.94
422.062	90.94
422.285	95.94
422.507	110.94
422.73	115.94
422.953	104.94
423.175	80.94
423.398	95.94
423.621	102.94
423.843	86.94
424.066	85.94
424.288	98.94
424.511	77.94
424.733	106.94
424.956	116.94
425.178	101.94
425.401	125.94
425.623	104.94
425.846	90.94
426.068	112.94
426.291	112.94
426.513	112.94
426.735	98.94
426.958	99.94
427.18	122.94
427.402	212.94
427.625	332.94
427.847	286.94
428.069	222.94
428.292	129.94
428.514	104.94
428.736	104.94
428.958	98.94
429.181	98.94
429.403	101.94
429.625	95.94
429.847	93.94
430.069	108.94
430.292	97.94
430.514	99.94
430.736	86.94
430.958	88.94
431.18	92.94
431.402	84.94
431.624	95.94
431.846	85.94
432.068	89.94
432.29	92.94
432.512	76.94
432.734	95.94
432.956	91.94
433.178	91.94
433.4	109.94
433.622	95.94
433.844	100.94
434.066	98.94
434.287	97.94
434.509	88.94
434.731	111.94
434.953	90.94
435.175	95.94
435.397	92.94
435.618	106.94
435.84	125.94
436.062	126.94
436.284	140.94
436.505	105.94
436.727	116.94
436.949	97.94
437.17	98.94
437.392	102.94
437.614	106.94
437.835	145.94
438.057	175.94
438.278	151.94
438.5	120.94
438.721	139.94
438.943	113.94
439.165	85.94
439.386	84.94
439.608	98.94
439.829	114.94
440.05	155.94
440.272	190.94
440.493	124.94
440.715	103.94
440.936	97.94
441.158	97.94
441.379	102.94
441.6	87.94
441.822	108.94
442.043	110.94
442.264	112.94
442.486	124.94
442.707	100.94
442.928	133.94
443.149	198.94
443.371	202.94
443.592	136.94
443.813	135.94
444.034	128.94
444.255	96.94
444.476	102.94
444.698	86.94
444.919	98.94
445.14	140.94
445.361	137.94
445.582	148.94
445.803	181.94
446.024	198.94
446.245	182.94
446.466	132.94
446.687	107.94
446.908	101.94
447.129	108.94
447.35	100.94
447.571	93.94
447.792	102.94
448.013	115.94
448.234	140.94
448.455	121.94
448.675	151.94
448.896	147.94
449.117	127.94
449.338	122.94
449.559	148.94
449.779	156.94
450	90.94
450.221	64.94
450.442	88.94
450.662	110.94
450.883	152.94
451.104	180.94
451.324	106.94
451.545	84.94
451.766	93.94
451.986	93.94
452.207	94.94
452.428	118.94
452.648	134.94
452.869	151.94
453.089	165.94
453.31	179.94
453.53	97.94
453.751	94.94
453.971	139.94
454.192	158.94
454.412	100.94
454.633	113.94
454.853	102.94
455.073	96.94
455.294	87.94
455.514	111.94
455.734	96.94
455.955	91.94
456.175	95.94
456.395	94.94
456.616	90.94
456.836	84.94
457.056	95.94
457.276	90.94
457.497	100.94
457.717	86.94
457.937	76.94
458.157	108.94
458.377	122.94
458.598	150.94
458.818	288.94
459.038	313.94
459.258	178.94
459.478	105.94
459.698	90.94
459.918	83.94
460.138	81.94
460.358	90.94
460.578	85.94
460.798	99.94
461.018	98.94
461.238	73.94
461.458	75.94
461.678	89.94
461.898	95.94
462.118	87.94
462.338	85.94
462.558	98.94
462.777	98.94
462.997	99.94
463.217	116.94
463.437	98.94
463.657	99.94
463.876	73.94
464.096	106.94
464.316	106.94
464.536	115.94
464.755	114.94
464.975	162.94
465.195	331.94
465.414	314.94
465.634	119.94
465.854	92.94
466.073	91.94
466.293	96.94
466.512	92.94
466.732	95.94
466.951	90.94
467.171	112.94
467.391	119.94
467.61	191.94
467.829	308.94
468.049	947.94
468.268	1397.94
468.488	323.94
468.707	118.94
468.927	108.94
469.146	123.94
469.365	114.94
469.585	89.94
469.804	129.94
470.023	120.94
470.243	102.94
470.462	143.94
470.681	158.94
470.901	138.94
471.12	112.94
471.339	121.94
471.558	128.94
471.777	208.94
471.997	445.94
472.216	1844.94
472.435	4157.94
472.654	875.94
472.873	198.94
473.092	117.94
473.311	122.94
473.53	95.94
473.749	92.94
473.968	116.94
474.187	134.94
474.406	130.94
474.625	97.94
474.844	104.94
475.063	108.94
475.282	87.94
475.501	77.94
475.72	79.94
475.939	93.94
476.158	95.94
476.377	107.94
476.596	100.94
476.814	90.94
477.033	117.94
477.252	98.94
477.471	99.94
477.69	104.94
477.908	83.94
478.127	90.94
478.346	89.94
478.564	98.94
478.783	129.94
479.002	123.94
479.22	118.94
479.439	156.94
479.658	167.94
479.876	172.94
480.095	139.94
480.313	156.94
480.532	215.94
480.751	421.94
480.969	1599.94
481.188	7132.94
481.406	3896.94
481.624	516.94
481.843	178.94
482.061	110.94
482.28	113.94
482.498	111.94
482.717	97.94
482.935	114.94
483.153	95.94
483.372	101.94
483.59	108.94
483.808	102.94
484.027	95.94
484.245	94.94
484.463	107.94
484.681	110.94
484.9	101.94
485.118	104.94
485.336	112.94
485.554	111.94
485.772	94.94
485.99	103.94
486.209	116.94
486.427	119.94
486.645	132.94
486.863	169.94
487.081	117.94
487.299	107.94
487.517	98.94
487.735	97.94
487.953	89.94
488.171	96.94
488.389	115.94
488.607	132.94
488.825	84.94
489.043	96.94
489.261	102.94
489.479	93.94
489.696	96.94
489.914	91.94
490.132	83.94
490.35	104.94
490.568	87.94
490.786	89.94
491.003	97.94
491.221	87.94
491.439	110.94
491.657	97.94
491.874	87.94
492.092	92.94
492.31	104.94
492.527	116.94
492.745	106.94
492.963	108.94
493.18	92.94
493.398	97.94
493.615	91.94
493.833	90.94
494.05	87.94
494.268	85.94
494.485	89.94
494.703	98.94
494.92	95.94
495.138	97.94
495.355	98.94
495.573	97.94
495.79	88.94
496.008	95.94
496.225	111.94
496.442	97.94
496.66	96.94
496.877	109.94
497.094	92.94
497.312	104.94
497.529	84.94
497.746	91.94
497.963	84.94
498.181	81.94
498.398	110.94
498.615	116.94
498.832	110.94
499.049	92.94
499.267	94.94
499.484	87.94
499.701	96.94
499.918	86.94
500.135	106.94
500.352	94.94
500.569	97.94
500.786	95.94
501.003	98.94
501.22	101.94
501.437	111.94
501.654	116.94
501.871	157.94
502.088	114.94
502.305	92.94
502.522	100.94
502.739	95.94
502.956	102.94
503.172	106.94
503.389	119.94
503.606	146.94
503.823	105.94
504.04	111.94
504.256	110.94
504.473	95.94
504.69	90.94
504.907	104.94
505.123	105.94
505.34	95.94
505.557	98.94
505.773	109.94
505.99	92.94
506.207	89.94
506.423	84.94
506.64	98.94
506.856	90.94
507.073	95.94
507.289	104.94
507.506	97.94
507.722	145.94
507.939	165.94
508.155	117.94
508.372	96.94
508.588	89.94
508.805	110.94
509.021	105.94
509.238	105.94
509.454	117.94
509.67	112.94
509.887	125.94
510.103	172.94
510.319	332.94
510.536	1403.94
510.752	5086.94
510.968	1293.94
511.184	236.94
511.401	160.94
