Data from Circ_1999_H10_HRD10591_00041.txt Node
Date: Wed Jan 03 11:23:20 EST 2024
User: Yrep
Spectrometer: HR+D1059
Trigger mode: 1
Integration Time (sec): 1.000000E-1
Scans to average: 1
Electric dark correction enabled: true
Nonlinearity correction enabled: false
Boxcar width: 0
XAxis mode: Wavelengths
Number of Pixels in Spectrum: 2048
>>>>>Begin Spectral Data<<<<<
223.165	-17.75
223.4	-17.75
223.635	-17.75
223.869	-17.75
224.104	-17.75
224.338	0.25
224.573	-12.75
224.808	-8.75
225.042	-6.75
225.277	-7.75
225.511	-1.75
225.746	-5.75
225.98	22.25
226.215	11.25
226.449	1.25
226.683	27.25
226.918	9.25
227.152	25.25
227.387	38.25
227.621	39.25
227.856	50.25
228.09	47.25
228.324	46.25
228.559	46.25
228.793	63.25
229.027	66.25
229.262	67.25
229.496	81.25
229.73	107.25
229.964	99.25
230.199	89.25
230.433	81.25
230.667	83.25
230.901	68.25
231.136	66.25
231.37	79.25
231.604	70.25
231.838	85.25
232.072	85.25
232.306	83.25
232.541	89.25
232.775	79.25
233.009	83.25
233.243	82.25
233.477	84.25
233.711	92.25
233.945	85.25
234.179	87.25
234.413	93.25
234.647	88.25
234.881	84.25
235.115	82.25
235.349	91.25
235.583	74.25
235.817	79.25
236.051	91.25
236.285	80.25
236.519	72.25
236.753	72.25
236.987	87.25
237.221	90.25
237.455	112.25
237.689	92.25
237.922	85.25
238.156	75.25
238.39	79.25
238.624	82.25
238.858	93.25
239.091	80.25
239.325	89.25
239.559	92.25
239.793	89.25
240.027	68.25
240.26	78.25
240.494	82.25
240.728	70.25
240.961	73.25
241.195	79.25
241.429	91.25
241.662	81.25
241.896	75.25
242.13	66.25
242.363	86.25
242.597	73.25
242.83	73.25
243.064	77.25
243.298	78.25
243.531	79.25
243.765	86.25
243.998	97.25
244.232	91.25
244.465	88.25
244.699	85.25
244.932	62.25
245.166	92.25
245.399	81.25
245.633	85.25
245.866	86.25
246.099	78.25
246.333	89.25
246.566	77.25
246.8	83.25
247.033	84.25
247.266	75.25
247.5	76.25
247.733	85.25
247.966	81.25
248.2	86.25
248.433	79.25
248.666	88.25
248.899	96.25
249.133	69.25
249.366	112.25
249.599	113.25
249.832	107.25
250.066	101.25
250.299	92.25
250.532	101.25
250.765	84.25
250.998	72.25
251.231	93.25
251.465	92.25
251.698	92.25
251.931	101.25
252.164	94.25
252.397	88.25
252.63	105.25
252.863	85.25
253.096	77.25
253.329	73.25
253.562	78.25
253.795	83.25
254.028	83.25
254.261	75.25
254.494	87.25
254.727	85.25
254.96	86.25
255.193	90.25
255.426	88.25
255.659	95.25
255.892	101.25
256.124	111.25
256.357	90.25
256.59	91.25
256.823	95.25
257.056	83.25
257.289	95.25
257.521	92.25
257.754	86.25
257.987	93.25
258.22	109.25
258.452	100.25
258.685	111.25
258.918	96.25
259.151	89.25
259.383	83.25
259.616	83.25
259.849	77.25
260.081	86.25
260.314	85.25
260.547	95.25
260.779	85.25
261.012	109.25
261.244	125.25
261.477	102.25
261.71	115.25
261.942	176.25
262.175	191.25
262.407	126.25
262.64	90.25
262.872	84.25
263.105	87.25
263.337	87.25
263.57	92.25
263.802	87.25
264.035	83.25
264.267	88.25
264.499	88.25
264.732	89.25
264.964	75.25
265.197	85.25
265.429	83.25
265.661	79.25
265.894	85.25
266.126	96.25
266.358	96.25
266.591	84.25
266.823	97.25
267.055	95.25
267.287	89.25
267.52	86.25
267.752	104.25
267.984	92.25
268.216	91.25
268.448	102.25
268.681	89.25
268.913	96.25
269.145	94.25
269.377	87.25
269.609	99.25
269.841	96.25
270.073	77.25
270.306	93.25
270.538	92.25
270.77	82.25
271.002	99.25
271.234	104.25
271.466	117.25
271.698	88.25
271.93	100.25
272.162	97.25
272.394	99.25
272.626	90.25
272.858	80.25
273.09	87.25
273.322	92.25
273.553	82.25
273.785	90.25
274.017	89.25
274.249	82.25
274.481	97.25
274.713	92.25
274.945	88.25
275.176	95.25
275.408	114.25
275.64	131.25
275.872	132.25
276.104	121.25
276.335	116.25
276.567	149.25
276.799	187.25
277.031	222.25
277.262	232.25
277.494	187.25
277.726	121.25
277.957	99.25
278.189	112.25
278.421	97.25
278.652	91.25
278.884	85.25
279.115	87.25
279.347	99.25
279.579	110.25
279.81	164.25
280.042	241.25
280.273	353.25
280.505	225.25
280.736	131.25
280.968	99.25
281.199	90.25
281.431	91.25
281.662	91.25
281.894	103.25
282.125	127.25
282.356	175.25
282.588	218.25
282.819	167.25
283.051	105.25
283.282	106.25
283.513	79.25
283.745	91.25
283.976	87.25
284.207	103.25
284.439	98.25
284.67	95.25
284.901	91.25
285.132	98.25
285.364	78.25
285.595	90.25
285.826	86.25
286.057	92.25
286.288	82.25
286.52	105.25
286.751	89.25
286.982	95.25
287.213	71.25
287.444	98.25
287.675	99.25
287.906	78.25
288.138	91.25
288.369	87.25
288.6	95.25
288.831	91.25
289.062	95.25
289.293	94.25
289.524	98.25
289.755	102.25
289.986	87.25
290.217	89.25
290.448	92.25
290.679	98.25
290.91	109.25
291.141	104.25
291.371	89.25
291.602	90.25
291.833	85.25
292.064	89.25
292.295	91.25
292.526	103.25
292.757	86.25
292.987	99.25
293.218	92.25
293.449	89.25
293.68	85.25
293.91	99.25
294.141	82.25
294.372	91.25
294.603	104.25
294.833	85.25
295.064	93.25
295.295	75.25
295.525	91.25
295.756	117.25
295.987	163.25
296.217	199.25
296.448	181.25
296.679	97.25
296.909	101.25
297.14	85.25
297.37	90.25
297.601	102.25
297.831	94.25
298.062	86.25
298.292	94.25
298.523	88.25
298.753	92.25
298.984	83.25
299.214	101.25
299.445	77.25
299.675	112.25
299.905	108.25
300.136	98.25
300.366	95.25
300.597	95.25
300.827	97.25
301.057	129.25
301.288	133.25
301.518	121.25
301.748	109.25
301.979	115.25
302.209	109.25
302.439	98.25
302.669	106.25
302.9	85.25
303.13	94.25
303.36	111.25
303.59	157.25
303.82	174.25
304.051	109.25
304.281	111.25
304.511	110.25
304.741	98.25
304.971	91.25
305.201	105.25
305.431	91.25
305.661	83.25
305.891	94.25
306.121	109.25
306.352	134.25
306.582	131.25
306.812	138.25
307.042	152.25
307.272	200.25
307.502	211.25
307.731	213.25
307.961	131.25
308.191	109.25
308.421	112.25
308.651	102.25
308.881	107.25
309.111	120.25
309.341	117.25
309.571	112.25
309.8	119.25
310.03	123.25
310.26	119.25
310.49	115.25
310.72	118.25
310.949	138.25
311.179	130.25
311.409	107.25
311.639	120.25
311.868	113.25
312.098	114.25
312.328	128.25
312.557	139.25
312.787	165.25
313.017	126.25
313.246	98.25
313.476	103.25
313.706	101.25
313.935	107.25
314.165	128.25
314.394	138.25
314.624	139.25
314.853	120.25
315.083	117.25
315.312	96.25
315.542	85.25
315.771	101.25
316.001	97.25
316.23	101.25
316.46	104.25
316.689	85.25
316.919	109.25
317.148	113.25
317.377	106.25
317.607	112.25
317.836	101.25
318.065	103.25
318.295	111.25
318.524	107.25
318.753	103.25
318.983	109.25
319.212	110.25
319.441	132.25
319.67	128.25
319.9	104.25
320.129	108.25
320.358	108.25
320.587	110.25
320.816	120.25
321.046	115.25
321.275	123.25
321.504	112.25
321.733	104.25
321.962	127.25
322.191	122.25
322.42	123.25
322.649	135.25
322.878	146.25
323.108	142.25
323.337	162.25
323.566	169.25
323.795	220.25
324.024	293.25
324.253	562.25
324.482	1229.25
324.71	2515.25
324.939	3253.25
325.168	1203.25
325.397	347.25
325.626	207.25
325.855	155.25
326.084	167.25
326.313	177.25
326.542	194.25
326.77	306.25
326.999	619.25
327.228	1226.25
327.457	2272.25
327.686	1855.25
327.914	700.25
328.143	741.25
328.372	920.25
328.6	521.25
328.829	238.25
329.058	251.25
329.287	282.25
329.515	209.25
329.744	331.25
329.972	666.25
330.201	1410.25
330.43	2011.25
330.658	871.25
330.887	407.25
331.115	269.25
331.344	146.25
331.572	134.25
331.801	161.25
332.03	151.25
332.258	124.25
332.486	121.25
332.715	130.25
332.943	128.25
333.172	138.25
333.4	158.25
333.629	183.25
333.857	280.25
334.085	601.25
334.314	1278.25
334.542	2496.25
334.771	2272.25
334.999	537.25
335.227	209.25
335.455	151.25
335.684	157.25
335.912	102.25
336.14	122.25
336.369	131.25
336.597	133.25
336.825	127.25
337.053	112.25
337.281	93.25
337.51	111.25
337.738	109.25
337.966	123.25
338.194	126.25
338.422	114.25
338.65	113.25
338.878	114.25
339.106	97.25
339.334	99.25
339.562	99.25
339.79	106.25
340.018	92.25
340.246	113.25
340.474	101.25
340.702	96.25
340.93	105.25
341.158	101.25
341.386	122.25
341.614	119.25
341.842	109.25
342.07	103.25
342.298	104.25
342.526	97.25
342.754	105.25
342.981	95.25
343.209	99.25
343.437	113.25
343.665	86.25
343.893	95.25
344.12	98.25
344.348	105.25
344.576	95.25
344.804	106.25
345.031	104.25
345.259	130.25
345.487	97.25
345.714	104.25
345.942	117.25
346.17	86.25
346.397	110.25
346.625	127.25
346.853	89.25
347.08	112.25
347.308	106.25
347.535	115.25
347.763	136.25
347.99	120.25
348.218	119.25
348.445	147.25
348.673	123.25
348.9	113.25
349.128	95.25
349.355	106.25
349.583	102.25
349.81	107.25
350.037	106.25
350.265	106.25
350.492	95.25
350.72	103.25
350.947	111.25
351.174	128.25
351.402	141.25
351.629	115.25
351.856	114.25
352.083	132.25
352.311	133.25
352.538	139.25
352.765	132.25
352.992	145.25
353.22	135.25
353.447	121.25
353.674	114.25
353.901	108.25
354.128	93.25
354.355	117.25
354.583	103.25
354.81	107.25
355.037	93.25
355.264	95.25
355.491	95.25
355.718	97.25
355.945	98.25
356.172	103.25
356.399	87.25
356.626	111.25
356.853	105.25
357.08	93.25
357.307	99.25
357.534	97.25
357.761	109.25
357.988	96.25
358.215	94.25
358.441	102.25
358.668	94.25
358.895	96.25
359.122	86.25
359.349	86.25
359.576	112.25
359.802	121.25
360.029	182.25
360.256	178.25
360.483	138.25
360.709	89.25
360.936	92.25
361.163	97.25
361.39	115.25
361.616	120.25
361.843	93.25
362.07	112.25
362.296	130.25
362.523	111.25
362.749	114.25
362.976	89.25
363.203	79.25
363.429	105.25
363.656	96.25
363.882	98.25
364.109	88.25
364.335	106.25
364.562	108.25
364.788	119.25
365.015	110.25
365.241	129.25
365.468	121.25
365.694	126.25
365.92	105.25
366.147	114.25
366.373	77.25
366.599	96.25
366.826	96.25
367.052	99.25
367.278	96.25
367.505	97.25
367.731	96.25
367.957	118.25
368.184	109.25
368.41	126.25
368.636	145.25
368.862	148.25
369.089	143.25
369.315	105.25
369.541	114.25
369.767	105.25
369.993	111.25
370.219	107.25
370.445	84.25
370.672	86.25
370.898	84.25
371.124	87.25
371.35	91.25
371.576	104.25
371.802	95.25
372.028	90.25
372.254	94.25
372.48	96.25
372.706	90.25
372.932	81.25
373.158	97.25
373.384	86.25
373.61	82.25
373.835	99.25
374.061	87.25
374.287	95.25
374.513	97.25
374.739	90.25
374.965	91.25
375.191	93.25
375.416	92.25
375.642	93.25
375.868	86.25
376.094	91.25
376.319	104.25
376.545	112.25
376.771	108.25
376.997	93.25
377.222	78.25
377.448	86.25
377.674	102.25
377.899	89.25
378.125	89.25
378.35	101.25
378.576	105.25
378.802	83.25
379.027	83.25
379.253	99.25
379.478	95.25
379.704	100.25
379.929	97.25
380.155	120.25
380.38	105.25
380.606	103.25
380.831	89.25
381.057	89.25
381.282	79.25
381.507	96.25
381.733	94.25
381.958	101.25
382.184	85.25
382.409	96.25
382.634	111.25
382.86	113.25
383.085	100.25
383.31	103.25
383.535	96.25
383.761	96.25
383.986	94.25
384.211	90.25
384.436	95.25
384.662	105.25
384.887	98.25
385.112	104.25
385.337	101.25
385.562	113.25
385.787	129.25
386.013	116.25
386.238	141.25
386.463	118.25
386.688	113.25
386.913	98.25
387.138	103.25
387.363	108.25
387.588	99.25
387.813	111.25
388.038	103.25
388.263	103.25
388.488	114.25
388.713	89.25
388.938	94.25
389.163	93.25
389.387	91.25
389.612	90.25
389.837	97.25
390.062	107.25
390.287	103.25
390.512	89.25
390.736	80.25
390.961	85.25
391.186	85.25
391.411	99.25
391.636	79.25
391.86	83.25
392.085	79.25
392.31	87.25
392.534	91.25
392.759	80.25
392.984	90.25
393.208	95.25
393.433	98.25
393.658	93.25
393.882	74.25
394.107	90.25
394.331	84.25
394.556	94.25
394.78	83.25
395.005	102.25
395.229	93.25
395.454	86.25
395.678	94.25
395.903	98.25
396.127	107.25
396.352	89.25
396.576	82.25
396.801	88.25
397.025	83.25
397.249	90.25
397.474	90.25
397.698	89.25
397.922	85.25
398.147	70.25
398.371	95.25
398.595	87.25
398.82	100.25
399.044	93.25
399.268	94.25
399.492	100.25
399.717	86.25
399.941	98.25
400.165	92.25
400.389	90.25
400.613	93.25
400.837	94.25
401.062	85.25
401.286	104.25
401.51	108.25
401.734	103.25
401.958	117.25
402.182	195.25
402.406	273.25
402.63	194.25
402.854	123.25
403.078	106.25
403.302	103.25
403.526	87.25
403.75	89.25
403.974	95.25
404.198	94.25
404.422	91.25
404.645	96.25
404.869	121.25
405.093	130.25
405.317	159.25
405.541	154.25
405.765	137.25
405.988	163.25
406.212	277.25
406.436	443.25
406.66	281.25
406.883	152.25
407.107	119.25
407.331	134.25
407.555	131.25
407.778	111.25
408.002	102.25
408.226	103.25
408.449	89.25
408.673	88.25
408.896	119.25
409.12	110.25
409.344	85.25
409.567	82.25
409.791	83.25
410.014	81.25
410.238	104.25
410.461	103.25
410.685	92.25
410.908	109.25
411.132	119.25
411.355	98.25
411.578	88.25
411.802	96.25
412.025	99.25
412.249	112.25
412.472	126.25
412.695	131.25
412.919	113.25
413.142	111.25
413.365	108.25
413.589	99.25
413.812	87.25
414.035	92.25
414.258	103.25
414.482	107.25
414.705	97.25
414.928	94.25
415.151	72.25
415.374	98.25
415.597	93.25
415.821	101.25
416.044	92.25
416.267	88.25
416.49	92.25
416.713	95.25
416.936	99.25
417.159	93.25
417.382	103.25
417.605	115.25
417.828	120.25
418.051	95.25
418.274	77.25
418.497	80.25
418.72	89.25
418.943	95.25
419.166	90.25
419.389	101.25
419.611	87.25
419.834	94.25
420.057	87.25
420.28	99.25
420.503	97.25
420.726	88.25
420.948	99.25
421.171	104.25
421.394	98.25
421.617	83.25
421.839	75.25
422.062	89.25
422.285	80.25
422.507	95.25
422.73	99.25
422.953	93.25
423.175	96.25
423.398	88.25
423.621	79.25
423.843	93.25
424.066	95.25
424.288	90.25
424.511	103.25
424.733	114.25
424.956	136.25
425.178	114.25
425.401	133.25
425.623	130.25
425.846	101.25
426.068	108.25
426.291	107.25
426.513	101.25
426.735	121.25
426.958	113.25
427.18	143.25
427.402	224.25
427.625	321.25
427.847	273.25
428.069	221.25
428.292	131.25
428.514	109.25
428.736	101.25
428.958	81.25
429.181	90.25
429.403	86.25
429.625	97.25
429.847	104.25
430.069	112.25
430.292	113.25
430.514	111.25
430.736	90.25
430.958	103.25
431.18	89.25
431.402	89.25
431.624	86.25
431.846	89.25
432.068	77.25
432.29	86.25
432.512	96.25
432.734	83.25
432.956	100.25
433.178	97.25
433.4	104.25
433.622	93.25
433.844	83.25
434.066	104.25
434.287	103.25
434.509	96.25
434.731	91.25
434.953	89.25
435.175	86.25
435.397	100.25
435.618	97.25
435.84	117.25
436.062	141.25
436.284	131.25
436.505	105.25
436.727	105.25
436.949	105.25
437.17	111.25
437.392	97.25
437.614	119.25
437.835	150.25
438.057	182.25
438.278	155.25
438.5	131.25
438.721	146.25
438.943	113.25
439.165	101.25
439.386	100.25
439.608	111.25
439.829	142.25
440.05	163.25
440.272	223.25
440.493	123.25
440.715	102.25
440.936	90.25
441.158	89.25
441.379	101.25
441.6	118.25
441.822	122.25
442.043	107.25
442.264	121.25
442.486	120.25
442.707	106.25
442.928	131.25
443.149	208.25
443.371	213.25
443.592	151.25
443.813	148.25
444.034	129.25
444.255	98.25
444.476	94.25
444.698	103.25
444.919	105.25
445.14	129.25
445.361	128.25
445.582	152.25
445.803	187.25
446.024	199.25
446.245	177.25
446.466	137.25
446.687	91.25
446.908	104.25
447.129	104.25
447.35	86.25
447.571	118.25
447.792	112.25
448.013	118.25
448.234	135.25
448.455	134.25
448.675	155.25
448.896	155.25
449.117	105.25
449.338	105.25
449.559	149.25
449.779	176.25
450	91.25
450.221	93.25
450.442	108.25
450.662	116.25
450.883	152.25
451.104	183.25
451.324	120.25
451.545	107.25
451.766	88.25
451.986	88.25
452.207	92.25
452.428	120.25
452.648	121.25
452.869	153.25
453.089	170.25
453.31	182.25
453.53	125.25
453.751	96.25
453.971	130.25
454.192	171.25
454.412	123.25
454.633	94.25
454.853	98.25
455.073	89.25
455.294	85.25
455.514	128.25
455.734	108.25
455.955	85.25
456.175	89.25
456.395	85.25
456.616	89.25
456.836	88.25
457.056	87.25
457.276	88.25
457.497	65.25
457.717	89.25
457.937	100.25
458.157	101.25
458.377	90.25
458.598	154.25
458.818	293.25
459.038	297.25
459.258	189.25
459.478	121.25
459.698	94.25
459.918	86.25
460.138	99.25
460.358	108.25
460.578	104.25
460.798	106.25
461.018	110.25
461.238	89.25
461.458	89.25
461.678	89.25
461.898	101.25
462.118	90.25
462.338	97.25
462.558	98.25
462.777	91.25
462.997	97.25
463.217	115.25
463.437	110.25
463.657	79.25
463.876	87.25
464.096	98.25
464.316	110.25
464.536	122.25
464.755	104.25
464.975	160.25
465.195	315.25
465.414	319.25
465.634	125.25
465.854	98.25
466.073	98.25
466.293	93.25
466.512	100.25
466.732	91.25
466.951	90.25
467.171	108.25
467.391	124.25
467.61	169.25
467.829	285.25
468.049	797.25
468.268	1207.25
468.488	276.25
468.707	119.25
468.927	103.25
469.146	103.25
469.365	104.25
469.585	101.25
469.804	120.25
470.023	134.25
470.243	112.25
470.462	149.25
470.681	172.25
470.901	120.25
471.12	112.25
471.339	112.25
471.558	126.25
471.777	191.25
471.997	369.25
472.216	1503.25
472.435	3627.25
472.654	785.25
472.873	186.25
473.092	118.25
473.311	112.25
473.53	110.25
473.749	112.25
473.968	124.25
474.187	131.25
474.406	115.25
474.625	95.25
474.844	89.25
475.063	95.25
475.282	88.25
475.501	97.25
475.72	97.25
475.939	91.25
476.158	98.25
476.377	107.25
476.596	111.25
476.814	102.25
477.033	96.25
477.252	97.25
477.471	95.25
477.69	85.25
477.908	110.25
478.127	109.25
478.346	114.25
478.564	115.25
478.783	129.25
479.002	104.25
479.22	134.25
479.439	151.25
479.658	160.25
479.876	136.25
480.095	159.25
480.313	162.25
480.532	210.25
480.751	370.25
480.969	1384.25
481.188	6069.25
481.406	3397.25
481.624	480.25
481.843	172.25
482.061	118.25
482.28	109.25
482.498	94.25
482.717	107.25
482.935	99.25
483.153	99.25
483.372	108.25
483.59	104.25
483.808	82.25
484.027	106.25
484.245	99.25
484.463	107.25
484.681	104.25
484.9	104.25
485.118	103.25
485.336	101.25
485.554	105.25
485.772	102.25
485.99	94.25
486.209	118.25
486.427	124.25
486.645	151.25
486.863	151.25
487.081	116.25
487.299	99.25
487.517	112.25
487.735	107.25
487.953	103.25
488.171	97.25
488.389	103.25
488.607	112.25
488.825	84.25
489.043	87.25
489.261	94.25
489.479	91.25
489.696	89.25
489.914	95.25
490.132	95.25
490.35	99.25
490.568	91.25
490.786	106.25
491.003	91.25
491.221	105.25
491.439	98.25
491.657	119.25
491.874	105.25
492.092	98.25
492.31	96.25
492.527	109.25
492.745	110.25
492.963	101.25
493.18	105.25
493.398	102.25
493.615	98.25
493.833	97.25
494.05	80.25
494.268	89.25
494.485	91.25
494.703	98.25
494.92	88.25
495.138	92.25
495.355	114.25
495.573	95.25
495.79	88.25
496.008	108.25
496.225	97.25
496.442	115.25
496.66	107.25
496.877	111.25
497.094	98.25
497.312	87.25
497.529	92.25
497.746	105.25
497.963	108.25
498.181	107.25
498.398	105.25
498.615	128.25
498.832	105.25
499.049	99.25
499.267	105.25
499.484	94.25
499.701	101.25
499.918	98.25
500.135	83.25
500.352	113.25
500.569	98.25
500.786	99.25
501.003	106.25
501.22	90.25
501.437	96.25
501.654	114.25
501.871	164.25
502.088	114.25
502.305	106.25
502.522	104.25
502.739	94.25
502.956	101.25
503.172	86.25
503.389	123.25
503.606	140.25
503.823	130.25
504.04	101.25
504.256	93.25
504.473	108.25
504.69	95.25
504.907	104.25
505.123	105.25
505.34	89.25
505.557	98.25
505.773	85.25
505.99	103.25
506.207	93.25
506.423	88.25
506.64	90.25
506.856	92.25
507.073	99.25
507.289	107.25
507.506	119.25
507.722	187.25
507.939	163.25
508.155	117.25
508.372	104.25
508.588	94.25
508.805	95.25
509.021	101.25
509.238	101.25
509.454	120.25
509.67	113.25
509.887	127.25
510.103	177.25
510.319	317.25
510.536	1318.25
