Data from Circ_1999_H10_HRD10591_00075.txt Node
Date: Wed Jan 03 11:23:27 EST 2024
User: Yrep
Spectrometer: HR+D1059
Trigger mode: 1
Integration Time (sec): 1.000000E-1
Scans to average: 1
Electric dark correction enabled: true
Nonlinearity correction enabled: false
Boxcar width: 0
XAxis mode: Wavelengths
Number of Pixels in Spectrum: 2048
>>>>>Begin Spectral Data<<<<<
223.165	-25.69
223.4	-25.69
223.635	-25.69
223.869	-17.69
224.104	-5.69
224.338	-26.69
224.573	-9.69
224.808	-16.69
225.042	-10.69
225.277	-6.69
225.511	-2.69
225.746	6.31
225.98	14.31
226.215	15.31
226.449	13.31
226.683	23.31
226.918	25.31
227.152	24.31
227.387	26.31
227.621	36.31
227.856	33.31
228.09	57.31
228.324	44.31
228.559	52.31
228.793	56.31
229.027	61.31
229.262	65.31
229.496	82.31
229.73	109.31
229.964	94.31
230.199	71.31
230.433	78.31
230.667	71.31
230.901	78.31
231.136	68.31
231.37	76.31
231.604	90.31
231.838	85.31
232.072	77.31
232.306	75.31
232.541	77.31
232.775	89.31
233.009	70.31
233.243	83.31
233.477	71.31
233.711	71.31
233.945	77.31
234.179	70.31
234.413	83.31
234.647	75.31
234.881	80.31
235.115	83.31
235.349	62.31
235.583	71.31
235.817	76.31
236.051	85.31
236.285	68.31
236.519	59.31
236.753	75.31
236.987	94.31
237.221	83.31
237.455	97.31
237.689	84.31
237.922	66.31
238.156	74.31
238.39	87.31
238.624	88.31
238.858	85.31
239.091	82.31
239.325	73.31
239.559	66.31
239.793	85.31
240.027	78.31
240.26	59.31
240.494	86.31
240.728	86.31
240.961	71.31
241.195	78.31
241.429	79.31
241.662	76.31
241.896	83.31
242.13	73.31
242.363	83.31
242.597	61.31
242.83	67.31
243.064	75.31
243.298	73.31
243.531	82.31
243.765	81.31
243.998	61.31
244.232	77.31
244.465	89.31
244.699	81.31
244.932	68.31
245.166	76.31
245.399	86.31
245.633	81.31
245.866	86.31
246.099	75.31
246.333	73.31
246.566	81.31
246.8	78.31
247.033	77.31
247.266	67.31
247.5	75.31
247.733	78.31
247.966	78.31
248.2	91.31
248.433	75.31
248.666	79.31
248.899	96.31
249.133	92.31
249.366	119.31
249.599	108.31
249.832	94.31
250.066	81.31
250.299	81.31
250.532	85.31
250.765	85.31
250.998	78.31
251.231	91.31
251.465	86.31
251.698	94.31
251.931	76.31
252.164	85.31
252.397	89.31
252.63	88.31
252.863	81.31
253.096	68.31
253.329	82.31
253.562	74.31
253.795	88.31
254.028	95.31
254.261	90.31
254.494	85.31
254.727	69.31
254.96	82.31
255.193	82.31
255.426	91.31
255.659	83.31
255.892	93.31
256.124	82.31
256.357	86.31
256.59	80.31
256.823	82.31
257.056	80.31
257.289	94.31
257.521	76.31
257.754	97.31
257.987	88.31
258.22	76.31
258.452	99.31
258.685	94.31
258.918	89.31
259.151	88.31
259.383	99.31
259.616	90.31
259.849	90.31
260.081	80.31
260.314	81.31
260.547	95.31
260.779	104.31
261.012	107.31
261.244	123.31
261.477	103.31
261.71	109.31
261.942	162.31
262.175	171.31
262.407	89.31
262.64	77.31
262.872	94.31
263.105	76.31
263.337	85.31
263.57	93.31
263.802	78.31
264.035	87.31
264.267	87.31
264.499	76.31
264.732	83.31
264.964	73.31
265.197	86.31
265.429	85.31
265.661	79.31
265.894	81.31
266.126	80.31
266.358	81.31
266.591	77.31
266.823	84.31
267.055	96.31
267.287	86.31
267.52	81.31
267.752	86.31
267.984	91.31
268.216	95.31
268.448	81.31
268.681	107.31
268.913	86.31
269.145	89.31
269.377	76.31
269.609	101.31
269.841	82.31
270.073	87.31
270.306	88.31
270.538	93.31
270.77	82.31
271.002	79.31
271.234	81.31
271.466	94.31
271.698	87.31
271.93	88.31
272.162	95.31
272.394	82.31
272.626	83.31
272.858	91.31
273.09	92.31
273.322	81.31
273.553	72.31
273.785	77.31
274.017	91.31
274.249	95.31
274.481	91.31
274.713	82.31
274.945	88.31
275.176	81.31
275.408	82.31
275.64	122.31
275.872	133.31
276.104	116.31
276.335	121.31
276.567	143.31
276.799	193.31
277.031	221.31
277.262	261.31
277.494	176.31
277.726	123.31
277.957	102.31
278.189	90.31
278.421	93.31
278.652	99.31
278.884	99.31
279.115	99.31
279.347	90.31
279.579	105.31
279.81	161.31
280.042	254.31
280.273	364.31
280.505	221.31
280.736	117.31
280.968	88.31
281.199	98.31
281.431	91.31
281.662	79.31
281.894	91.31
282.125	108.31
282.356	167.31
282.588	215.31
282.819	158.31
283.051	92.31
283.282	75.31
283.513	85.31
283.745	83.31
283.976	78.31
284.207	75.31
284.439	97.31
284.67	92.31
284.901	97.31
285.132	80.31
285.364	77.31
285.595	77.31
285.826	77.31
286.057	82.31
286.288	76.31
286.52	93.31
286.751	81.31
286.982	88.31
287.213	67.31
287.444	88.31
287.675	85.31
287.906	95.31
288.138	93.31
288.369	102.31
288.6	104.31
288.831	90.31
289.062	97.31
289.293	81.31
289.524	83.31
289.755	83.31
289.986	82.31
290.217	91.31
290.448	90.31
290.679	78.31
290.91	88.31
291.141	97.31
291.371	85.31
291.602	81.31
291.833	99.31
292.064	94.31
292.295	89.31
292.526	76.31
292.757	91.31
292.987	85.31
293.218	90.31
293.449	77.31
293.68	81.31
293.91	86.31
294.141	88.31
294.372	95.31
294.603	81.31
294.833	85.31
295.064	87.31
295.295	85.31
295.525	82.31
295.756	94.31
295.987	150.31
296.217	201.31
296.448	165.31
296.679	102.31
296.909	96.31
297.14	76.31
297.37	94.31
297.601	78.31
297.831	85.31
298.062	108.31
298.292	95.31
298.523	93.31
298.753	91.31
298.984	86.31
299.214	90.31
299.445	87.31
299.675	100.31
299.905	96.31
300.136	87.31
300.366	90.31
300.597	95.31
300.827	104.31
301.057	99.31
301.288	107.31
301.518	112.31
301.748	99.31
301.979	114.31
302.209	103.31
302.439	106.31
302.669	88.31
302.9	96.31
303.13	110.31
303.36	118.31
303.59	157.31
303.82	185.31
304.051	124.31
304.281	89.31
304.511	98.31
304.741	97.31
304.971	87.31
305.201	89.31
305.431	91.31
305.661	90.31
305.891	95.31
306.121	87.31
306.352	118.31
306.582	135.31
306.812	123.31
307.042	143.31
307.272	197.31
307.502	222.31
307.731	211.31
307.961	166.31
308.191	91.31
308.421	106.31
308.651	80.31
308.881	98.31
309.111	102.31
309.341	88.31
309.571	122.31
309.8	105.31
310.03	110.31
310.26	114.31
310.49	115.31
310.72	121.31
310.949	129.31
311.179	125.31
311.409	95.31
311.639	121.31
311.868	116.31
312.098	92.31
312.328	115.31
312.557	134.31
312.787	141.31
313.017	125.31
313.246	97.31
313.476	96.31
313.706	92.31
313.935	99.31
314.165	116.31
314.394	118.31
314.624	116.31
314.853	118.31
315.083	93.31
315.312	87.31
315.542	103.31
315.771	102.31
316.001	100.31
316.23	88.31
316.46	92.31
316.689	100.31
316.919	117.31
317.148	100.31
317.377	101.31
317.607	107.31
317.836	108.31
318.065	97.31
318.295	104.31
318.524	95.31
318.753	95.31
318.983	93.31
319.212	117.31
319.441	131.31
319.67	124.31
319.9	105.31
320.129	95.31
320.358	102.31
320.587	110.31
320.816	117.31
321.046	125.31
321.275	120.31
321.504	114.31
321.733	107.31
321.962	103.31
322.191	116.31
322.42	123.31
322.649	124.31
322.878	130.31
323.108	157.31
323.337	166.31
323.566	166.31
323.795	224.31
324.024	268.31
324.253	574.31
324.482	1176.31
324.71	2394.31
324.939	3217.31
325.168	1183.31
325.397	340.31
325.626	205.31
325.855	165.31
326.084	149.31
326.313	161.31
326.542	183.31
326.77	311.31
326.999	560.31
327.228	1150.31
327.457	2147.31
327.686	1805.31
327.914	682.31
328.143	775.31
328.372	1017.31
328.6	551.31
328.829	229.31
329.058	258.31
329.287	252.31
329.515	231.31
329.744	364.31
329.972	729.31
330.201	1558.31
330.43	2189.31
330.658	953.31
330.887	414.31
331.115	249.31
331.344	147.31
331.572	149.31
331.801	142.31
332.03	153.31
332.258	126.31
332.486	116.31
332.715	116.31
332.943	131.31
333.172	144.31
333.4	131.31
333.629	188.31
333.857	299.31
334.085	638.31
334.314	1384.31
334.542	2761.31
334.771	2515.31
334.999	626.31
335.227	227.31
335.455	157.31
335.684	123.31
335.912	123.31
336.14	111.31
336.369	107.31
336.597	133.31
336.825	122.31
337.053	105.31
337.281	102.31
337.51	107.31
337.738	108.31
337.966	112.31
338.194	129.31
338.422	105.31
338.65	93.31
338.878	85.31
339.106	100.31
339.334	91.31
339.562	81.31
339.79	93.31
340.018	95.31
340.246	106.31
340.474	112.31
340.702	111.31
340.93	103.31
341.158	107.31
341.386	97.31
341.614	102.31
341.842	110.31
342.07	100.31
342.298	105.31
342.526	101.31
342.754	85.31
342.981	89.31
343.209	89.31
343.437	99.31
343.665	83.31
343.893	81.31
344.12	104.31
344.348	82.31
344.576	87.31
344.804	90.31
345.031	116.31
345.259	122.31
345.487	120.31
345.714	115.31
345.942	110.31
346.17	95.31
346.397	107.31
346.625	107.31
346.853	94.31
347.08	96.31
347.308	107.31
347.535	102.31
347.763	109.31
347.99	115.31
348.218	118.31
348.445	126.31
348.673	129.31
348.9	100.31
349.128	93.31
349.355	96.31
349.583	104.31
349.81	93.31
350.037	103.31
350.265	110.31
350.492	100.31
350.72	94.31
350.947	119.31
351.174	123.31
351.402	157.31
351.629	122.31
351.856	105.31
352.083	123.31
352.311	130.31
352.538	161.31
352.765	132.31
352.992	132.31
353.22	131.31
353.447	110.31
353.674	94.31
353.901	96.31
354.128	86.31
354.355	100.31
354.583	96.31
354.81	97.31
355.037	88.31
355.264	90.31
355.491	99.31
355.718	84.31
355.945	97.31
356.172	82.31
356.399	83.31
356.626	92.31
356.853	98.31
357.08	81.31
357.307	84.31
357.534	83.31
357.761	86.31
357.988	97.31
358.215	94.31
358.441	99.31
358.668	93.31
358.895	93.31
359.122	91.31
359.349	93.31
359.576	90.31
359.802	143.31
360.029	169.31
360.256	183.31
360.483	135.31
360.709	92.31
360.936	95.31
361.163	106.31
361.39	117.31
361.616	118.31
361.843	96.31
362.07	109.31
362.296	123.31
362.523	99.31
362.749	109.31
362.976	99.31
363.203	98.31
363.429	97.31
363.656	115.31
363.882	105.31
364.109	83.31
364.335	98.31
364.562	101.31
364.788	97.31
365.015	99.31
365.241	133.31
365.468	126.31
365.694	143.31
365.92	106.31
366.147	103.31
366.373	99.31
366.599	104.31
366.826	88.31
367.052	98.31
367.278	98.31
367.505	95.31
367.731	109.31
367.957	113.31
368.184	90.31
368.41	118.31
368.636	130.31
368.862	153.31
369.089	139.31
369.315	122.31
369.541	94.31
369.767	88.31
369.993	109.31
370.219	104.31
370.445	95.31
370.672	91.31
370.898	80.31
371.124	82.31
371.35	95.31
371.576	94.31
371.802	93.31
372.028	89.31
372.254	89.31
372.48	81.31
372.706	82.31
372.932	91.31
373.158	85.31
373.384	89.31
373.61	105.31
373.835	93.31
374.061	82.31
374.287	82.31
374.513	83.31
374.739	91.31
374.965	94.31
375.191	89.31
375.416	98.31
375.642	94.31
375.868	94.31
376.094	81.31
376.319	93.31
376.545	84.31
376.771	93.31
376.997	88.31
377.222	91.31
377.448	98.31
377.674	91.31
377.899	90.31
378.125	100.31
378.35	86.31
378.576	86.31
378.802	85.31
379.027	94.31
379.253	95.31
379.478	90.31
379.704	81.31
379.929	101.31
380.155	91.31
380.38	90.31
380.606	105.31
380.831	90.31
381.057	98.31
381.282	92.31
381.507	109.31
381.733	84.31
381.958	88.31
382.184	95.31
382.409	106.31
382.634	102.31
382.86	105.31
383.085	98.31
383.31	90.31
383.535	97.31
383.761	106.31
383.986	93.31
384.211	90.31
384.436	105.31
384.662	89.31
384.887	102.31
385.112	92.31
385.337	98.31
385.562	104.31
385.787	106.31
386.013	107.31
386.238	125.31
386.463	107.31
386.688	111.31
386.913	96.31
387.138	93.31
387.363	96.31
387.588	95.31
387.813	106.31
388.038	99.31
388.263	97.31
388.488	95.31
388.713	87.31
388.938	98.31
389.163	91.31
389.387	90.31
389.612	88.31
389.837	96.31
390.062	95.31
390.287	90.31
390.512	89.31
390.736	77.31
390.961	89.31
391.186	74.31
391.411	86.31
391.636	75.31
391.86	81.31
392.085	90.31
392.31	77.31
392.534	103.31
392.759	86.31
392.984	107.31
393.208	99.31
393.433	116.31
393.658	107.31
393.882	85.31
394.107	88.31
394.331	95.31
394.556	91.31
394.78	87.31
395.005	92.31
395.229	90.31
395.454	86.31
395.678	90.31
395.903	90.31
396.127	74.31
396.352	79.31
396.576	111.31
396.801	103.31
397.025	99.31
397.249	99.31
397.474	88.31
397.698	94.31
397.922	92.31
398.147	91.31
398.371	79.31
398.595	81.31
398.82	88.31
399.044	91.31
399.268	90.31
399.492	86.31
399.717	83.31
399.941	94.31
400.165	110.31
400.389	90.31
400.613	96.31
400.837	88.31
401.062	98.31
401.286	91.31
401.51	103.31
401.734	98.31
401.958	110.31
402.182	184.31
402.406	248.31
402.63	182.31
402.854	116.31
403.078	101.31
403.302	105.31
403.526	101.31
403.75	87.31
403.974	79.31
404.198	85.31
404.422	89.31
404.645	86.31
404.869	114.31
405.093	114.31
405.317	157.31
405.541	153.31
405.765	136.31
405.988	162.31
406.212	299.31
406.436	425.31
406.66	273.31
406.883	149.31
407.107	116.31
407.331	129.31
407.555	115.31
407.778	108.31
408.002	103.31
408.226	97.31
408.449	81.31
408.673	101.31
408.896	101.31
409.12	104.31
409.344	83.31
409.567	107.31
409.791	84.31
410.014	84.31
410.238	92.31
410.461	97.31
410.685	93.31
410.908	102.31
411.132	87.31
411.355	113.31
411.578	94.31
411.802	87.31
412.025	75.31
412.249	108.31
412.472	130.31
412.695	149.31
412.919	115.31
413.142	106.31
413.365	87.31
413.589	91.31
413.812	79.31
414.035	78.31
414.258	102.31
414.482	87.31
414.705	81.31
414.928	99.31
415.151	80.31
415.374	97.31
415.597	80.31
415.821	99.31
416.044	95.31
416.267	90.31
416.49	81.31
416.713	98.31
416.936	71.31
417.159	102.31
417.382	88.31
417.605	113.31
417.828	122.31
418.051	113.31
418.274	83.31
418.497	111.31
418.72	91.31
418.943	81.31
419.166	91.31
419.389	94.31
419.611	93.31
419.834	90.31
420.057	107.31
420.28	87.31
420.503	87.31
420.726	87.31
420.948	105.31
421.171	98.31
421.394	92.31
421.617	83.31
421.839	94.31
422.062	95.31
422.285	84.31
422.507	92.31
422.73	116.31
422.953	88.31
423.175	91.31
423.398	93.31
423.621	82.31
423.843	95.31
424.066	82.31
424.288	105.31
424.511	109.31
424.733	112.31
424.956	129.31
425.178	118.31
425.401	122.31
425.623	95.31
425.846	105.31
426.068	105.31
426.291	104.31
426.513	90.31
426.735	87.31
426.958	93.31
427.18	115.31
427.402	199.31
427.625	322.31
427.847	313.31
428.069	244.31
428.292	138.31
428.514	102.31
428.736	90.31
428.958	92.31
429.181	79.31
429.403	78.31
429.625	86.31
429.847	99.31
430.069	116.31
430.292	112.31
430.514	88.31
430.736	93.31
430.958	78.31
431.18	87.31
431.402	86.31
431.624	81.31
431.846	103.31
432.068	75.31
432.29	85.31
432.512	105.31
432.734	83.31
432.956	100.31
433.178	98.31
433.4	105.31
433.622	94.31
433.844	87.31
434.066	85.31
434.287	92.31
434.509	92.31
434.731	99.31
434.953	95.31
435.175	88.31
435.397	103.31
435.618	106.31
435.84	106.31
436.062	132.31
436.284	118.31
436.505	116.31
436.727	114.31
436.949	101.31
437.17	95.31
437.392	84.31
437.614	113.31
437.835	143.31
438.057	198.31
438.278	149.31
438.5	118.31
438.721	135.31
438.943	113.31
439.165	89.31
439.386	96.31
439.608	87.31
439.829	107.31
440.05	145.31
440.272	198.31
440.493	117.31
440.715	89.31
440.936	90.31
441.158	95.31
441.379	100.31
441.6	126.31
441.822	111.31
442.043	113.31
442.264	121.31
442.486	129.31
442.707	118.31
442.928	137.31
443.149	201.31
443.371	204.31
443.592	154.31
443.813	135.31
444.034	144.31
444.255	98.31
444.476	87.31
444.698	77.31
444.919	91.31
445.14	124.31
445.361	133.31
445.582	149.31
445.803	215.31
446.024	214.31
446.245	199.31
446.466	122.31
446.687	94.31
446.908	99.31
447.129	84.31
447.35	92.31
447.571	100.31
447.792	91.31
448.013	117.31
448.234	141.31
448.455	122.31
448.675	132.31
448.896	155.31
449.117	113.31
449.338	103.31
449.559	163.31
449.779	165.31
450	113.31
450.221	94.31
450.442	107.31
450.662	112.31
450.883	149.31
451.104	171.31
451.324	123.31
451.545	106.31
451.766	90.31
451.986	95.31
452.207	94.31
452.428	95.31
452.648	115.31
452.869	161.31
453.089	169.31
453.31	184.31
453.53	120.31
453.751	103.31
453.971	135.31
454.192	163.31
454.412	114.31
454.633	92.31
454.853	95.31
455.073	87.31
455.294	101.31
455.514	117.31
455.734	101.31
455.955	87.31
456.175	87.31
456.395	81.31
456.616	76.31
456.836	73.31
457.056	93.31
457.276	89.31
457.497	85.31
457.717	84.31
457.937	76.31
458.157	98.31
458.377	105.31
458.598	147.31
458.818	268.31
459.038	304.31
459.258	177.31
459.478	86.31
459.698	103.31
459.918	96.31
460.138	90.31
460.358	99.31
460.578	88.31
460.798	93.31
461.018	90.31
461.238	80.31
461.458	74.31
461.678	103.31
461.898	86.31
462.118	87.31
462.338	88.31
462.558	73.31
462.777	81.31
462.997	107.31
463.217	106.31
463.437	114.31
463.657	98.31
463.876	94.31
464.096	88.31
464.316	95.31
464.536	96.31
464.755	121.31
464.975	142.31
465.195	322.31
465.414	331.31
465.634	129.31
465.854	109.31
466.073	101.31
466.293	111.31
466.512	89.31
466.732	97.31
466.951	95.31
467.171	105.31
467.391	119.31
467.61	183.31
467.829	298.31
468.049	886.31
468.268	1325.31
468.488	297.31
468.707	134.31
468.927	110.31
469.146	120.31
469.365	103.31
469.585	90.31
469.804	120.31
470.023	115.31
470.243	137.31
470.462	150.31
470.681	189.31
470.901	127.31
471.12	114.31
471.339	137.31
471.558	135.31
471.777	206.31
471.997	420.31
472.216	1729.31
472.435	4016.31
472.654	862.31
472.873	207.31
473.092	135.31
473.311	101.31
473.53	95.31
473.749	109.31
473.968	117.31
474.187	143.31
474.406	134.31
474.625	96.31
474.844	99.31
475.063	94.31
475.282	91.31
475.501	86.31
475.72	98.31
475.939	97.31
476.158	81.31
476.377	87.31
476.596	91.31
476.814	102.31
477.033	109.31
477.252	99.31
477.471	95.31
477.69	88.31
477.908	81.31
478.127	90.31
478.346	107.31
478.564	108.31
478.783	137.31
479.002	125.31
479.22	123.31
479.439	141.31
479.658	173.31
479.876	149.31
480.095	149.31
480.313	170.31
480.532	208.31
480.751	415.31
480.969	1534.31
481.188	6855.31
481.406	3798.31
481.624	521.31
481.843	155.31
482.061	120.31
482.28	98.31
482.498	93.31
482.717	95.31
482.935	87.31
483.153	88.31
483.372	100.31
483.59	87.31
483.808	82.31
484.027	103.31
484.245	95.31
484.463	97.31
484.681	89.31
484.9	92.31
485.118	98.31
485.336	110.31
485.554	90.31
485.772	109.31
485.99	98.31
486.209	101.31
486.427	122.31
486.645	147.31
486.863	133.31
487.081	118.31
487.299	105.31
487.517	93.31
487.735	89.31
487.953	115.31
488.171	111.31
488.389	117.31
488.607	114.31
488.825	100.31
489.043	83.31
489.261	97.31
489.479	89.31
489.696	103.31
489.914	81.31
490.132	86.31
490.35	85.31
490.568	79.31
490.786	90.31
491.003	103.31
491.221	84.31
491.439	107.31
491.657	93.31
491.874	82.31
492.092	94.31
492.31	106.31
492.527	106.31
492.745	109.31
492.963	102.31
493.18	96.31
493.398	100.31
493.615	112.31
493.833	100.31
494.05	94.31
494.268	96.31
494.485	85.31
494.703	84.31
494.92	75.31
495.138	99.31
495.355	94.31
495.573	99.31
495.79	95.31
496.008	100.31
496.225	101.31
496.442	104.31
496.66	77.31
496.877	78.31
497.094	86.31
497.312	102.31
497.529	108.31
497.746	99.31
497.963	88.31
498.181	98.31
498.398	97.31
498.615	117.31
498.832	115.31
499.049	81.31
499.267	90.31
499.484	95.31
499.701	93.31
499.918	82.31
500.135	91.31
500.352	89.31
500.569	104.31
500.786	105.31
501.003	101.31
501.22	95.31
501.437	86.31
501.654	108.31
501.871	148.31
502.088	103.31
502.305	97.31
502.522	87.31
502.739	96.31
502.956	85.31
503.172	81.31
503.389	129.31
503.606	151.31
503.823	115.31
504.04	89.31
504.256	92.31
504.473	90.31
504.69	99.31
504.907	96.31
505.123	86.31
505.34	83.31
505.557	86.31
505.773	93.31
505.99	87.31
506.207	95.31
506.423	104.31
506.64	92.31
506.856	86.31
507.073	94.31
507.289	90.31
507.506	110.31
507.722	154.31
507.939	165.31
508.155	108.31
508.372	93.31
508.588	99.31
508.805	105.31
509.021	99.31
509.238	102.31
509.454	97.31
509.67	118.31
509.887	110.31
510.103	166.31
510.319	308.31
510.536	1347.31
510.752	4967.31
510.968	1245.31
511.184	233.31
511.401	157.31
511.617	125.31
511.833	113.31
512.049	110.31
