Data from Circ_1999_H10_HRD10591_00031.txt Node
Date: Wed Jan 03 11:23:18 EST 2024
User: Yrep
Spectrometer: HR+D1059
Trigger mode: 1
Integration Time (sec): 1.000000E-1
Scans to average: 1
Electric dark correction enabled: true
Nonlinearity correction enabled: false
Boxcar width: 0
XAxis mode: Wavelengths
Number of Pixels in Spectrum: 2048
>>>>>Begin Spectral Data<<<<<
223.165	-10.44
223.4	-10.44
223.635	-10.44
223.869	-19.44
224.104	-11.44
224.338	-17.44
224.573	2.56
224.808	-3.44
225.042	-8.44
225.277	-3.44
225.511	3.56
225.746	-4.44
225.98	6.56
226.215	9.56
226.449	4.56
226.683	11.56
226.918	15.56
227.152	24.56
227.387	23.56
227.621	38.56
227.856	27.56
228.09	28.56
228.324	49.56
228.559	42.56
228.793	58.56
229.027	68.56
229.262	57.56
229.496	69.56
229.73	93.56
229.964	78.56
230.199	75.56
230.433	77.56
230.667	66.56
230.901	62.56
231.136	75.56
231.37	65.56
231.604	80.56
231.838	59.56
232.072	81.56
232.306	91.56
232.541	71.56
232.775	94.56
233.009	75.56
233.243	84.56
233.477	74.56
233.711	77.56
233.945	100.56
234.179	75.56
234.413	87.56
234.647	74.56
234.881	77.56
235.115	76.56
235.349	83.56
235.583	65.56
235.817	70.56
236.051	68.56
236.285	69.56
236.519	90.56
236.753	81.56
236.987	62.56
237.221	76.56
237.455	100.56
237.689	72.56
237.922	78.56
238.156	78.56
238.39	75.56
238.624	73.56
238.858	81.56
239.091	82.56
239.325	68.56
239.559	80.56
239.793	81.56
240.027	78.56
240.26	77.56
240.494	78.56
240.728	74.56
240.961	76.56
241.195	84.56
241.429	61.56
241.662	61.56
241.896	66.56
242.13	67.56
242.363	68.56
242.597	77.56
242.83	73.56
243.064	75.56
243.298	67.56
243.531	80.56
243.765	63.56
243.998	89.56
244.232	79.56
244.465	86.56
244.699	76.56
244.932	67.56
245.166	91.56
245.399	73.56
245.633	67.56
245.866	75.56
246.099	81.56
246.333	77.56
246.566	84.56
246.8	73.56
247.033	82.56
247.266	85.56
247.5	66.56
247.733	74.56
247.966	75.56
248.2	83.56
248.433	70.56
248.666	88.56
248.899	89.56
249.133	85.56
249.366	105.56
249.599	132.56
249.832	80.56
250.066	89.56
250.299	88.56
250.532	88.56
250.765	97.56
250.998	90.56
251.231	78.56
251.465	70.56
251.698	79.56
251.931	88.56
252.164	72.56
252.397	84.56
252.63	79.56
252.863	74.56
253.096	81.56
253.329	74.56
253.562	86.56
253.795	81.56
254.028	97.56
254.261	84.56
254.494	75.56
254.727	60.56
254.96	67.56
255.193	81.56
255.426	71.56
255.659	77.56
255.892	93.56
256.124	93.56
256.357	78.56
256.59	76.56
256.823	84.56
257.056	82.56
257.289	81.56
257.521	78.56
257.754	96.56
257.987	92.56
258.22	79.56
258.452	92.56
258.685	90.56
258.918	93.56
259.151	77.56
259.383	84.56
259.616	79.56
259.849	59.56
260.081	83.56
260.314	82.56
260.547	87.56
260.779	86.56
261.012	91.56
261.244	89.56
261.477	81.56
261.71	93.56
261.942	132.56
262.175	150.56
262.407	93.56
262.64	92.56
262.872	79.56
263.105	75.56
263.337	89.56
263.57	81.56
263.802	78.56
264.035	74.56
264.267	74.56
264.499	78.56
264.732	87.56
264.964	74.56
265.197	80.56
265.429	74.56
265.661	77.56
265.894	70.56
266.126	97.56
266.358	81.56
266.591	77.56
266.823	74.56
267.055	77.56
267.287	83.56
267.52	78.56
267.752	90.56
267.984	71.56
268.216	83.56
268.448	78.56
268.681	94.56
268.913	86.56
269.145	79.56
269.377	81.56
269.609	76.56
269.841	74.56
270.073	90.56
270.306	74.56
270.538	91.56
270.77	94.56
271.002	89.56
271.234	81.56
271.466	83.56
271.698	86.56
271.93	89.56
272.162	96.56
272.394	94.56
272.626	77.56
272.858	85.56
273.09	75.56
273.322	81.56
273.553	75.56
273.785	78.56
274.017	77.56
274.249	83.56
274.481	83.56
274.713	77.56
274.945	91.56
275.176	99.56
275.408	98.56
275.64	109.56
275.872	124.56
276.104	100.56
276.335	88.56
276.567	123.56
276.799	148.56
277.031	162.56
277.262	209.56
277.494	137.56
277.726	86.56
277.957	99.56
278.189	81.56
278.421	97.56
278.652	86.56
278.884	90.56
279.115	87.56
279.347	94.56
279.579	94.56
279.81	123.56
280.042	182.56
280.273	228.56
280.505	176.56
280.736	103.56
280.968	93.56
281.199	85.56
281.431	101.56
281.662	89.56
281.894	103.56
282.125	95.56
282.356	153.56
282.588	167.56
282.819	131.56
283.051	89.56
283.282	90.56
283.513	90.56
283.745	69.56
283.976	89.56
284.207	77.56
284.439	87.56
284.67	90.56
284.901	87.56
285.132	80.56
285.364	76.56
285.595	83.56
285.826	86.56
286.057	83.56
286.288	92.56
286.52	90.56
286.751	87.56
286.982	85.56
287.213	86.56
287.444	76.56
287.675	89.56
287.906	83.56
288.138	83.56
288.369	103.56
288.6	96.56
288.831	80.56
289.062	76.56
289.293	94.56
289.524	87.56
289.755	79.56
289.986	76.56
290.217	81.56
290.448	81.56
290.679	92.56
290.91	82.56
291.141	78.56
291.371	83.56
291.602	88.56
291.833	79.56
292.064	92.56
292.295	90.56
292.526	77.56
292.757	69.56
292.987	96.56
293.218	79.56
293.449	78.56
293.68	82.56
293.91	78.56
294.141	91.56
294.372	84.56
294.603	95.56
294.833	100.56
295.064	83.56
295.295	90.56
295.525	92.56
295.756	90.56
295.987	131.56
296.217	179.56
296.448	133.56
296.679	102.56
296.909	100.56
297.14	77.56
297.37	94.56
297.601	99.56
297.831	92.56
298.062	89.56
298.292	85.56
298.523	85.56
298.753	93.56
298.984	81.56
299.214	89.56
299.445	76.56
299.675	105.56
299.905	95.56
300.136	93.56
300.366	92.56
300.597	88.56
300.827	78.56
301.057	106.56
301.288	116.56
301.518	112.56
301.748	89.56
301.979	91.56
302.209	89.56
302.439	89.56
302.669	103.56
302.9	97.56
303.13	99.56
303.36	115.56
303.59	133.56
303.82	158.56
304.051	107.56
304.281	85.56
304.511	86.56
304.741	85.56
304.971	85.56
305.201	86.56
305.431	90.56
305.661	92.56
305.891	82.56
306.121	108.56
306.352	112.56
306.582	117.56
306.812	110.56
307.042	103.56
307.272	158.56
307.502	172.56
307.731	158.56
307.961	117.56
308.191	82.56
308.421	86.56
308.651	83.56
308.881	91.56
309.111	104.56
309.341	103.56
309.571	109.56
309.8	86.56
310.03	108.56
310.26	108.56
310.49	93.56
310.72	97.56
310.949	112.56
311.179	103.56
311.409	97.56
311.639	100.56
311.868	108.56
312.098	90.56
312.328	109.56
312.557	130.56
312.787	133.56
313.017	115.56
313.246	81.56
313.476	86.56
313.706	101.56
313.935	100.56
314.165	106.56
314.394	115.56
314.624	116.56
314.853	95.56
315.083	98.56
315.312	93.56
315.542	83.56
315.771	95.56
316.001	90.56
316.23	78.56
316.46	69.56
316.689	92.56
316.919	95.56
317.148	92.56
317.377	92.56
317.607	95.56
317.836	100.56
318.065	88.56
318.295	87.56
318.524	89.56
318.753	85.56
318.983	95.56
319.212	114.56
319.441	116.56
319.67	113.56
319.9	91.56
320.129	91.56
320.358	98.56
320.587	84.56
320.816	113.56
321.046	108.56
321.275	108.56
321.504	85.56
321.733	96.56
321.962	93.56
322.191	104.56
322.42	113.56
322.649	126.56
322.878	105.56
323.108	126.56
323.337	140.56
323.566	151.56
323.795	183.56
324.024	245.56
324.253	459.56
324.482	989.56
324.71	2013.56
324.939	2631.56
325.168	978.56
325.397	277.56
325.626	169.56
325.855	160.56
326.084	131.56
326.313	156.56
326.542	168.56
326.77	250.56
326.999	506.56
327.228	1017.56
327.457	1809.56
327.686	1483.56
327.914	529.56
328.143	494.56
328.372	643.56
328.6	373.56
328.829	185.56
329.058	188.56
329.287	203.56
329.515	181.56
329.744	235.56
329.972	471.56
330.201	933.56
330.43	1384.56
330.658	637.56
330.887	291.56
331.115	209.56
331.344	126.56
331.572	121.56
331.801	116.56
332.03	123.56
332.258	122.56
332.486	113.56
332.715	114.56
332.943	126.56
333.172	121.56
333.4	110.56
333.629	165.56
333.857	220.56
334.085	438.56
334.314	895.56
334.542	1726.56
334.771	1605.56
334.999	404.56
335.227	159.56
335.455	110.56
335.684	119.56
335.912	107.56
336.14	111.56
336.369	116.56
336.597	114.56
336.825	115.56
337.053	106.56
337.281	87.56
337.51	87.56
337.738	96.56
337.966	97.56
338.194	100.56
338.422	102.56
338.65	92.56
338.878	95.56
339.106	81.56
339.334	89.56
339.562	92.56
339.79	95.56
340.018	84.56
340.246	95.56
340.474	100.56
340.702	92.56
340.93	73.56
341.158	91.56
341.386	101.56
341.614	95.56
341.842	99.56
342.07	100.56
342.298	97.56
342.526	95.56
342.754	70.56
342.981	87.56
343.209	93.56
343.437	92.56
343.665	95.56
343.893	101.56
344.12	91.56
344.348	78.56
344.576	86.56
344.804	90.56
345.031	97.56
345.259	104.56
345.487	114.56
345.714	95.56
345.942	94.56
346.17	86.56
346.397	93.56
346.625	80.56
346.853	99.56
347.08	72.56
347.308	100.56
347.535	108.56
347.763	108.56
347.99	111.56
348.218	113.56
348.445	103.56
348.673	117.56
348.9	95.56
349.128	99.56
349.355	81.56
349.583	101.56
349.81	91.56
350.037	84.56
350.265	92.56
350.492	85.56
350.72	98.56
350.947	107.56
351.174	111.56
351.402	125.56
351.629	112.56
351.856	114.56
352.083	105.56
352.311	109.56
352.538	117.56
352.765	123.56
352.992	121.56
353.22	124.56
353.447	108.56
353.674	106.56
353.901	94.56
354.128	92.56
354.355	96.56
354.583	105.56
354.81	98.56
355.037	93.56
355.264	101.56
355.491	103.56
355.718	98.56
355.945	102.56
356.172	89.56
356.399	84.56
356.626	90.56
356.853	88.56
357.08	86.56
357.307	88.56
357.534	104.56
357.761	99.56
357.988	77.56
358.215	86.56
358.441	89.56
358.668	85.56
358.895	97.56
359.122	100.56
359.349	100.56
359.576	99.56
359.802	121.56
360.029	142.56
360.256	129.56
360.483	116.56
360.709	81.56
360.936	88.56
361.163	84.56
361.39	101.56
361.616	90.56
361.843	95.56
362.07	92.56
362.296	102.56
362.523	112.56
362.749	109.56
362.976	99.56
363.203	93.56
363.429	81.56
363.656	96.56
363.882	95.56
364.109	99.56
364.335	89.56
364.562	92.56
364.788	85.56
365.015	97.56
365.241	97.56
365.468	114.56
365.694	130.56
365.92	104.56
366.147	93.56
366.373	73.56
366.599	93.56
366.826	89.56
367.052	107.56
367.278	106.56
367.505	99.56
367.731	91.56
367.957	91.56
368.184	94.56
368.41	109.56
368.636	140.56
368.862	134.56
369.089	131.56
369.315	89.56
369.541	99.56
369.767	99.56
369.993	95.56
370.219	81.56
370.445	85.56
370.672	82.56
370.898	81.56
371.124	86.56
371.35	94.56
371.576	93.56
371.802	56.56
372.028	79.56
372.254	76.56
372.48	96.56
372.706	95.56
372.932	75.56
373.158	90.56
373.384	103.56
373.61	94.56
373.835	98.56
374.061	87.56
374.287	93.56
374.513	98.56
374.739	75.56
374.965	94.56
375.191	70.56
375.416	77.56
375.642	84.56
375.868	85.56
376.094	85.56
376.319	87.56
376.545	83.56
376.771	102.56
376.997	99.56
377.222	111.56
377.448	85.56
377.674	92.56
377.899	92.56
378.125	79.56
378.35	88.56
378.576	92.56
378.802	89.56
379.027	95.56
379.253	91.56
379.478	91.56
379.704	98.56
379.929	92.56
380.155	91.56
380.38	79.56
380.606	91.56
380.831	83.56
381.057	92.56
381.282	110.56
381.507	100.56
381.733	104.56
381.958	93.56
382.184	101.56
382.409	101.56
382.634	103.56
382.86	97.56
383.085	101.56
383.31	93.56
383.535	99.56
383.761	90.56
383.986	96.56
384.211	98.56
384.436	111.56
384.662	101.56
384.887	110.56
385.112	117.56
385.337	113.56
385.562	90.56
385.787	94.56
386.013	98.56
386.238	115.56
386.463	119.56
386.688	120.56
386.913	92.56
387.138	103.56
387.363	99.56
387.588	105.56
387.813	93.56
388.038	103.56
388.263	118.56
388.488	101.56
388.713	87.56
388.938	97.56
389.163	96.56
389.387	78.56
389.612	90.56
389.837	75.56
390.062	87.56
390.287	105.56
390.512	78.56
390.736	83.56
390.961	93.56
391.186	85.56
391.411	98.56
391.636	95.56
391.86	99.56
392.085	86.56
392.31	87.56
392.534	92.56
392.759	85.56
392.984	83.56
393.208	82.56
393.433	87.56
393.658	92.56
393.882	85.56
394.107	80.56
394.331	82.56
394.556	91.56
394.78	80.56
395.005	80.56
395.229	75.56
395.454	92.56
395.678	83.56
395.903	95.56
396.127	94.56
396.352	81.56
396.576	86.56
396.801	90.56
397.025	83.56
397.249	81.56
397.474	89.56
397.698	86.56
397.922	86.56
398.147	92.56
398.371	77.56
398.595	87.56
398.82	81.56
399.044	77.56
399.268	76.56
399.492	82.56
399.717	81.56
399.941	105.56
400.165	108.56
400.389	87.56
400.613	94.56
400.837	90.56
401.062	95.56
401.286	82.56
401.51	101.56
401.734	105.56
401.958	98.56
402.182	150.56
402.406	195.56
402.63	147.56
402.854	102.56
403.078	98.56
403.302	90.56
403.526	88.56
403.75	84.56
403.974	82.56
404.198	100.56
404.422	94.56
404.645	82.56
404.869	109.56
405.093	111.56
405.317	118.56
405.541	133.56
405.765	121.56
405.988	133.56
406.212	227.56
406.436	325.56
406.66	209.56
406.883	119.56
407.107	97.56
407.331	101.56
407.555	117.56
407.778	118.56
408.002	87.56
408.226	87.56
408.449	74.56
408.673	88.56
408.896	100.56
409.12	94.56
409.344	77.56
409.567	85.56
409.791	86.56
410.014	91.56
410.238	102.56
410.461	91.56
410.685	95.56
410.908	86.56
411.132	108.56
411.355	102.56
411.578	101.56
411.802	77.56
412.025	94.56
412.249	84.56
412.472	127.56
412.695	125.56
412.919	97.56
413.142	91.56
413.365	99.56
413.589	82.56
413.812	92.56
414.035	94.56
414.258	93.56
414.482	100.56
414.705	78.56
414.928	96.56
415.151	81.56
415.374	97.56
415.597	86.56
415.821	83.56
416.044	79.56
416.267	87.56
416.49	92.56
416.713	83.56
416.936	76.56
417.159	107.56
417.382	102.56
417.605	95.56
417.828	106.56
418.051	103.56
418.274	83.56
418.497	89.56
418.72	81.56
418.943	79.56
419.166	85.56
419.389	83.56
419.611	78.56
419.834	83.56
420.057	89.56
420.28	92.56
420.503	85.56
420.726	77.56
420.948	91.56
421.171	105.56
421.394	94.56
421.617	99.56
421.839	89.56
422.062	91.56
422.285	85.56
422.507	97.56
422.73	106.56
422.953	85.56
423.175	80.56
423.398	79.56
423.621	103.56
423.843	82.56
424.066	85.56
424.288	78.56
424.511	94.56
424.733	104.56
424.956	115.56
425.178	98.56
425.401	106.56
425.623	98.56
425.846	91.56
426.068	93.56
426.291	92.56
426.513	87.56
426.735	89.56
426.958	103.56
427.18	110.56
427.402	169.56
427.625	247.56
427.847	222.56
428.069	195.56
428.292	101.56
428.514	85.56
428.736	96.56
428.958	81.56
429.181	83.56
429.403	90.56
429.625	94.56
429.847	90.56
430.069	100.56
430.292	109.56
430.514	86.56
430.736	91.56
430.958	81.56
431.18	71.56
431.402	79.56
431.624	94.56
431.846	81.56
432.068	75.56
432.29	74.56
432.512	92.56
432.734	93.56
432.956	97.56
433.178	84.56
433.4	93.56
433.622	78.56
433.844	94.56
434.066	105.56
434.287	108.56
434.509	95.56
434.731	92.56
434.953	86.56
435.175	92.56
435.397	71.56
435.618	90.56
435.84	118.56
436.062	126.56
436.284	120.56
436.505	95.56
436.727	98.56
436.949	85.56
437.17	86.56
437.392	88.56
437.614	103.56
437.835	108.56
438.057	138.56
438.278	128.56
438.5	103.56
438.721	128.56
438.943	90.56
439.165	104.56
439.386	103.56
439.608	92.56
439.829	93.56
440.05	128.56
440.272	171.56
440.493	110.56
440.715	89.56
440.936	76.56
441.158	73.56
441.379	97.56
441.6	107.56
441.822	102.56
442.043	98.56
442.264	134.56
442.486	120.56
442.707	97.56
442.928	147.56
443.149	171.56
443.371	180.56
443.592	137.56
443.813	124.56
444.034	122.56
444.255	98.56
444.476	99.56
444.698	90.56
444.919	90.56
445.14	145.56
445.361	114.56
445.582	129.56
445.803	183.56
446.024	164.56
446.245	157.56
446.466	123.56
446.687	86.56
446.908	99.56
447.129	90.56
447.35	87.56
447.571	90.56
447.792	101.56
448.013	88.56
448.234	121.56
448.455	104.56
448.675	114.56
448.896	129.56
449.117	102.56
449.338	102.56
449.559	120.56
449.779	149.56
450	95.56
450.221	83.56
450.442	76.56
450.662	94.56
450.883	118.56
451.104	126.56
451.324	122.56
451.545	86.56
451.766	75.56
451.986	93.56
452.207	88.56
452.428	99.56
452.648	107.56
452.869	116.56
453.089	138.56
453.31	123.56
453.53	101.56
453.751	95.56
453.971	119.56
454.192	134.56
454.412	86.56
454.633	73.56
454.853	82.56
455.073	74.56
455.294	94.56
455.514	94.56
455.734	102.56
455.955	84.56
456.175	77.56
456.395	94.56
456.616	84.56
456.836	100.56
457.056	95.56
457.276	88.56
457.497	78.56
457.717	72.56
457.937	92.56
458.157	112.56
458.377	102.56
458.598	124.56
458.818	206.56
459.038	216.56
459.258	142.56
459.478	98.56
459.698	81.56
459.918	83.56
460.138	85.56
460.358	74.56
460.578	97.56
460.798	95.56
461.018	81.56
461.238	89.56
461.458	73.56
461.678	79.56
461.898	91.56
462.118	80.56
462.338	82.56
462.558	82.56
462.777	91.56
462.997	106.56
463.217	109.56
463.437	92.56
463.657	77.56
463.876	85.56
464.096	80.56
464.316	105.56
464.536	100.56
464.755	102.56
464.975	129.56
465.195	251.56
465.414	257.56
465.634	114.56
465.854	77.56
466.073	89.56
466.293	99.56
466.512	89.56
466.732	86.56
466.951	92.56
467.171	95.56
467.391	98.56
467.61	152.56
467.829	201.56
468.049	548.56
468.268	818.56
468.488	209.56
468.707	99.56
468.927	96.56
469.146	91.56
469.365	88.56
469.585	91.56
469.804	118.56
470.023	94.56
470.243	88.56
470.462	126.56
470.681	145.56
470.901	95.56
471.12	112.56
471.339	97.56
471.558	111.56
471.777	149.56
471.997	289.56
472.216	1068.56
472.435	2497.56
472.654	561.56
472.873	161.56
473.092	114.56
473.311	100.56
473.53	98.56
473.749	89.56
473.968	100.56
474.187	124.56
474.406	107.56
474.625	90.56
474.844	77.56
475.063	77.56
475.282	84.56
475.501	98.56
475.72	95.56
475.939	91.56
476.158	81.56
476.377	98.56
476.596	99.56
476.814	106.56
477.033	103.56
477.252	89.56
477.471	101.56
477.69	82.56
477.908	100.56
478.127	90.56
478.346	89.56
478.564	93.56
478.783	87.56
479.002	97.56
479.22	110.56
479.439	121.56
479.658	137.56
479.876	115.56
480.095	127.56
480.313	132.56
480.532	163.56
480.751	265.56
480.969	1017.56
481.188	4266.56
481.406	2443.56
481.624	368.56
481.843	129.56
482.061	92.56
482.28	101.56
482.498	86.56
482.717	91.56
482.935	84.56
483.153	101.56
483.372	95.56
483.59	81.56
483.808	101.56
484.027	102.56
484.245	92.56
484.463	96.56
484.681	77.56
484.9	99.56
485.118	100.56
485.336	100.56
485.554	89.56
485.772	112.56
485.99	107.56
486.209	118.56
486.427	101.56
486.645	123.56
486.863	129.56
487.081	108.56
487.299	99.56
487.517	107.56
487.735	95.56
487.953	98.56
488.171	90.56
488.389	92.56
488.607	109.56
488.825	81.56
489.043	97.56
489.261	78.56
489.479	86.56
489.696	94.56
489.914	85.56
490.132	89.56
490.35	90.56
490.568	89.56
490.786	87.56
491.003	82.56
491.221	85.56
491.439	97.56
491.657	94.56
491.874	91.56
492.092	68.56
492.31	94.56
492.527	87.56
492.745	95.56
492.963	94.56
493.18	92.56
493.398	83.56
493.615	109.56
493.833	97.56
494.05	76.56
494.268	98.56
494.485	92.56
494.703	100.56
494.92	89.56
495.138	93.56
495.355	92.56
495.573	88.56
495.79	92.56
496.008	94.56
496.225	80.56
496.442	89.56
496.66	96.56
496.877	91.56
497.094	93.56
497.312	87.56
497.529	95.56
497.746	95.56
497.963	93.56
498.181	95.56
498.398	91.56
498.615	107.56
498.832	114.56
499.049	98.56
499.267	89.56
499.484	91.56
499.701	95.56
499.918	84.56
500.135	90.56
500.352	95.56
500.569	98.56
500.786	90.56
501.003	89.56
501.22	83.56
501.437	77.56
501.654	97.56
501.871	111.56
502.088	102.56
502.305	90.56
502.522	102.56
502.739	80.56
502.956	89.56
503.172	92.56
503.389	89.56
503.606	133.56
503.823	115.56
504.04	83.56
504.256	90.56
504.473	96.56
504.69	87.56
504.907	86.56
505.123	90.56
505.34	87.56
505.557	78.56
505.773	79.56
505.99	87.56
506.207	85.56
506.423	85.56
506.64	82.56
506.856	79.56
507.073	94.56
507.289	89.56
507.506	118.56
507.722	141.56
507.939	126.56
508.155	95.56
508.372	95.56
508.588	110.56
508.805	113.56
509.021	100.56
509.238	102.56
509.454	86.56
509.67	111.56
509.887	111.56
510.103	150.56
510.319	267.56
510.536	1021.56
510.752	3750.56
510.968	972.56
511.184	195.56
511.401	127.56
511.617	108.56
511.833	116.56
512.049	95.56
512.265	90.56
512.481	92.56
512.698	91.56
512.914	92.56
513.13	84.56
513.346	95.56
513.562	98.56
513.778	84.56
513.994	102.56
