Data from Circ_1999_H10_HRD10591_00071.txt Node
Date: Wed Jan 03 11:23:26 EST 2024
User: Yrep
Spectrometer: HR+D1059
Trigger mode: 1
Integration Time (sec): 1.000000E-1
Scans to average: 1
Electric dark correction enabled: true
Nonlinearity correction enabled: false
Boxcar width: 0
XAxis mode: Wavelengths
Number of Pixels in Spectrum: 2048
>>>>>Begin Spectral Data<<<<<
223.165	-2.38
223.4	-2.38
223.635	-2.38
223.869	-11.38
224.104	-13.38
224.338	-13.38
224.573	-23.38
224.808	-20.38
225.042	-12.38
225.277	3.62
225.511	-10.38
225.746	-7.38
225.98	2.62
226.215	12.62
226.449	17.62
226.683	25.62
226.918	26.62
227.152	25.62
227.387	47.62
227.621	43.62
227.856	45.62
228.09	57.62
228.324	67.62
228.559	57.62
228.793	55.62
229.027	51.62
229.262	65.62
229.496	77.62
229.73	119.62
229.964	96.62
230.199	79.62
230.433	73.62
230.667	73.62
230.901	85.62
231.136	73.62
231.37	71.62
231.604	79.62
231.838	98.62
232.072	77.62
232.306	91.62
232.541	75.62
232.775	86.62
233.009	88.62
233.243	83.62
233.477	81.62
233.711	84.62
233.945	84.62
234.179	85.62
234.413	84.62
234.647	74.62
234.881	86.62
235.115	89.62
235.349	84.62
235.583	80.62
235.817	102.62
236.051	83.62
236.285	81.62
236.519	91.62
236.753	81.62
236.987	69.62
237.221	95.62
237.455	103.62
237.689	88.62
237.922	87.62
238.156	85.62
238.39	84.62
238.624	90.62
238.858	84.62
239.091	72.62
239.325	76.62
239.559	91.62
239.793	96.62
240.027	82.62
240.26	90.62
240.494	81.62
240.728	83.62
240.961	91.62
241.195	77.62
241.429	73.62
241.662	80.62
241.896	76.62
242.13	88.62
242.363	79.62
242.597	86.62
242.83	87.62
243.064	79.62
243.298	79.62
243.531	80.62
243.765	94.62
243.998	84.62
244.232	86.62
244.465	94.62
244.699	89.62
244.932	74.62
245.166	83.62
245.399	82.62
245.633	79.62
245.866	78.62
246.099	81.62
246.333	70.62
246.566	74.62
246.8	93.62
247.033	74.62
247.266	85.62
247.5	85.62
247.733	76.62
247.966	77.62
248.2	82.62
248.433	80.62
248.666	87.62
248.899	97.62
249.133	98.62
249.366	127.62
249.599	119.62
249.832	90.62
250.066	93.62
250.299	84.62
250.532	102.62
250.765	87.62
250.998	78.62
251.231	74.62
251.465	87.62
251.698	84.62
251.931	88.62
252.164	85.62
252.397	97.62
252.63	94.62
252.863	93.62
253.096	89.62
253.329	83.62
253.562	89.62
253.795	75.62
254.028	83.62
254.261	79.62
254.494	94.62
254.727	78.62
254.96	87.62
255.193	79.62
255.426	81.62
255.659	100.62
255.892	99.62
256.124	96.62
256.357	92.62
256.59	85.62
256.823	84.62
257.056	97.62
257.289	93.62
257.521	88.62
257.754	86.62
257.987	97.62
258.22	90.62
258.452	104.62
258.685	115.62
258.918	97.62
259.151	88.62
259.383	91.62
259.616	88.62
259.849	81.62
260.081	81.62
260.314	83.62
260.547	85.62
260.779	120.62
261.012	120.62
261.244	143.62
261.477	117.62
261.71	120.62
261.942	176.62
262.175	176.62
262.407	118.62
262.64	88.62
262.872	95.62
263.105	89.62
263.337	92.62
263.57	95.62
263.802	85.62
264.035	73.62
264.267	92.62
264.499	78.62
264.732	71.62
264.964	88.62
265.197	83.62
265.429	87.62
265.661	97.62
265.894	89.62
266.126	77.62
266.358	83.62
266.591	85.62
266.823	82.62
267.055	91.62
267.287	106.62
267.52	87.62
267.752	92.62
267.984	94.62
268.216	89.62
268.448	91.62
268.681	93.62
268.913	87.62
269.145	92.62
269.377	74.62
269.609	69.62
269.841	89.62
270.073	75.62
270.306	81.62
270.538	77.62
270.77	79.62
271.002	99.62
271.234	99.62
271.466	91.62
271.698	99.62
271.93	86.62
272.162	83.62
272.394	93.62
272.626	86.62
272.858	81.62
273.09	85.62
273.322	69.62
273.553	102.62
273.785	87.62
274.017	92.62
274.249	95.62
274.481	96.62
274.713	107.62
274.945	97.62
275.176	97.62
275.408	114.62
275.64	110.62
275.872	156.62
276.104	130.62
276.335	131.62
276.567	152.62
276.799	190.62
277.031	224.62
277.262	276.62
277.494	189.62
277.726	122.62
277.957	107.62
278.189	97.62
278.421	102.62
278.652	91.62
278.884	96.62
279.115	104.62
279.347	91.62
279.579	101.62
279.81	137.62
280.042	251.62
280.273	371.62
280.505	257.62
280.736	115.62
280.968	97.62
281.199	87.62
281.431	104.62
281.662	103.62
281.894	101.62
282.125	115.62
282.356	175.62
282.588	226.62
282.819	137.62
283.051	112.62
283.282	97.62
283.513	78.62
283.745	72.62
283.976	80.62
284.207	95.62
284.439	85.62
284.67	91.62
284.901	85.62
285.132	91.62
285.364	96.62
285.595	107.62
285.826	98.62
286.057	102.62
286.288	90.62
286.52	91.62
286.751	91.62
286.982	108.62
287.213	86.62
287.444	92.62
287.675	104.62
287.906	97.62
288.138	97.62
288.369	97.62
288.6	114.62
288.831	93.62
289.062	100.62
289.293	91.62
289.524	88.62
289.755	84.62
289.986	106.62
290.217	106.62
290.448	93.62
290.679	87.62
290.91	96.62
291.141	79.62
291.371	94.62
291.602	86.62
291.833	92.62
292.064	91.62
292.295	84.62
292.526	102.62
292.757	88.62
292.987	96.62
293.218	92.62
293.449	91.62
293.68	89.62
293.91	93.62
294.141	94.62
294.372	94.62
294.603	88.62
294.833	84.62
295.064	87.62
295.295	98.62
295.525	86.62
295.756	118.62
295.987	154.62
296.217	198.62
296.448	185.62
296.679	117.62
296.909	91.62
297.14	89.62
297.37	94.62
297.601	101.62
297.831	68.62
298.062	113.62
298.292	88.62
298.523	99.62
298.753	102.62
298.984	89.62
299.214	95.62
299.445	104.62
299.675	98.62
299.905	112.62
300.136	115.62
300.366	104.62
300.597	97.62
300.827	106.62
301.057	125.62
301.288	127.62
301.518	116.62
301.748	109.62
301.979	110.62
302.209	107.62
302.439	106.62
302.669	112.62
302.9	100.62
303.13	94.62
303.36	121.62
303.59	167.62
303.82	181.62
304.051	112.62
304.281	96.62
304.511	102.62
304.741	79.62
304.971	82.62
305.201	99.62
305.431	90.62
305.661	97.62
305.891	85.62
306.121	114.62
306.352	127.62
306.582	133.62
306.812	121.62
307.042	167.62
307.272	204.62
307.502	235.62
307.731	202.62
307.961	148.62
308.191	105.62
308.421	103.62
308.651	94.62
308.881	101.62
309.111	102.62
309.341	101.62
309.571	113.62
309.8	118.62
310.03	110.62
310.26	136.62
310.49	112.62
310.72	117.62
310.949	135.62
311.179	123.62
311.409	121.62
311.639	106.62
311.868	103.62
312.098	110.62
312.328	122.62
312.557	136.62
312.787	145.62
313.017	135.62
313.246	99.62
313.476	118.62
313.706	105.62
313.935	112.62
314.165	136.62
314.394	118.62
314.624	111.62
314.853	123.62
315.083	127.62
315.312	105.62
315.542	88.62
315.771	98.62
316.001	93.62
316.23	101.62
316.46	98.62
316.689	102.62
316.919	111.62
317.148	125.62
317.377	111.62
317.607	112.62
317.836	106.62
318.065	90.62
318.295	97.62
318.524	105.62
318.753	106.62
318.983	105.62
319.212	114.62
319.441	137.62
319.67	138.62
319.9	106.62
320.129	110.62
320.358	110.62
320.587	109.62
320.816	130.62
321.046	130.62
321.275	121.62
321.504	98.62
321.733	115.62
321.962	104.62
322.191	137.62
322.42	115.62
322.649	140.62
322.878	127.62
323.108	144.62
323.337	187.62
323.566	186.62
323.795	226.62
324.024	312.62
324.253	665.62
324.482	1451.62
324.71	3081.62
324.939	4056.62
325.168	1460.62
325.397	384.62
325.626	226.62
325.855	181.62
326.084	175.62
326.313	162.62
326.542	219.62
326.77	349.62
326.999	703.62
327.228	1467.62
327.457	2811.62
327.686	2229.62
327.914	817.62
328.143	817.62
328.372	1046.62
328.6	588.62
328.829	263.62
329.058	251.62
329.287	292.62
329.515	241.62
329.744	366.62
329.972	742.62
330.201	1609.62
330.43	2304.62
330.658	1016.62
330.887	424.62
331.115	273.62
331.344	158.62
331.572	152.62
331.801	156.62
332.03	154.62
332.258	133.62
332.486	122.62
332.715	114.62
332.943	122.62
333.172	143.62
333.4	160.62
333.629	202.62
333.857	325.62
334.085	663.62
334.314	1452.62
334.542	2889.62
334.771	2713.62
334.999	645.62
335.227	219.62
335.455	157.62
335.684	132.62
335.912	129.62
336.14	114.62
336.369	122.62
336.597	127.62
336.825	121.62
337.053	114.62
337.281	114.62
337.51	106.62
337.738	99.62
337.966	115.62
338.194	128.62
338.422	133.62
338.65	110.62
338.878	101.62
339.106	112.62
339.334	96.62
339.562	102.62
339.79	124.62
340.018	106.62
340.246	112.62
340.474	119.62
340.702	109.62
340.93	103.62
341.158	107.62
341.386	119.62
341.614	103.62
341.842	122.62
342.07	108.62
342.298	98.62
342.526	93.62
342.754	101.62
342.981	90.62
343.209	89.62
343.437	90.62
343.665	111.62
343.893	82.62
344.12	108.62
344.348	92.62
344.576	98.62
344.804	105.62
345.031	116.62
345.259	113.62
345.487	112.62
345.714	104.62
345.942	82.62
346.17	85.62
346.397	113.62
346.625	106.62
346.853	112.62
347.08	105.62
347.308	115.62
347.535	108.62
347.763	143.62
347.99	102.62
348.218	104.62
348.445	143.62
348.673	127.62
348.9	109.62
349.128	122.62
349.355	91.62
349.583	102.62
349.81	103.62
350.037	106.62
350.265	106.62
350.492	101.62
350.72	99.62
350.947	117.62
351.174	129.62
351.402	135.62
351.629	121.62
351.856	115.62
352.083	129.62
352.311	124.62
352.538	163.62
352.765	139.62
352.992	145.62
353.22	134.62
353.447	130.62
353.674	103.62
353.901	95.62
354.128	99.62
354.355	97.62
354.583	114.62
354.81	96.62
355.037	91.62
355.264	90.62
355.491	99.62
355.718	92.62
355.945	93.62
356.172	90.62
356.399	97.62
356.626	78.62
356.853	90.62
357.08	93.62
357.307	92.62
357.534	82.62
357.761	91.62
357.988	105.62
358.215	86.62
358.441	95.62
358.668	107.62
358.895	95.62
359.122	98.62
359.349	92.62
359.576	105.62
359.802	138.62
360.029	179.62
360.256	157.62
360.483	137.62
360.709	97.62
360.936	95.62
361.163	112.62
361.39	137.62
361.616	120.62
361.843	112.62
362.07	107.62
362.296	141.62
362.523	106.62
362.749	117.62
362.976	96.62
363.203	103.62
363.429	105.62
363.656	85.62
363.882	89.62
364.109	99.62
364.335	113.62
364.562	92.62
364.788	110.62
365.015	103.62
365.241	119.62
365.468	135.62
365.694	130.62
365.92	114.62
366.147	117.62
366.373	111.62
366.599	95.62
366.826	102.62
367.052	96.62
367.278	109.62
367.505	94.62
367.731	113.62
367.957	91.62
368.184	110.62
368.41	127.62
368.636	150.62
368.862	165.62
369.089	141.62
369.315	94.62
369.541	112.62
369.767	108.62
369.993	108.62
370.219	101.62
370.445	99.62
370.672	101.62
370.898	96.62
371.124	81.62
371.35	97.62
371.576	82.62
371.802	99.62
372.028	87.62
372.254	101.62
372.48	97.62
372.706	89.62
372.932	91.62
373.158	84.62
373.384	97.62
373.61	87.62
373.835	91.62
374.061	103.62
374.287	96.62
374.513	94.62
374.739	95.62
374.965	98.62
375.191	88.62
375.416	106.62
375.642	87.62
375.868	108.62
376.094	88.62
376.319	85.62
376.545	88.62
376.771	104.62
376.997	98.62
377.222	98.62
377.448	97.62
377.674	99.62
377.899	94.62
378.125	98.62
378.35	91.62
378.576	82.62
378.802	74.62
379.027	87.62
379.253	82.62
379.478	86.62
379.704	90.62
379.929	90.62
380.155	103.62
380.38	98.62
380.606	96.62
380.831	100.62
381.057	96.62
381.282	109.62
381.507	108.62
381.733	96.62
381.958	84.62
382.184	106.62
382.409	107.62
382.634	104.62
382.86	89.62
383.085	95.62
383.31	99.62
383.535	96.62
383.761	107.62
383.986	106.62
384.211	96.62
384.436	104.62
384.662	105.62
384.887	100.62
385.112	112.62
385.337	95.62
385.562	105.62
385.787	98.62
386.013	115.62
386.238	133.62
386.463	120.62
386.688	118.62
386.913	84.62
387.138	112.62
387.363	104.62
387.588	95.62
387.813	98.62
388.038	102.62
388.263	112.62
388.488	107.62
388.713	103.62
388.938	98.62
389.163	89.62
389.387	90.62
389.612	109.62
389.837	96.62
390.062	98.62
390.287	93.62
390.512	91.62
390.736	86.62
390.961	96.62
391.186	95.62
391.411	100.62
391.636	89.62
391.86	94.62
392.085	86.62
392.31	78.62
392.534	101.62
392.759	88.62
392.984	86.62
393.208	89.62
393.433	89.62
393.658	84.62
393.882	94.62
394.107	100.62
394.331	86.62
394.556	82.62
394.78	93.62
395.005	85.62
395.229	87.62
395.454	87.62
395.678	96.62
395.903	90.62
396.127	79.62
396.352	83.62
396.576	78.62
396.801	92.62
397.025	86.62
397.249	84.62
397.474	96.62
397.698	95.62
397.922	96.62
398.147	91.62
398.371	102.62
398.595	98.62
398.82	80.62
399.044	82.62
399.268	96.62
399.492	91.62
399.717	99.62
399.941	94.62
400.165	95.62
400.389	97.62
400.613	95.62
400.837	93.62
401.062	82.62
401.286	105.62
401.51	109.62
401.734	117.62
401.958	134.62
402.182	171.62
402.406	271.62
402.63	176.62
402.854	121.62
403.078	87.62
403.302	98.62
403.526	101.62
403.75	97.62
403.974	103.62
404.198	98.62
404.422	93.62
404.645	104.62
404.869	103.62
405.093	146.62
405.317	175.62
405.541	167.62
405.765	131.62
405.988	171.62
406.212	297.62
406.436	454.62
406.66	288.62
406.883	153.62
407.107	110.62
407.331	124.62
407.555	133.62
407.778	118.62
408.002	95.62
408.226	96.62
408.449	94.62
408.673	105.62
408.896	104.62
409.12	112.62
409.344	99.62
409.567	98.62
409.791	84.62
410.014	86.62
410.238	96.62
410.461	95.62
410.685	76.62
410.908	114.62
411.132	107.62
411.355	114.62
411.578	105.62
411.802	87.62
412.025	94.62
412.249	97.62
412.472	120.62
412.695	139.62
412.919	122.62
413.142	108.62
413.365	89.62
413.589	74.62
413.812	100.62
414.035	80.62
414.258	92.62
414.482	99.62
414.705	90.62
414.928	108.62
415.151	83.62
415.374	79.62
415.597	85.62
415.821	105.62
416.044	95.62
416.267	88.62
416.49	80.62
416.713	82.62
416.936	89.62
417.159	98.62
417.382	105.62
417.605	117.62
417.828	122.62
418.051	101.62
418.274	105.62
418.497	90.62
418.72	87.62
418.943	91.62
419.166	82.62
419.389	93.62
419.611	105.62
419.834	90.62
420.057	105.62
420.28	103.62
420.503	99.62
420.726	87.62
420.948	89.62
421.171	109.62
421.394	105.62
421.617	81.62
421.839	90.62
422.062	86.62
422.285	100.62
422.507	111.62
422.73	107.62
422.953	99.62
423.175	93.62
423.398	101.62
423.621	93.62
423.843	88.62
424.066	104.62
424.288	84.62
424.511	112.62
424.733	107.62
424.956	148.62
425.178	122.62
425.401	128.62
425.623	114.62
425.846	102.62
426.068	96.62
426.291	91.62
426.513	96.62
426.735	95.62
426.958	110.62
427.18	151.62
427.402	225.62
427.625	358.62
427.847	333.62
428.069	283.62
428.292	141.62
428.514	109.62
428.736	95.62
428.958	94.62
429.181	100.62
429.403	97.62
429.625	110.62
429.847	101.62
430.069	108.62
430.292	106.62
430.514	100.62
430.736	97.62
430.958	81.62
431.18	98.62
431.402	84.62
431.624	79.62
431.846	79.62
432.068	82.62
432.29	77.62
432.512	85.62
432.734	80.62
432.956	91.62
433.178	98.62
433.4	105.62
433.622	99.62
433.844	94.62
434.066	92.62
434.287	90.62
434.509	99.62
434.731	107.62
434.953	87.62
435.175	98.62
435.397	106.62
435.618	93.62
435.84	105.62
436.062	165.62
436.284	151.62
436.505	118.62
436.727	114.62
436.949	113.62
437.17	93.62
437.392	88.62
437.614	122.62
437.835	148.62
438.057	184.62
438.278	138.62
438.5	137.62
438.721	160.62
438.943	119.62
439.165	99.62
439.386	97.62
439.608	107.62
439.829	136.62
440.05	186.62
440.272	232.62
440.493	123.62
440.715	105.62
440.936	97.62
441.158	108.62
441.379	108.62
441.6	112.62
441.822	119.62
442.043	114.62
442.264	129.62
442.486	107.62
442.707	108.62
442.928	151.62
443.149	226.62
443.371	220.62
443.592	169.62
443.813	147.62
444.034	113.62
444.255	90.62
444.476	95.62
444.698	101.62
444.919	94.62
445.14	141.62
445.361	137.62
445.582	155.62
445.803	229.62
446.024	221.62
446.245	187.62
446.466	141.62
446.687	100.62
446.908	97.62
447.129	99.62
447.35	101.62
447.571	99.62
447.792	111.62
448.013	126.62
448.234	142.62
448.455	130.62
448.675	146.62
448.896	154.62
449.117	121.62
449.338	118.62
449.559	150.62
449.779	172.62
450	93.62
450.221	98.62
450.442	90.62
450.662	103.62
450.883	146.62
451.104	177.62
451.324	114.62
451.545	109.62
451.766	98.62
451.986	99.62
452.207	105.62
452.428	113.62
452.648	110.62
452.869	146.62
453.089	171.62
453.31	173.62
453.53	135.62
453.751	117.62
453.971	150.62
454.192	158.62
454.412	117.62
454.633	89.62
454.853	97.62
455.073	91.62
455.294	89.62
455.514	130.62
455.734	91.62
455.955	92.62
456.175	92.62
456.395	95.62
456.616	92.62
456.836	91.62
457.056	103.62
457.276	80.62
457.497	85.62
457.717	81.62
457.937	90.62
458.157	80.62
458.377	116.62
458.598	149.62
458.818	287.62
459.038	342.62
459.258	184.62
459.478	109.62
459.698	97.62
459.918	87.62
460.138	98.62
460.358	76.62
460.578	96.62
460.798	101.62
461.018	101.62
461.238	97.62
461.458	100.62
461.678	91.62
461.898	93.62
462.118	103.62
462.338	90.62
462.558	98.62
462.777	98.62
462.997	89.62
463.217	134.62
463.437	111.62
463.657	95.62
463.876	94.62
464.096	105.62
464.316	100.62
464.536	114.62
464.755	118.62
464.975	161.62
465.195	339.62
465.414	353.62
465.634	131.62
465.854	99.62
466.073	107.62
466.293	97.62
466.512	91.62
466.732	100.62
466.951	110.62
467.171	103.62
467.391	133.62
467.61	191.62
467.829	299.62
468.049	911.62
468.268	1425.62
468.488	320.62
468.707	130.62
468.927	96.62
469.146	103.62
469.365	105.62
469.585	108.62
469.804	130.62
470.023	136.62
470.243	115.62
470.462	133.62
470.681	178.62
470.901	128.62
471.12	109.62
471.339	117.62
471.558	126.62
471.777	196.62
471.997	425.62
472.216	1767.62
472.435	4146.62
472.654	886.62
472.873	226.62
473.092	130.62
473.311	110.62
473.53	94.62
473.749	115.62
473.968	125.62
474.187	144.62
474.406	110.62
474.625	96.62
474.844	94.62
475.063	95.62
475.282	89.62
475.501	95.62
475.72	113.62
475.939	93.62
476.158	95.62
476.377	105.62
476.596	97.62
476.814	117.62
477.033	125.62
477.252	105.62
477.471	101.62
477.69	104.62
477.908	90.62
478.127	94.62
478.346	108.62
478.564	110.62
478.783	138.62
479.002	108.62
479.22	127.62
479.439	154.62
479.658	177.62
479.876	155.62
480.095	139.62
480.313	166.62
480.532	203.62
480.751	403.62
480.969	1572.62
481.188	7101.62
481.406	3963.62
481.624	527.62
481.843	182.62
482.061	111.62
482.28	115.62
482.498	119.62
482.717	96.62
482.935	108.62
483.153	95.62
483.372	92.62
483.59	105.62
483.808	102.62
484.027	98.62
484.245	103.62
484.463	96.62
484.681	105.62
484.9	93.62
485.118	102.62
485.336	95.62
485.554	97.62
485.772	116.62
485.99	102.62
486.209	117.62
486.427	122.62
486.645	134.62
486.863	153.62
487.081	129.62
487.299	109.62
487.517	105.62
487.735	93.62
487.953	99.62
488.171	87.62
488.389	105.62
488.607	115.62
488.825	103.62
489.043	113.62
489.261	91.62
489.479	73.62
489.696	98.62
489.914	92.62
490.132	94.62
490.35	98.62
490.568	99.62
490.786	76.62
491.003	90.62
491.221	105.62
491.439	126.62
491.657	110.62
491.874	97.62
492.092	97.62
492.31	87.62
492.527	100.62
492.745	113.62
492.963	102.62
493.18	88.62
493.398	83.62
493.615	99.62
493.833	105.62
494.05	96.62
494.268	95.62
494.485	86.62
494.703	93.62
494.92	97.62
495.138	85.62
495.355	100.62
495.573	103.62
495.79	90.62
496.008	81.62
496.225	96.62
496.442	81.62
496.66	88.62
496.877	96.62
497.094	88.62
497.312	94.62
497.529	101.62
497.746	90.62
497.963	101.62
498.181	98.62
498.398	101.62
498.615	123.62
498.832	111.62
499.049	90.62
499.267	94.62
499.484	93.62
499.701	96.62
499.918	99.62
500.135	106.62
500.352	96.62
500.569	116.62
500.786	100.62
501.003	103.62
501.22	82.62
501.437	99.62
501.654	109.62
501.871	165.62
502.088	101.62
502.305	92.62
502.522	93.62
502.739	97.62
502.956	78.62
503.172	93.62
503.389	113.62
503.606	152.62
503.823	130.62
504.04	99.62
504.256	107.62
504.473	92.62
504.69	87.62
504.907	94.62
505.123	93.62
505.34	92.62
505.557	102.62
505.773	105.62
505.99	87.62
506.207	90.62
506.423	78.62
506.64	95.62
506.856	102.62
507.073	105.62
507.289	106.62
507.506	127.62
507.722	159.62
507.939	157.62
508.155	121.62
508.372	99.62
508.588	116.62
508.805	100.62
509.021	102.62
509.238	108.62
509.454	120.62
509.67	123.62
509.887	144.62
510.103	177.62
510.319	320.62
510.536	1394.62
510.752	5183.62
