Data from Circ_1999_H10_HRD10591_00010.txt Node
Date: Wed Jan 03 11:23:14 EST 2024
User: Yrep
Spectrometer: HR+D1059
Trigger mode: 1
Integration Time (sec): 1.000000E-1
Scans to average: 1
Electric dark correction enabled: true
Nonlinearity correction enabled: false
Boxcar width: 0
XAxis mode: Wavelengths
Number of Pixels in Spectrum: 2048
>>>>>Begin Spectral Data<<<<<
223.165	-21.44
223.4	-21.44
223.635	-21.44
223.869	-23.44
224.104	-20.44
224.338	-20.44
224.573	-10.44
224.808	-11.44
225.042	-5.44
225.277	-4.44
225.511	-4.44
225.746	-10.44
225.98	16.56
226.215	7.56
226.449	24.56
226.683	30.56
226.918	29.56
227.152	23.56
227.387	47.56
227.621	38.56
227.856	41.56
228.09	45.56
228.324	47.56
228.559	46.56
228.793	48.56
229.027	75.56
229.262	80.56
229.496	89.56
229.73	119.56
229.964	94.56
230.199	76.56
230.433	87.56
230.667	80.56
230.901	74.56
231.136	84.56
231.37	78.56
231.604	83.56
231.838	80.56
232.072	79.56
232.306	83.56
232.541	78.56
232.775	81.56
233.009	74.56
233.243	70.56
233.477	85.56
233.711	72.56
233.945	77.56
234.179	80.56
234.413	84.56
234.647	74.56
234.881	92.56
235.115	92.56
235.349	95.56
235.583	91.56
235.817	89.56
236.051	74.56
236.285	79.56
236.519	69.56
236.753	82.56
236.987	84.56
237.221	101.56
237.455	89.56
237.689	91.56
237.922	82.56
238.156	79.56
238.39	85.56
238.624	70.56
238.858	79.56
239.091	79.56
239.325	84.56
239.559	74.56
239.793	94.56
240.027	86.56
240.26	75.56
240.494	82.56
240.728	78.56
240.961	77.56
241.195	86.56
241.429	77.56
241.662	76.56
241.896	53.56
242.13	70.56
242.363	88.56
242.597	80.56
242.83	81.56
243.064	73.56
243.298	78.56
243.531	71.56
243.765	86.56
243.998	75.56
244.232	72.56
244.465	96.56
244.699	76.56
244.932	74.56
245.166	85.56
245.399	74.56
245.633	81.56
245.866	73.56
246.099	75.56
246.333	74.56
246.566	84.56
246.8	79.56
247.033	89.56
247.266	71.56
247.5	86.56
247.733	87.56
247.966	86.56
248.2	79.56
248.433	68.56
248.666	81.56
248.899	78.56
249.133	120.56
249.366	109.56
249.599	116.56
249.832	103.56
250.066	85.56
250.299	105.56
250.532	90.56
250.765	81.56
250.998	77.56
251.231	88.56
251.465	83.56
251.698	94.56
251.931	92.56
252.164	85.56
252.397	78.56
252.63	83.56
252.863	79.56
253.096	89.56
253.329	93.56
253.562	71.56
253.795	105.56
254.028	82.56
254.261	74.56
254.494	98.56
254.727	86.56
254.96	88.56
255.193	83.56
255.426	82.56
255.659	90.56
255.892	102.56
256.124	114.56
256.357	85.56
256.59	85.56
256.823	80.56
257.056	80.56
257.289	96.56
257.521	97.56
257.754	104.56
257.987	85.56
258.22	96.56
258.452	93.56
258.685	102.56
258.918	80.56
259.151	72.56
259.383	86.56
259.616	97.56
259.849	105.56
260.081	81.56
260.314	82.56
260.547	105.56
260.779	109.56
261.012	110.56
261.244	104.56
261.477	108.56
261.71	106.56
261.942	166.56
262.175	168.56
262.407	105.56
262.64	84.56
262.872	90.56
263.105	77.56
263.337	96.56
263.57	95.56
263.802	86.56
264.035	78.56
264.267	81.56
264.499	96.56
264.732	91.56
264.964	103.56
265.197	76.56
265.429	88.56
265.661	92.56
265.894	87.56
266.126	92.56
266.358	94.56
266.591	87.56
266.823	80.56
267.055	85.56
267.287	91.56
267.52	89.56
267.752	94.56
267.984	89.56
268.216	94.56
268.448	89.56
268.681	87.56
268.913	90.56
269.145	88.56
269.377	85.56
269.609	80.56
269.841	94.56
270.073	99.56
270.306	90.56
270.538	94.56
270.77	97.56
271.002	92.56
271.234	96.56
271.466	97.56
271.698	88.56
271.93	87.56
272.162	97.56
272.394	103.56
272.626	86.56
272.858	92.56
273.09	101.56
273.322	95.56
273.553	95.56
273.785	87.56
274.017	86.56
274.249	98.56
274.481	98.56
274.713	96.56
274.945	106.56
275.176	98.56
275.408	101.56
275.64	134.56
275.872	126.56
276.104	110.56
276.335	109.56
276.567	140.56
276.799	165.56
277.031	207.56
277.262	200.56
277.494	154.56
277.726	109.56
277.957	94.56
278.189	92.56
278.421	88.56
278.652	86.56
278.884	86.56
279.115	91.56
279.347	84.56
279.579	108.56
279.81	150.56
280.042	212.56
280.273	283.56
280.505	194.56
280.736	114.56
280.968	96.56
281.199	95.56
281.431	86.56
281.662	85.56
281.894	104.56
282.125	122.56
282.356	155.56
282.588	200.56
282.819	148.56
283.051	95.56
283.282	87.56
283.513	104.56
283.745	97.56
283.976	85.56
284.207	90.56
284.439	109.56
284.67	81.56
284.901	88.56
285.132	75.56
285.364	90.56
285.595	88.56
285.826	85.56
286.057	96.56
286.288	111.56
286.52	88.56
286.751	75.56
286.982	92.56
287.213	82.56
287.444	93.56
287.675	101.56
287.906	100.56
288.138	98.56
288.369	91.56
288.6	108.56
288.831	89.56
289.062	96.56
289.293	108.56
289.524	89.56
289.755	101.56
289.986	72.56
290.217	79.56
290.448	78.56
290.679	85.56
290.91	90.56
291.141	86.56
291.371	87.56
291.602	104.56
291.833	86.56
292.064	85.56
292.295	88.56
292.526	108.56
292.757	89.56
292.987	86.56
293.218	86.56
293.449	99.56
293.68	85.56
293.91	84.56
294.141	98.56
294.372	95.56
294.603	92.56
294.833	114.56
295.064	94.56
295.295	95.56
295.525	104.56
295.756	105.56
295.987	149.56
296.217	181.56
296.448	170.56
296.679	96.56
296.909	88.56
297.14	112.56
297.37	85.56
297.601	96.56
297.831	84.56
298.062	97.56
298.292	85.56
298.523	105.56
298.753	88.56
298.984	93.56
299.214	94.56
299.445	91.56
299.675	116.56
299.905	112.56
300.136	85.56
300.366	110.56
300.597	92.56
300.827	108.56
301.057	119.56
301.288	129.56
301.518	111.56
301.748	98.56
301.979	118.56
302.209	101.56
302.439	105.56
302.669	96.56
302.9	102.56
303.13	97.56
303.36	103.56
303.59	157.56
303.82	164.56
304.051	118.56
304.281	94.56
304.511	96.56
304.741	97.56
304.971	73.56
305.201	103.56
305.431	94.56
305.661	95.56
305.891	108.56
306.121	105.56
306.352	128.56
306.582	145.56
306.812	125.56
307.042	141.56
307.272	181.56
307.502	182.56
307.731	186.56
307.961	132.56
308.191	97.56
308.421	89.56
308.651	104.56
308.881	98.56
309.111	95.56
309.341	88.56
309.571	119.56
309.8	112.56
310.03	117.56
310.26	118.56
310.49	112.56
310.72	119.56
310.949	118.56
311.179	109.56
311.409	98.56
311.639	108.56
311.868	99.56
312.098	111.56
312.328	104.56
312.557	129.56
312.787	136.56
313.017	127.56
313.246	126.56
313.476	92.56
313.706	113.56
313.935	114.56
314.165	125.56
314.394	123.56
314.624	117.56
314.853	117.56
315.083	113.56
315.312	95.56
315.542	108.56
315.771	97.56
316.001	99.56
316.23	94.56
316.46	105.56
316.689	106.56
316.919	108.56
317.148	113.56
317.377	99.56
317.607	94.56
317.836	113.56
318.065	98.56
318.295	84.56
318.524	97.56
318.753	102.56
318.983	99.56
319.212	114.56
319.441	138.56
319.67	125.56
319.9	117.56
320.129	96.56
320.358	93.56
320.587	106.56
320.816	114.56
321.046	124.56
321.275	111.56
321.504	104.56
321.733	117.56
321.962	108.56
322.191	113.56
322.42	136.56
322.649	126.56
322.878	145.56
323.108	142.56
323.337	174.56
323.566	182.56
323.795	207.56
324.024	297.56
324.253	583.56
324.482	1246.56
324.71	2544.56
324.939	3314.56
325.168	1208.56
325.397	343.56
325.626	193.56
325.855	173.56
326.084	150.56
326.313	170.56
326.542	199.56
326.77	296.56
326.999	577.56
327.228	1277.56
327.457	2280.56
327.686	1830.56
327.914	652.56
328.143	648.56
328.372	786.56
328.6	439.56
328.829	228.56
329.058	237.56
329.287	264.56
329.515	200.56
329.744	319.56
329.972	597.56
330.201	1256.56
330.43	1748.56
330.658	785.56
330.887	388.56
331.115	247.56
331.344	155.56
331.572	138.56
331.801	163.56
332.03	145.56
332.258	134.56
332.486	127.56
332.715	117.56
332.943	125.56
333.172	137.56
333.4	149.56
333.629	187.56
333.857	295.56
334.085	548.56
334.314	1132.56
334.542	2287.56
334.771	2018.56
334.999	492.56
335.227	209.56
335.455	146.56
335.684	121.56
335.912	121.56
336.14	118.56
336.369	116.56
336.597	126.56
336.825	110.56
337.053	105.56
337.281	102.56
337.51	98.56
337.738	104.56
337.966	118.56
338.194	114.56
338.422	108.56
338.65	103.56
338.878	97.56
339.106	102.56
339.334	101.56
339.562	100.56
339.79	82.56
340.018	114.56
340.246	100.56
340.474	100.56
340.702	104.56
340.93	112.56
341.158	100.56
341.386	107.56
341.614	106.56
341.842	112.56
342.07	109.56
342.298	116.56
342.526	96.56
342.754	84.56
342.981	97.56
343.209	97.56
343.437	93.56
343.665	95.56
343.893	101.56
344.12	88.56
344.348	85.56
344.576	89.56
344.804	105.56
345.031	128.56
345.259	129.56
345.487	116.56
345.714	121.56
345.942	108.56
346.17	113.56
346.397	82.56
346.625	98.56
346.853	108.56
347.08	100.56
347.308	96.56
347.535	127.56
347.763	119.56
347.99	121.56
348.218	125.56
348.445	148.56
348.673	106.56
348.9	105.56
349.128	107.56
349.355	90.56
349.583	89.56
349.81	105.56
350.037	109.56
350.265	87.56
350.492	93.56
350.72	111.56
350.947	119.56
351.174	123.56
351.402	126.56
351.629	118.56
351.856	112.56
352.083	116.56
352.311	150.56
352.538	139.56
352.765	133.56
352.992	136.56
353.22	141.56
353.447	123.56
353.674	112.56
353.901	100.56
354.128	98.56
354.355	88.56
354.583	104.56
354.81	99.56
355.037	94.56
355.264	94.56
355.491	97.56
355.718	94.56
355.945	100.56
356.172	102.56
356.399	88.56
356.626	95.56
356.853	95.56
357.08	99.56
357.307	97.56
357.534	81.56
357.761	104.56
357.988	88.56
358.215	93.56
358.441	86.56
358.668	107.56
358.895	98.56
359.122	86.56
359.349	102.56
359.576	109.56
359.802	128.56
360.029	189.56
360.256	171.56
360.483	123.56
360.709	102.56
360.936	108.56
361.163	118.56
361.39	118.56
361.616	130.56
361.843	103.56
362.07	101.56
362.296	113.56
362.523	109.56
362.749	114.56
362.976	98.56
363.203	105.56
363.429	110.56
363.656	104.56
363.882	87.56
364.109	83.56
364.335	108.56
364.562	107.56
364.788	96.56
365.015	104.56
365.241	106.56
365.468	121.56
365.694	135.56
365.92	108.56
366.147	106.56
366.373	88.56
366.599	103.56
366.826	102.56
367.052	106.56
367.278	98.56
367.505	99.56
367.731	95.56
367.957	96.56
368.184	104.56
368.41	119.56
368.636	149.56
368.862	153.56
369.089	129.56
369.315	99.56
369.541	111.56
369.767	110.56
369.993	111.56
370.219	104.56
370.445	110.56
370.672	98.56
370.898	95.56
371.124	79.56
371.35	91.56
371.576	101.56
371.802	98.56
372.028	90.56
372.254	92.56
372.48	96.56
372.706	85.56
372.932	95.56
373.158	100.56
373.384	110.56
373.61	104.56
373.835	106.56
374.061	108.56
374.287	98.56
374.513	95.56
374.739	81.56
374.965	76.56
375.191	94.56
375.416	89.56
375.642	101.56
375.868	96.56
376.094	92.56
376.319	96.56
376.545	90.56
376.771	100.56
376.997	90.56
377.222	100.56
377.448	96.56
377.674	97.56
377.899	89.56
378.125	98.56
378.35	94.56
378.576	90.56
378.802	93.56
379.027	96.56
379.253	98.56
379.478	97.56
379.704	100.56
379.929	93.56
380.155	108.56
380.38	99.56
380.606	96.56
380.831	110.56
381.057	116.56
381.282	121.56
381.507	102.56
381.733	96.56
381.958	90.56
382.184	104.56
382.409	121.56
382.634	105.56
382.86	111.56
383.085	89.56
383.31	98.56
383.535	104.56
383.761	103.56
383.986	113.56
384.211	98.56
384.436	107.56
384.662	104.56
384.887	125.56
385.112	125.56
385.337	124.56
385.562	106.56
385.787	118.56
386.013	134.56
386.238	137.56
386.463	128.56
386.688	139.56
386.913	114.56
387.138	122.56
387.363	136.56
387.588	120.56
387.813	109.56
388.038	123.56
388.263	134.56
388.488	127.56
388.713	98.56
388.938	95.56
389.163	103.56
389.387	86.56
389.612	97.56
389.837	86.56
390.062	100.56
390.287	99.56
390.512	96.56
390.736	80.56
390.961	97.56
391.186	106.56
391.411	89.56
391.636	100.56
391.86	109.56
392.085	89.56
392.31	91.56
392.534	85.56
392.759	84.56
392.984	85.56
393.208	79.56
393.433	89.56
393.658	87.56
393.882	94.56
394.107	87.56
394.331	90.56
394.556	81.56
394.78	86.56
395.005	88.56
395.229	78.56
395.454	78.56
395.678	90.56
395.903	87.56
396.127	104.56
396.352	86.56
396.576	96.56
396.801	105.56
397.025	95.56
397.249	90.56
397.474	85.56
397.698	83.56
397.922	86.56
398.147	89.56
398.371	87.56
398.595	82.56
398.82	92.56
399.044	88.56
399.268	79.56
399.492	82.56
399.717	95.56
399.941	83.56
400.165	84.56
400.389	105.56
400.613	97.56
400.837	96.56
401.062	89.56
401.286	102.56
401.51	104.56
401.734	98.56
401.958	122.56
402.182	177.56
402.406	223.56
402.63	167.56
402.854	114.56
403.078	89.56
403.302	88.56
403.526	95.56
403.75	95.56
403.974	89.56
404.198	107.56
404.422	94.56
404.645	94.56
404.869	118.56
405.093	131.56
405.317	157.56
405.541	152.56
405.765	138.56
405.988	148.56
406.212	261.56
406.436	386.56
406.66	266.56
406.883	124.56
407.107	109.56
407.331	102.56
407.555	150.56
407.778	117.56
408.002	105.56
408.226	112.56
408.449	101.56
408.673	90.56
408.896	100.56
409.12	95.56
409.344	101.56
409.567	90.56
409.791	104.56
410.014	95.56
410.238	95.56
410.461	92.56
410.685	86.56
410.908	99.56
411.132	110.56
411.355	115.56
411.578	104.56
411.802	103.56
412.025	102.56
412.249	105.56
412.472	130.56
412.695	145.56
412.919	113.56
413.142	104.56
413.365	87.56
413.589	96.56
413.812	93.56
414.035	92.56
414.258	99.56
414.482	90.56
414.705	93.56
414.928	97.56
415.151	98.56
415.374	78.56
415.597	101.56
415.821	97.56
416.044	101.56
416.267	98.56
416.49	96.56
416.713	99.56
416.936	88.56
417.159	106.56
417.382	103.56
417.605	108.56
417.828	135.56
418.051	112.56
418.274	100.56
418.497	90.56
418.72	85.56
418.943	104.56
419.166	95.56
419.389	86.56
419.611	84.56
419.834	84.56
420.057	86.56
420.28	98.56
420.503	104.56
420.726	98.56
420.948	102.56
421.171	118.56
421.394	95.56
421.617	89.56
421.839	90.56
422.062	89.56
422.285	96.56
422.507	93.56
422.73	123.56
422.953	84.56
423.175	81.56
423.398	88.56
423.621	80.56
423.843	93.56
424.066	91.56
424.288	89.56
424.511	111.56
424.733	116.56
424.956	125.56
425.178	116.56
425.401	141.56
425.623	124.56
425.846	98.56
426.068	106.56
426.291	103.56
426.513	89.56
426.735	112.56
426.958	115.56
427.18	136.56
427.402	212.56
427.625	317.56
427.847	294.56
428.069	250.56
428.292	136.56
428.514	91.56
428.736	98.56
428.958	98.56
429.181	82.56
429.403	98.56
429.625	102.56
429.847	102.56
430.069	122.56
430.292	93.56
430.514	79.56
430.736	96.56
430.958	98.56
431.18	83.56
431.402	90.56
431.624	71.56
431.846	89.56
432.068	104.56
432.29	88.56
432.512	87.56
432.734	97.56
432.956	86.56
433.178	112.56
433.4	96.56
433.622	87.56
433.844	101.56
434.066	110.56
434.287	95.56
434.509	113.56
434.731	99.56
434.953	88.56
435.175	92.56
435.397	81.56
435.618	95.56
435.84	110.56
436.062	160.56
436.284	143.56
436.505	114.56
436.727	115.56
436.949	92.56
437.17	101.56
437.392	86.56
437.614	106.56
437.835	169.56
438.057	180.56
438.278	147.56
438.5	145.56
438.721	158.56
438.943	121.56
439.165	104.56
439.386	97.56
439.608	88.56
439.829	118.56
440.05	188.56
440.272	226.56
440.493	133.56
440.715	102.56
440.936	101.56
441.158	90.56
441.379	106.56
441.6	108.56
441.822	120.56
442.043	117.56
442.264	142.56
442.486	117.56
442.707	120.56
442.928	135.56
443.149	222.56
443.371	204.56
443.592	154.56
443.813	149.56
444.034	152.56
444.255	104.56
444.476	99.56
444.698	87.56
444.919	85.56
445.14	149.56
445.361	138.56
445.582	172.56
445.803	249.56
446.024	208.56
446.245	195.56
446.466	142.56
446.687	94.56
446.908	81.56
447.129	95.56
447.35	108.56
447.571	98.56
447.792	117.56
448.013	108.56
448.234	140.56
448.455	131.56
448.675	154.56
448.896	168.56
449.117	97.56
449.338	130.56
449.559	176.56
449.779	199.56
450	105.56
450.221	100.56
450.442	96.56
450.662	108.56
450.883	148.56
451.104	165.56
451.324	119.56
451.545	99.56
451.766	104.56
451.986	96.56
452.207	86.56
452.428	91.56
452.648	113.56
452.869	134.56
453.089	174.56
453.31	175.56
453.53	113.56
453.751	123.56
453.971	135.56
454.192	144.56
454.412	112.56
454.633	97.56
454.853	95.56
455.073	102.56
455.294	102.56
455.514	138.56
455.734	100.56
455.955	109.56
456.175	97.56
456.395	77.56
456.616	94.56
456.836	89.56
457.056	93.56
457.276	87.56
457.497	94.56
457.717	105.56
457.937	97.56
458.157	112.56
458.377	115.56
458.598	143.56
458.818	289.56
459.038	300.56
459.258	183.56
459.478	118.56
459.698	106.56
459.918	100.56
460.138	72.56
460.358	77.56
460.578	91.56
460.798	94.56
461.018	101.56
461.238	86.56
461.458	72.56
461.678	84.56
461.898	81.56
462.118	92.56
462.338	86.56
462.558	94.56
462.777	86.56
462.997	117.56
463.217	106.56
463.437	109.56
463.657	96.56
463.876	98.56
464.096	117.56
464.316	121.56
464.536	111.56
464.755	107.56
464.975	136.56
465.195	330.56
465.414	300.56
465.634	132.56
465.854	101.56
466.073	90.56
466.293	106.56
466.512	89.56
466.732	104.56
466.951	97.56
467.171	97.56
467.391	123.56
467.61	187.56
467.829	231.56
468.049	634.56
468.268	909.56
468.488	235.56
468.707	110.56
468.927	103.56
469.146	98.56
469.365	101.56
469.585	104.56
469.804	112.56
470.023	120.56
470.243	110.56
470.462	132.56
470.681	178.56
470.901	123.56
471.12	102.56
471.339	118.56
471.558	138.56
471.777	170.56
471.997	333.56
472.216	1277.56
472.435	2836.56
472.654	650.56
472.873	187.56
473.092	121.56
473.311	103.56
473.53	103.56
473.749	90.56
473.968	123.56
474.187	134.56
474.406	132.56
474.625	108.56
474.844	99.56
475.063	93.56
475.282	93.56
475.501	88.56
475.72	90.56
475.939	98.56
476.158	97.56
476.377	93.56
476.596	91.56
476.814	111.56
477.033	116.56
477.252	97.56
477.471	73.56
477.69	104.56
477.908	94.56
478.127	102.56
478.346	97.56
478.564	104.56
478.783	112.56
479.002	106.56
479.22	109.56
479.439	158.56
479.658	163.56
479.876	141.56
480.095	130.56
480.313	155.56
480.532	192.56
480.751	317.56
480.969	1204.56
481.188	5022.56
481.406	2784.56
481.624	396.56
481.843	150.56
482.061	114.56
482.28	107.56
482.498	110.56
482.717	99.56
482.935	78.56
483.153	101.56
483.372	86.56
483.59	89.56
483.808	94.56
484.027	103.56
484.245	91.56
484.463	123.56
484.681	110.56
484.9	93.56
485.118	98.56
485.336	93.56
485.554	100.56
485.772	104.56
485.99	106.56
486.209	108.56
486.427	124.56
486.645	124.56
486.863	142.56
487.081	132.56
487.299	116.56
487.517	91.56
487.735	93.56
487.953	85.56
488.171	86.56
488.389	114.56
488.607	115.56
488.825	94.56
489.043	113.56
489.261	101.56
489.479	91.56
489.696	102.56
489.914	86.56
490.132	87.56
490.35	93.56
490.568	93.56
490.786	101.56
491.003	112.56
491.221	97.56
491.439	104.56
491.657	112.56
491.874	91.56
492.092	97.56
492.31	89.56
492.527	116.56
492.745	108.56
492.963	101.56
493.18	95.56
493.398	96.56
493.615	102.56
493.833	89.56
494.05	90.56
494.268	79.56
494.485	95.56
494.703	91.56
494.92	80.56
495.138	95.56
495.355	94.56
495.573	99.56
495.79	95.56
496.008	97.56
496.225	91.56
496.442	80.56
496.66	97.56
496.877	97.56
497.094	98.56
497.312	94.56
497.529	94.56
497.746	94.56
497.963	104.56
498.181	96.56
498.398	100.56
498.615	125.56
498.832	119.56
499.049	109.56
499.267	96.56
499.484	101.56
499.701	104.56
499.918	84.56
500.135	93.56
500.352	83.56
500.569	105.56
500.786	106.56
501.003	95.56
501.22	91.56
501.437	108.56
501.654	102.56
501.871	149.56
502.088	113.56
502.305	99.56
502.522	86.56
502.739	95.56
502.956	100.56
503.172	92.56
503.389	103.56
503.606	152.56
503.823	119.56
504.04	102.56
504.256	97.56
504.473	103.56
504.69	90.56
504.907	96.56
505.123	96.56
505.34	99.56
505.557	100.56
505.773	98.56
505.99	98.56
506.207	106.56
506.423	98.56
506.64	100.56
506.856	84.56
507.073	94.56
507.289	91.56
507.506	112.56
507.722	164.56
507.939	154.56
508.155	117.56
508.372	108.56
508.588	118.56
508.805	113.56
509.021	96.56
509.238	110.56
509.454	103.56
509.67	104.56
509.887	121.56
510.103	161.56
510.319	302.56
510.536	1234.56
510.752	4362.56
