Data from Circ_1999_H10_HRD10591_00014.txt Node
Date: Wed Jan 03 11:23:15 EST 2024
User: Yrep
Spectrometer: HR+D1059
Trigger mode: 1
Integration Time (sec): 1.000000E-1
Scans to average: 1
Electric dark correction enabled: true
Nonlinearity correction enabled: false
Boxcar width: 0
XAxis mode: Wavelengths
Number of Pixels in Spectrum: 2048
>>>>>Begin Spectral Data<<<<<
223.165	-18.06
223.4	-18.06
223.635	-18.06
223.869	-18.06
224.104	-25.06
224.338	-12.06
224.573	-12.06
224.808	-4.06
225.042	-5.06
225.277	-7.06
225.511	-7.06
225.746	-18.06
225.98	10.94
226.215	5.94
226.449	16.94
226.683	24.94
226.918	34.94
227.152	32.94
227.387	33.94
227.621	51.94
227.856	41.94
228.09	48.94
228.324	47.94
228.559	45.94
228.793	51.94
229.027	54.94
229.262	69.94
229.496	79.94
229.73	108.94
229.964	96.94
230.199	67.94
230.433	82.94
230.667	75.94
230.901	73.94
231.136	71.94
231.37	75.94
231.604	85.94
231.838	56.94
232.072	74.94
232.306	82.94
232.541	99.94
232.775	84.94
233.009	79.94
233.243	75.94
233.477	77.94
233.711	84.94
233.945	71.94
234.179	67.94
234.413	67.94
234.647	77.94
234.881	82.94
235.115	76.94
235.349	80.94
235.583	64.94
235.817	83.94
236.051	81.94
236.285	81.94
236.519	64.94
236.753	85.94
236.987	86.94
237.221	97.94
237.455	94.94
237.689	63.94
237.922	68.94
238.156	83.94
238.39	72.94
238.624	64.94
238.858	85.94
239.091	66.94
239.325	79.94
239.559	85.94
239.793	67.94
240.027	85.94
240.26	83.94
240.494	73.94
240.728	72.94
240.961	81.94
241.195	65.94
241.429	68.94
241.662	62.94
241.896	72.94
242.13	88.94
242.363	67.94
242.597	72.94
242.83	81.94
243.064	76.94
243.298	80.94
243.531	73.94
243.765	81.94
243.998	73.94
244.232	76.94
244.465	70.94
244.699	86.94
244.932	79.94
245.166	83.94
245.399	81.94
245.633	86.94
245.866	79.94
246.099	83.94
246.333	80.94
246.566	88.94
246.8	72.94
247.033	93.94
247.266	91.94
247.5	96.94
247.733	81.94
247.966	95.94
248.2	75.94
248.433	81.94
248.666	91.94
248.899	84.94
249.133	87.94
249.366	112.94
249.599	96.94
249.832	85.94
250.066	83.94
250.299	91.94
250.532	83.94
250.765	88.94
250.998	80.94
251.231	81.94
251.465	92.94
251.698	89.94
251.931	78.94
252.164	71.94
252.397	71.94
252.63	77.94
252.863	93.94
253.096	87.94
253.329	79.94
253.562	67.94
253.795	78.94
254.028	85.94
254.261	73.94
254.494	84.94
254.727	85.94
254.96	91.94
255.193	80.94
255.426	78.94
255.659	75.94
255.892	92.94
256.124	95.94
256.357	94.94
256.59	96.94
256.823	84.94
257.056	85.94
257.289	89.94
257.521	70.94
257.754	74.94
257.987	88.94
258.22	110.94
258.452	101.94
258.685	69.94
258.918	89.94
259.151	80.94
259.383	88.94
259.616	102.94
259.849	91.94
260.081	91.94
260.314	92.94
260.547	79.94
260.779	101.94
261.012	97.94
261.244	110.94
261.477	105.94
261.71	100.94
261.942	129.94
262.175	147.94
262.407	118.94
262.64	101.94
262.872	81.94
263.105	94.94
263.337	84.94
263.57	91.94
263.802	86.94
264.035	79.94
264.267	84.94
264.499	87.94
264.732	95.94
264.964	80.94
265.197	86.94
265.429	81.94
265.661	79.94
265.894	95.94
266.126	82.94
266.358	87.94
266.591	89.94
266.823	98.94
267.055	78.94
267.287	90.94
267.52	74.94
267.752	82.94
267.984	85.94
268.216	85.94
268.448	88.94
268.681	85.94
268.913	92.94
269.145	94.94
269.377	88.94
269.609	69.94
269.841	88.94
270.073	94.94
270.306	96.94
270.538	83.94
270.77	76.94
271.002	85.94
271.234	96.94
271.466	102.94
271.698	74.94
271.93	81.94
272.162	87.94
272.394	97.94
272.626	90.94
272.858	78.94
273.09	73.94
273.322	83.94
273.553	87.94
273.785	81.94
274.017	77.94
274.249	83.94
274.481	86.94
274.713	76.94
274.945	99.94
275.176	85.94
275.408	113.94
275.64	105.94
275.872	103.94
276.104	105.94
276.335	108.94
276.567	123.94
276.799	156.94
277.031	191.94
277.262	194.94
277.494	151.94
277.726	110.94
277.957	94.94
278.189	83.94
278.421	97.94
278.652	96.94
278.884	74.94
279.115	89.94
279.347	88.94
279.579	102.94
279.81	132.94
280.042	195.94
280.273	238.94
280.505	149.94
280.736	112.94
280.968	96.94
281.199	102.94
281.431	93.94
281.662	81.94
281.894	98.94
282.125	109.94
282.356	160.94
282.588	198.94
282.819	140.94
283.051	98.94
283.282	89.94
283.513	94.94
283.745	82.94
283.976	76.94
284.207	83.94
284.439	76.94
284.67	100.94
284.901	83.94
285.132	84.94
285.364	99.94
285.595	80.94
285.826	89.94
286.057	85.94
286.288	89.94
286.52	75.94
286.751	101.94
286.982	101.94
287.213	92.94
287.444	89.94
287.675	87.94
287.906	91.94
288.138	100.94
288.369	102.94
288.6	85.94
288.831	88.94
289.062	80.94
289.293	93.94
289.524	97.94
289.755	101.94
289.986	84.94
290.217	87.94
290.448	75.94
290.679	96.94
290.91	92.94
291.141	90.94
291.371	73.94
291.602	91.94
291.833	88.94
292.064	79.94
292.295	88.94
292.526	103.94
292.757	99.94
292.987	87.94
293.218	73.94
293.449	86.94
293.68	93.94
293.91	95.94
294.141	99.94
294.372	84.94
294.603	81.94
294.833	86.94
295.064	102.94
295.295	93.94
295.525	89.94
295.756	113.94
295.987	133.94
296.217	176.94
296.448	154.94
296.679	100.94
296.909	86.94
297.14	85.94
297.37	104.94
297.601	95.94
297.831	86.94
298.062	83.94
298.292	83.94
298.523	83.94
298.753	80.94
298.984	93.94
299.214	100.94
299.445	101.94
299.675	88.94
299.905	89.94
300.136	96.94
300.366	93.94
300.597	77.94
300.827	104.94
301.057	111.94
301.288	126.94
301.518	107.94
301.748	95.94
301.979	108.94
302.209	103.94
302.439	88.94
302.669	87.94
302.9	89.94
303.13	95.94
303.36	110.94
303.59	140.94
303.82	157.94
304.051	111.94
304.281	83.94
304.511	105.94
304.741	99.94
304.971	90.94
305.201	96.94
305.431	96.94
305.661	100.94
305.891	85.94
306.121	117.94
306.352	109.94
306.582	127.94
306.812	127.94
307.042	121.94
307.272	161.94
307.502	183.94
307.731	165.94
307.961	125.94
308.191	95.94
308.421	92.94
308.651	92.94
308.881	104.94
309.111	102.94
309.341	97.94
309.571	112.94
309.8	95.94
310.03	117.94
310.26	127.94
310.49	108.94
310.72	124.94
310.949	132.94
311.179	115.94
311.409	108.94
311.639	101.94
311.868	104.94
312.098	95.94
312.328	103.94
312.557	137.94
312.787	125.94
313.017	125.94
313.246	103.94
313.476	105.94
313.706	99.94
313.935	103.94
314.165	104.94
314.394	109.94
314.624	113.94
314.853	108.94
315.083	96.94
315.312	93.94
315.542	108.94
315.771	88.94
316.001	103.94
316.23	86.94
316.46	93.94
316.689	90.94
316.919	96.94
317.148	105.94
317.377	117.94
317.607	104.94
317.836	102.94
318.065	94.94
318.295	95.94
318.524	86.94
318.753	85.94
318.983	93.94
319.212	105.94
319.441	122.94
319.67	117.94
319.9	96.94
320.129	98.94
320.358	120.94
320.587	107.94
320.816	110.94
321.046	123.94
321.275	110.94
321.504	93.94
321.733	111.94
321.962	110.94
322.191	113.94
322.42	117.94
322.649	134.94
322.878	136.94
323.108	133.94
323.337	144.94
323.566	166.94
323.795	207.94
324.024	262.94
324.253	501.94
324.482	1113.94
324.71	2262.94
324.939	2842.94
325.168	1058.94
325.397	318.94
325.626	171.94
325.855	142.94
326.084	145.94
326.313	155.94
326.542	197.94
326.77	272.94
326.999	571.94
327.228	1144.94
327.457	2046.94
327.686	1673.94
327.914	597.94
328.143	581.94
328.372	669.94
328.6	377.94
328.829	202.94
329.058	225.94
329.287	221.94
329.515	188.94
329.744	260.94
329.972	494.94
330.201	990.94
330.43	1407.94
330.658	647.94
330.887	327.94
331.115	223.94
331.344	135.94
331.572	123.94
331.801	133.94
332.03	138.94
332.258	123.94
332.486	114.94
332.715	102.94
332.943	111.94
333.172	133.94
333.4	136.94
333.629	167.94
333.857	261.94
334.085	464.94
334.314	948.94
334.542	1805.94
334.771	1630.94
334.999	440.94
335.227	197.94
335.455	124.94
335.684	128.94
335.912	121.94
336.14	120.94
336.369	105.94
336.597	127.94
336.825	121.94
337.053	105.94
337.281	109.94
337.51	98.94
337.738	104.94
337.966	104.94
338.194	107.94
338.422	100.94
338.65	101.94
338.878	103.94
339.106	100.94
339.334	100.94
339.562	100.94
339.79	93.94
340.018	100.94
340.246	98.94
340.474	101.94
340.702	103.94
340.93	100.94
341.158	92.94
341.386	103.94
341.614	106.94
341.842	113.94
342.07	88.94
342.298	103.94
342.526	93.94
342.754	94.94
342.981	94.94
343.209	97.94
343.437	102.94
343.665	101.94
343.893	99.94
344.12	89.94
344.348	91.94
344.576	99.94
344.804	96.94
345.031	107.94
345.259	107.94
345.487	112.94
345.714	110.94
345.942	108.94
346.17	100.94
346.397	97.94
346.625	87.94
346.853	96.94
347.08	89.94
347.308	97.94
347.535	111.94
347.763	127.94
347.99	105.94
348.218	112.94
348.445	126.94
348.673	120.94
348.9	97.94
349.128	97.94
349.355	109.94
349.583	101.94
349.81	101.94
350.037	87.94
350.265	100.94
350.492	97.94
350.72	90.94
350.947	112.94
351.174	143.94
351.402	126.94
351.629	128.94
351.856	108.94
352.083	146.94
352.311	126.94
352.538	128.94
352.765	139.94
352.992	138.94
353.22	136.94
353.447	124.94
353.674	101.94
353.901	98.94
354.128	96.94
354.355	81.94
354.583	77.94
354.81	94.94
355.037	101.94
355.264	100.94
355.491	90.94
355.718	96.94
355.945	85.94
356.172	103.94
356.399	92.94
356.626	112.94
356.853	95.94
357.08	97.94
357.307	98.94
357.534	105.94
357.761	87.94
357.988	102.94
358.215	100.94
358.441	110.94
358.668	92.94
358.895	87.94
359.122	97.94
359.349	83.94
359.576	96.94
359.802	114.94
360.029	163.94
360.256	165.94
360.483	136.94
360.709	113.94
360.936	94.94
361.163	109.94
361.39	114.94
361.616	103.94
361.843	107.94
362.07	111.94
362.296	122.94
362.523	99.94
362.749	93.94
362.976	106.94
363.203	92.94
363.429	96.94
363.656	90.94
363.882	91.94
364.109	98.94
364.335	91.94
364.562	93.94
364.788	103.94
365.015	112.94
365.241	107.94
365.468	112.94
365.694	120.94
365.92	110.94
366.147	91.94
366.373	109.94
366.599	103.94
366.826	102.94
367.052	103.94
367.278	108.94
367.505	91.94
367.731	93.94
367.957	105.94
368.184	96.94
368.41	107.94
368.636	137.94
368.862	153.94
369.089	126.94
369.315	108.94
369.541	86.94
369.767	104.94
369.993	104.94
370.219	100.94
370.445	91.94
370.672	87.94
370.898	100.94
371.124	91.94
371.35	95.94
371.576	68.94
371.802	89.94
372.028	90.94
372.254	92.94
372.48	80.94
372.706	94.94
372.932	83.94
373.158	87.94
373.384	115.94
373.61	95.94
373.835	95.94
374.061	91.94
374.287	88.94
374.513	100.94
374.739	82.94
374.965	97.94
375.191	89.94
375.416	76.94
375.642	85.94
375.868	105.94
376.094	93.94
376.319	97.94
376.545	86.94
376.771	93.94
376.997	96.94
377.222	94.94
377.448	93.94
377.674	94.94
377.899	87.94
378.125	85.94
378.35	88.94
378.576	104.94
378.802	92.94
379.027	100.94
379.253	78.94
379.478	99.94
379.704	101.94
379.929	92.94
380.155	99.94
380.38	103.94
380.606	92.94
380.831	99.94
381.057	104.94
381.282	105.94
381.507	107.94
381.733	93.94
381.958	93.94
382.184	106.94
382.409	104.94
382.634	121.94
382.86	117.94
383.085	111.94
383.31	97.94
383.535	100.94
383.761	111.94
383.986	107.94
384.211	108.94
384.436	104.94
384.662	114.94
384.887	104.94
385.112	119.94
385.337	126.94
385.562	119.94
385.787	124.94
386.013	123.94
386.238	140.94
386.463	126.94
386.688	120.94
386.913	125.94
387.138	113.94
387.363	115.94
387.588	106.94
387.813	111.94
388.038	97.94
388.263	134.94
388.488	122.94
388.713	109.94
388.938	75.94
389.163	93.94
389.387	96.94
389.612	98.94
389.837	100.94
390.062	100.94
390.287	88.94
390.512	97.94
390.736	90.94
390.961	85.94
391.186	98.94
391.411	84.94
391.636	81.94
391.86	86.94
392.085	76.94
392.31	83.94
392.534	100.94
392.759	94.94
392.984	79.94
393.208	97.94
393.433	105.94
393.658	90.94
393.882	99.94
394.107	78.94
394.331	85.94
394.556	87.94
394.78	90.94
395.005	83.94
395.229	98.94
395.454	83.94
395.678	75.94
395.903	91.94
396.127	80.94
396.352	85.94
396.576	80.94
396.801	86.94
397.025	98.94
397.249	73.94
397.474	94.94
397.698	94.94
397.922	95.94
398.147	96.94
398.371	88.94
398.595	96.94
398.82	77.94
399.044	85.94
399.268	83.94
399.492	76.94
399.717	87.94
399.941	95.94
400.165	98.94
400.389	107.94
400.613	88.94
400.837	81.94
401.062	102.94
401.286	99.94
401.51	104.94
401.734	98.94
401.958	121.94
402.182	176.94
402.406	228.94
402.63	153.94
402.854	115.94
403.078	95.94
403.302	99.94
403.526	96.94
403.75	82.94
403.974	84.94
404.198	105.94
404.422	100.94
404.645	92.94
404.869	104.94
405.093	115.94
405.317	147.94
405.541	145.94
405.765	126.94
405.988	155.94
406.212	270.94
406.436	378.94
406.66	227.94
406.883	134.94
407.107	109.94
407.331	119.94
407.555	119.94
407.778	112.94
408.002	104.94
408.226	101.94
408.449	113.94
408.673	96.94
408.896	105.94
409.12	101.94
409.344	109.94
409.567	97.94
409.791	92.94
410.014	100.94
410.238	104.94
410.461	83.94
410.685	103.94
410.908	103.94
411.132	111.94
411.355	112.94
411.578	102.94
411.802	101.94
412.025	84.94
412.249	101.94
412.472	120.94
412.695	114.94
412.919	113.94
413.142	92.94
413.365	77.94
413.589	85.94
413.812	95.94
414.035	105.94
414.258	102.94
414.482	119.94
414.705	90.94
414.928	83.94
415.151	87.94
415.374	88.94
415.597	90.94
415.821	92.94
416.044	102.94
416.267	88.94
416.49	100.94
416.713	93.94
416.936	79.94
417.159	88.94
417.382	94.94
417.605	111.94
417.828	122.94
418.051	92.94
418.274	98.94
418.497	93.94
418.72	86.94
418.943	92.94
419.166	83.94
419.389	84.94
419.611	88.94
419.834	88.94
420.057	101.94
420.28	90.94
420.503	91.94
420.726	79.94
420.948	90.94
421.171	115.94
421.394	101.94
421.617	90.94
421.839	102.94
422.062	84.94
422.285	96.94
422.507	109.94
422.73	100.94
422.953	87.94
423.175	77.94
423.398	84.94
423.621	94.94
423.843	97.94
424.066	85.94
424.288	96.94
424.511	101.94
424.733	108.94
424.956	139.94
425.178	125.94
425.401	115.94
425.623	95.94
425.846	87.94
426.068	95.94
426.291	104.94
426.513	93.94
426.735	96.94
426.958	93.94
427.18	132.94
427.402	190.94
427.625	304.94
427.847	250.94
428.069	195.94
428.292	125.94
428.514	111.94
428.736	95.94
428.958	86.94
429.181	84.94
429.403	99.94
429.625	107.94
429.847	94.94
430.069	110.94
430.292	118.94
430.514	106.94
430.736	106.94
430.958	91.94
431.18	87.94
431.402	88.94
431.624	77.94
431.846	90.94
432.068	89.94
432.29	87.94
432.512	96.94
432.734	100.94
432.956	96.94
433.178	109.94
433.4	104.94
433.622	88.94
433.844	90.94
434.066	87.94
434.287	97.94
434.509	95.94
434.731	89.94
434.953	94.94
435.175	87.94
435.397	97.94
435.618	110.94
435.84	115.94
436.062	145.94
436.284	132.94
436.505	94.94
436.727	112.94
436.949	94.94
437.17	92.94
437.392	100.94
437.614	107.94
437.835	136.94
438.057	169.94
438.278	134.94
438.5	109.94
438.721	121.94
438.943	123.94
439.165	94.94
439.386	89.94
439.608	101.94
439.829	119.94
440.05	173.94
440.272	185.94
440.493	120.94
440.715	95.94
440.936	97.94
441.158	92.94
441.379	98.94
441.6	107.94
441.822	119.94
442.043	101.94
442.264	127.94
442.486	112.94
442.707	118.94
442.928	128.94
443.149	182.94
443.371	185.94
443.592	141.94
443.813	158.94
444.034	127.94
444.255	94.94
444.476	96.94
444.698	83.94
444.919	89.94
445.14	142.94
445.361	136.94
445.582	143.94
445.803	195.94
446.024	186.94
446.245	185.94
446.466	125.94
446.687	100.94
446.908	95.94
447.129	89.94
447.35	98.94
447.571	96.94
447.792	100.94
448.013	107.94
448.234	133.94
448.455	95.94
448.675	134.94
448.896	135.94
449.117	109.94
449.338	114.94
449.559	159.94
449.779	165.94
450	94.94
450.221	108.94
450.442	102.94
450.662	96.94
450.883	139.94
451.104	153.94
451.324	111.94
451.545	93.94
451.766	91.94
451.986	95.94
452.207	103.94
452.428	93.94
452.648	99.94
452.869	142.94
453.089	149.94
453.31	159.94
453.53	106.94
453.751	96.94
453.971	120.94
454.192	163.94
454.412	111.94
454.633	98.94
454.853	95.94
455.073	99.94
455.294	102.94
455.514	124.94
455.734	93.94
455.955	96.94
456.175	94.94
456.395	94.94
456.616	88.94
456.836	92.94
457.056	101.94
457.276	86.94
457.497	86.94
457.717	87.94
457.937	87.94
458.157	91.94
458.377	114.94
458.598	129.94
458.818	265.94
459.038	277.94
459.258	163.94
459.478	97.94
459.698	102.94
459.918	80.94
460.138	97.94
460.358	78.94
460.578	88.94
460.798	92.94
461.018	99.94
461.238	94.94
461.458	85.94
461.678	97.94
461.898	104.94
462.118	85.94
462.338	88.94
462.558	107.94
462.777	90.94
462.997	99.94
463.217	102.94
463.437	99.94
463.657	85.94
463.876	99.94
464.096	109.94
464.316	92.94
464.536	108.94
464.755	102.94
464.975	137.94
465.195	301.94
465.414	271.94
465.634	110.94
465.854	109.94
466.073	97.94
466.293	93.94
466.512	84.94
466.732	99.94
466.951	94.94
467.171	101.94
467.391	104.94
467.61	165.94
467.829	211.94
468.049	574.94
468.268	841.94
468.488	207.94
468.707	103.94
468.927	99.94
469.146	105.94
469.365	89.94
469.585	109.94
469.804	107.94
470.023	124.94
470.243	118.94
470.462	132.94
470.681	151.94
470.901	97.94
471.12	109.94
471.339	112.94
471.558	121.94
471.777	147.94
471.997	297.94
472.216	1115.94
472.435	2466.94
472.654	587.94
472.873	170.94
473.092	116.94
473.311	95.94
473.53	100.94
473.749	101.94
473.968	114.94
474.187	122.94
474.406	112.94
474.625	88.94
474.844	93.94
475.063	98.94
475.282	88.94
475.501	99.94
475.72	101.94
475.939	108.94
476.158	86.94
476.377	92.94
476.596	97.94
476.814	104.94
477.033	98.94
477.252	95.94
477.471	85.94
477.69	105.94
477.908	93.94
478.127	86.94
478.346	94.94
478.564	102.94
478.783	108.94
479.002	110.94
479.22	99.94
479.439	121.94
479.658	175.94
479.876	132.94
480.095	118.94
480.313	140.94
480.532	166.94
480.751	282.94
480.969	1041.94
481.188	4386.94
481.406	2381.94
481.624	353.94
481.843	158.94
482.061	115.94
482.28	98.94
482.498	95.94
482.717	95.94
482.935	97.94
483.153	98.94
483.372	92.94
483.59	95.94
483.808	103.94
484.027	91.94
484.245	92.94
484.463	91.94
484.681	101.94
484.9	89.94
485.118	96.94
485.336	96.94
485.554	110.94
485.772	122.94
485.99	102.94
486.209	107.94
486.427	108.94
486.645	128.94
486.863	149.94
487.081	118.94
487.299	105.94
487.517	90.94
487.735	113.94
487.953	101.94
488.171	93.94
488.389	103.94
488.607	107.94
488.825	93.94
489.043	86.94
489.261	87.94
489.479	91.94
489.696	104.94
489.914	97.94
490.132	93.94
490.35	91.94
490.568	89.94
490.786	82.94
491.003	82.94
491.221	103.94
491.439	100.94
491.657	103.94
491.874	80.94
492.092	93.94
492.31	91.94
492.527	111.94
492.745	92.94
492.963	104.94
493.18	101.94
493.398	89.94
493.615	106.94
493.833	96.94
494.05	83.94
494.268	89.94
494.485	79.94
494.703	86.94
494.92	81.94
495.138	100.94
495.355	105.94
495.573	79.94
495.79	87.94
496.008	96.94
496.225	81.94
496.442	103.94
496.66	97.94
496.877	97.94
497.094	90.94
497.312	93.94
497.529	89.94
497.746	96.94
497.963	94.94
498.181	97.94
498.398	99.94
498.615	116.94
498.832	113.94
499.049	96.94
499.267	89.94
499.484	84.94
499.701	93.94
499.918	83.94
500.135	103.94
500.352	88.94
500.569	100.94
500.786	103.94
501.003	95.94
501.22	102.94
501.437	92.94
501.654	103.94
501.871	131.94
502.088	97.94
502.305	89.94
502.522	91.94
502.739	83.94
502.956	83.94
503.172	89.94
503.389	108.94
503.606	140.94
503.823	113.94
504.04	99.94
504.256	102.94
504.473	106.94
504.69	88.94
504.907	93.94
505.123	93.94
505.34	70.94
505.557	95.94
505.773	90.94
505.99	82.94
506.207	86.94
506.423	83.94
506.64	92.94
506.856	89.94
507.073	87.94
507.289	103.94
507.506	92.94
507.722	155.94
507.939	148.94
508.155	97.94
508.372	110.94
508.588	122.94
508.805	115.94
509.021	93.94
509.238	109.94
509.454	100.94
509.67	115.94
509.887	138.94
510.103	152.94
510.319	266.94
510.536	1160.94
510.752	4291.94
510.968	1101.94
511.184	206.94
511.401	136.94
511.617	114.94
