Data from Circ_1999_H10_HRD10591_00064.txt Node
Date: Wed Jan 03 11:23:25 EST 2024
User: Yrep
Spectrometer: HR+D1059
Trigger mode: 1
Integration Time (sec): 1.000000E-1
Scans to average: 1
Electric dark correction enabled: true
Nonlinearity correction enabled: false
Boxcar width: 0
XAxis mode: Wavelengths
Number of Pixels in Spectrum: 2048
>>>>>Begin Spectral Data<<<<<
223.165	-21
223.4	-21
223.635	-21
223.869	-17
224.104	-9
224.338	-4
224.573	-4
224.808	-14
225.042	-21
225.277	-12
225.511	-4
225.746	-5
225.98	3
226.215	14
226.449	16
226.683	19
226.918	22
227.152	37
227.387	37
227.621	49
227.856	39
228.09	47
228.324	42
228.559	47
228.793	46
229.027	68
229.262	78
229.496	96
229.73	114
229.964	112
230.199	88
230.433	88
230.667	79
230.901	87
231.136	82
231.37	78
231.604	78
231.838	76
232.072	97
232.306	79
232.541	92
232.775	81
233.009	92
233.243	81
233.477	75
233.711	91
233.945	93
234.179	76
234.413	78
234.647	76
234.881	64
235.115	73
235.349	93
235.583	79
235.817	88
236.051	80
236.285	89
236.519	93
236.753	76
236.987	74
237.221	103
237.455	85
237.689	76
237.922	68
238.156	80
238.39	79
238.624	68
238.858	78
239.091	87
239.325	79
239.559	100
239.793	96
240.027	86
240.26	79
240.494	81
240.728	72
240.961	78
241.195	81
241.429	79
241.662	82
241.896	85
242.13	66
242.363	76
242.597	83
242.83	84
243.064	83
243.298	91
243.531	74
243.765	76
243.998	91
244.232	88
244.465	100
244.699	74
244.932	65
245.166	79
245.399	86
245.633	85
245.866	93
246.099	89
246.333	73
246.566	77
246.8	94
247.033	75
247.266	87
247.5	87
247.733	71
247.966	90
248.2	74
248.433	72
248.666	84
248.899	77
249.133	79
249.366	94
249.599	117
249.832	90
250.066	88
250.299	93
250.532	102
250.765	99
250.998	89
251.231	91
251.465	80
251.698	81
251.931	95
252.164	87
252.397	95
252.63	80
252.863	84
253.096	98
253.329	98
253.562	80
253.795	101
254.028	91
254.261	84
254.494	90
254.727	88
254.96	94
255.193	95
255.426	84
255.659	104
255.892	99
256.124	99
256.357	68
256.59	96
256.823	86
257.056	96
257.289	91
257.521	102
257.754	90
257.987	90
258.22	90
258.452	108
258.685	97
258.918	92
259.151	85
259.383	96
259.616	80
259.849	84
260.081	93
260.314	84
260.547	104
260.779	103
261.012	106
261.244	122
261.477	110
261.71	108
261.942	170
262.175	183
262.407	121
262.64	92
262.872	88
263.105	98
263.337	87
263.57	88
263.802	75
264.035	88
264.267	72
264.499	83
264.732	86
264.964	104
265.197	87
265.429	83
265.661	82
265.894	99
266.126	85
266.358	79
266.591	86
266.823	84
267.055	104
267.287	82
267.52	76
267.752	77
267.984	79
268.216	80
268.448	93
268.681	97
268.913	87
269.145	89
269.377	85
269.609	82
269.841	84
270.073	79
270.306	92
270.538	82
270.77	75
271.002	80
271.234	86
271.466	90
271.698	94
271.93	87
272.162	79
272.394	95
272.626	97
272.858	85
273.09	86
273.322	91
273.553	91
273.785	83
274.017	92
274.249	96
274.481	99
274.713	89
274.945	94
275.176	98
275.408	113
275.64	131
275.872	144
276.104	134
276.335	108
276.567	129
276.799	183
277.031	223
277.262	259
277.494	190
277.726	124
277.957	106
278.189	85
278.421	99
278.652	76
278.884	98
279.115	110
279.347	101
279.579	107
279.81	168
280.042	263
280.273	352
280.505	237
280.736	122
280.968	96
281.199	94
281.431	97
281.662	92
281.894	104
282.125	116
282.356	170
282.588	217
282.819	173
283.051	100
283.282	88
283.513	94
283.745	92
283.976	91
284.207	86
284.439	91
284.67	97
284.901	81
285.132	95
285.364	97
285.595	78
285.826	96
286.057	92
286.288	87
286.52	97
286.751	92
286.982	110
287.213	95
287.444	90
287.675	97
287.906	107
288.138	103
288.369	112
288.6	112
288.831	96
289.062	100
289.293	100
289.524	99
289.755	94
289.986	96
290.217	89
290.448	102
290.679	96
290.91	92
291.141	77
291.371	91
291.602	94
291.833	88
292.064	89
292.295	84
292.526	99
292.757	107
292.987	104
293.218	95
293.449	96
293.68	95
293.91	84
294.141	90
294.372	80
294.603	79
294.833	90
295.064	98
295.295	104
295.525	103
295.756	125
295.987	158
296.217	230
296.448	169
296.679	119
296.909	94
297.14	93
297.37	87
297.601	90
297.831	96
298.062	90
298.292	80
298.523	90
298.753	88
298.984	93
299.214	103
299.445	82
299.675	94
299.905	90
300.136	96
300.366	88
300.597	92
300.827	101
301.057	120
301.288	124
301.518	114
301.748	109
301.979	121
302.209	112
302.439	112
302.669	100
302.9	99
303.13	111
303.36	111
303.59	161
303.82	182
304.051	126
304.281	91
304.511	93
304.741	94
304.971	90
305.201	108
305.431	92
305.661	103
305.891	89
306.121	106
306.352	121
306.582	133
306.812	131
307.042	156
307.272	198
307.502	230
307.731	224
307.961	150
308.191	101
308.421	104
308.651	114
308.881	98
309.111	87
309.341	121
309.571	111
309.8	121
310.03	122
310.26	126
310.49	122
310.72	112
310.949	148
311.179	143
311.409	101
311.639	108
311.868	124
312.098	87
312.328	111
312.557	137
312.787	143
313.017	123
313.246	114
313.476	96
313.706	112
313.935	100
314.165	119
314.394	135
314.624	135
314.853	127
315.083	88
315.312	94
315.542	98
315.771	90
316.001	94
316.23	101
316.46	110
316.689	84
316.919	101
317.148	102
317.377	119
317.607	109
317.836	107
318.065	102
318.295	95
318.524	70
318.753	106
318.983	114
319.212	104
319.441	141
319.67	131
319.9	109
320.129	106
320.358	103
320.587	110
320.816	123
321.046	130
321.275	113
321.504	116
321.733	108
321.962	110
322.191	124
322.42	122
322.649	136
322.878	153
323.108	162
323.337	163
323.566	186
323.795	205
324.024	282
324.253	595
324.482	1267
324.71	2534
324.939	3319
325.168	1238
325.397	340
325.626	202
325.855	158
326.084	163
326.313	158
326.542	200
326.77	280
326.999	590
327.228	1233
327.457	2282
327.686	1879
327.914	731
328.143	800
328.372	985
328.6	548
328.829	261
329.058	260
329.287	274
329.515	242
329.744	350
329.972	739
330.201	1585
330.43	2242
330.658	940
330.887	434
331.115	253
331.344	162
331.572	160
331.801	156
332.03	156
332.258	138
332.486	102
332.715	133
332.943	126
333.172	160
333.4	169
333.629	194
333.857	316
334.085	643
334.314	1381
334.542	2785
334.771	2510
334.999	614
335.227	224
335.455	148
335.684	116
335.912	122
336.14	126
336.369	130
336.597	135
336.825	110
337.053	99
337.281	110
337.51	99
337.738	121
337.966	104
338.194	127
338.422	132
338.65	127
338.878	105
339.106	105
339.334	94
339.562	98
339.79	110
340.018	99
340.246	117
340.474	119
340.702	109
340.93	111
341.158	95
341.386	117
341.614	105
341.842	109
342.07	111
342.298	108
342.526	98
342.754	99
342.981	97
343.209	96
343.437	107
343.665	102
343.893	97
344.12	88
344.348	100
344.576	101
344.804	112
345.031	119
345.259	123
345.487	135
345.714	123
345.942	105
346.17	105
346.397	100
346.625	102
346.853	92
347.08	110
347.308	101
347.535	124
347.763	129
347.99	126
348.218	133
348.445	140
348.673	127
348.9	114
349.128	90
349.355	103
349.583	91
349.81	108
350.037	106
350.265	117
350.492	91
350.72	114
350.947	100
351.174	134
351.402	155
351.629	122
351.856	118
352.083	131
352.311	137
352.538	147
352.765	130
352.992	142
353.22	131
353.447	126
353.674	122
353.901	104
354.128	82
354.355	90
354.583	103
354.81	107
355.037	106
355.264	94
355.491	101
355.718	107
355.945	105
356.172	91
356.399	92
356.626	94
356.853	96
357.08	89
357.307	99
357.534	92
357.761	94
357.988	96
358.215	95
358.441	104
358.668	97
358.895	92
359.122	88
359.349	94
359.576	99
359.802	154
360.029	183
360.256	183
360.483	145
360.709	112
360.936	107
361.163	110
361.39	122
361.616	125
361.843	106
362.07	124
362.296	109
362.523	111
362.749	105
362.976	102
363.203	90
363.429	94
363.656	119
363.882	102
364.109	100
364.335	109
364.562	93
364.788	106
365.015	119
365.241	116
365.468	134
365.694	122
365.92	126
366.147	101
366.373	95
366.599	111
366.826	95
367.052	96
367.278	107
367.505	94
367.731	110
367.957	119
368.184	121
368.41	120
368.636	160
368.862	168
369.089	142
369.315	119
369.541	117
369.767	122
369.993	99
370.219	96
370.445	95
370.672	84
370.898	93
371.124	97
371.35	91
371.576	97
371.802	95
372.028	84
372.254	92
372.48	88
372.706	92
372.932	96
373.158	92
373.384	108
373.61	95
373.835	98
374.061	96
374.287	99
374.513	86
374.739	104
374.965	99
375.191	79
375.416	106
375.642	103
375.868	98
376.094	91
376.319	109
376.545	85
376.771	103
376.997	91
377.222	97
377.448	100
377.674	83
377.899	98
378.125	89
378.35	87
378.576	98
378.802	87
379.027	99
379.253	98
379.478	97
379.704	103
379.929	89
380.155	99
380.38	104
380.606	84
380.831	108
381.057	110
381.282	104
381.507	107
381.733	114
381.958	88
382.184	90
382.409	96
382.634	106
382.86	97
383.085	94
383.31	99
383.535	97
383.761	99
383.986	101
384.211	91
384.436	95
384.662	103
384.887	113
385.112	103
385.337	104
385.562	122
385.787	113
386.013	137
386.238	142
386.463	111
386.688	118
386.913	109
387.138	102
387.363	107
387.588	76
387.813	97
388.038	97
388.263	108
388.488	100
388.713	102
388.938	103
389.163	101
389.387	106
389.612	83
389.837	94
390.062	97
390.287	93
390.512	90
390.736	70
390.961	105
391.186	99
391.411	85
391.636	98
391.86	84
392.085	93
392.31	86
392.534	96
392.759	109
392.984	90
393.208	86
393.433	83
393.658	111
393.882	85
394.107	96
394.331	95
394.556	91
394.78	102
395.005	109
395.229	78
395.454	92
395.678	99
395.903	99
396.127	98
396.352	94
396.576	95
396.801	90
397.025	88
397.249	82
397.474	99
397.698	93
397.922	92
398.147	91
398.371	92
398.595	98
398.82	86
399.044	92
399.268	83
399.492	88
399.717	91
399.941	90
400.165	98
400.389	104
400.613	90
400.837	84
401.062	98
401.286	94
401.51	97
401.734	103
401.958	115
402.182	183
402.406	254
402.63	194
402.854	114
403.078	96
403.302	98
403.526	99
403.75	106
403.974	98
404.198	89
404.422	101
404.645	110
404.869	113
405.093	124
405.317	173
405.541	152
405.765	143
405.988	193
406.212	312
406.436	472
406.66	292
406.883	146
407.107	121
407.331	117
407.555	123
407.778	120
408.002	106
408.226	108
408.449	104
408.673	94
408.896	104
409.12	106
409.344	89
409.567	82
409.791	82
410.014	91
410.238	98
410.461	95
410.685	98
410.908	103
411.132	116
411.355	114
411.578	97
411.802	84
412.025	103
412.249	102
412.472	125
412.695	149
412.919	110
413.142	100
413.365	92
413.589	80
413.812	85
414.035	96
414.258	97
414.482	94
414.705	93
414.928	81
415.151	98
415.374	93
415.597	86
415.821	105
416.044	100
416.267	104
416.49	86
416.713	100
416.936	102
417.159	98
417.382	117
417.605	106
417.828	135
418.051	110
418.274	93
418.497	84
418.72	93
418.943	95
419.166	96
419.389	99
419.611	91
419.834	95
420.057	106
420.28	99
420.503	111
420.726	101
420.948	107
421.171	94
421.394	93
421.617	73
421.839	98
422.062	99
422.285	99
422.507	108
422.73	110
422.953	107
423.175	87
423.398	82
423.621	81
423.843	92
424.066	101
424.288	100
424.511	92
424.733	114
424.956	138
425.178	124
425.401	121
425.623	116
425.846	91
426.068	94
426.291	115
426.513	104
426.735	98
426.958	111
427.18	144
427.402	223
427.625	348
427.847	311
428.069	254
428.292	144
428.514	108
428.736	105
428.958	100
429.181	97
429.403	90
429.625	105
429.847	98
430.069	116
430.292	114
430.514	82
430.736	78
430.958	81
431.18	92
431.402	94
431.624	84
431.846	88
432.068	89
432.29	94
432.512	94
432.734	100
432.956	107
433.178	99
433.4	98
433.622	100
433.844	87
434.066	87
434.287	94
434.509	94
434.731	89
434.953	99
435.175	87
435.397	94
435.618	105
435.84	110
436.062	151
436.284	147
436.505	115
436.727	99
436.949	107
437.17	99
437.392	84
437.614	116
437.835	153
438.057	193
438.278	154
438.5	130
438.721	146
438.943	98
439.165	95
439.386	109
439.608	104
439.829	118
440.05	159
440.272	208
440.493	116
440.715	102
440.936	92
441.158	89
441.379	110
441.6	110
441.822	125
442.043	105
442.264	129
442.486	135
442.707	102
442.928	131
443.149	212
443.371	227
443.592	163
443.813	147
444.034	115
444.255	99
444.476	94
444.698	102
444.919	86
445.14	133
445.361	141
445.582	136
445.803	227
446.024	195
446.245	172
446.466	136
446.687	108
446.908	97
447.129	98
447.35	98
447.571	111
447.792	106
448.013	126
448.234	156
448.455	135
448.675	134
448.896	155
449.117	106
449.338	118
449.559	154
449.779	164
450	111
450.221	104
450.442	110
450.662	121
450.883	163
451.104	185
451.324	121
451.545	95
451.766	102
451.986	93
452.207	113
452.428	113
452.648	119
452.869	152
453.089	167
453.31	178
453.53	116
453.751	102
453.971	148
454.192	180
454.412	121
454.633	77
454.853	100
455.073	98
455.294	110
455.514	121
455.734	115
455.955	82
456.175	83
456.395	84
456.616	100
456.836	93
457.056	90
457.276	92
457.497	97
457.717	84
457.937	110
458.157	92
458.377	119
458.598	162
458.818	275
459.038	314
459.258	204
459.478	110
459.698	89
459.918	91
460.138	103
460.358	83
460.578	112
460.798	97
461.018	103
461.238	102
461.458	82
461.678	81
461.898	114
462.118	93
462.338	77
462.558	89
462.777	81
462.997	103
463.217	132
463.437	123
463.657	90
463.876	86
464.096	102
464.316	107
464.536	128
464.755	123
464.975	162
465.195	351
465.414	326
465.634	139
465.854	112
466.073	92
466.293	90
466.512	87
466.732	110
466.951	102
467.171	105
467.391	138
467.61	190
467.829	293
468.049	905
468.268	1354
468.488	319
468.707	143
468.927	103
469.146	95
469.365	78
469.585	96
469.804	116
470.023	134
470.243	121
470.462	144
470.681	177
470.901	122
471.12	113
471.339	120
471.558	134
471.777	194
471.997	433
472.216	1783
472.435	3958
472.654	864
472.873	223
473.092	130
473.311	118
473.53	95
473.749	94
473.968	111
474.187	153
474.406	115
474.625	95
474.844	79
475.063	100
475.282	97
475.501	100
475.72	102
475.939	102
476.158	88
476.377	91
476.596	108
476.814	114
477.033	113
477.252	108
477.471	98
477.69	107
477.908	105
478.127	115
478.346	111
478.564	112
478.783	126
479.002	115
479.22	132
479.439	173
479.658	159
479.876	141
480.095	142
480.313	170
480.532	225
480.751	416
480.969	1566
481.188	6840
481.406	3805
481.624	497
481.843	169
482.061	130
482.28	106
482.498	98
482.717	102
482.935	102
483.153	102
483.372	100
483.59	105
483.808	112
484.027	103
484.245	94
484.463	109
484.681	107
484.9	100
485.118	98
485.336	99
485.554	105
485.772	110
485.99	115
486.209	114
486.427	115
486.645	147
486.863	155
487.081	131
487.299	122
487.517	94
487.735	90
487.953	90
488.171	103
488.389	102
488.607	110
488.825	110
489.043	106
489.261	110
489.479	91
489.696	95
489.914	88
490.132	87
490.35	96
490.568	95
490.786	91
491.003	99
491.221	93
491.439	107
491.657	110
491.874	97
492.092	91
492.31	101
492.527	97
492.745	113
492.963	94
493.18	100
493.398	106
493.615	105
493.833	99
494.05	88
494.268	81
494.485	97
494.703	83
494.92	96
495.138	75
495.355	96
495.573	109
495.79	93
496.008	91
496.225	90
496.442	90
496.66	118
496.877	105
497.094	90
497.312	82
497.529	90
497.746	97
497.963	104
498.181	96
498.398	102
498.615	155
498.832	109
499.049	95
499.267	86
499.484	81
499.701	97
499.918	89
500.135	86
500.352	110
500.569	106
500.786	84
501.003	90
501.22	97
501.437	96
501.654	116
501.871	158
502.088	110
502.305	98
502.522	100
502.739	92
502.956	98
503.172	121
503.389	126
503.606	149
503.823	118
504.04	113
504.256	97
504.473	89
504.69	88
504.907	94
505.123	97
505.34	109
505.557	108
505.773	91
505.99	100
506.207	105
506.423	100
506.64	88
506.856	107
507.073	115
507.289	110
507.506	121
507.722	167
507.939	172
508.155	116
508.372	90
508.588	106
508.805	110
509.021	109
509.238	103
509.454	115
509.67	119
509.887	131
510.103	182
510.319	330
510.536	1438
510.752	5288
510.968	1299
511.184	238
511.401	161
511.617	123
511.833	120
512.049	107
512.265	99
512.481	104
512.698	104
512.914	97
513.13	101
513.346	105
513.562	113
513.778	109
513.994	112
514.21	149
514.426	191
514.642	242
514.858	211
515.074	329
515.29	1134
515.506	4329
515.721	1435
515.937	310
516.153	156
516.369	129
516.585	111
516.801	112
517.016	113
517.232	106
517.448	100
517.664	107
517.879	119
518.095	108
518.311	124
518.527	135
518.742	110
518.958	89
519.173	116
519.389	91
519.605	101
519.82	115
520.036	138
520.251	212
520.467	166
520.682	136
520.898	140
521.113	184
521.329	239
521.544	465
521.76	1512
521.975	7208
522.19	4209
522.406	765
522.621	217
522.836	129
523.052	110
523.267	116
523.482	114
523.698	141
523.913	200
524.128	147
524.343	106
524.559	103
524.774	106
524.989	125
525.204	152
525.419	137
525.634	111
525.849	91
526.064	107
526.28	101
526.495	95
526.71	98
526.925	88
527.14	104
527.355	84
527.57	112
527.785	88
527.999	103
528.214	99
528.429	107
528.644	105
528.859	112
529.074	124
529.289	208
529.503	402
529.718	152
529.933	100
530.148	97
530.363	92
530.577	104
530.792	99
531.007	96
531.221	102
531.436	100
531.651	94
531.865	95
532.08	79
532.295	99
532.509	92
532.724	99
532.938	80
533.153	97
533.367	94
533.582	106
533.796	98
534.011	94
534.225	89
534.44	98
534.654	88
534.868	103
535.083	104
535.297	105
535.511	121
535.726	148
535.94	123
536.154	121
536.369	99
536.583	91
536.797	94
537.011	89
537.225	110
537.44	95
537.654	83
537.868	106
538.082	109
538.296	103
538.51	86
538.724	91
538.938	95
539.153	106
539.367	160
539.581	108
539.795	94
540.009	87
540.222	93
540.436	84
540.65	94
540.864	122
541.078	109
541.292	105
541.506	96
541.72	84
541.934	96
542.147	95
542.361	90
542.575	94
542.789	87
543.002	88
543.216	96
543.43	114
543.644	118
543.857	89
544.071	86
544.285	90
544.498	103
544.712	76
544.925	106
545.139	94
545.352	92
545.566	82
545.779	100
545.993	101
546.206	102
546.42	99
546.633	89
546.847	95
547.06	88
547.274	100
547.487	103
547.7	94
547.914	96
548.127	95
548.34	97
548.554	91
548.767	86
548.98	89
549.193	89
549.407	105
549.62	92
549.833	87
550.046	100
550.259	87
550.473	100
550.686	102
550.899	93
551.112	82
551.325	92
551.538	113
551.751	100
551.964	105
552.177	86
552.39	75
552.603	92
552.816	116
553.029	92
553.242	84
553.455	125
553.667	135
553.88	144
554.093	120
554.306	136
554.519	139
554.732	101
554.944	99
555.157	81
555.37	82
555.583	103
555.795	106
556.008	104
556.221	94
556.433	94
556.646	98
556.859	92
557.071	85
557.284	105
557.496	103
557.709	96
557.921	99
558.134	91
558.346	97
558.559	83
558.771	101
558.984	107
559.196	91
559.409	97
559.621	101
559.833	89
560.046	116
560.258	128
560.47	185
560.683	100
560.895	99
561.107	97
561.32	96
561.532	113
561.744	94
561.956	96
562.168	96
562.381	89
562.593	81
562.805	99
563.017	92
563.229	90
563.441	85
563.653	80
563.865	89
564.077	82
564.289	92
564.501	105
564.713	94
564.925	109
565.137	130
565.349	89
565.561	87
565.773	90
565.985	82
566.197	84
566.408	112
566.62	91
566.832	111
567.044	96
567.255	80
567.467	89
567.679	97
567.891	96
568.102	95
568.314	84
568.526	85
568.737	92
568.949	74
569.161	86
569.372	81
569.584	80
569.795	94
570.007	130
570.218	419
570.43	204
570.641	106
570.853	89
571.064	92
571.276	88
571.487	93
571.698	83
571.91	74
572.121	84
572.333	103
572.544	88
572.755	79
572.966	98
573.178	87
573.389	95
573.6	98
573.811	93
574.023	93
574.234	97
574.445	97
574.656	85
574.867	91
575.078	91
575.289	91
575.501	106
575.712	94
575.923	98
576.134	96
