Data from Circ_1999_H10_HRD10591_00004.txt Node
Date: Wed Jan 03 11:23:13 EST 2024
User: Yrep
Spectrometer: HR+D1059
Trigger mode: 1
Integration Time (sec): 1.000000E-1
Scans to average: 1
Electric dark correction enabled: true
Nonlinearity correction enabled: false
Boxcar width: 0
XAxis mode: Wavelengths
Number of Pixels in Spectrum: 2048
>>>>>Begin Spectral Data<<<<<
223.165	-15.56
223.4	-15.56
223.635	-15.56
223.869	-12.56
224.104	-10.56
224.338	-24.56
224.573	-12.56
224.808	-10.56
225.042	-16.56
225.277	4.44
225.511	-13.56
225.746	-2.56
225.98	4.44
226.215	5.44
226.449	27.44
226.683	20.44
226.918	17.44
227.152	39.44
227.387	28.44
227.621	28.44
227.856	56.44
228.09	52.44
228.324	53.44
228.559	52.44
228.793	56.44
229.027	48.44
229.262	63.44
229.496	84.44
229.73	88.44
229.964	82.44
230.199	77.44
230.433	84.44
230.667	86.44
230.901	74.44
231.136	71.44
231.37	73.44
231.604	75.44
231.838	75.44
232.072	84.44
232.306	80.44
232.541	77.44
232.775	85.44
233.009	78.44
233.243	80.44
233.477	74.44
233.711	73.44
233.945	91.44
234.179	93.44
234.413	93.44
234.647	74.44
234.881	82.44
235.115	83.44
235.349	71.44
235.583	76.44
235.817	75.44
236.051	86.44
236.285	84.44
236.519	98.44
236.753	87.44
236.987	71.44
237.221	95.44
237.455	90.44
237.689	78.44
237.922	77.44
238.156	72.44
238.39	81.44
238.624	96.44
238.858	82.44
239.091	77.44
239.325	89.44
239.559	91.44
239.793	76.44
240.027	81.44
240.26	93.44
240.494	89.44
240.728	77.44
240.961	84.44
241.195	92.44
241.429	73.44
241.662	75.44
241.896	72.44
242.13	63.44
242.363	62.44
242.597	69.44
242.83	90.44
243.064	97.44
243.298	84.44
243.531	93.44
243.765	75.44
243.998	78.44
244.232	93.44
244.465	84.44
244.699	90.44
244.932	79.44
245.166	91.44
245.399	88.44
245.633	87.44
245.866	85.44
246.099	92.44
246.333	84.44
246.566	71.44
246.8	86.44
247.033	79.44
247.266	88.44
247.5	94.44
247.733	79.44
247.966	79.44
248.2	88.44
248.433	80.44
248.666	89.44
248.899	87.44
249.133	95.44
249.366	97.44
249.599	91.44
249.832	91.44
250.066	88.44
250.299	93.44
250.532	90.44
250.765	82.44
250.998	84.44
251.231	78.44
251.465	84.44
251.698	75.44
251.931	95.44
252.164	102.44
252.397	72.44
252.63	79.44
252.863	72.44
253.096	91.44
253.329	85.44
253.562	80.44
253.795	83.44
254.028	84.44
254.261	100.44
254.494	89.44
254.727	93.44
254.96	98.44
255.193	88.44
255.426	98.44
255.659	84.44
255.892	87.44
256.124	94.44
256.357	84.44
256.59	83.44
256.823	87.44
257.056	95.44
257.289	86.44
257.521	79.44
257.754	83.44
257.987	87.44
258.22	82.44
258.452	101.44
258.685	89.44
258.918	71.44
259.151	90.44
259.383	82.44
259.616	88.44
259.849	77.44
260.081	89.44
260.314	77.44
260.547	95.44
260.779	91.44
261.012	101.44
261.244	121.44
261.477	96.44
261.71	104.44
261.942	121.44
262.175	152.44
262.407	93.44
262.64	85.44
262.872	97.44
263.105	77.44
263.337	96.44
263.57	93.44
263.802	71.44
264.035	90.44
264.267	85.44
264.499	78.44
264.732	83.44
264.964	79.44
265.197	90.44
265.429	77.44
265.661	74.44
265.894	87.44
266.126	101.44
266.358	95.44
266.591	93.44
266.823	68.44
267.055	92.44
267.287	88.44
267.52	87.44
267.752	83.44
267.984	92.44
268.216	87.44
268.448	83.44
268.681	83.44
268.913	104.44
269.145	87.44
269.377	91.44
269.609	85.44
269.841	80.44
270.073	80.44
270.306	91.44
270.538	85.44
270.77	89.44
271.002	88.44
271.234	89.44
271.466	92.44
271.698	86.44
271.93	90.44
272.162	74.44
272.394	96.44
272.626	93.44
272.858	83.44
273.09	86.44
273.322	82.44
273.553	87.44
273.785	94.44
274.017	84.44
274.249	73.44
274.481	85.44
274.713	94.44
274.945	91.44
275.176	84.44
275.408	97.44
275.64	104.44
275.872	122.44
276.104	105.44
276.335	88.44
276.567	121.44
276.799	148.44
277.031	170.44
277.262	168.44
277.494	135.44
277.726	98.44
277.957	86.44
278.189	97.44
278.421	86.44
278.652	94.44
278.884	92.44
279.115	80.44
279.347	88.44
279.579	92.44
279.81	121.44
280.042	185.44
280.273	221.44
280.505	157.44
280.736	102.44
280.968	81.44
281.199	79.44
281.431	90.44
281.662	99.44
281.894	100.44
282.125	109.44
282.356	140.44
282.588	171.44
282.819	135.44
283.051	93.44
283.282	88.44
283.513	99.44
283.745	77.44
283.976	80.44
284.207	80.44
284.439	79.44
284.67	86.44
284.901	76.44
285.132	92.44
285.364	65.44
285.595	93.44
285.826	90.44
286.057	89.44
286.288	97.44
286.52	83.44
286.751	83.44
286.982	97.44
287.213	90.44
287.444	81.44
287.675	90.44
287.906	92.44
288.138	83.44
288.369	85.44
288.6	97.44
288.831	95.44
289.062	96.44
289.293	83.44
289.524	92.44
289.755	92.44
289.986	96.44
290.217	89.44
290.448	83.44
290.679	77.44
290.91	95.44
291.141	79.44
291.371	88.44
291.602	102.44
291.833	72.44
292.064	87.44
292.295	83.44
292.526	92.44
292.757	96.44
292.987	94.44
293.218	98.44
293.449	92.44
293.68	83.44
293.91	74.44
294.141	76.44
294.372	82.44
294.603	90.44
294.833	85.44
295.064	83.44
295.295	112.44
295.525	79.44
295.756	113.44
295.987	139.44
296.217	185.44
296.448	139.44
296.679	100.44
296.909	95.44
297.14	94.44
297.37	80.44
297.601	92.44
297.831	98.44
298.062	96.44
298.292	101.44
298.523	89.44
298.753	88.44
298.984	89.44
299.214	75.44
299.445	95.44
299.675	109.44
299.905	108.44
300.136	93.44
300.366	94.44
300.597	94.44
300.827	102.44
301.057	106.44
301.288	120.44
301.518	97.44
301.748	99.44
301.979	109.44
302.209	96.44
302.439	77.44
302.669	79.44
302.9	98.44
303.13	90.44
303.36	102.44
303.59	128.44
303.82	140.44
304.051	107.44
304.281	75.44
304.511	89.44
304.741	102.44
304.971	89.44
305.201	92.44
305.431	94.44
305.661	101.44
305.891	99.44
306.121	106.44
306.352	97.44
306.582	107.44
306.812	106.44
307.042	127.44
307.272	136.44
307.502	157.44
307.731	168.44
307.961	119.44
308.191	90.44
308.421	95.44
308.651	86.44
308.881	104.44
309.111	87.44
309.341	101.44
309.571	107.44
309.8	107.44
310.03	112.44
310.26	117.44
310.49	103.44
310.72	111.44
310.949	114.44
311.179	116.44
311.409	99.44
311.639	102.44
311.868	88.44
312.098	96.44
312.328	109.44
312.557	111.44
312.787	119.44
313.017	97.44
313.246	101.44
313.476	95.44
313.706	95.44
313.935	106.44
314.165	97.44
314.394	105.44
314.624	102.44
314.853	97.44
315.083	105.44
315.312	107.44
315.542	96.44
315.771	100.44
316.001	93.44
316.23	101.44
316.46	89.44
316.689	112.44
316.919	90.44
317.148	99.44
317.377	118.44
317.607	113.44
317.836	92.44
318.065	96.44
318.295	87.44
318.524	94.44
318.753	96.44
318.983	96.44
319.212	110.44
319.441	113.44
319.67	115.44
319.9	111.44
320.129	91.44
320.358	104.44
320.587	101.44
320.816	106.44
321.046	121.44
321.275	99.44
321.504	95.44
321.733	112.44
321.962	99.44
322.191	94.44
322.42	98.44
322.649	112.44
322.878	134.44
323.108	120.44
323.337	155.44
323.566	151.44
323.795	185.44
324.024	233.44
324.253	450.44
324.482	932.44
324.71	1851.44
324.939	2329.44
325.168	891.44
325.397	291.44
325.626	156.44
325.855	144.44
326.084	127.44
326.313	147.44
326.542	169.44
326.77	268.44
326.999	484.44
327.228	977.44
327.457	1673.44
327.686	1348.44
327.914	505.44
328.143	478.44
328.372	574.44
328.6	336.44
328.829	173.44
329.058	187.44
329.287	197.44
329.515	170.44
329.744	263.44
329.972	455.44
330.201	919.44
330.43	1219.44
330.658	580.44
330.887	291.44
331.115	197.44
331.344	137.44
331.572	124.44
331.801	141.44
332.03	119.44
332.258	119.44
332.486	113.44
332.715	99.44
332.943	118.44
333.172	130.44
333.4	121.44
333.629	151.44
333.857	230.44
334.085	417.44
334.314	851.44
334.542	1595.44
334.771	1417.44
334.999	373.44
335.227	162.44
335.455	133.44
335.684	112.44
335.912	109.44
336.14	109.44
336.369	116.44
336.597	110.44
336.825	104.44
337.053	101.44
337.281	103.44
337.51	100.44
337.738	86.44
337.966	93.44
338.194	121.44
338.422	107.44
338.65	104.44
338.878	99.44
339.106	81.44
339.334	99.44
339.562	103.44
339.79	101.44
340.018	97.44
340.246	112.44
340.474	115.44
340.702	100.44
340.93	102.44
341.158	82.44
341.386	101.44
341.614	111.44
341.842	103.44
342.07	97.44
342.298	93.44
342.526	92.44
342.754	78.44
342.981	97.44
343.209	98.44
343.437	102.44
343.665	94.44
343.893	95.44
344.12	89.44
344.348	102.44
344.576	89.44
344.804	100.44
345.031	97.44
345.259	103.44
345.487	95.44
345.714	112.44
345.942	96.44
346.17	89.44
346.397	97.44
346.625	106.44
346.853	95.44
347.08	85.44
347.308	111.44
347.535	88.44
347.763	115.44
347.99	112.44
348.218	98.44
348.445	133.44
348.673	103.44
348.9	87.44
349.128	109.44
349.355	85.44
349.583	112.44
349.81	92.44
350.037	94.44
350.265	102.44
350.492	90.44
350.72	86.44
350.947	121.44
351.174	123.44
351.402	123.44
351.629	111.44
351.856	116.44
352.083	106.44
352.311	111.44
352.538	114.44
352.765	128.44
352.992	130.44
353.22	139.44
353.447	104.44
353.674	117.44
353.901	112.44
354.128	101.44
354.355	112.44
354.583	113.44
354.81	111.44
355.037	102.44
355.264	81.44
355.491	98.44
355.718	92.44
355.945	105.44
356.172	105.44
356.399	102.44
356.626	78.44
356.853	102.44
357.08	97.44
357.307	101.44
357.534	90.44
357.761	95.44
357.988	91.44
358.215	92.44
358.441	90.44
358.668	99.44
358.895	91.44
359.122	103.44
359.349	105.44
359.576	104.44
359.802	113.44
360.029	161.44
360.256	150.44
360.483	116.44
360.709	102.44
360.936	101.44
361.163	99.44
361.39	110.44
361.616	111.44
361.843	85.44
362.07	89.44
362.296	112.44
362.523	106.44
362.749	101.44
362.976	101.44
363.203	96.44
363.429	96.44
363.656	102.44
363.882	96.44
364.109	85.44
364.335	96.44
364.562	96.44
364.788	84.44
365.015	103.44
365.241	108.44
365.468	118.44
365.694	122.44
365.92	107.44
366.147	92.44
366.373	79.44
366.599	101.44
366.826	88.44
367.052	95.44
367.278	107.44
367.505	104.44
367.731	112.44
367.957	95.44
368.184	95.44
368.41	104.44
368.636	131.44
368.862	143.44
369.089	149.44
369.315	101.44
369.541	99.44
369.767	102.44
369.993	97.44
370.219	94.44
370.445	86.44
370.672	81.44
370.898	100.44
371.124	83.44
371.35	85.44
371.576	89.44
371.802	92.44
372.028	90.44
372.254	87.44
372.48	86.44
372.706	73.44
372.932	89.44
373.158	87.44
373.384	92.44
373.61	95.44
373.835	90.44
374.061	88.44
374.287	106.44
374.513	85.44
374.739	113.44
374.965	94.44
375.191	86.44
375.416	93.44
375.642	95.44
375.868	89.44
376.094	93.44
376.319	92.44
376.545	77.44
376.771	79.44
376.997	95.44
377.222	94.44
377.448	96.44
377.674	91.44
377.899	96.44
378.125	91.44
378.35	96.44
378.576	89.44
378.802	102.44
379.027	81.44
379.253	104.44
379.478	100.44
379.704	85.44
379.929	105.44
380.155	98.44
380.38	105.44
380.606	105.44
380.831	95.44
381.057	100.44
381.282	112.44
381.507	101.44
381.733	97.44
381.958	102.44
382.184	98.44
382.409	112.44
382.634	118.44
382.86	123.44
383.085	105.44
383.31	120.44
383.535	133.44
383.761	110.44
383.986	99.44
384.211	101.44
384.436	108.44
384.662	117.44
384.887	113.44
385.112	130.44
385.337	136.44
385.562	123.44
385.787	136.44
386.013	145.44
386.238	133.44
386.463	153.44
386.688	121.44
386.913	132.44
387.138	116.44
387.363	121.44
387.588	118.44
387.813	126.44
388.038	137.44
388.263	140.44
388.488	128.44
388.713	109.44
388.938	94.44
389.163	96.44
389.387	101.44
389.612	76.44
389.837	74.44
390.062	87.44
390.287	85.44
390.512	90.44
390.736	91.44
390.961	88.44
391.186	81.44
391.411	89.44
391.636	78.44
391.86	87.44
392.085	80.44
392.31	83.44
392.534	96.44
392.759	88.44
392.984	91.44
393.208	89.44
393.433	84.44
393.658	88.44
393.882	82.44
394.107	78.44
394.331	77.44
394.556	91.44
394.78	87.44
395.005	94.44
395.229	85.44
395.454	85.44
395.678	93.44
395.903	85.44
396.127	86.44
396.352	92.44
396.576	97.44
396.801	95.44
397.025	95.44
397.249	91.44
397.474	88.44
397.698	91.44
397.922	89.44
398.147	82.44
398.371	83.44
398.595	81.44
398.82	90.44
399.044	77.44
399.268	91.44
399.492	95.44
399.717	72.44
399.941	95.44
400.165	101.44
400.389	93.44
400.613	87.44
400.837	87.44
401.062	89.44
401.286	100.44
401.51	89.44
401.734	95.44
401.958	107.44
402.182	132.44
402.406	205.44
402.63	143.44
402.854	109.44
403.078	102.44
403.302	87.44
403.526	84.44
403.75	94.44
403.974	89.44
404.198	97.44
404.422	97.44
404.645	91.44
404.869	113.44
405.093	132.44
405.317	136.44
405.541	128.44
405.765	125.44
405.988	136.44
406.212	231.44
406.436	312.44
406.66	219.44
406.883	127.44
407.107	96.44
407.331	120.44
407.555	117.44
407.778	101.44
408.002	94.44
408.226	91.44
408.449	102.44
408.673	82.44
408.896	114.44
409.12	103.44
409.344	99.44
409.567	91.44
409.791	86.44
410.014	82.44
410.238	86.44
410.461	99.44
410.685	99.44
410.908	97.44
411.132	106.44
411.355	107.44
411.578	104.44
411.802	104.44
412.025	96.44
412.249	101.44
412.472	117.44
412.695	134.44
412.919	113.44
413.142	85.44
413.365	85.44
413.589	101.44
413.812	97.44
414.035	97.44
414.258	91.44
414.482	87.44
414.705	96.44
414.928	87.44
415.151	93.44
415.374	89.44
415.597	75.44
415.821	94.44
416.044	92.44
416.267	89.44
416.49	95.44
416.713	72.44
416.936	91.44
417.159	89.44
417.382	95.44
417.605	111.44
417.828	102.44
418.051	117.44
418.274	102.44
418.497	93.44
418.72	93.44
418.943	80.44
419.166	94.44
419.389	92.44
419.611	93.44
419.834	92.44
420.057	88.44
420.28	93.44
420.503	88.44
420.726	88.44
420.948	97.44
421.171	113.44
421.394	97.44
421.617	101.44
421.839	90.44
422.062	81.44
422.285	97.44
422.507	103.44
422.73	109.44
422.953	91.44
423.175	86.44
423.398	91.44
423.621	99.44
423.843	101.44
424.066	69.44
424.288	95.44
424.511	91.44
424.733	96.44
424.956	122.44
425.178	125.44
425.401	113.44
425.623	122.44
425.846	99.44
426.068	104.44
426.291	99.44
426.513	91.44
426.735	99.44
426.958	107.44
427.18	125.44
427.402	179.44
427.625	268.44
427.847	195.44
428.069	185.44
428.292	110.44
428.514	86.44
428.736	82.44
428.958	92.44
429.181	90.44
429.403	94.44
429.625	87.44
429.847	105.44
430.069	120.44
430.292	96.44
430.514	83.44
430.736	76.44
430.958	96.44
431.18	71.44
431.402	83.44
431.624	83.44
431.846	86.44
432.068	79.44
432.29	87.44
432.512	81.44
432.734	92.44
432.956	103.44
433.178	100.44
433.4	99.44
433.622	96.44
433.844	87.44
434.066	103.44
434.287	96.44
434.509	90.44
434.731	82.44
434.953	91.44
435.175	92.44
435.397	95.44
435.618	90.44
435.84	105.44
436.062	135.44
436.284	120.44
436.505	112.44
436.727	105.44
436.949	95.44
437.17	99.44
437.392	103.44
437.614	100.44
437.835	133.44
438.057	155.44
438.278	126.44
438.5	117.44
438.721	136.44
438.943	108.44
439.165	87.44
439.386	86.44
439.608	99.44
439.829	124.44
440.05	143.44
440.272	167.44
440.493	103.44
440.715	87.44
440.936	81.44
441.158	94.44
441.379	97.44
441.6	92.44
441.822	115.44
442.043	97.44
442.264	119.44
442.486	103.44
442.707	112.44
442.928	114.44
443.149	176.44
443.371	175.44
443.592	134.44
443.813	131.44
444.034	140.44
444.255	87.44
444.476	86.44
444.698	87.44
444.919	91.44
445.14	145.44
445.361	132.44
445.582	126.44
445.803	183.44
446.024	173.44
446.245	165.44
446.466	138.44
446.687	100.44
446.908	97.44
447.129	79.44
447.35	97.44
447.571	97.44
447.792	85.44
448.013	120.44
448.234	134.44
448.455	122.44
448.675	150.44
448.896	140.44
449.117	123.44
449.338	111.44
449.559	143.44
449.779	163.44
450	96.44
450.221	87.44
450.442	85.44
450.662	101.44
450.883	126.44
451.104	122.44
451.324	109.44
451.545	98.44
451.766	99.44
451.986	100.44
452.207	77.44
452.428	93.44
452.648	97.44
452.869	128.44
453.089	145.44
453.31	131.44
453.53	108.44
453.751	90.44
453.971	113.44
454.192	132.44
454.412	91.44
454.633	82.44
454.853	85.44
455.073	83.44
455.294	92.44
455.514	103.44
455.734	102.44
455.955	91.44
456.175	89.44
456.395	79.44
456.616	103.44
456.836	91.44
457.056	90.44
457.276	86.44
457.497	89.44
457.717	94.44
457.937	95.44
458.157	89.44
458.377	94.44
458.598	122.44
458.818	214.44
459.038	236.44
459.258	147.44
459.478	88.44
459.698	93.44
459.918	95.44
460.138	87.44
460.358	87.44
460.578	91.44
460.798	100.44
461.018	91.44
461.238	91.44
461.458	96.44
461.678	80.44
461.898	100.44
462.118	88.44
462.338	87.44
462.558	95.44
462.777	88.44
462.997	92.44
463.217	103.44
463.437	96.44
463.657	84.44
463.876	87.44
464.096	100.44
464.316	100.44
464.536	97.44
464.755	104.44
464.975	144.44
465.195	263.44
465.414	244.44
465.634	112.44
465.854	82.44
466.073	84.44
466.293	79.44
466.512	94.44
466.732	93.44
466.951	98.44
467.171	117.44
467.391	105.44
467.61	156.44
467.829	205.44
468.049	497.44
468.268	696.44
468.488	185.44
468.707	99.44
468.927	102.44
469.146	87.44
469.365	107.44
469.585	98.44
469.804	110.44
470.023	113.44
470.243	111.44
470.462	125.44
470.681	151.44
470.901	109.44
471.12	83.44
471.339	103.44
471.558	118.44
471.777	150.44
471.997	287.44
472.216	955.44
472.435	2076.44
472.654	489.44
472.873	155.44
473.092	113.44
473.311	95.44
473.53	93.44
473.749	95.44
473.968	107.44
474.187	137.44
474.406	102.44
474.625	93.44
474.844	76.44
475.063	85.44
475.282	88.44
475.501	103.44
475.72	99.44
475.939	93.44
476.158	71.44
476.377	97.44
476.596	84.44
476.814	107.44
477.033	96.44
477.252	101.44
477.471	99.44
477.69	96.44
477.908	103.44
478.127	88.44
478.346	91.44
478.564	101.44
478.783	104.44
479.002	119.44
479.22	106.44
479.439	118.44
479.658	118.44
479.876	131.44
480.095	109.44
480.313	135.44
480.532	169.44
480.751	268.44
480.969	900.44
481.188	3741.44
481.406	2030.44
481.624	303.44
481.843	118.44
482.061	104.44
482.28	83.44
482.498	88.44
482.717	91.44
482.935	93.44
483.153	94.44
483.372	94.44
483.59	100.44
483.808	91.44
484.027	101.44
484.245	95.44
484.463	90.44
484.681	97.44
484.9	101.44
485.118	116.44
485.336	112.44
485.554	104.44
485.772	108.44
485.99	103.44
486.209	96.44
486.427	120.44
486.645	135.44
486.863	131.44
487.081	118.44
487.299	83.44
487.517	108.44
487.735	94.44
487.953	85.44
488.171	100.44
488.389	111.44
488.607	96.44
488.825	95.44
489.043	94.44
489.261	101.44
489.479	90.44
489.696	90.44
489.914	95.44
490.132	91.44
490.35	89.44
490.568	96.44
490.786	101.44
491.003	98.44
491.221	100.44
491.439	109.44
491.657	105.44
491.874	97.44
492.092	86.44
492.31	89.44
492.527	100.44
492.745	97.44
492.963	100.44
493.18	92.44
493.398	95.44
493.615	103.44
493.833	88.44
494.05	71.44
494.268	76.44
494.485	94.44
494.703	76.44
494.92	91.44
495.138	80.44
495.355	76.44
495.573	88.44
495.79	87.44
496.008	106.44
496.225	86.44
496.442	85.44
496.66	102.44
496.877	91.44
497.094	92.44
497.312	89.44
497.529	94.44
497.746	96.44
497.963	92.44
498.181	95.44
498.398	100.44
498.615	105.44
498.832	83.44
499.049	83.44
499.267	87.44
499.484	93.44
499.701	89.44
499.918	80.44
500.135	83.44
500.352	107.44
500.569	96.44
500.786	89.44
501.003	94.44
501.22	94.44
501.437	95.44
501.654	100.44
501.871	118.44
502.088	116.44
502.305	98.44
502.522	100.44
502.739	102.44
502.956	101.44
503.172	101.44
503.389	102.44
503.606	137.44
503.823	112.44
504.04	76.44
504.256	94.44
504.473	86.44
504.69	97.44
504.907	92.44
505.123	87.44
505.34	90.44
505.557	93.44
505.773	106.44
505.99	91.44
506.207	86.44
506.423	79.44
506.64	88.44
506.856	90.44
507.073	84.44
507.289	115.44
507.506	96.44
507.722	161.44
507.939	136.44
508.155	109.44
508.372	89.44
508.588	98.44
508.805	101.44
509.021	101.44
509.238	99.44
509.454	111.44
509.67	105.44
509.887	125.44
510.103	138.44
510.319	272.44
510.536	1074.44
510.752	3711.44
510.968	948.44
511.184	190.44
511.401	127.44
511.617	113.44
511.833	124.44
512.049	109.44
512.265	102.44
512.481	93.44
