Data from Circ_1999_H10_HRD10591_00065.txt Node
Date: Wed Jan 03 11:23:25 EST 2024
User: Yrep
Spectrometer: HR+D1059
Trigger mode: 1
Integration Time (sec): 1.000000E-1
Scans to average: 1
Electric dark correction enabled: true
Nonlinearity correction enabled: false
Boxcar width: 0
XAxis mode: Wavelengths
Number of Pixels in Spectrum: 2048
>>>>>Begin Spectral Data<<<<<
223.165	-5
223.4	-5
223.635	-5
223.869	-19
224.104	-13
224.338	-5
224.573	-10
224.808	-23
225.042	-11
225.277	-10
225.511	1
225.746	8
225.98	12
226.215	7
226.449	9
226.683	15
226.918	18
227.152	26
227.387	41
227.621	46
227.856	48
228.09	49
228.324	61
228.559	64
228.793	53
229.027	69
229.262	73
229.496	85
229.73	101
229.964	97
230.199	77
230.433	69
230.667	77
230.901	73
231.136	63
231.37	69
231.604	72
231.838	79
232.072	81
232.306	80
232.541	78
232.775	66
233.009	74
233.243	62
233.477	85
233.711	91
233.945	71
234.179	88
234.413	73
234.647	89
234.881	81
235.115	82
235.349	81
235.583	69
235.817	86
236.051	74
236.285	71
236.519	85
236.753	81
236.987	91
237.221	91
237.455	85
237.689	83
237.922	74
238.156	87
238.39	79
238.624	97
238.858	79
239.091	75
239.325	83
239.559	89
239.793	82
240.027	91
240.26	90
240.494	66
240.728	80
240.961	85
241.195	92
241.429	89
241.662	88
241.896	89
242.13	70
242.363	62
242.597	81
242.83	82
243.064	83
243.298	68
243.531	81
243.765	90
243.998	87
244.232	94
244.465	89
244.699	81
244.932	73
245.166	91
245.399	80
245.633	77
245.866	67
246.099	69
246.333	69
246.566	83
246.8	90
247.033	73
247.266	89
247.5	90
247.733	85
247.966	89
248.2	77
248.433	78
248.666	71
248.899	85
249.133	87
249.366	120
249.599	106
249.832	97
250.066	86
250.299	64
250.532	101
250.765	94
250.998	92
251.231	90
251.465	82
251.698	86
251.931	87
252.164	90
252.397	75
252.63	58
252.863	77
253.096	81
253.329	91
253.562	79
253.795	66
254.028	87
254.261	87
254.494	87
254.727	91
254.96	72
255.193	86
255.426	86
255.659	83
255.892	117
256.124	102
256.357	79
256.59	85
256.823	85
257.056	95
257.289	89
257.521	91
257.754	103
257.987	102
258.22	101
258.452	95
258.685	105
258.918	85
259.151	87
259.383	79
259.616	82
259.849	96
260.081	94
260.314	98
260.547	103
260.779	99
261.012	115
261.244	125
261.477	124
261.71	111
261.942	159
262.175	173
262.407	97
262.64	73
262.872	83
263.105	83
263.337	70
263.57	93
263.802	92
264.035	80
264.267	74
264.499	78
264.732	72
264.964	82
265.197	79
265.429	91
265.661	82
265.894	78
266.126	84
266.358	81
266.591	91
266.823	88
267.055	73
267.287	93
267.52	90
267.752	101
267.984	83
268.216	94
268.448	103
268.681	96
268.913	77
269.145	98
269.377	91
269.609	95
269.841	79
270.073	80
270.306	88
270.538	77
270.77	95
271.002	79
271.234	98
271.466	93
271.698	85
271.93	86
272.162	93
272.394	93
272.626	83
272.858	81
273.09	79
273.322	77
273.553	94
273.785	94
274.017	84
274.249	83
274.481	87
274.713	86
274.945	102
275.176	92
275.408	113
275.64	121
275.872	131
276.104	117
276.335	114
276.567	126
276.799	187
277.031	223
277.262	231
277.494	171
277.726	105
277.957	95
278.189	101
278.421	113
278.652	69
278.884	96
279.115	91
279.347	101
279.579	104
279.81	145
280.042	252
280.273	333
280.505	210
280.736	117
280.968	97
281.199	89
281.431	82
281.662	93
281.894	98
282.125	118
282.356	161
282.588	215
282.819	135
283.051	99
283.282	99
283.513	88
283.745	84
283.976	91
284.207	86
284.439	93
284.67	90
284.901	103
285.132	86
285.364	81
285.595	82
285.826	86
286.057	97
286.288	101
286.52	91
286.751	94
286.982	81
287.213	102
287.444	109
287.675	89
287.906	105
288.138	109
288.369	107
288.6	106
288.831	95
289.062	88
289.293	82
289.524	94
289.755	97
289.986	89
290.217	91
290.448	89
290.679	88
290.91	85
291.141	98
291.371	101
291.602	104
291.833	82
292.064	107
292.295	94
292.526	93
292.757	88
292.987	87
293.218	76
293.449	93
293.68	93
293.91	99
294.141	89
294.372	95
294.603	89
294.833	81
295.064	97
295.295	96
295.525	87
295.756	118
295.987	160
296.217	181
296.448	184
296.679	120
296.909	103
297.14	97
297.37	109
297.601	90
297.831	102
298.062	103
298.292	94
298.523	93
298.753	88
298.984	86
299.214	88
299.445	109
299.675	101
299.905	110
300.136	102
300.366	110
300.597	113
300.827	102
301.057	111
301.288	124
301.518	110
301.748	106
301.979	120
302.209	115
302.439	104
302.669	87
302.9	90
303.13	101
303.36	113
303.59	155
303.82	176
304.051	121
304.281	88
304.511	102
304.741	99
304.971	79
305.201	105
305.431	91
305.661	94
305.891	109
306.121	99
306.352	128
306.582	133
306.812	109
307.042	137
307.272	211
307.502	235
307.731	213
307.961	157
308.191	99
308.421	95
308.651	105
308.881	90
309.111	104
309.341	106
309.571	112
309.8	115
310.03	120
310.26	119
310.49	111
310.72	121
310.949	133
311.179	109
311.409	102
311.639	105
311.868	112
312.098	105
312.328	103
312.557	131
312.787	144
313.017	130
313.246	105
313.476	99
313.706	106
313.935	109
314.165	118
314.394	127
314.624	115
314.853	107
315.083	90
315.312	95
315.542	100
315.771	81
316.001	86
316.23	100
316.46	97
316.689	95
316.919	106
317.148	106
317.377	107
317.607	102
317.836	101
318.065	100
318.295	98
318.524	98
318.753	91
318.983	108
319.212	117
319.441	126
319.67	136
319.9	112
320.129	103
320.358	113
320.587	110
320.816	110
321.046	127
321.275	111
321.504	91
321.733	106
321.962	115
322.191	106
322.42	125
322.649	126
322.878	122
323.108	128
323.337	149
323.566	183
323.795	222
324.024	273
324.253	536
324.482	1148
324.71	2279
324.939	3033
325.168	1116
325.397	330
325.626	182
325.855	157
326.084	149
326.313	158
326.542	188
326.77	280
326.999	551
327.228	1134
327.457	2044
327.686	1747
327.914	668
328.143	697
328.372	905
328.6	498
328.829	234
329.058	218
329.287	257
329.515	233
329.744	325
329.972	655
330.201	1361
330.43	2025
330.658	867
330.887	393
331.115	247
331.344	149
331.572	142
331.801	139
332.03	149
332.258	112
332.486	105
332.715	114
332.943	119
333.172	137
333.4	153
333.629	206
333.857	295
334.085	593
334.314	1257
334.542	2489
334.771	2285
334.999	565
335.227	225
335.455	150
335.684	125
335.912	126
336.14	120
336.369	125
336.597	134
336.825	120
337.053	120
337.281	93
337.51	93
337.738	94
337.966	114
338.194	118
338.422	110
338.65	112
338.878	97
339.106	94
339.334	95
339.562	96
339.79	97
340.018	108
340.246	99
340.474	111
340.702	97
340.93	89
341.158	112
341.386	117
341.614	106
341.842	116
342.07	100
342.298	92
342.526	90
342.754	97
342.981	102
343.209	84
343.437	107
343.665	93
343.893	94
344.12	96
344.348	89
344.576	95
344.804	97
345.031	104
345.259	117
345.487	116
345.714	92
345.942	104
346.17	103
346.397	108
346.625	106
346.853	98
347.08	90
347.308	110
347.535	108
347.763	106
347.99	128
348.218	123
348.445	138
348.673	129
348.9	111
349.128	107
349.355	109
349.583	97
349.81	102
350.037	91
350.265	98
350.492	95
350.72	103
350.947	117
351.174	151
351.402	137
351.629	129
351.856	137
352.083	130
352.311	126
352.538	134
352.765	126
352.992	136
353.22	130
353.447	113
353.674	103
353.901	100
354.128	83
354.355	111
354.583	106
354.81	98
355.037	98
355.264	105
355.491	92
355.718	97
355.945	96
356.172	86
356.399	87
356.626	107
356.853	105
357.08	109
357.307	92
357.534	107
357.761	95
357.988	108
358.215	94
358.441	95
358.668	83
358.895	100
359.122	98
359.349	107
359.576	109
359.802	118
360.029	182
360.256	167
360.483	133
360.709	106
360.936	97
361.163	106
361.39	136
361.616	121
361.843	96
362.07	111
362.296	108
362.523	111
362.749	110
362.976	112
363.203	102
363.429	98
363.656	106
363.882	106
364.109	91
364.335	98
364.562	101
364.788	105
365.015	106
365.241	119
365.468	136
365.694	130
365.92	121
366.147	105
366.373	97
366.599	92
366.826	90
367.052	86
367.278	97
367.505	107
367.731	109
367.957	92
368.184	104
368.41	119
368.636	146
368.862	158
369.089	142
369.315	99
369.541	103
369.767	106
369.993	105
370.219	98
370.445	71
370.672	89
370.898	84
371.124	94
371.35	95
371.576	97
371.802	103
372.028	86
372.254	79
372.48	89
372.706	74
372.932	82
373.158	99
373.384	96
373.61	86
373.835	81
374.061	91
374.287	96
374.513	92
374.739	84
374.965	81
375.191	90
375.416	101
375.642	92
375.868	117
376.094	103
376.319	89
376.545	95
376.771	92
376.997	91
377.222	91
377.448	94
377.674	93
377.899	88
378.125	83
378.35	98
378.576	101
378.802	91
379.027	99
379.253	105
379.478	89
379.704	91
379.929	95
380.155	107
380.38	88
380.606	98
380.831	89
381.057	93
381.282	96
381.507	102
381.733	105
381.958	108
382.184	104
382.409	86
382.634	98
382.86	103
383.085	90
383.31	98
383.535	106
383.761	91
383.986	100
384.211	95
384.436	103
384.662	89
384.887	95
385.112	109
385.337	102
385.562	97
385.787	99
386.013	116
386.238	127
386.463	98
386.688	118
386.913	89
387.138	100
387.363	92
387.588	94
387.813	103
388.038	114
388.263	115
388.488	102
388.713	89
388.938	92
389.163	103
389.387	86
389.612	99
389.837	91
390.062	91
390.287	102
390.512	85
390.736	95
390.961	96
391.186	97
391.411	99
391.636	88
391.86	93
392.085	84
392.31	93
392.534	83
392.759	93
392.984	87
393.208	91
393.433	83
393.658	92
393.882	98
394.107	70
394.331	81
394.556	83
394.78	99
395.005	92
395.229	82
395.454	75
395.678	93
395.903	88
396.127	90
396.352	99
396.576	80
396.801	77
397.025	88
397.249	88
397.474	88
397.698	87
397.922	95
398.147	77
398.371	96
398.595	79
398.82	85
399.044	77
399.268	82
399.492	93
399.717	89
399.941	92
400.165	89
400.389	96
400.613	91
400.837	89
401.062	98
401.286	101
401.51	102
401.734	99
401.958	122
402.182	177
402.406	270
402.63	183
402.854	109
403.078	90
403.302	97
403.526	80
403.75	92
403.974	98
404.198	97
404.422	87
404.645	111
404.869	102
405.093	132
405.317	151
405.541	157
405.765	127
405.988	166
406.212	274
406.436	418
406.66	258
406.883	144
407.107	119
407.331	122
407.555	124
407.778	106
408.002	87
408.226	100
408.449	96
408.673	101
408.896	94
409.12	109
409.344	106
409.567	87
409.791	91
410.014	88
410.238	102
410.461	83
410.685	98
410.908	92
411.132	106
411.355	107
411.578	100
411.802	73
412.025	89
412.249	110
412.472	117
412.695	151
412.919	119
413.142	103
413.365	78
413.589	91
413.812	78
414.035	102
414.258	93
414.482	95
414.705	89
414.928	93
415.151	79
415.374	90
415.597	114
415.821	98
416.044	92
416.267	98
416.49	91
416.713	97
416.936	114
417.159	85
417.382	109
417.605	108
417.828	123
418.051	107
418.274	90
418.497	92
418.72	90
418.943	86
419.166	110
419.389	91
419.611	85
419.834	90
420.057	92
420.28	94
420.503	87
420.726	98
420.948	110
421.171	101
421.394	97
421.617	92
421.839	92
422.062	92
422.285	93
422.507	113
422.73	123
422.953	105
423.175	90
423.398	86
423.621	103
423.843	92
424.066	74
424.288	85
424.511	101
424.733	126
424.956	137
425.178	115
425.401	109
425.623	120
425.846	96
426.068	89
426.291	111
426.513	94
426.735	113
426.958	88
427.18	133
427.402	190
427.625	331
427.847	273
428.069	218
428.292	142
428.514	115
428.736	86
428.958	89
429.181	89
429.403	59
429.625	104
429.847	120
430.069	103
430.292	114
430.514	81
430.736	95
430.958	89
431.18	81
431.402	83
431.624	102
431.846	102
432.068	75
432.29	85
432.512	97
432.734	94
432.956	99
433.178	105
433.4	101
433.622	86
433.844	108
434.066	95
434.287	101
434.509	108
434.731	102
434.953	85
435.175	103
435.397	83
435.618	101
435.84	114
436.062	129
436.284	128
436.505	113
436.727	118
436.949	93
437.17	101
437.392	111
437.614	103
437.835	160
438.057	180
438.278	152
438.5	121
438.721	139
438.943	114
439.165	90
439.386	99
439.608	94
439.829	130
440.05	156
440.272	193
440.493	117
440.715	96
440.936	94
441.158	109
441.379	105
441.6	114
441.822	108
442.043	117
442.264	129
442.486	129
442.707	126
442.928	148
443.149	193
443.371	210
443.592	158
443.813	154
444.034	129
444.255	100
444.476	74
444.698	94
444.919	90
445.14	143
445.361	126
445.582	145
445.803	205
446.024	185
446.245	182
446.466	121
446.687	94
446.908	98
447.129	103
447.35	104
447.571	98
447.792	100
448.013	114
448.234	138
448.455	125
448.675	137
448.896	135
449.117	109
449.338	128
449.559	164
449.779	156
450	94
450.221	99
450.442	98
450.662	98
450.883	129
451.104	155
451.324	122
451.545	108
451.766	85
451.986	101
452.207	108
452.428	97
452.648	115
452.869	149
453.089	152
453.31	177
453.53	113
453.751	98
453.971	157
454.192	159
454.412	115
454.633	94
454.853	94
455.073	93
455.294	103
455.514	114
455.734	102
455.955	87
456.175	84
456.395	86
456.616	86
456.836	89
457.056	96
457.276	86
457.497	95
457.717	96
457.937	89
458.157	101
458.377	94
458.598	136
458.818	263
459.038	292
459.258	173
459.478	120
459.698	91
459.918	96
460.138	94
460.358	93
460.578	110
460.798	113
461.018	106
461.238	87
461.458	83
461.678	83
461.898	93
462.118	91
462.338	92
462.558	79
462.777	95
462.997	113
463.217	123
463.437	102
463.657	78
463.876	95
464.096	96
464.316	95
464.536	118
464.755	118
464.975	143
465.195	315
465.414	315
465.634	137
465.854	99
466.073	94
466.293	87
466.512	88
466.732	92
466.951	106
467.171	109
467.391	130
467.61	179
467.829	291
468.049	812
468.268	1259
468.488	287
468.707	118
468.927	107
469.146	93
469.365	85
469.585	92
469.804	124
470.023	126
470.243	110
470.462	136
470.681	166
470.901	130
471.12	106
471.339	105
471.558	130
471.777	200
471.997	413
472.216	1643
472.435	3799
472.654	839
472.873	218
473.092	118
473.311	100
473.53	107
473.749	103
473.968	126
474.187	136
474.406	115
474.625	112
474.844	110
475.063	93
475.282	98
475.501	85
475.72	82
475.939	89
476.158	88
476.377	103
476.596	105
476.814	113
477.033	114
477.252	102
477.471	94
477.69	102
477.908	109
478.127	104
478.346	109
478.564	123
478.783	122
479.002	118
479.22	113
479.439	141
479.658	155
479.876	135
480.095	141
480.313	150
480.532	201
480.751	380
480.969	1490
481.188	6435
481.406	3527
481.624	470
481.843	163
482.061	113
482.28	106
482.498	107
482.717	112
482.935	88
483.153	90
483.372	90
483.59	89
483.808	94
484.027	99
484.245	111
484.463	112
484.681	107
484.9	91
485.118	109
485.336	95
485.554	96
485.772	112
485.99	98
486.209	119
486.427	111
486.645	126
486.863	143
487.081	125
487.299	111
487.517	120
487.735	98
487.953	107
488.171	115
488.389	108
488.607	119
488.825	105
489.043	85
489.261	86
489.479	83
489.696	105
489.914	98
490.132	96
490.35	89
490.568	98
490.786	97
491.003	110
491.221	105
491.439	115
491.657	107
491.874	108
492.092	101
492.31	97
492.527	111
492.745	95
492.963	96
493.18	97
493.398	104
493.615	104
493.833	99
494.05	101
494.268	92
494.485	97
494.703	96
494.92	92
495.138	90
495.355	85
495.573	87
495.79	91
496.008	114
496.225	88
496.442	90
496.66	90
496.877	84
497.094	93
497.312	92
497.529	92
497.746	102
497.963	95
498.181	102
498.398	111
498.615	120
498.832	112
499.049	105
499.267	99
499.484	116
499.701	95
499.918	93
500.135	100
500.352	104
500.569	98
500.786	106
501.003	96
501.22	96
501.437	94
501.654	120
501.871	138
502.088	111
502.305	90
502.522	81
502.739	101
502.956	109
503.172	100
503.389	122
503.606	150
503.823	112
504.04	101
504.256	101
504.473	96
504.69	115
504.907	86
505.123	94
505.34	81
505.557	93
505.773	94
505.99	99
506.207	93
506.423	89
506.64	88
506.856	77
507.073	106
507.289	112
507.506	102
507.722	155
507.939	167
508.155	114
508.372	109
508.588	98
508.805	118
509.021	110
509.238	107
509.454	100
509.67	125
509.887	129
510.103	179
510.319	320
510.536	1365
510.752	4905
510.968	1237
511.184	225
511.401	153
511.617	119
511.833	127
512.049	109
512.265	104
512.481	88
512.698	105
512.914	106
513.13	97
513.346	95
513.562	103
513.778	98
513.994	123
514.21	145
514.426	159
514.642	224
514.858	214
515.074	286
515.29	1033
515.506	3921
515.721	1307
515.937	275
516.153	153
516.369	133
516.585	110
516.801	108
517.016	121
517.232	119
517.448	104
517.664	99
517.879	105
518.095	108
518.311	124
518.527	147
518.742	105
518.958	87
519.173	105
519.389	113
519.605	103
519.82	113
520.036	140
520.251	178
520.467	155
520.682	137
520.898	129
521.113	182
521.329	231
521.544	408
521.76	1354
521.975	6606
522.19	3815
522.406	706
522.621	211
522.836	159
523.052	120
523.267	108
523.482	119
523.698	127
523.913	184
524.128	140
524.343	88
524.559	106
524.774	103
524.989	112
525.204	137
525.419	114
525.634	106
525.849	102
526.064	101
526.28	97
526.495	93
526.71	87
526.925	95
527.14	89
527.355	83
527.57	94
527.785	106
527.999	92
528.214	87
528.429	87
528.644	110
528.859	104
529.074	110
529.289	205
529.503	377
529.718	157
529.933	81
530.148	98
530.363	113
530.577	89
530.792	89
531.007	100
531.221	88
531.436	96
531.651	81
531.865	84
532.08	85
532.295	99
532.509	105
532.724	104
532.938	90
533.153	97
533.367	93
533.582	96
533.796	97
534.011	89
534.225	93
534.44	113
534.654	92
534.868	88
535.083	82
535.297	110
535.511	125
535.726	130
535.94	114
536.154	102
536.369	102
536.583	102
536.797	93
537.011	88
537.225	100
537.44	95
537.654	104
537.868	101
538.082	103
538.296	86
538.51	103
538.724	80
538.938	93
539.153	109
539.367	134
539.581	117
539.795	107
540.009	95
540.222	94
540.436	88
540.65	84
540.864	106
541.078	108
541.292	97
541.506	92
541.72	78
541.934	86
542.147	90
542.361	98
542.575	82
542.789	97
543.002	98
543.216	107
543.43	110
543.644	94
543.857	101
544.071	81
544.285	106
544.498	108
544.712	83
544.925	92
545.139	85
545.352	85
545.566	94
545.779	86
545.993	95
546.206	92
546.42	105
546.633	106
546.847	86
547.06	94
547.274	84
547.487	86
547.7	73
547.914	98
548.127	83
548.34	97
548.554	88
548.767	99
548.98	103
549.193	102
549.407	99
549.62	93
549.833	93
550.046	80
550.259	92
550.473	94
550.686	96
550.899	93
551.112	91
551.325	114
551.538	112
551.751	101
551.964	102
552.177	108
552.39	89
552.603	89
552.816	104
553.029	96
553.242	101
553.455	105
553.667	130
553.88	130
554.093	120
554.306	127
554.519	136
554.732	93
554.944	89
555.157	101
555.37	77
555.583	113
555.795	97
556.008	82
556.221	82
556.433	90
556.646	98
556.859	95
557.071	83
557.284	91
557.496	104
557.709	86
557.921	96
558.134	97
558.346	102
558.559	89
558.771	94
558.984	85
559.196	88
559.409	81
559.621	96
559.833	91
560.046	106
560.258	127
560.47	161
560.683	117
560.895	98
561.107	93
561.32	91
561.532	90
561.744	94
561.956	80
562.168	94
562.381	83
562.593	104
562.805	88
563.017	97
563.229	87
563.441	92
563.653	84
563.865	98
564.077	102
564.289	87
564.501	90
564.713	89
564.925	124
565.137	130
565.349	85
565.561	75
565.773	91
565.985	96
566.197	87
566.408	96
566.62	103
566.832	95
567.044	93
567.255	81
567.467	82
567.679	85
567.891	89
568.102	78
568.314	97
568.526	88
568.737	106
568.949	91
569.161	83
569.372	89
569.584	88
569.795	107
570.007	153
570.218	431
570.43	195
570.641	95
570.853	86
571.064	92
571.276	95
571.487	93
571.698	99
571.91	110
572.121	96
572.333	80
572.544	88
572.755	104
572.966	95
573.178	99
573.389	99
573.6	89
573.811	90
574.023	91
574.234	93
574.445	86
574.656	83
574.867	88
575.078	86
575.289	92
575.501	97
575.712	87
575.923	98
576.134	82
576.345	83
576.556	100
576.767	87
576.978	80
577.188	99
