Data from Circ_1999_H10_HRD10591_00080.txt Node
Date: Wed Jan 03 11:23:28 EST 2024
User: Yrep
Spectrometer: HR+D1059
Trigger mode: 1
Integration Time (sec): 1.000000E-1
Scans to average: 1
Electric dark correction enabled: true
Nonlinearity correction enabled: false
Boxcar width: 0
XAxis mode: Wavelengths
Number of Pixels in Spectrum: 2048
>>>>>Begin Spectral Data<<<<<
223.165	-19.69
223.4	-19.69
223.635	-19.69
223.869	-28.69
224.104	-24.69
224.338	-26.69
224.573	-11.69
224.808	-11.69
225.042	9.31
225.277	-7.69
225.511	-4.69
225.746	0.31
225.98	14.31
226.215	9.31
226.449	25.31
226.683	20.31
226.918	25.31
227.152	31.31
227.387	32.31
227.621	29.31
227.856	53.31
228.09	62.31
228.324	50.31
228.559	54.31
228.793	67.31
229.027	71.31
229.262	70.31
229.496	90.31
229.73	94.31
229.964	77.31
230.199	81.31
230.433	74.31
230.667	87.31
230.901	85.31
231.136	77.31
231.37	86.31
231.604	96.31
231.838	79.31
232.072	78.31
232.306	74.31
232.541	78.31
232.775	75.31
233.009	83.31
233.243	73.31
233.477	78.31
233.711	86.31
233.945	83.31
234.179	90.31
234.413	90.31
234.647	88.31
234.881	93.31
235.115	83.31
235.349	77.31
235.583	74.31
235.817	85.31
236.051	83.31
236.285	89.31
236.519	87.31
236.753	82.31
236.987	76.31
237.221	92.31
237.455	93.31
237.689	78.31
237.922	83.31
238.156	69.31
238.39	75.31
238.624	89.31
238.858	82.31
239.091	87.31
239.325	83.31
239.559	96.31
239.793	78.31
240.027	92.31
240.26	86.31
240.494	94.31
240.728	87.31
240.961	87.31
241.195	80.31
241.429	85.31
241.662	77.31
241.896	77.31
242.13	78.31
242.363	91.31
242.597	71.31
242.83	80.31
243.064	84.31
243.298	93.31
243.531	75.31
243.765	97.31
243.998	84.31
244.232	84.31
244.465	84.31
244.699	80.31
244.932	75.31
245.166	71.31
245.399	71.31
245.633	76.31
245.866	92.31
246.099	76.31
246.333	72.31
246.566	86.31
246.8	74.31
247.033	95.31
247.266	81.31
247.5	82.31
247.733	73.31
247.966	76.31
248.2	76.31
248.433	87.31
248.666	97.31
248.899	95.31
249.133	84.31
249.366	102.31
249.599	94.31
249.832	90.31
250.066	85.31
250.299	86.31
250.532	93.31
250.765	77.31
250.998	94.31
251.231	93.31
251.465	76.31
251.698	87.31
251.931	68.31
252.164	81.31
252.397	87.31
252.63	72.31
252.863	92.31
253.096	87.31
253.329	80.31
253.562	95.31
253.795	73.31
254.028	81.31
254.261	77.31
254.494	93.31
254.727	103.31
254.96	93.31
255.193	85.31
255.426	91.31
255.659	94.31
255.892	89.31
256.124	92.31
256.357	94.31
256.59	91.31
256.823	88.31
257.056	88.31
257.289	102.31
257.521	98.31
257.754	70.31
257.987	89.31
258.22	84.31
258.452	102.31
258.685	98.31
258.918	82.31
259.151	87.31
259.383	102.31
259.616	79.31
259.849	82.31
260.081	69.31
260.314	95.31
260.547	92.31
260.779	93.31
261.012	106.31
261.244	118.31
261.477	101.31
261.71	110.31
261.942	149.31
262.175	160.31
262.407	106.31
262.64	105.31
262.872	93.31
263.105	79.31
263.337	74.31
263.57	90.31
263.802	79.31
264.035	81.31
264.267	93.31
264.499	86.31
264.732	89.31
264.964	82.31
265.197	102.31
265.429	80.31
265.661	87.31
265.894	85.31
266.126	86.31
266.358	78.31
266.591	89.31
266.823	91.31
267.055	93.31
267.287	87.31
267.52	93.31
267.752	92.31
267.984	78.31
268.216	83.31
268.448	78.31
268.681	96.31
268.913	96.31
269.145	79.31
269.377	81.31
269.609	71.31
269.841	94.31
270.073	82.31
270.306	78.31
270.538	88.31
270.77	91.31
271.002	83.31
271.234	94.31
271.466	106.31
271.698	105.31
271.93	95.31
272.162	82.31
272.394	79.31
272.626	89.31
272.858	77.31
273.09	86.31
273.322	83.31
273.553	83.31
273.785	91.31
274.017	103.31
274.249	87.31
274.481	94.31
274.713	91.31
274.945	94.31
275.176	103.31
275.408	124.31
275.64	124.31
275.872	111.31
276.104	115.31
276.335	105.31
276.567	122.31
276.799	177.31
277.031	188.31
277.262	219.31
277.494	170.31
277.726	112.31
277.957	94.31
278.189	93.31
278.421	89.31
278.652	93.31
278.884	87.31
279.115	99.31
279.347	78.31
279.579	105.31
279.81	156.31
280.042	233.31
280.273	321.31
280.505	205.31
280.736	103.31
280.968	97.31
281.199	101.31
281.431	88.31
281.662	109.31
281.894	97.31
282.125	118.31
282.356	153.31
282.588	189.31
282.819	154.31
283.051	99.31
283.282	89.31
283.513	98.31
283.745	85.31
283.976	88.31
284.207	94.31
284.439	87.31
284.67	93.31
284.901	96.31
285.132	93.31
285.364	94.31
285.595	90.31
285.826	97.31
286.057	78.31
286.288	98.31
286.52	95.31
286.751	83.31
286.982	98.31
287.213	93.31
287.444	98.31
287.675	98.31
287.906	90.31
288.138	104.31
288.369	97.31
288.6	103.31
288.831	93.31
289.062	92.31
289.293	101.31
289.524	92.31
289.755	90.31
289.986	78.31
290.217	102.31
290.448	73.31
290.679	76.31
290.91	99.31
291.141	99.31
291.371	94.31
291.602	88.31
291.833	81.31
292.064	81.31
292.295	85.31
292.526	93.31
292.757	93.31
292.987	88.31
293.218	88.31
293.449	80.31
293.68	92.31
293.91	89.31
294.141	95.31
294.372	100.31
294.603	85.31
294.833	97.31
295.064	89.31
295.295	85.31
295.525	114.31
295.756	118.31
295.987	144.31
296.217	190.31
296.448	158.31
296.679	99.31
296.909	93.31
297.14	97.31
297.37	86.31
297.601	97.31
297.831	102.31
298.062	100.31
298.292	81.31
298.523	93.31
298.753	85.31
298.984	82.31
299.214	104.31
299.445	89.31
299.675	110.31
299.905	97.31
300.136	89.31
300.366	88.31
300.597	104.31
300.827	87.31
301.057	100.31
301.288	128.31
301.518	104.31
301.748	100.31
301.979	117.31
302.209	91.31
302.439	91.31
302.669	96.31
302.9	107.31
303.13	108.31
303.36	116.31
303.59	155.31
303.82	166.31
304.051	123.31
304.281	85.31
304.511	93.31
304.741	84.31
304.971	96.31
305.201	97.31
305.431	97.31
305.661	100.31
305.891	100.31
306.121	105.31
306.352	121.31
306.582	134.31
306.812	119.31
307.042	151.31
307.272	182.31
307.502	202.31
307.731	209.31
307.961	150.31
308.191	102.31
308.421	86.31
308.651	93.31
308.881	96.31
309.111	96.31
309.341	98.31
309.571	113.31
309.8	106.31
310.03	112.31
310.26	117.31
310.49	119.31
310.72	114.31
310.949	125.31
311.179	129.31
311.409	113.31
311.639	100.31
311.868	106.31
312.098	106.31
312.328	104.31
312.557	115.31
312.787	141.31
313.017	115.31
313.246	102.31
313.476	99.31
313.706	105.31
313.935	97.31
314.165	107.31
314.394	107.31
314.624	121.31
314.853	106.31
315.083	86.31
315.312	99.31
315.542	102.31
315.771	102.31
316.001	101.31
316.23	107.31
316.46	95.31
316.689	94.31
316.919	122.31
317.148	114.31
317.377	97.31
317.607	115.31
317.836	102.31
318.065	99.31
318.295	105.31
318.524	103.31
318.753	87.31
318.983	99.31
319.212	116.31
319.441	137.31
319.67	125.31
319.9	104.31
320.129	97.31
320.358	97.31
320.587	114.31
320.816	99.31
321.046	117.31
321.275	110.31
321.504	97.31
321.733	110.31
321.962	99.31
322.191	114.31
322.42	109.31
322.649	125.31
322.878	134.31
323.108	139.31
323.337	149.31
323.566	147.31
323.795	178.31
324.024	251.31
324.253	464.31
324.482	1002.31
324.71	1999.31
324.939	2605.31
325.168	1007.31
325.397	309.31
325.626	170.31
325.855	154.31
326.084	147.31
326.313	153.31
326.542	184.31
326.77	252.31
326.999	520.31
327.228	998.31
327.457	1821.31
327.686	1489.31
327.914	616.31
328.143	646.31
328.372	807.31
328.6	457.31
328.829	203.31
329.058	218.31
329.287	224.31
329.515	203.31
329.744	311.31
329.972	595.31
330.201	1250.31
330.43	1842.31
330.658	772.31
330.887	349.31
331.115	227.31
331.344	130.31
331.572	121.31
331.801	115.31
332.03	139.31
332.258	130.31
332.486	111.31
332.715	123.31
332.943	126.31
333.172	145.31
333.4	139.31
333.629	177.31
333.857	274.31
334.085	523.31
334.314	1126.31
334.542	2141.31
334.771	2041.31
334.999	521.31
335.227	207.31
335.455	133.31
335.684	126.31
335.912	117.31
336.14	107.31
336.369	121.31
336.597	133.31
336.825	117.31
337.053	99.31
337.281	107.31
337.51	106.31
337.738	88.31
337.966	101.31
338.194	94.31
338.422	120.31
338.65	97.31
338.878	108.31
339.106	84.31
339.334	111.31
339.562	95.31
339.79	90.31
340.018	87.31
340.246	101.31
340.474	107.31
340.702	95.31
340.93	96.31
341.158	106.31
341.386	109.31
341.614	109.31
341.842	91.31
342.07	101.31
342.298	95.31
342.526	104.31
342.754	87.31
342.981	95.31
343.209	82.31
343.437	91.31
343.665	91.31
343.893	90.31
344.12	98.31
344.348	89.31
344.576	101.31
344.804	97.31
345.031	108.31
345.259	114.31
345.487	113.31
345.714	107.31
345.942	101.31
346.17	104.31
346.397	116.31
346.625	94.31
346.853	97.31
347.08	79.31
347.308	105.31
347.535	107.31
347.763	99.31
347.99	99.31
348.218	121.31
348.445	136.31
348.673	105.31
348.9	95.31
349.128	95.31
349.355	97.31
349.583	111.31
349.81	83.31
350.037	105.31
350.265	105.31
350.492	99.31
350.72	80.31
350.947	107.31
351.174	111.31
351.402	143.31
351.629	117.31
351.856	125.31
352.083	105.31
352.311	117.31
352.538	124.31
352.765	106.31
352.992	123.31
353.22	126.31
353.447	124.31
353.674	116.31
353.901	104.31
354.128	95.31
354.355	100.31
354.583	103.31
354.81	102.31
355.037	91.31
355.264	98.31
355.491	91.31
355.718	101.31
355.945	97.31
356.172	101.31
356.399	93.31
356.626	87.31
356.853	82.31
357.08	99.31
357.307	103.31
357.534	94.31
357.761	89.31
357.988	87.31
358.215	98.31
358.441	94.31
358.668	93.31
358.895	69.31
359.122	91.31
359.349	101.31
359.576	103.31
359.802	120.31
360.029	162.31
360.256	141.31
360.483	123.31
360.709	86.31
360.936	92.31
361.163	95.31
361.39	109.31
361.616	99.31
361.843	104.31
362.07	124.31
362.296	107.31
362.523	93.31
362.749	98.31
362.976	101.31
363.203	90.31
363.429	99.31
363.656	107.31
363.882	95.31
364.109	104.31
364.335	94.31
364.562	87.31
364.788	91.31
365.015	98.31
365.241	110.31
365.468	144.31
365.694	144.31
365.92	118.31
366.147	104.31
366.373	88.31
366.599	105.31
366.826	94.31
367.052	96.31
367.278	117.31
367.505	106.31
367.731	108.31
367.957	121.31
368.184	104.31
368.41	122.31
368.636	121.31
368.862	140.31
369.089	121.31
369.315	117.31
369.541	97.31
369.767	102.31
369.993	98.31
370.219	105.31
370.445	101.31
370.672	83.31
370.898	85.31
371.124	95.31
371.35	99.31
371.576	98.31
371.802	83.31
372.028	90.31
372.254	93.31
372.48	97.31
372.706	91.31
372.932	85.31
373.158	89.31
373.384	103.31
373.61	99.31
373.835	99.31
374.061	105.31
374.287	104.31
374.513	99.31
374.739	75.31
374.965	98.31
375.191	92.31
375.416	104.31
375.642	93.31
375.868	86.31
376.094	103.31
376.319	92.31
376.545	81.31
376.771	94.31
376.997	79.31
377.222	96.31
377.448	93.31
377.674	98.31
377.899	99.31
378.125	89.31
378.35	78.31
378.576	101.31
378.802	95.31
379.027	83.31
379.253	104.31
379.478	88.31
379.704	88.31
379.929	93.31
380.155	102.31
380.38	106.31
380.606	89.31
380.831	98.31
381.057	95.31
381.282	96.31
381.507	110.31
381.733	97.31
381.958	101.31
382.184	93.31
382.409	109.31
382.634	100.31
382.86	103.31
383.085	104.31
383.31	102.31
383.535	108.31
383.761	93.31
383.986	95.31
384.211	99.31
384.436	85.31
384.662	91.31
384.887	99.31
385.112	97.31
385.337	103.31
385.562	96.31
385.787	98.31
386.013	108.31
386.238	119.31
386.463	123.31
386.688	108.31
386.913	109.31
387.138	91.31
387.363	98.31
387.588	91.31
387.813	103.31
388.038	103.31
388.263	104.31
388.488	104.31
388.713	78.31
388.938	111.31
389.163	107.31
389.387	85.31
389.612	106.31
389.837	96.31
390.062	89.31
390.287	97.31
390.512	99.31
390.736	81.31
390.961	91.31
391.186	82.31
391.411	102.31
391.636	81.31
391.86	74.31
392.085	85.31
392.31	83.31
392.534	95.31
392.759	88.31
392.984	90.31
393.208	98.31
393.433	92.31
393.658	93.31
393.882	98.31
394.107	87.31
394.331	79.31
394.556	106.31
394.78	98.31
395.005	101.31
395.229	77.31
395.454	88.31
395.678	77.31
395.903	94.31
396.127	94.31
396.352	75.31
396.576	91.31
396.801	91.31
397.025	103.31
397.249	89.31
397.474	88.31
397.698	87.31
397.922	85.31
398.147	96.31
398.371	86.31
398.595	91.31
398.82	76.31
399.044	78.31
399.268	87.31
399.492	96.31
399.717	87.31
399.941	112.31
400.165	105.31
400.389	91.31
400.613	95.31
400.837	95.31
401.062	96.31
401.286	81.31
401.51	104.31
401.734	105.31
401.958	124.31
402.182	172.31
402.406	247.31
402.63	176.31
402.854	105.31
403.078	105.31
403.302	97.31
403.526	95.31
403.75	98.31
403.974	107.31
404.198	89.31
404.422	82.31
404.645	110.31
404.869	92.31
405.093	121.31
405.317	135.31
405.541	128.31
405.765	146.31
405.988	163.31
406.212	268.31
406.436	426.31
406.66	245.31
406.883	127.31
407.107	101.31
407.331	105.31
407.555	119.31
407.778	114.31
408.002	87.31
408.226	98.31
408.449	96.31
408.673	103.31
408.896	115.31
409.12	96.31
409.344	98.31
409.567	85.31
409.791	77.31
410.014	92.31
410.238	86.31
410.461	103.31
410.685	106.31
410.908	91.31
411.132	99.31
411.355	103.31
411.578	81.31
411.802	81.31
412.025	91.31
412.249	94.31
412.472	126.31
412.695	130.31
412.919	113.31
413.142	96.31
413.365	100.31
413.589	93.31
413.812	99.31
414.035	94.31
414.258	87.31
414.482	112.31
414.705	90.31
414.928	93.31
415.151	85.31
415.374	91.31
415.597	81.31
415.821	97.31
416.044	94.31
416.267	89.31
416.49	101.31
416.713	85.31
416.936	88.31
417.159	84.31
417.382	89.31
417.605	113.31
417.828	120.31
418.051	117.31
418.274	106.31
418.497	95.31
418.72	91.31
418.943	101.31
419.166	88.31
419.389	76.31
419.611	77.31
419.834	83.31
420.057	100.31
420.28	108.31
420.503	81.31
420.726	83.31
420.948	102.31
421.171	114.31
421.394	90.31
421.617	103.31
421.839	98.31
422.062	90.31
422.285	92.31
422.507	103.31
422.73	99.31
422.953	85.31
423.175	75.31
423.398	84.31
423.621	81.31
423.843	85.31
424.066	77.31
424.288	105.31
424.511	89.31
424.733	98.31
424.956	130.31
425.178	121.31
425.401	109.31
425.623	112.31
425.846	104.31
426.068	115.31
426.291	98.31
426.513	87.31
426.735	96.31
426.958	116.31
427.18	129.31
427.402	186.31
427.625	271.31
427.847	237.31
428.069	197.31
428.292	131.31
428.514	98.31
428.736	86.31
428.958	97.31
429.181	109.31
429.403	88.31
429.625	97.31
429.847	112.31
430.069	107.31
430.292	91.31
430.514	102.31
430.736	85.31
430.958	89.31
431.18	89.31
431.402	88.31
431.624	92.31
431.846	105.31
432.068	89.31
432.29	87.31
432.512	94.31
432.734	106.31
432.956	82.31
433.178	93.31
433.4	103.31
433.622	103.31
433.844	104.31
434.066	103.31
434.287	109.31
434.509	98.31
434.731	86.31
434.953	103.31
435.175	83.31
435.397	101.31
435.618	100.31
435.84	99.31
436.062	135.31
436.284	133.31
436.505	103.31
436.727	101.31
436.949	77.31
437.17	85.31
437.392	91.31
437.614	99.31
437.835	138.31
438.057	159.31
438.278	145.31
438.5	126.31
438.721	125.31
438.943	106.31
439.165	96.31
439.386	87.31
439.608	103.31
439.829	119.31
440.05	151.31
440.272	173.31
440.493	109.31
440.715	85.31
440.936	80.31
441.158	77.31
441.379	92.31
441.6	101.31
441.822	109.31
442.043	103.31
442.264	117.31
442.486	112.31
442.707	103.31
442.928	134.31
443.149	175.31
443.371	171.31
443.592	123.31
443.813	129.31
444.034	123.31
444.255	95.31
444.476	88.31
444.698	99.31
444.919	91.31
445.14	131.31
445.361	139.31
445.582	125.31
445.803	165.31
446.024	173.31
446.245	163.31
446.466	134.31
446.687	86.31
446.908	73.31
447.129	91.31
447.35	97.31
447.571	106.31
447.792	99.31
448.013	119.31
448.234	138.31
448.455	112.31
448.675	115.31
448.896	134.31
449.117	100.31
449.338	101.31
449.559	134.31
449.779	128.31
450	102.31
450.221	104.31
450.442	92.31
450.662	106.31
450.883	151.31
451.104	136.31
451.324	96.31
451.545	95.31
451.766	89.31
451.986	81.31
452.207	102.31
452.428	99.31
452.648	127.31
452.869	131.31
453.089	142.31
453.31	176.31
453.53	112.31
453.751	113.31
453.971	127.31
454.192	157.31
454.412	102.31
454.633	97.31
454.853	76.31
455.073	82.31
455.294	93.31
455.514	114.31
455.734	86.31
455.955	94.31
456.175	88.31
456.395	81.31
456.616	91.31
456.836	78.31
457.056	80.31
457.276	77.31
457.497	94.31
457.717	81.31
457.937	102.31
458.157	94.31
458.377	94.31
458.598	134.31
458.818	230.31
459.038	246.31
459.258	150.31
459.478	106.31
459.698	89.31
459.918	77.31
460.138	81.31
460.358	87.31
460.578	81.31
460.798	98.31
461.018	102.31
461.238	89.31
461.458	86.31
461.678	97.31
461.898	101.31
462.118	98.31
462.338	84.31
462.558	87.31
462.777	94.31
462.997	96.31
463.217	120.31
463.437	94.31
463.657	86.31
463.876	80.31
464.096	91.31
464.316	108.31
464.536	97.31
464.755	110.31
464.975	137.31
465.195	289.31
465.414	283.31
465.634	117.31
465.854	85.31
466.073	80.31
466.293	104.31
466.512	99.31
466.732	102.31
466.951	92.31
467.171	107.31
467.391	120.31
467.61	169.31
467.829	256.31
468.049	790.31
468.268	1179.31
468.488	285.31
468.707	129.31
468.927	107.31
469.146	115.31
469.365	90.31
469.585	103.31
469.804	113.31
470.023	111.31
470.243	123.31
470.462	135.31
470.681	183.31
470.901	130.31
471.12	113.31
471.339	120.31
471.558	126.31
471.777	173.31
471.997	372.31
472.216	1463.31
472.435	3455.31
472.654	768.31
472.873	193.31
473.092	121.31
473.311	97.31
473.53	100.31
473.749	120.31
473.968	111.31
474.187	114.31
474.406	104.31
474.625	103.31
474.844	109.31
475.063	96.31
475.282	106.31
475.501	82.31
475.72	89.31
475.939	87.31
476.158	96.31
476.377	107.31
476.596	99.31
476.814	114.31
477.033	121.31
477.252	94.31
477.471	93.31
477.69	85.31
477.908	90.31
478.127	106.31
478.346	98.31
478.564	107.31
478.783	136.31
479.002	119.31
479.22	117.31
479.439	131.31
479.658	152.31
479.876	138.31
480.095	108.31
480.313	163.31
480.532	187.31
480.751	355.31
480.969	1357.31
481.188	5846.31
481.406	3239.31
481.624	443.31
481.843	159.31
482.061	115.31
482.28	103.31
482.498	101.31
482.717	89.31
482.935	82.31
483.153	98.31
483.372	109.31
483.59	97.31
483.808	79.31
484.027	89.31
484.245	114.31
484.463	101.31
484.681	100.31
484.9	110.31
485.118	101.31
485.336	97.31
485.554	94.31
485.772	125.31
485.99	110.31
486.209	133.31
486.427	109.31
486.645	123.31
486.863	161.31
487.081	123.31
487.299	82.31
487.517	96.31
487.735	116.31
487.953	93.31
488.171	101.31
488.389	107.31
488.607	110.31
488.825	96.31
489.043	86.31
489.261	91.31
489.479	101.31
489.696	92.31
489.914	97.31
490.132	95.31
490.35	92.31
490.568	95.31
490.786	101.31
491.003	84.31
491.221	99.31
491.439	91.31
491.657	110.31
491.874	103.31
492.092	102.31
492.31	97.31
492.527	103.31
492.745	94.31
492.963	91.31
493.18	106.31
493.398	94.31
493.615	87.31
493.833	94.31
494.05	92.31
494.268	81.31
494.485	81.31
494.703	86.31
494.92	87.31
495.138	107.31
495.355	96.31
495.573	99.31
495.79	95.31
496.008	99.31
496.225	103.31
496.442	93.31
496.66	108.31
496.877	89.31
497.094	90.31
497.312	98.31
497.529	79.31
497.746	98.31
497.963	90.31
498.181	90.31
498.398	118.31
498.615	117.31
498.832	108.31
499.049	95.31
499.267	85.31
499.484	97.31
499.701	97.31
499.918	90.31
500.135	89.31
500.352	96.31
500.569	103.31
500.786	111.31
501.003	107.31
501.22	92.31
501.437	92.31
501.654	101.31
501.871	143.31
502.088	106.31
502.305	92.31
502.522	97.31
502.739	96.31
502.956	89.31
503.172	81.31
503.389	115.31
503.606	128.31
503.823	105.31
504.04	98.31
504.256	94.31
504.473	81.31
504.69	87.31
504.907	97.31
505.123	85.31
505.34	95.31
505.557	95.31
505.773	91.31
505.99	92.31
506.207	94.31
506.423	90.31
506.64	92.31
506.856	107.31
507.073	93.31
507.289	111.31
507.506	115.31
507.722	142.31
507.939	165.31
508.155	101.31
508.372	92.31
508.588	107.31
508.805	114.31
509.021	105.31
509.238	102.31
509.454	94.31
509.67	110.31
509.887	123.31
510.103	174.31
510.319	315.31
510.536	1281.31
510.752	4749.31
510.968	1210.31
511.184	217.31
511.401	141.31
511.617	109.31
