Data from Circ_1999_H10_HRD10591_00096.txt Node
Date: Wed Jan 03 11:23:31 EST 2024
User: Yrep
Spectrometer: HR+D1059
Trigger mode: 1
Integration Time (sec): 1.000000E-1
Scans to average: 1
Electric dark correction enabled: true
Nonlinearity correction enabled: false
Boxcar width: 0
XAxis mode: Wavelengths
Number of Pixels in Spectrum: 2048
>>>>>Begin Spectral Data<<<<<
223.165	-13.75
223.4	-13.75
223.635	-13.75
223.869	-25.75
224.104	-31.75
224.338	-16.75
224.573	-17.75
224.808	-12.75
225.042	-2.75
225.277	-7.75
225.511	-0.75
225.746	17.25
225.98	5.25
226.215	17.25
226.449	22.25
226.683	23.25
226.918	13.25
227.152	31.25
227.387	34.25
227.621	32.25
227.856	54.25
228.09	52.25
228.324	63.25
228.559	64.25
228.793	57.25
229.027	59.25
229.262	87.25
229.496	84.25
229.73	109.25
229.964	97.25
230.199	81.25
230.433	70.25
230.667	81.25
230.901	90.25
231.136	87.25
231.37	90.25
231.604	88.25
231.838	76.25
232.072	89.25
232.306	83.25
232.541	94.25
232.775	81.25
233.009	73.25
233.243	81.25
233.477	83.25
233.711	97.25
233.945	81.25
234.179	80.25
234.413	87.25
234.647	95.25
234.881	82.25
235.115	83.25
235.349	97.25
235.583	79.25
235.817	87.25
236.051	71.25
236.285	85.25
236.519	96.25
236.753	77.25
236.987	81.25
237.221	99.25
237.455	89.25
237.689	88.25
237.922	85.25
238.156	74.25
238.39	81.25
238.624	63.25
238.858	90.25
239.091	65.25
239.325	89.25
239.559	87.25
239.793	87.25
240.027	86.25
240.26	82.25
240.494	80.25
240.728	75.25
240.961	87.25
241.195	88.25
241.429	86.25
241.662	77.25
241.896	75.25
242.13	73.25
242.363	79.25
242.597	83.25
242.83	73.25
243.064	87.25
243.298	92.25
243.531	83.25
243.765	77.25
243.998	84.25
244.232	83.25
244.465	95.25
244.699	97.25
244.932	93.25
245.166	85.25
245.399	76.25
245.633	76.25
245.866	81.25
246.099	66.25
246.333	75.25
246.566	78.25
246.8	92.25
247.033	88.25
247.266	69.25
247.5	79.25
247.733	91.25
247.966	85.25
248.2	74.25
248.433	88.25
248.666	82.25
248.899	98.25
249.133	95.25
249.366	110.25
249.599	108.25
249.832	88.25
250.066	83.25
250.299	82.25
250.532	98.25
250.765	74.25
250.998	85.25
251.231	87.25
251.465	90.25
251.698	95.25
251.931	102.25
252.164	103.25
252.397	77.25
252.63	83.25
252.863	79.25
253.096	93.25
253.329	86.25
253.562	85.25
253.795	86.25
254.028	88.25
254.261	77.25
254.494	74.25
254.727	73.25
254.96	80.25
255.193	96.25
255.426	82.25
255.659	78.25
255.892	104.25
256.124	109.25
256.357	86.25
256.59	101.25
256.823	94.25
257.056	88.25
257.289	104.25
257.521	90.25
257.754	100.25
257.987	96.25
258.22	110.25
258.452	119.25
258.685	117.25
258.918	89.25
259.151	89.25
259.383	101.25
259.616	90.25
259.849	82.25
260.081	82.25
260.314	98.25
260.547	117.25
260.779	110.25
261.012	134.25
261.244	120.25
261.477	101.25
261.71	101.25
261.942	163.25
262.175	183.25
262.407	111.25
262.64	86.25
262.872	86.25
263.105	88.25
263.337	90.25
263.57	79.25
263.802	76.25
264.035	86.25
264.267	87.25
264.499	90.25
264.732	91.25
264.964	72.25
265.197	82.25
265.429	89.25
265.661	96.25
265.894	85.25
266.126	90.25
266.358	82.25
266.591	88.25
266.823	85.25
267.055	88.25
267.287	95.25
267.52	89.25
267.752	91.25
267.984	103.25
268.216	80.25
268.448	103.25
268.681	91.25
268.913	85.25
269.145	85.25
269.377	99.25
269.609	75.25
269.841	97.25
270.073	85.25
270.306	86.25
270.538	88.25
270.77	101.25
271.002	96.25
271.234	91.25
271.466	94.25
271.698	108.25
271.93	87.25
272.162	94.25
272.394	98.25
272.626	90.25
272.858	83.25
273.09	85.25
273.322	77.25
273.553	96.25
273.785	96.25
274.017	87.25
274.249	90.25
274.481	83.25
274.713	87.25
274.945	99.25
275.176	105.25
275.408	116.25
275.64	142.25
275.872	147.25
276.104	130.25
276.335	121.25
276.567	138.25
276.799	185.25
277.031	249.25
277.262	293.25
277.494	206.25
277.726	117.25
277.957	97.25
278.189	83.25
278.421	93.25
278.652	82.25
278.884	90.25
279.115	91.25
279.347	91.25
279.579	134.25
279.81	159.25
280.042	257.25
280.273	372.25
280.505	239.25
280.736	129.25
280.968	101.25
281.199	96.25
281.431	92.25
281.662	101.25
281.894	102.25
282.125	120.25
282.356	173.25
282.588	233.25
282.819	149.25
283.051	101.25
283.282	96.25
283.513	101.25
283.745	85.25
283.976	105.25
284.207	94.25
284.439	91.25
284.67	101.25
284.901	99.25
285.132	97.25
285.364	87.25
285.595	85.25
285.826	81.25
286.057	86.25
286.288	88.25
286.52	102.25
286.751	97.25
286.982	91.25
287.213	76.25
287.444	100.25
287.675	92.25
287.906	81.25
288.138	103.25
288.369	101.25
288.6	91.25
288.831	96.25
289.062	97.25
289.293	89.25
289.524	84.25
289.755	90.25
289.986	103.25
290.217	85.25
290.448	87.25
290.679	92.25
290.91	98.25
291.141	96.25
291.371	93.25
291.602	86.25
291.833	81.25
292.064	78.25
292.295	101.25
292.526	94.25
292.757	92.25
292.987	98.25
293.218	97.25
293.449	99.25
293.68	94.25
293.91	88.25
294.141	92.25
294.372	102.25
294.603	99.25
294.833	76.25
295.064	81.25
295.295	95.25
295.525	89.25
295.756	124.25
295.987	153.25
296.217	215.25
296.448	171.25
296.679	97.25
296.909	83.25
297.14	79.25
297.37	97.25
297.601	94.25
297.831	102.25
298.062	103.25
298.292	94.25
298.523	94.25
298.753	85.25
298.984	84.25
299.214	115.25
299.445	93.25
299.675	112.25
299.905	101.25
300.136	103.25
300.366	104.25
300.597	100.25
300.827	95.25
301.057	125.25
301.288	126.25
301.518	107.25
301.748	119.25
301.979	134.25
302.209	107.25
302.439	107.25
302.669	106.25
302.9	87.25
303.13	112.25
303.36	130.25
303.59	166.25
303.82	179.25
304.051	122.25
304.281	90.25
304.511	94.25
304.741	99.25
304.971	91.25
305.201	99.25
305.431	90.25
305.661	103.25
305.891	94.25
306.121	107.25
306.352	111.25
306.582	143.25
306.812	115.25
307.042	175.25
307.272	209.25
307.502	240.25
307.731	222.25
307.961	165.25
308.191	116.25
308.421	96.25
308.651	98.25
308.881	97.25
309.111	84.25
309.341	112.25
309.571	113.25
309.8	101.25
310.03	115.25
310.26	124.25
310.49	110.25
310.72	117.25
310.949	133.25
311.179	126.25
311.409	107.25
311.639	105.25
311.868	113.25
312.098	116.25
312.328	97.25
312.557	133.25
312.787	145.25
313.017	115.25
313.246	113.25
313.476	96.25
313.706	98.25
313.935	113.25
314.165	117.25
314.394	123.25
314.624	117.25
314.853	119.25
315.083	114.25
315.312	89.25
315.542	104.25
315.771	83.25
316.001	101.25
316.23	100.25
316.46	94.25
316.689	106.25
316.919	114.25
317.148	121.25
317.377	99.25
317.607	102.25
317.836	101.25
318.065	95.25
318.295	108.25
318.524	106.25
318.753	99.25
318.983	103.25
319.212	114.25
319.441	141.25
319.67	141.25
319.9	98.25
320.129	94.25
320.358	87.25
320.587	116.25
320.816	104.25
321.046	127.25
321.275	104.25
321.504	109.25
321.733	113.25
321.962	115.25
322.191	112.25
322.42	118.25
322.649	137.25
322.878	148.25
323.108	158.25
323.337	150.25
323.566	178.25
323.795	188.25
324.024	283.25
324.253	535.25
324.482	1127.25
324.71	2324.25
324.939	3019.25
325.168	1151.25
325.397	335.25
325.626	192.25
325.855	161.25
326.084	153.25
326.313	152.25
326.542	189.25
326.77	288.25
326.999	560.25
327.228	1122.25
327.457	2050.25
327.686	1721.25
327.914	701.25
328.143	830.25
328.372	1095.25
328.6	563.25
328.829	240.25
329.058	255.25
329.287	263.25
329.515	224.25
329.744	365.25
329.972	739.25
330.201	1623.25
330.43	2361.25
330.658	993.25
330.887	411.25
331.115	271.25
331.344	162.25
331.572	144.25
331.801	141.25
332.03	146.25
332.258	139.25
332.486	120.25
332.715	131.25
332.943	139.25
333.172	124.25
333.4	162.25
333.629	213.25
333.857	339.25
334.085	643.25
334.314	1415.25
334.542	2890.25
334.771	2638.25
334.999	654.25
335.227	215.25
335.455	159.25
335.684	133.25
335.912	118.25
336.14	111.25
336.369	121.25
336.597	128.25
336.825	122.25
337.053	90.25
337.281	114.25
337.51	99.25
337.738	100.25
337.966	108.25
338.194	109.25
338.422	108.25
338.65	117.25
338.878	97.25
339.106	106.25
339.334	88.25
339.562	95.25
339.79	101.25
340.018	103.25
340.246	99.25
340.474	99.25
340.702	107.25
340.93	93.25
341.158	101.25
341.386	107.25
341.614	125.25
341.842	109.25
342.07	98.25
342.298	107.25
342.526	84.25
342.754	95.25
342.981	102.25
343.209	95.25
343.437	105.25
343.665	104.25
343.893	100.25
344.12	101.25
344.348	96.25
344.576	97.25
344.804	106.25
345.031	121.25
345.259	115.25
345.487	131.25
345.714	121.25
345.942	98.25
346.17	101.25
346.397	96.25
346.625	117.25
346.853	99.25
347.08	95.25
347.308	109.25
347.535	135.25
347.763	133.25
347.99	125.25
348.218	115.25
348.445	136.25
348.673	139.25
348.9	98.25
349.128	102.25
349.355	98.25
349.583	99.25
349.81	108.25
350.037	112.25
350.265	104.25
350.492	117.25
350.72	114.25
350.947	113.25
351.174	130.25
351.402	137.25
351.629	128.25
351.856	116.25
352.083	119.25
352.311	119.25
352.538	149.25
352.765	130.25
352.992	133.25
353.22	147.25
353.447	118.25
353.674	108.25
353.901	99.25
354.128	92.25
354.355	80.25
354.583	108.25
354.81	105.25
355.037	107.25
355.264	95.25
355.491	99.25
355.718	96.25
355.945	94.25
356.172	94.25
356.399	107.25
356.626	88.25
356.853	88.25
357.08	90.25
357.307	100.25
357.534	89.25
357.761	92.25
357.988	99.25
358.215	102.25
358.441	103.25
358.668	84.25
358.895	96.25
359.122	97.25
359.349	99.25
359.576	111.25
359.802	136.25
360.029	163.25
360.256	172.25
360.483	125.25
360.709	99.25
360.936	105.25
361.163	111.25
361.39	131.25
361.616	111.25
361.843	85.25
362.07	109.25
362.296	120.25
362.523	107.25
362.749	114.25
362.976	86.25
363.203	97.25
363.429	88.25
363.656	98.25
363.882	92.25
364.109	106.25
364.335	105.25
364.562	101.25
364.788	111.25
365.015	95.25
365.241	112.25
365.468	136.25
365.694	136.25
365.92	97.25
366.147	100.25
366.373	105.25
366.599	87.25
366.826	94.25
367.052	89.25
367.278	92.25
367.505	108.25
367.731	98.25
367.957	102.25
368.184	106.25
368.41	116.25
368.636	139.25
368.862	149.25
369.089	149.25
369.315	110.25
369.541	99.25
369.767	96.25
369.993	95.25
370.219	106.25
370.445	88.25
370.672	97.25
370.898	73.25
371.124	95.25
371.35	90.25
371.576	93.25
371.802	76.25
372.028	84.25
372.254	79.25
372.48	91.25
372.706	85.25
372.932	79.25
373.158	89.25
373.384	104.25
373.61	86.25
373.835	90.25
374.061	113.25
374.287	87.25
374.513	102.25
374.739	99.25
374.965	80.25
375.191	89.25
375.416	91.25
375.642	106.25
375.868	91.25
376.094	89.25
376.319	87.25
376.545	104.25
376.771	77.25
376.997	84.25
377.222	109.25
377.448	99.25
377.674	79.25
377.899	92.25
378.125	81.25
378.35	87.25
378.576	93.25
378.802	104.25
379.027	94.25
379.253	89.25
379.478	99.25
379.704	88.25
379.929	101.25
380.155	99.25
380.38	90.25
380.606	105.25
380.831	77.25
381.057	89.25
381.282	94.25
381.507	109.25
381.733	92.25
381.958	94.25
382.184	95.25
382.409	98.25
382.634	114.25
382.86	104.25
383.085	93.25
383.31	78.25
383.535	95.25
383.761	114.25
383.986	89.25
384.211	99.25
384.436	89.25
384.662	95.25
384.887	98.25
385.112	94.25
385.337	96.25
385.562	93.25
385.787	110.25
386.013	113.25
386.238	129.25
386.463	120.25
386.688	105.25
386.913	94.25
387.138	97.25
387.363	100.25
387.588	97.25
387.813	106.25
388.038	85.25
388.263	102.25
388.488	114.25
388.713	104.25
388.938	90.25
389.163	87.25
389.387	89.25
389.612	89.25
389.837	103.25
390.062	104.25
390.287	88.25
390.512	70.25
390.736	85.25
390.961	93.25
391.186	81.25
391.411	92.25
391.636	87.25
391.86	91.25
392.085	96.25
392.31	92.25
392.534	105.25
392.759	95.25
392.984	79.25
393.208	85.25
393.433	100.25
393.658	96.25
393.882	78.25
394.107	87.25
394.331	82.25
394.556	75.25
394.78	90.25
395.005	91.25
395.229	84.25
395.454	90.25
395.678	79.25
395.903	78.25
396.127	89.25
396.352	85.25
396.576	91.25
396.801	90.25
397.025	92.25
397.249	96.25
397.474	81.25
397.698	86.25
397.922	87.25
398.147	71.25
398.371	90.25
398.595	85.25
398.82	87.25
399.044	78.25
399.268	94.25
399.492	90.25
399.717	78.25
399.941	88.25
400.165	98.25
400.389	98.25
400.613	106.25
400.837	93.25
401.062	78.25
401.286	95.25
401.51	82.25
401.734	110.25
401.958	130.25
402.182	191.25
402.406	278.25
402.63	207.25
402.854	123.25
403.078	99.25
403.302	81.25
403.526	93.25
403.75	86.25
403.974	92.25
404.198	77.25
404.422	101.25
404.645	91.25
404.869	105.25
405.093	120.25
405.317	160.25
405.541	169.25
405.765	148.25
405.988	154.25
406.212	297.25
406.436	462.25
406.66	279.25
406.883	166.25
407.107	105.25
407.331	105.25
407.555	137.25
407.778	117.25
408.002	99.25
408.226	106.25
408.449	95.25
408.673	116.25
408.896	94.25
409.12	85.25
409.344	85.25
409.567	99.25
409.791	82.25
410.014	85.25
410.238	95.25
410.461	99.25
410.685	95.25
410.908	102.25
411.132	97.25
411.355	117.25
411.578	90.25
411.802	99.25
412.025	95.25
412.249	92.25
412.472	119.25
412.695	132.25
412.919	119.25
413.142	104.25
413.365	89.25
413.589	84.25
413.812	78.25
414.035	101.25
414.258	96.25
414.482	104.25
414.705	102.25
414.928	91.25
415.151	87.25
415.374	105.25
415.597	90.25
415.821	91.25
416.044	86.25
416.267	89.25
416.49	85.25
416.713	99.25
416.936	87.25
417.159	105.25
417.382	98.25
417.605	123.25
417.828	133.25
418.051	111.25
418.274	90.25
418.497	88.25
418.72	91.25
418.943	87.25
419.166	100.25
419.389	85.25
419.611	105.25
419.834	108.25
420.057	97.25
420.28	108.25
420.503	104.25
420.726	111.25
420.948	97.25
421.171	108.25
421.394	108.25
421.617	99.25
421.839	83.25
422.062	90.25
422.285	106.25
422.507	114.25
422.73	125.25
422.953	108.25
423.175	104.25
423.398	78.25
423.621	93.25
423.843	101.25
424.066	104.25
424.288	86.25
424.511	99.25
424.733	108.25
424.956	137.25
425.178	128.25
425.401	101.25
425.623	112.25
425.846	102.25
426.068	107.25
426.291	98.25
426.513	92.25
426.735	88.25
426.958	102.25
427.18	123.25
427.402	188.25
427.625	330.25
427.847	281.25
428.069	229.25
428.292	130.25
428.514	103.25
428.736	94.25
428.958	85.25
429.181	95.25
429.403	97.25
429.625	109.25
429.847	102.25
430.069	118.25
430.292	95.25
430.514	108.25
430.736	89.25
430.958	73.25
431.18	94.25
431.402	93.25
431.624	96.25
431.846	90.25
432.068	91.25
432.29	95.25
432.512	85.25
432.734	108.25
432.956	96.25
433.178	108.25
433.4	123.25
433.622	103.25
433.844	83.25
434.066	97.25
434.287	88.25
434.509	98.25
434.731	104.25
434.953	97.25
435.175	91.25
435.397	89.25
435.618	82.25
435.84	115.25
436.062	135.25
436.284	137.25
436.505	95.25
436.727	102.25
436.949	103.25
437.17	98.25
437.392	98.25
437.614	109.25
437.835	145.25
438.057	180.25
438.278	149.25
438.5	113.25
438.721	135.25
438.943	114.25
439.165	79.25
439.386	91.25
439.608	99.25
439.829	117.25
440.05	153.25
440.272	179.25
440.493	118.25
440.715	87.25
440.936	98.25
441.158	103.25
441.379	102.25
441.6	120.25
441.822	117.25
442.043	118.25
442.264	119.25
442.486	114.25
442.707	106.25
442.928	134.25
443.149	213.25
443.371	211.25
443.592	163.25
443.813	154.25
444.034	119.25
444.255	99.25
444.476	90.25
444.698	98.25
444.919	106.25
445.14	155.25
445.361	130.25
445.582	157.25
445.803	197.25
446.024	191.25
446.245	167.25
446.466	130.25
446.687	103.25
446.908	102.25
447.129	91.25
447.35	98.25
447.571	103.25
447.792	104.25
448.013	118.25
448.234	135.25
448.455	127.25
448.675	155.25
448.896	138.25
449.117	109.25
449.338	104.25
449.559	140.25
449.779	156.25
450	123.25
450.221	110.25
450.442	94.25
450.662	126.25
450.883	182.25
451.104	184.25
451.324	115.25
451.545	106.25
451.766	107.25
451.986	101.25
452.207	101.25
452.428	82.25
452.648	111.25
452.869	153.25
453.089	174.25
453.31	180.25
453.53	114.25
453.751	103.25
453.971	138.25
454.192	162.25
454.412	124.25
454.633	104.25
454.853	98.25
455.073	103.25
455.294	105.25
455.514	107.25
455.734	114.25
455.955	93.25
456.175	86.25
456.395	100.25
456.616	86.25
456.836	88.25
457.056	98.25
457.276	92.25
457.497	95.25
457.717	74.25
457.937	99.25
458.157	92.25
458.377	115.25
458.598	165.25
458.818	264.25
459.038	288.25
459.258	202.25
459.478	113.25
459.698	81.25
459.918	92.25
460.138	93.25
460.358	77.25
460.578	76.25
460.798	98.25
461.018	117.25
461.238	90.25
461.458	93.25
461.678	75.25
461.898	80.25
462.118	87.25
462.338	97.25
462.558	98.25
462.777	94.25
462.997	113.25
463.217	140.25
463.437	113.25
463.657	107.25
463.876	101.25
464.096	87.25
464.316	101.25
464.536	115.25
464.755	118.25
464.975	153.25
465.195	342.25
465.414	315.25
465.634	135.25
465.854	105.25
466.073	96.25
466.293	91.25
466.512	82.25
466.732	103.25
466.951	106.25
467.171	107.25
467.391	131.25
467.61	204.25
467.829	326.25
468.049	1008.25
468.268	1500.25
468.488	331.25
468.707	125.25
468.927	114.25
469.146	101.25
469.365	100.25
469.585	105.25
469.804	120.25
470.023	138.25
470.243	115.25
470.462	152.25
470.681	177.25
470.901	114.25
471.12	109.25
471.339	137.25
471.558	135.25
471.777	202.25
471.997	495.25
472.216	1904.25
472.435	4394.25
472.654	927.25
472.873	210.25
473.092	135.25
473.311	111.25
473.53	105.25
473.749	110.25
473.968	107.25
474.187	146.25
474.406	121.25
474.625	100.25
474.844	88.25
475.063	96.25
475.282	99.25
475.501	90.25
475.72	105.25
475.939	109.25
476.158	94.25
476.377	95.25
476.596	111.25
476.814	120.25
477.033	125.25
477.252	102.25
477.471	99.25
477.69	89.25
477.908	92.25
478.127	102.25
478.346	124.25
478.564	102.25
478.783	141.25
479.002	130.25
479.22	114.25
479.439	164.25
479.658	176.25
479.876	142.25
480.095	147.25
480.313	176.25
480.532	225.25
480.751	427.25
480.969	1681.25
481.188	7367.25
481.406	4075.25
481.624	543.25
481.843	163.25
482.061	111.25
482.28	111.25
482.498	108.25
482.717	103.25
482.935	98.25
483.153	91.25
483.372	84.25
483.59	92.25
483.808	95.25
484.027	117.25
484.245	113.25
484.463	108.25
484.681	102.25
484.9	89.25
485.118	97.25
485.336	101.25
485.554	114.25
485.772	109.25
485.99	120.25
486.209	110.25
486.427	126.25
486.645	142.25
486.863	155.25
487.081	120.25
487.299	101.25
487.517	112.25
487.735	105.25
487.953	109.25
488.171	101.25
488.389	97.25
488.607	111.25
488.825	104.25
489.043	105.25
489.261	90.25
489.479	82.25
489.696	90.25
489.914	99.25
490.132	83.25
490.35	88.25
490.568	103.25
490.786	97.25
491.003	93.25
491.221	106.25
491.439	120.25
491.657	104.25
491.874	105.25
492.092	90.25
492.31	97.25
492.527	108.25
492.745	103.25
492.963	110.25
493.18	110.25
493.398	107.25
493.615	95.25
493.833	88.25
494.05	104.25
494.268	83.25
494.485	87.25
494.703	94.25
494.92	92.25
495.138	92.25
495.355	108.25
495.573	100.25
495.79	83.25
496.008	89.25
496.225	97.25
496.442	89.25
496.66	87.25
496.877	90.25
497.094	93.25
497.312	103.25
497.529	120.25
497.746	98.25
497.963	95.25
498.181	117.25
498.398	102.25
498.615	123.25
498.832	121.25
499.049	111.25
499.267	83.25
499.484	88.25
499.701	91.25
499.918	105.25
500.135	100.25
500.352	99.25
500.569	113.25
500.786	111.25
501.003	112.25
501.22	100.25
501.437	98.25
501.654	105.25
501.871	151.25
502.088	102.25
502.305	98.25
502.522	105.25
502.739	88.25
502.956	94.25
503.172	102.25
503.389	122.25
503.606	136.25
503.823	118.25
504.04	113.25
504.256	101.25
504.473	95.25
504.69	88.25
504.907	119.25
505.123	106.25
505.34	88.25
505.557	94.25
505.773	97.25
505.99	99.25
506.207	97.25
506.423	108.25
506.64	93.25
506.856	104.25
507.073	93.25
507.289	107.25
507.506	107.25
507.722	166.25
507.939	175.25
508.155	110.25
508.372	98.25
508.588	92.25
508.805	115.25
509.021	103.25
509.238	110.25
509.454	126.25
509.67	118.25
509.887	122.25
510.103	184.25
510.319	328.25
510.536	1434.25
