Data from Circ_1999_H10_HRD10591_00087.txt Node
Date: Wed Jan 03 11:23:30 EST 2024
User: Yrep
Spectrometer: HR+D1059
Trigger mode: 1
Integration Time (sec): 1.000000E-1
Scans to average: 1
Electric dark correction enabled: true
Nonlinearity correction enabled: false
Boxcar width: 0
XAxis mode: Wavelengths
Number of Pixels in Spectrum: 2048
>>>>>Begin Spectral Data<<<<<
223.165	-19.69
223.4	-19.69
223.635	-19.69
223.869	-19.69
224.104	-17.69
224.338	-17.69
224.573	-9.69
224.808	-12.69
225.042	-6.69
225.277	-7.69
225.511	-1.69
225.746	12.31
225.98	7.31
226.215	17.31
226.449	10.31
226.683	16.31
226.918	25.31
227.152	24.31
227.387	34.31
227.621	45.31
227.856	37.31
228.09	47.31
228.324	37.31
228.559	55.31
228.793	67.31
229.027	64.31
229.262	63.31
229.496	68.31
229.73	123.31
229.964	113.31
230.199	71.31
230.433	83.31
230.667	76.31
230.901	83.31
231.136	64.31
231.37	80.31
231.604	85.31
231.838	71.31
232.072	79.31
232.306	75.31
232.541	81.31
232.775	89.31
233.009	81.31
233.243	83.31
233.477	76.31
233.711	86.31
233.945	84.31
234.179	79.31
234.413	66.31
234.647	80.31
234.881	71.31
235.115	85.31
235.349	94.31
235.583	86.31
235.817	76.31
236.051	77.31
236.285	74.31
236.519	81.31
236.753	87.31
236.987	88.31
237.221	105.31
237.455	96.31
237.689	73.31
237.922	85.31
238.156	71.31
238.39	63.31
238.624	70.31
238.858	75.31
239.091	88.31
239.325	88.31
239.559	100.31
239.793	80.31
240.027	92.31
240.26	88.31
240.494	68.31
240.728	86.31
240.961	92.31
241.195	94.31
241.429	84.31
241.662	82.31
241.896	72.31
242.13	72.31
242.363	62.31
242.597	86.31
242.83	91.31
243.064	97.31
243.298	76.31
243.531	82.31
243.765	82.31
243.998	81.31
244.232	91.31
244.465	98.31
244.699	77.31
244.932	80.31
245.166	81.31
245.399	72.31
245.633	90.31
245.866	92.31
246.099	76.31
246.333	76.31
246.566	81.31
246.8	70.31
247.033	80.31
247.266	89.31
247.5	83.31
247.733	74.31
247.966	68.31
248.2	78.31
248.433	84.31
248.666	72.31
248.899	97.31
249.133	103.31
249.366	109.31
249.599	101.31
249.832	94.31
250.066	95.31
250.299	96.31
250.532	83.31
250.765	72.31
250.998	93.31
251.231	81.31
251.465	95.31
251.698	93.31
251.931	91.31
252.164	83.31
252.397	88.31
252.63	86.31
252.863	84.31
253.096	79.31
253.329	84.31
253.562	83.31
253.795	82.31
254.028	92.31
254.261	65.31
254.494	85.31
254.727	92.31
254.96	75.31
255.193	75.31
255.426	98.31
255.659	95.31
255.892	87.31
256.124	101.31
256.357	84.31
256.59	81.31
256.823	94.31
257.056	84.31
257.289	80.31
257.521	79.31
257.754	95.31
257.987	103.31
258.22	99.31
258.452	121.31
258.685	107.31
258.918	91.31
259.151	84.31
259.383	90.31
259.616	90.31
259.849	77.31
260.081	86.31
260.314	90.31
260.547	76.31
260.779	124.31
261.012	118.31
261.244	109.31
261.477	114.31
261.71	132.31
261.942	177.31
262.175	194.31
262.407	107.31
262.64	98.31
262.872	96.31
263.105	77.31
263.337	101.31
263.57	80.31
263.802	96.31
264.035	86.31
264.267	98.31
264.499	73.31
264.732	90.31
264.964	83.31
265.197	85.31
265.429	79.31
265.661	80.31
265.894	89.31
266.126	63.31
266.358	95.31
266.591	75.31
266.823	88.31
267.055	90.31
267.287	81.31
267.52	74.31
267.752	84.31
267.984	94.31
268.216	88.31
268.448	83.31
268.681	79.31
268.913	94.31
269.145	88.31
269.377	95.31
269.609	99.31
269.841	78.31
270.073	82.31
270.306	96.31
270.538	77.31
270.77	90.31
271.002	104.31
271.234	88.31
271.466	116.31
271.698	88.31
271.93	95.31
272.162	104.31
272.394	99.31
272.626	88.31
272.858	99.31
273.09	83.31
273.322	83.31
273.553	88.31
273.785	84.31
274.017	91.31
274.249	89.31
274.481	92.31
274.713	89.31
274.945	88.31
275.176	92.31
275.408	116.31
275.64	142.31
275.872	134.31
276.104	107.31
276.335	111.31
276.567	163.31
276.799	218.31
277.031	248.31
277.262	289.31
277.494	219.31
277.726	115.31
277.957	91.31
278.189	89.31
278.421	99.31
278.652	86.31
278.884	67.31
279.115	104.31
279.347	97.31
279.579	112.31
279.81	157.31
280.042	273.31
280.273	419.31
280.505	258.31
280.736	108.31
280.968	102.31
281.199	102.31
281.431	86.31
281.662	89.31
281.894	106.31
282.125	124.31
282.356	179.31
282.588	230.31
282.819	159.31
283.051	100.31
283.282	104.31
283.513	78.31
283.745	85.31
283.976	93.31
284.207	84.31
284.439	90.31
284.67	76.31
284.901	79.31
285.132	86.31
285.364	91.31
285.595	78.31
285.826	85.31
286.057	97.31
286.288	87.31
286.52	102.31
286.751	80.31
286.982	93.31
287.213	93.31
287.444	93.31
287.675	99.31
287.906	95.31
288.138	94.31
288.369	109.31
288.6	103.31
288.831	93.31
289.062	79.31
289.293	92.31
289.524	88.31
289.755	91.31
289.986	84.31
290.217	92.31
290.448	83.31
290.679	91.31
290.91	88.31
291.141	82.31
291.371	84.31
291.602	101.31
291.833	86.31
292.064	86.31
292.295	88.31
292.526	108.31
292.757	95.31
292.987	79.31
293.218	101.31
293.449	87.31
293.68	92.31
293.91	90.31
294.141	100.31
294.372	94.31
294.603	87.31
294.833	84.31
295.064	98.31
295.295	90.31
295.525	96.31
295.756	119.31
295.987	178.31
296.217	231.31
296.448	205.31
296.679	103.31
296.909	81.31
297.14	88.31
297.37	89.31
297.601	97.31
297.831	102.31
298.062	101.31
298.292	102.31
298.523	98.31
298.753	95.31
298.984	80.31
299.214	79.31
299.445	92.31
299.675	104.31
299.905	109.31
300.136	93.31
300.366	95.31
300.597	98.31
300.827	108.31
301.057	130.31
301.288	133.31
301.518	121.31
301.748	124.31
301.979	133.31
302.209	108.31
302.439	121.31
302.669	100.31
302.9	102.31
303.13	108.31
303.36	114.31
303.59	166.31
303.82	213.31
304.051	131.31
304.281	95.31
304.511	85.31
304.741	92.31
304.971	98.31
305.201	84.31
305.431	91.31
305.661	92.31
305.891	104.31
306.121	107.31
306.352	131.31
306.582	157.31
306.812	110.31
307.042	145.31
307.272	211.31
307.502	240.31
307.731	242.31
307.961	164.31
308.191	110.31
308.421	91.31
308.651	102.31
308.881	87.31
309.111	103.31
309.341	97.31
309.571	118.31
309.8	117.31
310.03	123.31
310.26	120.31
310.49	106.31
310.72	133.31
310.949	138.31
311.179	125.31
311.409	109.31
311.639	109.31
311.868	116.31
312.098	107.31
312.328	113.31
312.557	124.31
312.787	152.31
313.017	130.31
313.246	114.31
313.476	97.31
313.706	96.31
313.935	102.31
314.165	127.31
314.394	133.31
314.624	118.31
314.853	123.31
315.083	112.31
315.312	99.31
315.542	94.31
315.771	104.31
316.001	96.31
316.23	97.31
316.46	96.31
316.689	99.31
316.919	92.31
317.148	105.31
317.377	100.31
317.607	107.31
317.836	108.31
318.065	84.31
318.295	91.31
318.524	95.31
318.753	105.31
318.983	102.31
319.212	115.31
319.441	144.31
319.67	138.31
319.9	104.31
320.129	109.31
320.358	95.31
320.587	100.31
320.816	132.31
321.046	137.31
321.275	109.31
321.504	110.31
321.733	107.31
321.962	117.31
322.191	116.31
322.42	138.31
322.649	135.31
322.878	145.31
323.108	149.31
323.337	180.31
323.566	204.31
323.795	219.31
324.024	297.31
324.253	611.31
324.482	1334.31
324.71	2661.31
324.939	3599.31
325.168	1350.31
325.397	392.31
325.626	225.31
325.855	170.31
326.084	156.31
326.313	186.31
326.542	212.31
326.77	310.31
326.999	609.31
327.228	1275.31
327.457	2359.31
327.686	2010.31
327.914	771.31
328.143	864.31
328.372	1137.31
328.6	610.31
328.829	263.31
329.058	270.31
329.287	303.31
329.515	235.31
329.744	372.31
329.972	749.31
330.201	1650.31
330.43	2469.31
330.658	1038.31
330.887	447.31
331.115	303.31
331.344	158.31
331.572	138.31
331.801	184.31
332.03	160.31
332.258	139.31
332.486	117.31
332.715	140.31
332.943	130.31
333.172	149.31
333.4	166.31
333.629	208.31
333.857	360.31
334.085	672.31
334.314	1463.31
334.542	2977.31
334.771	2780.31
334.999	668.31
335.227	247.31
335.455	169.31
335.684	134.31
335.912	125.31
336.14	113.31
336.369	123.31
336.597	125.31
336.825	122.31
337.053	92.31
337.281	112.31
337.51	103.31
337.738	118.31
337.966	106.31
338.194	127.31
338.422	118.31
338.65	101.31
338.878	112.31
339.106	87.31
339.334	113.31
339.562	95.31
339.79	103.31
340.018	92.31
340.246	103.31
340.474	100.31
340.702	118.31
340.93	104.31
341.158	90.31
341.386	119.31
341.614	107.31
341.842	112.31
342.07	125.31
342.298	101.31
342.526	92.31
342.754	102.31
342.981	83.31
343.209	87.31
343.437	94.31
343.665	96.31
343.893	91.31
344.12	103.31
344.348	90.31
344.576	97.31
344.804	96.31
345.031	117.31
345.259	140.31
345.487	120.31
345.714	118.31
345.942	107.31
346.17	104.31
346.397	98.31
346.625	106.31
346.853	107.31
347.08	97.31
347.308	111.31
347.535	103.31
347.763	127.31
347.99	108.31
348.218	123.31
348.445	140.31
348.673	131.31
348.9	100.31
349.128	115.31
349.355	90.31
349.583	101.31
349.81	97.31
350.037	112.31
350.265	105.31
350.492	103.31
350.72	102.31
350.947	137.31
351.174	129.31
351.402	134.31
351.629	113.31
351.856	123.31
352.083	139.31
352.311	142.31
352.538	161.31
352.765	145.31
352.992	153.31
353.22	148.31
353.447	114.31
353.674	121.31
353.901	105.31
354.128	84.31
354.355	88.31
354.583	95.31
354.81	96.31
355.037	102.31
355.264	91.31
355.491	94.31
355.718	80.31
355.945	98.31
356.172	101.31
356.399	94.31
356.626	95.31
356.853	101.31
357.08	83.31
357.307	79.31
357.534	103.31
357.761	93.31
357.988	83.31
358.215	87.31
358.441	85.31
358.668	86.31
358.895	85.31
359.122	89.31
359.349	95.31
359.576	104.31
359.802	131.31
360.029	181.31
360.256	196.31
360.483	153.31
360.709	107.31
360.936	99.31
361.163	112.31
361.39	135.31
361.616	119.31
361.843	102.31
362.07	120.31
362.296	125.31
362.523	101.31
362.749	110.31
362.976	95.31
363.203	96.31
363.429	91.31
363.656	103.31
363.882	91.31
364.109	108.31
364.335	102.31
364.562	109.31
364.788	101.31
365.015	95.31
365.241	123.31
365.468	122.31
365.694	132.31
365.92	113.31
366.147	99.31
366.373	101.31
366.599	96.31
366.826	83.31
367.052	96.31
367.278	97.31
367.505	97.31
367.731	116.31
367.957	111.31
368.184	113.31
368.41	129.31
368.636	150.31
368.862	171.31
369.089	167.31
369.315	120.31
369.541	112.31
369.767	96.31
369.993	108.31
370.219	103.31
370.445	86.31
370.672	107.31
370.898	101.31
371.124	88.31
371.35	107.31
371.576	90.31
371.802	104.31
372.028	84.31
372.254	83.31
372.48	81.31
372.706	84.31
372.932	85.31
373.158	94.31
373.384	87.31
373.61	80.31
373.835	73.31
374.061	82.31
374.287	96.31
374.513	105.31
374.739	87.31
374.965	104.31
375.191	93.31
375.416	107.31
375.642	94.31
375.868	81.31
376.094	88.31
376.319	85.31
376.545	94.31
376.771	87.31
376.997	90.31
377.222	97.31
377.448	83.31
377.674	86.31
377.899	75.31
378.125	91.31
378.35	82.31
378.576	74.31
378.802	102.31
379.027	92.31
379.253	86.31
379.478	95.31
379.704	96.31
379.929	104.31
380.155	97.31
380.38	99.31
380.606	85.31
380.831	87.31
381.057	83.31
381.282	93.31
381.507	100.31
381.733	99.31
381.958	105.31
382.184	79.31
382.409	104.31
382.634	106.31
382.86	112.31
383.085	95.31
383.31	111.31
383.535	91.31
383.761	87.31
383.986	108.31
384.211	101.31
384.436	101.31
384.662	96.31
384.887	104.31
385.112	112.31
385.337	91.31
385.562	101.31
385.787	110.31
386.013	122.31
386.238	143.31
386.463	115.31
386.688	112.31
386.913	112.31
387.138	93.31
387.363	101.31
387.588	91.31
387.813	87.31
388.038	96.31
388.263	97.31
388.488	104.31
388.713	102.31
388.938	97.31
389.163	101.31
389.387	100.31
389.612	95.31
389.837	89.31
390.062	84.31
390.287	85.31
390.512	79.31
390.736	83.31
390.961	92.31
391.186	88.31
391.411	87.31
391.636	96.31
391.86	85.31
392.085	94.31
392.31	86.31
392.534	90.31
392.759	86.31
392.984	91.31
393.208	75.31
393.433	82.31
393.658	86.31
393.882	91.31
394.107	82.31
394.331	77.31
394.556	77.31
394.78	95.31
395.005	90.31
395.229	79.31
395.454	81.31
395.678	86.31
395.903	103.31
396.127	83.31
396.352	91.31
396.576	89.31
396.801	94.31
397.025	80.31
397.249	85.31
397.474	82.31
397.698	89.31
397.922	101.31
398.147	99.31
398.371	69.31
398.595	88.31
398.82	91.31
399.044	90.31
399.268	100.31
399.492	98.31
399.717	89.31
399.941	99.31
400.165	94.31
400.389	94.31
400.613	95.31
400.837	85.31
401.062	90.31
401.286	85.31
401.51	98.31
401.734	96.31
401.958	126.31
402.182	213.31
402.406	317.31
402.63	231.31
402.854	125.31
403.078	89.31
403.302	106.31
403.526	102.31
403.75	90.31
403.974	87.31
404.198	110.31
404.422	91.31
404.645	85.31
404.869	110.31
405.093	135.31
405.317	153.31
405.541	167.31
405.765	150.31
405.988	181.31
406.212	335.31
406.436	554.31
406.66	327.31
406.883	170.31
407.107	124.31
407.331	118.31
407.555	121.31
407.778	129.31
408.002	101.31
408.226	113.31
408.449	91.31
408.673	99.31
408.896	107.31
409.12	103.31
409.344	96.31
409.567	95.31
409.791	86.31
410.014	94.31
410.238	97.31
410.461	83.31
410.685	108.31
410.908	108.31
411.132	109.31
411.355	111.31
411.578	101.31
411.802	83.31
412.025	109.31
412.249	115.31
412.472	112.31
412.695	160.31
412.919	105.31
413.142	97.31
413.365	110.31
413.589	88.31
413.812	81.31
414.035	94.31
414.258	101.31
414.482	85.31
414.705	102.31
414.928	87.31
415.151	95.31
415.374	92.31
415.597	82.31
415.821	96.31
416.044	86.31
416.267	95.31
416.49	97.31
416.713	95.31
416.936	91.31
417.159	84.31
417.382	112.31
417.605	120.31
417.828	113.31
418.051	112.31
418.274	97.31
418.497	96.31
418.72	84.31
418.943	80.31
419.166	96.31
419.389	80.31
419.611	94.31
419.834	92.31
420.057	84.31
420.28	105.31
420.503	79.31
420.726	104.31
420.948	89.31
421.171	120.31
421.394	102.31
421.617	81.31
421.839	95.31
422.062	86.31
422.285	85.31
422.507	103.31
422.73	118.31
422.953	93.31
423.175	85.31
423.398	94.31
423.621	94.31
423.843	83.31
424.066	79.31
424.288	82.31
424.511	92.31
424.733	118.31
424.956	128.31
425.178	123.31
425.401	112.31
425.623	109.31
425.846	111.31
426.068	105.31
426.291	106.31
426.513	103.31
426.735	113.31
426.958	111.31
427.18	163.31
427.402	215.31
427.625	366.31
427.847	304.31
428.069	238.31
428.292	143.31
428.514	105.31
428.736	95.31
428.958	98.31
429.181	97.31
429.403	101.31
429.625	84.31
429.847	96.31
430.069	121.31
430.292	95.31
430.514	100.31
430.736	92.31
430.958	95.31
431.18	95.31
431.402	88.31
431.624	75.31
431.846	85.31
432.068	92.31
432.29	101.31
432.512	89.31
432.734	85.31
432.956	107.31
433.178	90.31
433.4	92.31
433.622	97.31
433.844	94.31
434.066	107.31
434.287	103.31
434.509	95.31
434.731	102.31
434.953	97.31
435.175	73.31
435.397	97.31
435.618	89.31
435.84	132.31
436.062	155.31
436.284	116.31
436.505	106.31
436.727	103.31
436.949	100.31
437.17	93.31
437.392	96.31
437.614	103.31
437.835	156.31
438.057	195.31
438.278	175.31
438.5	135.31
438.721	146.31
438.943	119.31
439.165	93.31
439.386	104.31
439.608	98.31
439.829	121.31
440.05	171.31
440.272	221.31
440.493	118.31
440.715	103.31
440.936	92.31
441.158	107.31
441.379	100.31
441.6	103.31
441.822	104.31
442.043	105.31
442.264	132.31
442.486	113.31
442.707	114.31
442.928	147.31
443.149	232.31
443.371	238.31
443.592	169.31
443.813	150.31
444.034	140.31
444.255	94.31
444.476	88.31
444.698	101.31
444.919	95.31
445.14	136.31
445.361	127.31
445.582	159.31
445.803	207.31
446.024	200.31
446.245	186.31
446.466	144.31
446.687	83.31
446.908	103.31
447.129	95.31
447.35	101.31
447.571	115.31
447.792	105.31
448.013	115.31
448.234	167.31
448.455	136.31
448.675	133.31
448.896	146.31
449.117	110.31
449.338	119.31
449.559	160.31
449.779	179.31
450	100.31
450.221	107.31
450.442	97.31
450.662	126.31
450.883	161.31
451.104	181.31
451.324	123.31
451.545	98.31
451.766	100.31
451.986	102.31
452.207	96.31
452.428	104.31
452.648	106.31
452.869	165.31
453.089	186.31
453.31	201.31
453.53	124.31
453.751	113.31
453.971	150.31
454.192	187.31
454.412	119.31
454.633	107.31
454.853	104.31
455.073	93.31
455.294	78.31
455.514	118.31
455.734	109.31
455.955	92.31
456.175	81.31
456.395	93.31
456.616	83.31
456.836	97.31
457.056	95.31
457.276	83.31
457.497	74.31
457.717	112.31
457.937	87.31
458.157	85.31
458.377	100.31
458.598	177.31
458.818	310.31
459.038	345.31
459.258	191.31
459.478	97.31
459.698	88.31
459.918	83.31
460.138	96.31
460.358	92.31
460.578	93.31
460.798	104.31
461.018	108.31
461.238	96.31
461.458	83.31
461.678	102.31
461.898	84.31
462.118	84.31
462.338	70.31
462.558	88.31
462.777	95.31
462.997	121.31
463.217	126.31
463.437	106.31
463.657	96.31
463.876	91.31
464.096	109.31
464.316	115.31
464.536	124.31
464.755	125.31
464.975	170.31
465.195	375.31
465.414	372.31
465.634	128.31
465.854	117.31
466.073	83.31
466.293	91.31
466.512	94.31
466.732	105.31
466.951	101.31
467.171	117.31
467.391	135.31
467.61	193.31
467.829	312.31
468.049	998.31
468.268	1575.31
468.488	334.31
468.707	142.31
468.927	98.31
469.146	87.31
469.365	105.31
469.585	113.31
469.804	129.31
470.023	119.31
470.243	128.31
470.462	128.31
470.681	201.31
470.901	125.31
471.12	116.31
471.339	119.31
471.558	152.31
471.777	223.31
471.997	477.31
472.216	1980.31
472.435	4613.31
472.654	973.31
472.873	224.31
473.092	147.31
473.311	109.31
473.53	101.31
473.749	101.31
473.968	105.31
474.187	141.31
474.406	125.31
474.625	114.31
474.844	92.31
475.063	101.31
475.282	88.31
475.501	78.31
475.72	116.31
475.939	99.31
476.158	96.31
476.377	94.31
476.596	102.31
476.814	117.31
477.033	112.31
477.252	109.31
477.471	104.31
477.69	101.31
477.908	100.31
478.127	103.31
478.346	96.31
478.564	128.31
478.783	121.31
479.002	122.31
479.22	132.31
479.439	168.31
479.658	199.31
479.876	150.31
480.095	168.31
480.313	188.31
480.532	228.31
480.751	439.31
480.969	1707.31
481.188	7712.31
481.406	4295.31
481.624	565.31
481.843	162.31
482.061	121.31
482.28	112.31
482.498	112.31
482.717	106.31
482.935	109.31
483.153	79.31
483.372	102.31
483.59	98.31
483.808	108.31
484.027	103.31
484.245	100.31
484.463	107.31
484.681	92.31
484.9	103.31
485.118	93.31
485.336	88.31
485.554	110.31
485.772	100.31
485.99	100.31
486.209	116.31
486.427	126.31
486.645	155.31
486.863	162.31
487.081	131.31
487.299	111.31
487.517	105.31
487.735	107.31
487.953	94.31
488.171	86.31
488.389	101.31
488.607	133.31
488.825	103.31
489.043	114.31
489.261	84.31
489.479	84.31
489.696	95.31
489.914	75.31
490.132	90.31
490.35	104.31
490.568	88.31
490.786	105.31
491.003	98.31
491.221	107.31
491.439	113.31
491.657	107.31
491.874	88.31
492.092	86.31
492.31	93.31
492.527	97.31
492.745	110.31
492.963	97.31
493.18	100.31
493.398	102.31
493.615	89.31
493.833	95.31
494.05	99.31
494.268	99.31
494.485	101.31
494.703	85.31
494.92	91.31
495.138	91.31
495.355	90.31
495.573	106.31
495.79	92.31
496.008	93.31
496.225	100.31
496.442	105.31
496.66	92.31
496.877	94.31
497.094	98.31
497.312	93.31
497.529	95.31
497.746	93.31
497.963	113.31
498.181	92.31
498.398	119.31
498.615	128.31
498.832	118.31
499.049	92.31
499.267	91.31
499.484	91.31
499.701	95.31
499.918	77.31
500.135	90.31
500.352	95.31
500.569	106.31
500.786	110.31
501.003	94.31
501.22	109.31
501.437	101.31
501.654	126.31
501.871	149.31
502.088	113.31
502.305	99.31
502.522	100.31
502.739	97.31
502.956	107.31
503.172	98.31
503.389	116.31
503.606	169.31
503.823	134.31
504.04	108.31
504.256	87.31
504.473	105.31
504.69	92.31
504.907	100.31
505.123	104.31
505.34	95.31
505.557	105.31
505.773	92.31
505.99	95.31
506.207	111.31
506.423	92.31
506.64	97.31
506.856	97.31
507.073	82.31
507.289	109.31
507.506	124.31
507.722	179.31
507.939	179.31
508.155	124.31
508.372	101.31
508.588	104.31
508.805	88.31
509.021	105.31
509.238	111.31
509.454	110.31
509.67	117.31
509.887	124.31
510.103	173.31
510.319	359.31
510.536	1603.31
