Data from Circ_1999_H10_HRD10591_00051.txt Node
Date: Wed Jan 03 11:23:22 EST 2024
User: Yrep
Spectrometer: HR+D1059
Trigger mode: 1
Integration Time (sec): 1.000000E-1
Scans to average: 1
Electric dark correction enabled: true
Nonlinearity correction enabled: false
Boxcar width: 0
XAxis mode: Wavelengths
Number of Pixels in Spectrum: 2048
>>>>>Begin Spectral Data<<<<<
223.165	-28.25
223.4	-28.25
223.635	-28.25
223.869	-15.25
224.104	-20.25
224.338	-14.25
224.573	-14.25
224.808	-8.25
225.042	-18.25
225.277	-11.25
225.511	-10.25
225.746	12.75
225.98	3.75
226.215	19.75
226.449	21.75
226.683	18.75
226.918	23.75
227.152	39.75
227.387	37.75
227.621	40.75
227.856	40.75
228.09	41.75
228.324	54.75
228.559	53.75
228.793	48.75
229.027	69.75
229.262	72.75
229.496	90.75
229.73	94.75
229.964	80.75
230.199	68.75
230.433	61.75
230.667	85.75
230.901	78.75
231.136	90.75
231.37	81.75
231.604	91.75
231.838	87.75
232.072	97.75
232.306	76.75
232.541	95.75
232.775	81.75
233.009	78.75
233.243	79.75
233.477	82.75
233.711	79.75
233.945	79.75
234.179	64.75
234.413	70.75
234.647	81.75
234.881	86.75
235.115	80.75
235.349	71.75
235.583	98.75
235.817	80.75
236.051	82.75
236.285	80.75
236.519	77.75
236.753	79.75
236.987	84.75
237.221	86.75
237.455	105.75
237.689	86.75
237.922	72.75
238.156	86.75
238.39	72.75
238.624	82.75
238.858	73.75
239.091	69.75
239.325	89.75
239.559	93.75
239.793	88.75
240.027	87.75
240.26	70.75
240.494	80.75
240.728	73.75
240.961	74.75
241.195	74.75
241.429	71.75
241.662	75.75
241.896	79.75
242.13	76.75
242.363	69.75
242.597	77.75
242.83	76.75
243.064	80.75
243.298	81.75
243.531	63.75
243.765	83.75
243.998	94.75
244.232	87.75
244.465	78.75
244.699	89.75
244.932	82.75
245.166	80.75
245.399	73.75
245.633	96.75
245.866	78.75
246.099	77.75
246.333	89.75
246.566	68.75
246.8	99.75
247.033	81.75
247.266	78.75
247.5	95.75
247.733	82.75
247.966	94.75
248.2	78.75
248.433	93.75
248.666	80.75
248.899	86.75
249.133	86.75
249.366	105.75
249.599	111.75
249.832	77.75
250.066	82.75
250.299	93.75
250.532	89.75
250.765	81.75
250.998	98.75
251.231	93.75
251.465	66.75
251.698	92.75
251.931	100.75
252.164	90.75
252.397	91.75
252.63	83.75
252.863	77.75
253.096	88.75
253.329	92.75
253.562	80.75
253.795	82.75
254.028	83.75
254.261	92.75
254.494	90.75
254.727	89.75
254.96	68.75
255.193	85.75
255.426	74.75
255.659	76.75
255.892	88.75
256.124	96.75
256.357	85.75
256.59	88.75
256.823	92.75
257.056	69.75
257.289	108.75
257.521	99.75
257.754	93.75
257.987	89.75
258.22	87.75
258.452	93.75
258.685	90.75
258.918	77.75
259.151	84.75
259.383	82.75
259.616	81.75
259.849	77.75
260.081	90.75
260.314	86.75
260.547	83.75
260.779	90.75
261.012	111.75
261.244	120.75
261.477	112.75
261.71	116.75
261.942	148.75
262.175	168.75
262.407	106.75
262.64	102.75
262.872	69.75
263.105	75.75
263.337	88.75
263.57	90.75
263.802	78.75
264.035	89.75
264.267	92.75
264.499	80.75
264.732	79.75
264.964	89.75
265.197	87.75
265.429	89.75
265.661	85.75
265.894	91.75
266.126	94.75
266.358	90.75
266.591	94.75
266.823	91.75
267.055	83.75
267.287	78.75
267.52	94.75
267.752	81.75
267.984	92.75
268.216	84.75
268.448	86.75
268.681	104.75
268.913	88.75
269.145	84.75
269.377	86.75
269.609	88.75
269.841	93.75
270.073	69.75
270.306	86.75
270.538	88.75
270.77	78.75
271.002	81.75
271.234	101.75
271.466	89.75
271.698	81.75
271.93	93.75
272.162	90.75
272.394	113.75
272.626	88.75
272.858	85.75
273.09	90.75
273.322	94.75
273.553	74.75
273.785	105.75
274.017	92.75
274.249	85.75
274.481	86.75
274.713	95.75
274.945	97.75
275.176	96.75
275.408	94.75
275.64	121.75
275.872	143.75
276.104	109.75
276.335	111.75
276.567	143.75
276.799	162.75
277.031	163.75
277.262	221.75
277.494	179.75
277.726	125.75
277.957	96.75
278.189	81.75
278.421	76.75
278.652	100.75
278.884	90.75
279.115	111.75
279.347	100.75
279.579	106.75
279.81	139.75
280.042	225.75
280.273	310.75
280.505	201.75
280.736	111.75
280.968	95.75
281.199	89.75
281.431	89.75
281.662	72.75
281.894	89.75
282.125	105.75
282.356	156.75
282.588	193.75
282.819	145.75
283.051	83.75
283.282	93.75
283.513	86.75
283.745	104.75
283.976	88.75
284.207	85.75
284.439	87.75
284.67	88.75
284.901	94.75
285.132	76.75
285.364	93.75
285.595	100.75
285.826	86.75
286.057	91.75
286.288	76.75
286.52	90.75
286.751	71.75
286.982	81.75
287.213	98.75
287.444	106.75
287.675	100.75
287.906	93.75
288.138	91.75
288.369	102.75
288.6	89.75
288.831	100.75
289.062	94.75
289.293	106.75
289.524	91.75
289.755	88.75
289.986	89.75
290.217	93.75
290.448	95.75
290.679	95.75
290.91	84.75
291.141	96.75
291.371	96.75
291.602	100.75
291.833	69.75
292.064	70.75
292.295	95.75
292.526	86.75
292.757	96.75
292.987	93.75
293.218	72.75
293.449	80.75
293.68	93.75
293.91	87.75
294.141	93.75
294.372	85.75
294.603	86.75
294.833	88.75
295.064	91.75
295.295	82.75
295.525	102.75
295.756	106.75
295.987	141.75
296.217	181.75
296.448	176.75
296.679	105.75
296.909	72.75
297.14	70.75
297.37	77.75
297.601	81.75
297.831	89.75
298.062	94.75
298.292	102.75
298.523	88.75
298.753	79.75
298.984	84.75
299.214	76.75
299.445	88.75
299.675	82.75
299.905	105.75
300.136	94.75
300.366	79.75
300.597	98.75
300.827	95.75
301.057	102.75
301.288	126.75
301.518	104.75
301.748	99.75
301.979	122.75
302.209	98.75
302.439	101.75
302.669	90.75
302.9	99.75
303.13	99.75
303.36	108.75
303.59	142.75
303.82	167.75
304.051	109.75
304.281	100.75
304.511	83.75
304.741	94.75
304.971	98.75
305.201	87.75
305.431	82.75
305.661	93.75
305.891	100.75
306.121	119.75
306.352	132.75
306.582	135.75
306.812	117.75
307.042	120.75
307.272	178.75
307.502	208.75
307.731	185.75
307.961	157.75
308.191	112.75
308.421	102.75
308.651	103.75
308.881	86.75
309.111	102.75
309.341	95.75
309.571	111.75
309.8	112.75
310.03	117.75
310.26	106.75
310.49	100.75
310.72	117.75
310.949	119.75
311.179	123.75
311.409	109.75
311.639	113.75
311.868	117.75
312.098	116.75
312.328	95.75
312.557	125.75
312.787	126.75
313.017	110.75
313.246	106.75
313.476	98.75
313.706	109.75
313.935	98.75
314.165	117.75
314.394	132.75
314.624	119.75
314.853	108.75
315.083	97.75
315.312	104.75
315.542	102.75
315.771	102.75
316.001	96.75
316.23	95.75
316.46	95.75
316.689	108.75
316.919	106.75
317.148	105.75
317.377	103.75
317.607	102.75
317.836	101.75
318.065	115.75
318.295	94.75
318.524	82.75
318.753	98.75
318.983	93.75
319.212	120.75
319.441	119.75
319.67	145.75
319.9	95.75
320.129	89.75
320.358	110.75
320.587	95.75
320.816	113.75
321.046	118.75
321.275	107.75
321.504	93.75
321.733	103.75
321.962	110.75
322.191	106.75
322.42	130.75
322.649	125.75
322.878	133.75
323.108	134.75
323.337	143.75
323.566	163.75
323.795	206.75
324.024	266.75
324.253	532.75
324.482	1146.75
324.71	2301.75
324.939	3097.75
325.168	1133.75
325.397	334.75
325.626	183.75
325.855	155.75
326.084	155.75
326.313	162.75
326.542	183.75
326.77	303.75
326.999	552.75
327.228	1143.75
327.457	2120.75
327.686	1737.75
327.914	658.75
328.143	656.75
328.372	785.75
328.6	450.75
328.829	226.75
329.058	231.75
329.287	222.75
329.515	209.75
329.744	299.75
329.972	603.75
330.201	1239.75
330.43	1820.75
330.658	780.75
330.887	361.75
331.115	236.75
331.344	135.75
331.572	134.75
331.801	143.75
332.03	133.75
332.258	131.75
332.486	111.75
332.715	120.75
332.943	109.75
333.172	140.75
333.4	152.75
333.629	189.75
333.857	268.75
334.085	534.75
334.314	1134.75
334.542	2211.75
334.771	2046.75
334.999	525.75
335.227	200.75
335.455	140.75
335.684	124.75
335.912	124.75
336.14	99.75
336.369	105.75
336.597	127.75
336.825	130.75
337.053	94.75
337.281	95.75
337.51	103.75
337.738	84.75
337.966	94.75
338.194	113.75
338.422	109.75
338.65	103.75
338.878	102.75
339.106	97.75
339.334	88.75
339.562	103.75
339.79	105.75
340.018	93.75
340.246	106.75
340.474	103.75
340.702	92.75
340.93	89.75
341.158	96.75
341.386	113.75
341.614	104.75
341.842	109.75
342.07	101.75
342.298	98.75
342.526	103.75
342.754	76.75
342.981	90.75
343.209	86.75
343.437	112.75
343.665	110.75
343.893	100.75
344.12	98.75
344.348	98.75
344.576	97.75
344.804	103.75
345.031	95.75
345.259	120.75
345.487	115.75
345.714	91.75
345.942	94.75
346.17	86.75
346.397	108.75
346.625	115.75
346.853	96.75
347.08	110.75
347.308	105.75
347.535	113.75
347.763	110.75
347.99	91.75
348.218	115.75
348.445	125.75
348.673	128.75
348.9	111.75
349.128	97.75
349.355	105.75
349.583	108.75
349.81	94.75
350.037	97.75
350.265	104.75
350.492	97.75
350.72	101.75
350.947	121.75
351.174	101.75
351.402	132.75
351.629	117.75
351.856	110.75
352.083	130.75
352.311	122.75
352.538	124.75
352.765	125.75
352.992	132.75
353.22	129.75
353.447	134.75
353.674	102.75
353.901	100.75
354.128	92.75
354.355	91.75
354.583	109.75
354.81	113.75
355.037	91.75
355.264	73.75
355.491	95.75
355.718	91.75
355.945	96.75
356.172	104.75
356.399	106.75
356.626	93.75
356.853	103.75
357.08	102.75
357.307	88.75
357.534	91.75
357.761	124.75
357.988	93.75
358.215	93.75
358.441	90.75
358.668	97.75
358.895	95.75
359.122	84.75
359.349	95.75
359.576	97.75
359.802	122.75
360.029	164.75
360.256	152.75
360.483	135.75
360.709	93.75
360.936	121.75
361.163	112.75
361.39	107.75
361.616	121.75
361.843	93.75
362.07	112.75
362.296	105.75
362.523	90.75
362.749	108.75
362.976	85.75
363.203	103.75
363.429	89.75
363.656	98.75
363.882	104.75
364.109	86.75
364.335	99.75
364.562	89.75
364.788	96.75
365.015	87.75
365.241	106.75
365.468	128.75
365.694	126.75
365.92	125.75
366.147	91.75
366.373	95.75
366.599	91.75
366.826	96.75
367.052	93.75
367.278	91.75
367.505	102.75
367.731	101.75
367.957	96.75
368.184	97.75
368.41	102.75
368.636	152.75
368.862	140.75
369.089	130.75
369.315	103.75
369.541	102.75
369.767	107.75
369.993	109.75
370.219	104.75
370.445	84.75
370.672	89.75
370.898	92.75
371.124	91.75
371.35	106.75
371.576	101.75
371.802	79.75
372.028	88.75
372.254	84.75
372.48	91.75
372.706	85.75
372.932	105.75
373.158	85.75
373.384	82.75
373.61	104.75
373.835	97.75
374.061	88.75
374.287	96.75
374.513	113.75
374.739	90.75
374.965	88.75
375.191	96.75
375.416	75.75
375.642	90.75
375.868	87.75
376.094	87.75
376.319	81.75
376.545	90.75
376.771	94.75
376.997	89.75
377.222	88.75
377.448	93.75
377.674	93.75
377.899	93.75
378.125	95.75
378.35	84.75
378.576	86.75
378.802	87.75
379.027	88.75
379.253	108.75
379.478	88.75
379.704	98.75
379.929	82.75
380.155	92.75
380.38	100.75
380.606	85.75
380.831	90.75
381.057	97.75
381.282	104.75
381.507	104.75
381.733	89.75
381.958	101.75
382.184	114.75
382.409	106.75
382.634	112.75
382.86	99.75
383.085	102.75
383.31	117.75
383.535	108.75
383.761	92.75
383.986	95.75
384.211	118.75
384.436	96.75
384.662	98.75
384.887	91.75
385.112	97.75
385.337	85.75
385.562	94.75
385.787	100.75
386.013	108.75
386.238	125.75
386.463	123.75
386.688	97.75
386.913	107.75
387.138	94.75
387.363	114.75
387.588	85.75
387.813	94.75
388.038	107.75
388.263	96.75
388.488	103.75
388.713	101.75
388.938	95.75
389.163	110.75
389.387	87.75
389.612	84.75
389.837	90.75
390.062	101.75
390.287	88.75
390.512	80.75
390.736	89.75
390.961	85.75
391.186	90.75
391.411	99.75
391.636	94.75
391.86	96.75
392.085	85.75
392.31	85.75
392.534	93.75
392.759	82.75
392.984	88.75
393.208	97.75
393.433	85.75
393.658	86.75
393.882	88.75
394.107	81.75
394.331	90.75
394.556	93.75
394.78	80.75
395.005	84.75
395.229	83.75
395.454	87.75
395.678	86.75
395.903	81.75
396.127	88.75
396.352	85.75
396.576	97.75
396.801	80.75
397.025	97.75
397.249	92.75
397.474	84.75
397.698	100.75
397.922	88.75
398.147	91.75
398.371	85.75
398.595	80.75
398.82	101.75
399.044	96.75
399.268	93.75
399.492	90.75
399.717	96.75
399.941	86.75
400.165	96.75
400.389	106.75
400.613	79.75
400.837	99.75
401.062	72.75
401.286	103.75
401.51	110.75
401.734	116.75
401.958	123.75
402.182	156.75
402.406	259.75
402.63	169.75
402.854	114.75
403.078	98.75
403.302	95.75
403.526	97.75
403.75	82.75
403.974	93.75
404.198	97.75
404.422	93.75
404.645	97.75
404.869	92.75
405.093	126.75
405.317	146.75
405.541	150.75
405.765	136.75
405.988	154.75
406.212	236.75
406.436	400.75
406.66	262.75
406.883	133.75
407.107	118.75
407.331	90.75
407.555	113.75
407.778	116.75
408.002	110.75
408.226	103.75
408.449	91.75
408.673	75.75
408.896	97.75
409.12	106.75
409.344	96.75
409.567	94.75
409.791	98.75
410.014	90.75
410.238	106.75
410.461	85.75
410.685	91.75
410.908	91.75
411.132	106.75
411.355	108.75
411.578	98.75
411.802	91.75
412.025	84.75
412.249	121.75
412.472	116.75
412.695	141.75
412.919	119.75
413.142	92.75
413.365	88.75
413.589	116.75
413.812	96.75
414.035	98.75
414.258	103.75
414.482	101.75
414.705	88.75
414.928	101.75
415.151	92.75
415.374	94.75
415.597	85.75
415.821	95.75
416.044	84.75
416.267	82.75
416.49	84.75
416.713	92.75
416.936	94.75
417.159	106.75
417.382	98.75
417.605	119.75
417.828	123.75
418.051	112.75
418.274	84.75
418.497	100.75
418.72	93.75
418.943	100.75
419.166	76.75
419.389	91.75
419.611	85.75
419.834	98.75
420.057	100.75
420.28	93.75
420.503	97.75
420.726	92.75
420.948	102.75
421.171	114.75
421.394	105.75
421.617	105.75
421.839	89.75
422.062	82.75
422.285	115.75
422.507	112.75
422.73	102.75
422.953	90.75
423.175	98.75
423.398	92.75
423.621	85.75
423.843	80.75
424.066	86.75
424.288	112.75
424.511	92.75
424.733	101.75
424.956	120.75
425.178	109.75
425.401	110.75
425.623	101.75
425.846	90.75
426.068	102.75
426.291	105.75
426.513	93.75
426.735	107.75
426.958	93.75
427.18	132.75
427.402	209.75
427.625	300.75
427.847	274.75
428.069	221.75
428.292	128.75
428.514	110.75
428.736	104.75
428.958	102.75
429.181	101.75
429.403	89.75
429.625	87.75
429.847	96.75
430.069	121.75
430.292	105.75
430.514	114.75
430.736	81.75
430.958	82.75
431.18	86.75
431.402	86.75
431.624	91.75
431.846	90.75
432.068	89.75
432.29	99.75
432.512	93.75
432.734	96.75
432.956	92.75
433.178	122.75
433.4	101.75
433.622	100.75
433.844	98.75
434.066	84.75
434.287	109.75
434.509	95.75
434.731	90.75
434.953	83.75
435.175	89.75
435.397	93.75
435.618	77.75
435.84	97.75
436.062	150.75
436.284	140.75
436.505	118.75
436.727	115.75
436.949	97.75
437.17	78.75
437.392	86.75
437.614	107.75
437.835	134.75
438.057	169.75
438.278	161.75
438.5	116.75
438.721	139.75
438.943	111.75
439.165	100.75
439.386	84.75
439.608	106.75
439.829	105.75
440.05	161.75
440.272	190.75
440.493	115.75
440.715	81.75
440.936	107.75
441.158	90.75
441.379	92.75
441.6	100.75
441.822	113.75
442.043	108.75
442.264	126.75
442.486	127.75
442.707	116.75
442.928	130.75
443.149	189.75
443.371	197.75
443.592	160.75
443.813	150.75
444.034	125.75
444.255	100.75
444.476	95.75
444.698	88.75
444.919	101.75
445.14	145.75
445.361	150.75
445.582	136.75
445.803	206.75
446.024	196.75
446.245	176.75
446.466	139.75
446.687	103.75
446.908	103.75
447.129	111.75
447.35	91.75
447.571	102.75
447.792	94.75
448.013	105.75
448.234	139.75
448.455	116.75
448.675	153.75
448.896	144.75
449.117	114.75
449.338	127.75
449.559	161.75
449.779	139.75
450	106.75
450.221	99.75
450.442	95.75
450.662	112.75
450.883	147.75
451.104	158.75
451.324	117.75
451.545	86.75
451.766	97.75
451.986	86.75
452.207	76.75
452.428	96.75
452.648	125.75
452.869	130.75
453.089	160.75
453.31	171.75
453.53	112.75
453.751	98.75
453.971	152.75
454.192	157.75
454.412	109.75
454.633	105.75
454.853	86.75
455.073	89.75
455.294	88.75
455.514	108.75
455.734	113.75
455.955	90.75
456.175	82.75
456.395	89.75
456.616	93.75
456.836	88.75
457.056	94.75
457.276	78.75
457.497	90.75
457.717	75.75
457.937	84.75
458.157	109.75
458.377	102.75
458.598	139.75
458.818	245.75
459.038	282.75
459.258	183.75
459.478	99.75
459.698	87.75
459.918	105.75
460.138	91.75
460.358	77.75
460.578	92.75
460.798	93.75
461.018	96.75
461.238	88.75
461.458	79.75
461.678	85.75
461.898	92.75
462.118	80.75
462.338	98.75
462.558	89.75
462.777	91.75
462.997	105.75
463.217	126.75
463.437	98.75
463.657	86.75
463.876	89.75
464.096	104.75
464.316	95.75
464.536	112.75
464.755	102.75
464.975	146.75
465.195	302.75
465.414	294.75
465.634	116.75
465.854	96.75
466.073	96.75
466.293	88.75
466.512	85.75
466.732	82.75
466.951	94.75
467.171	113.75
467.391	116.75
467.61	174.75
467.829	270.75
468.049	706.75
468.268	1089.75
468.488	274.75
468.707	114.75
468.927	100.75
469.146	87.75
469.365	96.75
469.585	93.75
469.804	114.75
470.023	123.75
470.243	96.75
470.462	133.75
470.681	175.75
470.901	120.75
471.12	112.75
471.339	118.75
471.558	129.75
471.777	173.75
471.997	389.75
472.216	1397.75
472.435	3298.75
472.654	727.75
472.873	177.75
473.092	114.75
473.311	103.75
473.53	95.75
473.749	88.75
473.968	104.75
474.187	138.75
474.406	101.75
474.625	109.75
474.844	100.75
475.063	94.75
475.282	80.75
475.501	90.75
475.72	101.75
475.939	97.75
476.158	97.75
476.377	92.75
476.596	87.75
476.814	109.75
477.033	110.75
477.252	101.75
477.471	90.75
477.69	87.75
477.908	82.75
478.127	92.75
478.346	107.75
478.564	105.75
478.783	127.75
479.002	122.75
479.22	116.75
479.439	153.75
479.658	148.75
479.876	134.75
480.095	142.75
480.313	147.75
480.532	186.75
480.751	345.75
480.969	1249.75
481.188	5532.75
481.406	3040.75
481.624	417.75
481.843	153.75
482.061	126.75
482.28	106.75
482.498	100.75
482.717	102.75
482.935	93.75
483.153	94.75
483.372	95.75
483.59	89.75
483.808	84.75
484.027	96.75
484.245	89.75
484.463	104.75
484.681	98.75
484.9	119.75
485.118	104.75
485.336	108.75
485.554	113.75
485.772	107.75
485.99	117.75
486.209	120.75
486.427	114.75
486.645	139.75
486.863	138.75
487.081	109.75
487.299	92.75
487.517	100.75
487.735	106.75
487.953	107.75
488.171	105.75
488.389	108.75
488.607	114.75
488.825	100.75
489.043	93.75
489.261	86.75
489.479	98.75
489.696	108.75
489.914	92.75
490.132	94.75
490.35	102.75
490.568	94.75
490.786	81.75
491.003	61.75
491.221	99.75
491.439	96.75
491.657	108.75
491.874	97.75
492.092	88.75
492.31	96.75
492.527	88.75
492.745	86.75
492.963	96.75
493.18	115.75
493.398	103.75
493.615	93.75
493.833	98.75
494.05	109.75
494.268	109.75
494.485	104.75
494.703	93.75
494.92	99.75
495.138	96.75
495.355	92.75
495.573	98.75
495.79	94.75
496.008	94.75
496.225	92.75
496.442	96.75
496.66	86.75
496.877	96.75
497.094	93.75
497.312	110.75
497.529	111.75
497.746	86.75
497.963	106.75
498.181	102.75
498.398	109.75
498.615	144.75
498.832	134.75
499.049	94.75
499.267	90.75
499.484	95.75
499.701	78.75
499.918	79.75
500.135	97.75
500.352	92.75
500.569	90.75
500.786	106.75
501.003	93.75
501.22	80.75
501.437	92.75
501.654	103.75
501.871	135.75
502.088	105.75
502.305	96.75
502.522	92.75
502.739	98.75
502.956	105.75
503.172	101.75
503.389	118.75
503.606	137.75
503.823	112.75
504.04	95.75
504.256	99.75
504.473	91.75
504.69	83.75
504.907	102.75
505.123	88.75
505.34	87.75
505.557	116.75
505.773	98.75
505.99	93.75
506.207	85.75
506.423	101.75
506.64	100.75
506.856	95.75
507.073	87.75
507.289	106.75
507.506	113.75
507.722	150.75
507.939	143.75
508.155	88.75
508.372	101.75
508.588	100.75
508.805	88.75
509.021	108.75
509.238	103.75
509.454	115.75
509.67	111.75
509.887	123.75
510.103	166.75
510.319	297.75
510.536	1232.75
510.752	4605.75
510.968	1147.75
511.184	214.75
511.401	152.75
511.617	117.75
