Data from Circ_1999_H10_HRD10591_00091.txt Node
Date: Wed Jan 03 11:23:30 EST 2024
User: Yrep
Spectrometer: HR+D1059
Trigger mode: 1
Integration Time (sec): 1.000000E-1
Scans to average: 1
Electric dark correction enabled: true
Nonlinearity correction enabled: false
Boxcar width: 0
XAxis mode: Wavelengths
Number of Pixels in Spectrum: 2048
>>>>>Begin Spectral Data<<<<<
223.165	-14.56
223.4	-14.56
223.635	-14.56
223.869	-23.56
224.104	-22.56
224.338	-15.56
224.573	-19.56
224.808	-3.56
225.042	-2.56
225.277	-5.56
225.511	-4.56
225.746	8.44
225.98	-1.56
226.215	13.44
226.449	27.44
226.683	11.44
226.918	12.44
227.152	40.44
227.387	36.44
227.621	34.44
227.856	62.44
228.09	56.44
228.324	57.44
228.559	53.44
228.793	63.44
229.027	67.44
229.262	76.44
229.496	73.44
229.73	115.44
229.964	110.44
230.199	84.44
230.433	88.44
230.667	90.44
230.901	89.44
231.136	89.44
231.37	80.44
231.604	99.44
231.838	98.44
232.072	86.44
232.306	86.44
232.541	77.44
232.775	78.44
233.009	81.44
233.243	83.44
233.477	79.44
233.711	88.44
233.945	92.44
234.179	93.44
234.413	89.44
234.647	78.44
234.881	87.44
235.115	89.44
235.349	75.44
235.583	93.44
235.817	88.44
236.051	76.44
236.285	89.44
236.519	80.44
236.753	76.44
236.987	100.44
237.221	101.44
237.455	110.44
237.689	94.44
237.922	80.44
238.156	87.44
238.39	71.44
238.624	75.44
238.858	80.44
239.091	82.44
239.325	72.44
239.559	94.44
239.793	91.44
240.027	81.44
240.26	87.44
240.494	89.44
240.728	83.44
240.961	82.44
241.195	96.44
241.429	107.44
241.662	66.44
241.896	84.44
242.13	76.44
242.363	84.44
242.597	65.44
242.83	86.44
243.064	69.44
243.298	88.44
243.531	95.44
243.765	82.44
243.998	82.44
244.232	67.44
244.465	107.44
244.699	96.44
244.932	70.44
245.166	87.44
245.399	79.44
245.633	85.44
245.866	87.44
246.099	93.44
246.333	95.44
246.566	83.44
246.8	90.44
247.033	89.44
247.266	80.44
247.5	68.44
247.733	87.44
247.966	94.44
248.2	88.44
248.433	99.44
248.666	102.44
248.899	94.44
249.133	89.44
249.366	104.44
249.599	117.44
249.832	98.44
250.066	85.44
250.299	90.44
250.532	88.44
250.765	83.44
250.998	71.44
251.231	84.44
251.465	86.44
251.698	91.44
251.931	99.44
252.164	90.44
252.397	90.44
252.63	84.44
252.863	79.44
253.096	87.44
253.329	96.44
253.562	85.44
253.795	90.44
254.028	92.44
254.261	94.44
254.494	89.44
254.727	79.44
254.96	88.44
255.193	95.44
255.426	88.44
255.659	104.44
255.892	100.44
256.124	111.44
256.357	91.44
256.59	79.44
256.823	89.44
257.056	92.44
257.289	104.44
257.521	97.44
257.754	83.44
257.987	91.44
258.22	93.44
258.452	113.44
258.685	111.44
258.918	84.44
259.151	108.44
259.383	91.44
259.616	87.44
259.849	91.44
260.081	89.44
260.314	88.44
260.547	81.44
260.779	107.44
261.012	140.44
261.244	140.44
261.477	104.44
261.71	126.44
261.942	187.44
262.175	184.44
262.407	107.44
262.64	86.44
262.872	92.44
263.105	99.44
263.337	80.44
263.57	83.44
263.802	81.44
264.035	93.44
264.267	95.44
264.499	93.44
264.732	92.44
264.964	94.44
265.197	91.44
265.429	97.44
265.661	77.44
265.894	75.44
266.126	89.44
266.358	93.44
266.591	92.44
266.823	93.44
267.055	85.44
267.287	98.44
267.52	84.44
267.752	90.44
267.984	90.44
268.216	91.44
268.448	101.44
268.681	91.44
268.913	88.44
269.145	98.44
269.377	92.44
269.609	94.44
269.841	100.44
270.073	88.44
270.306	101.44
270.538	91.44
270.77	92.44
271.002	95.44
271.234	107.44
271.466	101.44
271.698	86.44
271.93	98.44
272.162	101.44
272.394	96.44
272.626	107.44
272.858	97.44
273.09	94.44
273.322	90.44
273.553	96.44
273.785	94.44
274.017	98.44
274.249	102.44
274.481	102.44
274.713	107.44
274.945	100.44
275.176	101.44
275.408	113.44
275.64	142.44
275.872	161.44
276.104	131.44
276.335	120.44
276.567	143.44
276.799	198.44
277.031	254.44
277.262	280.44
277.494	221.44
277.726	125.44
277.957	108.44
278.189	106.44
278.421	109.44
278.652	108.44
278.884	101.44
279.115	98.44
279.347	96.44
279.579	118.44
279.81	166.44
280.042	289.44
280.273	417.44
280.505	265.44
280.736	123.44
280.968	115.44
281.199	92.44
281.431	99.44
281.662	90.44
281.894	100.44
282.125	126.44
282.356	187.44
282.588	226.44
282.819	174.44
283.051	111.44
283.282	90.44
283.513	100.44
283.745	88.44
283.976	99.44
284.207	90.44
284.439	101.44
284.67	99.44
284.901	97.44
285.132	82.44
285.364	87.44
285.595	84.44
285.826	76.44
286.057	98.44
286.288	93.44
286.52	94.44
286.751	89.44
286.982	101.44
287.213	79.44
287.444	83.44
287.675	108.44
287.906	97.44
288.138	90.44
288.369	107.44
288.6	104.44
288.831	97.44
289.062	95.44
289.293	89.44
289.524	105.44
289.755	93.44
289.986	96.44
290.217	90.44
290.448	108.44
290.679	95.44
290.91	91.44
291.141	103.44
291.371	89.44
291.602	93.44
291.833	89.44
292.064	107.44
292.295	109.44
292.526	100.44
292.757	96.44
292.987	96.44
293.218	96.44
293.449	74.44
293.68	104.44
293.91	86.44
294.141	110.44
294.372	100.44
294.603	99.44
294.833	105.44
295.064	86.44
295.295	103.44
295.525	91.44
295.756	115.44
295.987	151.44
296.217	215.44
296.448	199.44
296.679	113.44
296.909	103.44
297.14	93.44
297.37	101.44
297.601	96.44
297.831	105.44
298.062	97.44
298.292	76.44
298.523	95.44
298.753	91.44
298.984	108.44
299.214	91.44
299.445	90.44
299.675	112.44
299.905	112.44
300.136	99.44
300.366	87.44
300.597	88.44
300.827	115.44
301.057	128.44
301.288	143.44
301.518	123.44
301.748	123.44
301.979	124.44
302.209	107.44
302.439	111.44
302.669	99.44
302.9	106.44
303.13	107.44
303.36	120.44
303.59	176.44
303.82	191.44
304.051	129.44
304.281	101.44
304.511	108.44
304.741	108.44
304.971	98.44
305.201	95.44
305.431	108.44
305.661	106.44
305.891	95.44
306.121	101.44
306.352	114.44
306.582	148.44
306.812	124.44
307.042	173.44
307.272	233.44
307.502	271.44
307.731	233.44
307.961	163.44
308.191	101.44
308.421	103.44
308.651	82.44
308.881	87.44
309.111	100.44
309.341	109.44
309.571	120.44
309.8	110.44
310.03	132.44
310.26	143.44
310.49	130.44
310.72	139.44
310.949	154.44
311.179	135.44
311.409	121.44
311.639	125.44
311.868	112.44
312.098	111.44
312.328	115.44
312.557	128.44
312.787	154.44
313.017	125.44
313.246	119.44
313.476	112.44
313.706	102.44
313.935	96.44
314.165	131.44
314.394	135.44
314.624	122.44
314.853	114.44
315.083	106.44
315.312	97.44
315.542	109.44
315.771	106.44
316.001	104.44
316.23	98.44
316.46	102.44
316.689	108.44
316.919	100.44
317.148	107.44
317.377	100.44
317.607	123.44
317.836	101.44
318.065	106.44
318.295	102.44
318.524	100.44
318.753	109.44
318.983	105.44
319.212	125.44
319.441	141.44
319.67	136.44
319.9	115.44
320.129	107.44
320.358	96.44
320.587	116.44
320.816	119.44
321.046	122.44
321.275	117.44
321.504	96.44
321.733	110.44
321.962	126.44
322.191	113.44
322.42	135.44
322.649	155.44
322.878	140.44
323.108	152.44
323.337	182.44
323.566	195.44
323.795	216.44
324.024	315.44
324.253	587.44
324.482	1275.44
324.71	2606.44
324.939	3407.44
325.168	1291.44
325.397	391.44
325.626	203.44
325.855	179.44
326.084	158.44
326.313	177.44
326.542	215.44
326.77	311.44
326.999	597.44
327.228	1217.44
327.457	2283.44
327.686	1900.44
327.914	780.44
328.143	869.44
328.372	1155.44
328.6	620.44
328.829	275.44
329.058	279.44
329.287	299.44
329.515	248.44
329.744	398.44
329.972	815.44
330.201	1762.44
330.43	2635.44
330.658	1085.44
330.887	455.44
331.115	279.44
331.344	154.44
331.572	161.44
331.801	158.44
332.03	157.44
332.258	155.44
332.486	130.44
332.715	130.44
332.943	146.44
333.172	151.44
333.4	168.44
333.629	197.44
333.857	343.44
334.085	699.44
334.314	1594.44
334.542	3182.44
334.771	2873.44
334.999	719.44
335.227	239.44
335.455	139.44
335.684	126.44
335.912	120.44
336.14	120.44
336.369	131.44
336.597	130.44
336.825	131.44
337.053	105.44
337.281	115.44
337.51	106.44
337.738	117.44
337.966	131.44
338.194	117.44
338.422	115.44
338.65	107.44
338.878	101.44
339.106	113.44
339.334	111.44
339.562	100.44
339.79	101.44
340.018	114.44
340.246	113.44
340.474	113.44
340.702	108.44
340.93	100.44
341.158	95.44
341.386	123.44
341.614	114.44
341.842	120.44
342.07	96.44
342.298	105.44
342.526	105.44
342.754	94.44
342.981	94.44
343.209	104.44
343.437	116.44
343.665	96.44
343.893	109.44
344.12	115.44
344.348	100.44
344.576	122.44
344.804	104.44
345.031	116.44
345.259	132.44
345.487	111.44
345.714	113.44
345.942	115.44
346.17	114.44
346.397	99.44
346.625	113.44
346.853	104.44
347.08	113.44
347.308	113.44
347.535	117.44
347.763	135.44
347.99	133.44
348.218	142.44
348.445	151.44
348.673	137.44
348.9	113.44
349.128	108.44
349.355	95.44
349.583	118.44
349.81	112.44
350.037	100.44
350.265	105.44
350.492	112.44
350.72	107.44
350.947	137.44
351.174	137.44
351.402	133.44
351.629	119.44
351.856	126.44
352.083	129.44
352.311	131.44
352.538	168.44
352.765	137.44
352.992	140.44
353.22	139.44
353.447	132.44
353.674	107.44
353.901	92.44
354.128	100.44
354.355	95.44
354.583	116.44
354.81	92.44
355.037	99.44
355.264	104.44
355.491	90.44
355.718	92.44
355.945	107.44
356.172	113.44
356.399	106.44
356.626	94.44
356.853	101.44
357.08	93.44
357.307	86.44
357.534	94.44
357.761	94.44
357.988	92.44
358.215	105.44
358.441	91.44
358.668	98.44
358.895	93.44
359.122	90.44
359.349	93.44
359.576	103.44
359.802	146.44
360.029	187.44
360.256	171.44
360.483	131.44
360.709	102.44
360.936	106.44
361.163	126.44
361.39	127.44
361.616	126.44
361.843	100.44
362.07	122.44
362.296	132.44
362.523	110.44
362.749	123.44
362.976	103.44
363.203	97.44
363.429	79.44
363.656	94.44
363.882	97.44
364.109	97.44
364.335	107.44
364.562	91.44
364.788	94.44
365.015	108.44
365.241	115.44
365.468	150.44
365.694	153.44
365.92	137.44
366.147	103.44
366.373	102.44
366.599	102.44
366.826	114.44
367.052	105.44
367.278	100.44
367.505	107.44
367.731	109.44
367.957	106.44
368.184	108.44
368.41	129.44
368.636	155.44
368.862	167.44
369.089	152.44
369.315	101.44
369.541	113.44
369.767	89.44
369.993	97.44
370.219	107.44
370.445	106.44
370.672	99.44
370.898	94.44
371.124	83.44
371.35	103.44
371.576	102.44
371.802	89.44
372.028	79.44
372.254	75.44
372.48	86.44
372.706	82.44
372.932	95.44
373.158	82.44
373.384	89.44
373.61	96.44
373.835	83.44
374.061	104.44
374.287	101.44
374.513	101.44
374.739	96.44
374.965	102.44
375.191	75.44
375.416	96.44
375.642	93.44
375.868	99.44
376.094	101.44
376.319	104.44
376.545	89.44
376.771	88.44
376.997	89.44
377.222	97.44
377.448	96.44
377.674	95.44
377.899	106.44
378.125	84.44
378.35	85.44
378.576	97.44
378.802	83.44
379.027	78.44
379.253	107.44
379.478	87.44
379.704	89.44
379.929	86.44
380.155	108.44
380.38	102.44
380.606	98.44
380.831	105.44
381.057	112.44
381.282	97.44
381.507	99.44
381.733	107.44
381.958	98.44
382.184	104.44
382.409	104.44
382.634	118.44
382.86	113.44
383.085	88.44
383.31	108.44
383.535	83.44
383.761	99.44
383.986	89.44
384.211	95.44
384.436	91.44
384.662	92.44
384.887	108.44
385.112	102.44
385.337	101.44
385.562	96.44
385.787	102.44
386.013	120.44
386.238	129.44
386.463	113.44
386.688	102.44
386.913	108.44
387.138	96.44
387.363	101.44
387.588	100.44
387.813	100.44
388.038	123.44
388.263	102.44
388.488	113.44
388.713	112.44
388.938	101.44
389.163	93.44
389.387	104.44
389.612	102.44
389.837	85.44
390.062	93.44
390.287	105.44
390.512	82.44
390.736	101.44
390.961	107.44
391.186	96.44
391.411	79.44
391.636	93.44
391.86	93.44
392.085	93.44
392.31	95.44
392.534	74.44
392.759	104.44
392.984	87.44
393.208	91.44
393.433	108.44
393.658	79.44
393.882	88.44
394.107	100.44
394.331	91.44
394.556	84.44
394.78	85.44
395.005	108.44
395.229	84.44
395.454	84.44
395.678	92.44
395.903	91.44
396.127	82.44
396.352	92.44
396.576	104.44
396.801	84.44
397.025	107.44
397.249	94.44
397.474	98.44
397.698	71.44
397.922	101.44
398.147	95.44
398.371	90.44
398.595	99.44
398.82	77.44
399.044	88.44
399.268	91.44
399.492	95.44
399.717	96.44
399.941	113.44
400.165	93.44
400.389	109.44
400.613	100.44
400.837	89.44
401.062	117.44
401.286	105.44
401.51	101.44
401.734	103.44
401.958	125.44
402.182	191.44
402.406	304.44
402.63	191.44
402.854	115.44
403.078	107.44
403.302	99.44
403.526	87.44
403.75	105.44
403.974	87.44
404.198	101.44
404.422	96.44
404.645	105.44
404.869	123.44
405.093	143.44
405.317	172.44
405.541	166.44
405.765	142.44
405.988	178.44
406.212	308.44
406.436	501.44
406.66	304.44
406.883	158.44
407.107	127.44
407.331	114.44
407.555	113.44
407.778	136.44
408.002	101.44
408.226	104.44
408.449	84.44
408.673	104.44
408.896	106.44
409.12	116.44
409.344	96.44
409.567	84.44
409.791	97.44
410.014	101.44
410.238	95.44
410.461	91.44
410.685	93.44
410.908	95.44
411.132	128.44
411.355	117.44
411.578	105.44
411.802	91.44
412.025	103.44
412.249	121.44
412.472	139.44
412.695	139.44
412.919	119.44
413.142	108.44
413.365	102.44
413.589	87.44
413.812	91.44
414.035	110.44
414.258	102.44
414.482	90.44
414.705	106.44
414.928	104.44
415.151	91.44
415.374	93.44
415.597	83.44
415.821	106.44
416.044	92.44
416.267	105.44
416.49	107.44
416.713	101.44
416.936	108.44
417.159	118.44
417.382	103.44
417.605	130.44
417.828	127.44
418.051	91.44
418.274	93.44
418.497	89.44
418.72	93.44
418.943	103.44
419.166	111.44
419.389	96.44
419.611	105.44
419.834	92.44
420.057	97.44
420.28	114.44
420.503	92.44
420.726	105.44
420.948	98.44
421.171	111.44
421.394	120.44
421.617	93.44
421.839	85.44
422.062	95.44
422.285	96.44
422.507	113.44
422.73	120.44
422.953	119.44
423.175	109.44
423.398	109.44
423.621	96.44
423.843	73.44
424.066	97.44
424.288	101.44
424.511	100.44
424.733	117.44
424.956	138.44
425.178	138.44
425.401	117.44
425.623	114.44
425.846	109.44
426.068	122.44
426.291	114.44
426.513	100.44
426.735	91.44
426.958	119.44
427.18	152.44
427.402	231.44
427.625	376.44
427.847	308.44
428.069	235.44
428.292	163.44
428.514	107.44
428.736	96.44
428.958	95.44
429.181	95.44
429.403	99.44
429.625	107.44
429.847	105.44
430.069	117.44
430.292	101.44
430.514	106.44
430.736	80.44
430.958	98.44
431.18	105.44
431.402	91.44
431.624	83.44
431.846	83.44
432.068	85.44
432.29	84.44
432.512	108.44
432.734	100.44
432.956	92.44
433.178	107.44
433.4	109.44
433.622	97.44
433.844	95.44
434.066	91.44
434.287	94.44
434.509	85.44
434.731	97.44
434.953	94.44
435.175	96.44
435.397	88.44
435.618	96.44
435.84	117.44
436.062	153.44
436.284	143.44
436.505	116.44
436.727	104.44
436.949	104.44
437.17	86.44
437.392	89.44
437.614	109.44
437.835	152.44
438.057	211.44
438.278	156.44
438.5	131.44
438.721	155.44
438.943	134.44
439.165	113.44
439.386	104.44
439.608	107.44
439.829	116.44
440.05	156.44
440.272	204.44
440.493	137.44
440.715	100.44
440.936	94.44
441.158	98.44
441.379	110.44
441.6	109.44
441.822	123.44
442.043	112.44
442.264	140.44
442.486	123.44
442.707	105.44
442.928	153.44
443.149	213.44
443.371	233.44
443.592	181.44
443.813	136.44
444.034	137.44
444.255	101.44
444.476	112.44
444.698	108.44
444.919	102.44
445.14	129.44
445.361	144.44
445.582	143.44
445.803	213.44
446.024	208.44
446.245	195.44
446.466	129.44
446.687	105.44
446.908	110.44
447.129	99.44
447.35	102.44
447.571	109.44
447.792	114.44
448.013	128.44
448.234	154.44
448.455	125.44
448.675	143.44
448.896	139.44
449.117	109.44
449.338	122.44
449.559	156.44
449.779	160.44
450	121.44
450.221	116.44
450.442	95.44
450.662	120.44
450.883	168.44
451.104	190.44
451.324	140.44
451.545	105.44
451.766	99.44
451.986	100.44
452.207	107.44
452.428	115.44
452.648	139.44
452.869	163.44
453.089	179.44
453.31	195.44
453.53	105.44
453.751	120.44
453.971	173.44
454.192	175.44
454.412	128.44
454.633	90.44
454.853	91.44
455.073	91.44
455.294	112.44
455.514	125.44
455.734	108.44
455.955	86.44
456.175	102.44
456.395	95.44
456.616	89.44
456.836	99.44
457.056	89.44
457.276	79.44
457.497	94.44
457.717	104.44
457.937	88.44
458.157	103.44
458.377	112.44
458.598	160.44
458.818	319.44
459.038	339.44
459.258	191.44
459.478	116.44
459.698	91.44
459.918	88.44
460.138	90.44
460.358	73.44
460.578	88.44
460.798	95.44
461.018	105.44
461.238	110.44
461.458	94.44
461.678	109.44
461.898	98.44
462.118	79.44
462.338	105.44
462.558	90.44
462.777	107.44
462.997	105.44
463.217	144.44
463.437	125.44
463.657	113.44
463.876	102.44
464.096	106.44
464.316	120.44
464.536	111.44
464.755	125.44
464.975	164.44
465.195	361.44
465.414	377.44
465.634	131.44
465.854	105.44
466.073	95.44
466.293	93.44
466.512	83.44
466.732	96.44
466.951	95.44
467.171	117.44
467.391	144.44
467.61	204.44
467.829	339.44
468.049	1046.44
468.268	1614.44
468.488	359.44
468.707	163.44
468.927	113.44
469.146	100.44
469.365	111.44
469.585	124.44
469.804	126.44
470.023	147.44
470.243	114.44
470.462	149.44
470.681	193.44
470.901	125.44
471.12	128.44
471.339	133.44
471.558	163.44
471.777	219.44
471.997	512.44
472.216	2090.44
472.435	4803.44
472.654	995.44
472.873	239.44
473.092	138.44
473.311	115.44
473.53	105.44
473.749	114.44
473.968	113.44
474.187	148.44
474.406	115.44
474.625	95.44
474.844	119.44
475.063	96.44
475.282	101.44
475.501	112.44
475.72	98.44
475.939	98.44
476.158	101.44
476.377	99.44
476.596	103.44
476.814	117.44
477.033	119.44
477.252	88.44
477.471	115.44
477.69	110.44
477.908	97.44
478.127	113.44
478.346	109.44
478.564	123.44
478.783	133.44
479.002	122.44
479.22	126.44
479.439	151.44
479.658	164.44
479.876	156.44
480.095	162.44
480.313	201.44
480.532	229.44
480.751	454.44
480.969	1819.44
481.188	7947.44
481.406	4440.44
481.624	584.44
481.843	182.44
482.061	144.44
482.28	137.44
482.498	113.44
482.717	110.44
482.935	96.44
483.153	100.44
483.372	92.44
483.59	96.44
483.808	101.44
484.027	81.44
484.245	107.44
484.463	112.44
484.681	111.44
484.9	106.44
485.118	106.44
485.336	104.44
485.554	104.44
485.772	108.44
485.99	106.44
486.209	114.44
486.427	125.44
486.645	153.44
486.863	164.44
487.081	124.44
487.299	109.44
487.517	109.44
487.735	93.44
487.953	100.44
488.171	113.44
488.389	121.44
488.607	119.44
488.825	108.44
489.043	100.44
489.261	93.44
489.479	106.44
489.696	91.44
489.914	92.44
490.132	105.44
490.35	104.44
490.568	90.44
490.786	92.44
491.003	105.44
491.221	99.44
491.439	100.44
491.657	105.44
491.874	98.44
492.092	97.44
492.31	102.44
492.527	116.44
492.745	112.44
492.963	100.44
493.18	77.44
493.398	99.44
493.615	95.44
493.833	95.44
494.05	104.44
494.268	100.44
494.485	113.44
494.703	99.44
494.92	107.44
495.138	99.44
495.355	113.44
495.573	97.44
495.79	94.44
496.008	100.44
496.225	93.44
496.442	90.44
496.66	93.44
496.877	109.44
497.094	103.44
497.312	100.44
497.529	99.44
497.746	105.44
497.963	96.44
498.181	97.44
498.398	122.44
498.615	112.44
498.832	118.44
499.049	116.44
499.267	95.44
499.484	87.44
499.701	85.44
499.918	96.44
500.135	101.44
500.352	92.44
500.569	121.44
500.786	104.44
501.003	99.44
501.22	93.44
501.437	108.44
501.654	133.44
501.871	164.44
502.088	118.44
502.305	100.44
502.522	92.44
502.739	101.44
502.956	89.44
503.172	111.44
503.389	128.44
503.606	163.44
503.823	124.44
504.04	114.44
504.256	97.44
504.473	105.44
504.69	94.44
504.907	99.44
505.123	97.44
505.34	102.44
505.557	112.44
505.773	108.44
505.99	82.44
506.207	102.44
506.423	86.44
506.64	95.44
506.856	95.44
507.073	109.44
507.289	105.44
507.506	125.44
507.722	177.44
507.939	185.44
508.155	124.44
508.372	106.44
508.588	98.44
508.805	112.44
509.021	92.44
