Data from Circ_1999_H10_HRD10591_00011.txt Node
Date: Wed Jan 03 11:23:14 EST 2024
User: Yrep
Spectrometer: HR+D1059
Trigger mode: 1
Integration Time (sec): 1.000000E-1
Scans to average: 1
Electric dark correction enabled: true
Nonlinearity correction enabled: false
Boxcar width: 0
XAxis mode: Wavelengths
Number of Pixels in Spectrum: 2048
>>>>>Begin Spectral Data<<<<<
223.165	-23.12
223.4	-23.12
223.635	-23.12
223.869	-18.12
224.104	-22.12
224.338	-7.12
224.573	-9.12
224.808	-8.12
225.042	-3.12
225.277	-10.12
225.511	1.88
225.746	-8.12
225.98	-4.12
226.215	11.88
226.449	16.88
226.683	31.88
226.918	20.88
227.152	29.88
227.387	48.88
227.621	25.88
227.856	34.88
228.09	44.88
228.324	39.88
228.559	61.88
228.793	55.88
229.027	49.88
229.262	78.88
229.496	85.88
229.73	100.88
229.964	109.88
230.199	78.88
230.433	70.88
230.667	90.88
230.901	84.88
231.136	78.88
231.37	80.88
231.604	64.88
231.838	75.88
232.072	71.88
232.306	77.88
232.541	80.88
232.775	85.88
233.009	90.88
233.243	86.88
233.477	69.88
233.711	86.88
233.945	78.88
234.179	74.88
234.413	91.88
234.647	95.88
234.881	84.88
235.115	75.88
235.349	83.88
235.583	85.88
235.817	80.88
236.051	93.88
236.285	85.88
236.519	97.88
236.753	77.88
236.987	79.88
237.221	94.88
237.455	89.88
237.689	74.88
237.922	81.88
238.156	79.88
238.39	87.88
238.624	73.88
238.858	75.88
239.091	75.88
239.325	89.88
239.559	98.88
239.793	90.88
240.027	82.88
240.26	91.88
240.494	80.88
240.728	93.88
240.961	88.88
241.195	87.88
241.429	94.88
241.662	76.88
241.896	77.88
242.13	75.88
242.363	58.88
242.597	73.88
242.83	81.88
243.064	79.88
243.298	90.88
243.531	71.88
243.765	76.88
243.998	83.88
244.232	81.88
244.465	97.88
244.699	75.88
244.932	92.88
245.166	83.88
245.399	82.88
245.633	81.88
245.866	82.88
246.099	54.88
246.333	85.88
246.566	77.88
246.8	94.88
247.033	87.88
247.266	97.88
247.5	74.88
247.733	101.88
247.966	87.88
248.2	82.88
248.433	87.88
248.666	71.88
248.899	86.88
249.133	79.88
249.366	101.88
249.599	110.88
249.832	78.88
250.066	91.88
250.299	84.88
250.532	108.88
250.765	84.88
250.998	86.88
251.231	95.88
251.465	98.88
251.698	90.88
251.931	87.88
252.164	79.88
252.397	84.88
252.63	83.88
252.863	81.88
253.096	61.88
253.329	71.88
253.562	93.88
253.795	94.88
254.028	87.88
254.261	81.88
254.494	95.88
254.727	86.88
254.96	88.88
255.193	89.88
255.426	87.88
255.659	90.88
255.892	97.88
256.124	85.88
256.357	87.88
256.59	80.88
256.823	80.88
257.056	93.88
257.289	84.88
257.521	85.88
257.754	80.88
257.987	87.88
258.22	93.88
258.452	94.88
258.685	100.88
258.918	88.88
259.151	93.88
259.383	78.88
259.616	87.88
259.849	87.88
260.081	92.88
260.314	78.88
260.547	75.88
260.779	94.88
261.012	93.88
261.244	95.88
261.477	105.88
261.71	116.88
261.942	152.88
262.175	149.88
262.407	87.88
262.64	89.88
262.872	89.88
263.105	90.88
263.337	96.88
263.57	87.88
263.802	96.88
264.035	99.88
264.267	97.88
264.499	75.88
264.732	92.88
264.964	73.88
265.197	83.88
265.429	105.88
265.661	71.88
265.894	89.88
266.126	92.88
266.358	79.88
266.591	88.88
266.823	86.88
267.055	83.88
267.287	79.88
267.52	73.88
267.752	75.88
267.984	87.88
268.216	90.88
268.448	75.88
268.681	82.88
268.913	91.88
269.145	94.88
269.377	96.88
269.609	100.88
269.841	86.88
270.073	74.88
270.306	87.88
270.538	92.88
270.77	90.88
271.002	87.88
271.234	97.88
271.466	105.88
271.698	78.88
271.93	89.88
272.162	94.88
272.394	89.88
272.626	98.88
272.858	86.88
273.09	84.88
273.322	85.88
273.553	96.88
273.785	96.88
274.017	81.88
274.249	86.88
274.481	74.88
274.713	107.88
274.945	100.88
275.176	88.88
275.408	105.88
275.64	114.88
275.872	117.88
276.104	105.88
276.335	89.88
276.567	125.88
276.799	152.88
277.031	177.88
277.262	195.88
277.494	142.88
277.726	104.88
277.957	91.88
278.189	99.88
278.421	93.88
278.652	80.88
278.884	74.88
279.115	89.88
279.347	106.88
279.579	105.88
279.81	130.88
280.042	177.88
280.273	232.88
280.505	164.88
280.736	108.88
280.968	90.88
281.199	96.88
281.431	86.88
281.662	84.88
281.894	86.88
282.125	119.88
282.356	154.88
282.588	173.88
282.819	151.88
283.051	79.88
283.282	93.88
283.513	92.88
283.745	85.88
283.976	90.88
284.207	98.88
284.439	88.88
284.67	103.88
284.901	84.88
285.132	94.88
285.364	90.88
285.595	81.88
285.826	73.88
286.057	94.88
286.288	87.88
286.52	97.88
286.751	89.88
286.982	102.88
287.213	102.88
287.444	92.88
287.675	93.88
287.906	90.88
288.138	90.88
288.369	88.88
288.6	88.88
288.831	100.88
289.062	87.88
289.293	103.88
289.524	91.88
289.755	96.88
289.986	105.88
290.217	82.88
290.448	97.88
290.679	83.88
290.91	93.88
291.141	104.88
291.371	108.88
291.602	97.88
291.833	88.88
292.064	88.88
292.295	87.88
292.526	95.88
292.757	94.88
292.987	91.88
293.218	102.88
293.449	95.88
293.68	95.88
293.91	72.88
294.141	95.88
294.372	97.88
294.603	86.88
294.833	79.88
295.064	89.88
295.295	89.88
295.525	97.88
295.756	109.88
295.987	128.88
296.217	200.88
296.448	157.88
296.679	105.88
296.909	95.88
297.14	76.88
297.37	99.88
297.601	95.88
297.831	95.88
298.062	82.88
298.292	91.88
298.523	84.88
298.753	85.88
298.984	93.88
299.214	90.88
299.445	103.88
299.675	83.88
299.905	109.88
300.136	83.88
300.366	100.88
300.597	93.88
300.827	105.88
301.057	123.88
301.288	114.88
301.518	113.88
301.748	105.88
301.979	103.88
302.209	104.88
302.439	116.88
302.669	94.88
302.9	94.88
303.13	110.88
303.36	122.88
303.59	145.88
303.82	134.88
304.051	107.88
304.281	106.88
304.511	97.88
304.741	89.88
304.971	89.88
305.201	85.88
305.431	100.88
305.661	98.88
305.891	93.88
306.121	113.88
306.352	109.88
306.582	122.88
306.812	112.88
307.042	106.88
307.272	158.88
307.502	167.88
307.731	173.88
307.961	136.88
308.191	104.88
308.421	108.88
308.651	96.88
308.881	104.88
309.111	82.88
309.341	110.88
309.571	101.88
309.8	107.88
310.03	111.88
310.26	108.88
310.49	96.88
310.72	112.88
310.949	128.88
311.179	133.88
311.409	115.88
311.639	101.88
311.868	111.88
312.098	111.88
312.328	106.88
312.557	126.88
312.787	117.88
313.017	127.88
313.246	106.88
313.476	99.88
313.706	96.88
313.935	104.88
314.165	113.88
314.394	119.88
314.624	115.88
314.853	103.88
315.083	106.88
315.312	105.88
315.542	96.88
315.771	98.88
316.001	92.88
316.23	93.88
316.46	105.88
316.689	86.88
316.919	98.88
317.148	118.88
317.377	97.88
317.607	107.88
317.836	110.88
318.065	96.88
318.295	99.88
318.524	87.88
318.753	85.88
318.983	90.88
319.212	109.88
319.441	138.88
319.67	123.88
319.9	95.88
320.129	111.88
320.358	95.88
320.587	107.88
320.816	111.88
321.046	102.88
321.275	106.88
321.504	105.88
321.733	103.88
321.962	112.88
322.191	120.88
322.42	121.88
322.649	120.88
322.878	131.88
323.108	135.88
323.337	153.88
323.566	153.88
323.795	191.88
324.024	260.88
324.253	499.88
324.482	1041.88
324.71	2166.88
324.939	2767.88
325.168	1020.88
325.397	301.88
325.626	184.88
325.855	146.88
326.084	138.88
326.313	148.88
326.542	171.88
326.77	254.88
326.999	522.88
327.228	1094.88
327.457	1968.88
327.686	1563.88
327.914	569.88
328.143	538.88
328.372	658.88
328.6	347.88
328.829	208.88
329.058	209.88
329.287	224.88
329.515	198.88
329.744	270.88
329.972	465.88
330.201	967.88
330.43	1309.88
330.658	591.88
330.887	313.88
331.115	204.88
331.344	161.88
331.572	151.88
331.801	146.88
332.03	136.88
332.258	120.88
332.486	112.88
332.715	123.88
332.943	109.88
333.172	125.88
333.4	130.88
333.629	164.88
333.857	238.88
334.085	437.88
334.314	855.88
334.542	1683.88
334.771	1530.88
334.999	414.88
335.227	171.88
335.455	139.88
335.684	117.88
335.912	118.88
336.14	110.88
336.369	119.88
336.597	124.88
336.825	108.88
337.053	98.88
337.281	102.88
337.51	106.88
337.738	110.88
337.966	127.88
338.194	120.88
338.422	114.88
338.65	95.88
338.878	91.88
339.106	94.88
339.334	101.88
339.562	107.88
339.79	102.88
340.018	101.88
340.246	108.88
340.474	98.88
340.702	98.88
340.93	104.88
341.158	106.88
341.386	110.88
341.614	105.88
341.842	87.88
342.07	107.88
342.298	103.88
342.526	93.88
342.754	109.88
342.981	79.88
343.209	95.88
343.437	109.88
343.665	94.88
343.893	102.88
344.12	93.88
344.348	87.88
344.576	82.88
344.804	104.88
345.031	125.88
345.259	111.88
345.487	117.88
345.714	109.88
345.942	102.88
346.17	92.88
346.397	107.88
346.625	92.88
346.853	103.88
347.08	105.88
347.308	101.88
347.535	102.88
347.763	113.88
347.99	110.88
348.218	110.88
348.445	143.88
348.673	114.88
348.9	95.88
349.128	108.88
349.355	92.88
349.583	92.88
349.81	94.88
350.037	92.88
350.265	105.88
350.492	105.88
350.72	105.88
350.947	106.88
351.174	136.88
351.402	112.88
351.629	127.88
351.856	109.88
352.083	122.88
352.311	128.88
352.538	143.88
352.765	129.88
352.992	131.88
353.22	131.88
353.447	126.88
353.674	113.88
353.901	106.88
354.128	95.88
354.355	104.88
354.583	109.88
354.81	111.88
355.037	102.88
355.264	114.88
355.491	107.88
355.718	88.88
355.945	94.88
356.172	98.88
356.399	101.88
356.626	95.88
356.853	89.88
357.08	98.88
357.307	90.88
357.534	105.88
357.761	113.88
357.988	104.88
358.215	100.88
358.441	113.88
358.668	99.88
358.895	93.88
359.122	102.88
359.349	98.88
359.576	108.88
359.802	134.88
360.029	162.88
360.256	149.88
360.483	127.88
360.709	93.88
360.936	104.88
361.163	112.88
361.39	113.88
361.616	99.88
361.843	90.88
362.07	102.88
362.296	114.88
362.523	97.88
362.749	109.88
362.976	101.88
363.203	108.88
363.429	108.88
363.656	119.88
363.882	106.88
364.109	93.88
364.335	97.88
364.562	106.88
364.788	106.88
365.015	102.88
365.241	102.88
365.468	114.88
365.694	127.88
365.92	104.88
366.147	108.88
366.373	85.88
366.599	98.88
366.826	89.88
367.052	106.88
367.278	93.88
367.505	101.88
367.731	99.88
367.957	86.88
368.184	104.88
368.41	115.88
368.636	133.88
368.862	138.88
369.089	115.88
369.315	91.88
369.541	80.88
369.767	87.88
369.993	94.88
370.219	104.88
370.445	101.88
370.672	78.88
370.898	103.88
371.124	99.88
371.35	87.88
371.576	90.88
371.802	78.88
372.028	88.88
372.254	94.88
372.48	100.88
372.706	115.88
372.932	89.88
373.158	96.88
373.384	113.88
373.61	101.88
373.835	114.88
374.061	97.88
374.287	95.88
374.513	99.88
374.739	95.88
374.965	98.88
375.191	111.88
375.416	95.88
375.642	96.88
375.868	97.88
376.094	94.88
376.319	86.88
376.545	89.88
376.771	96.88
376.997	87.88
377.222	90.88
377.448	87.88
377.674	103.88
377.899	95.88
378.125	96.88
378.35	97.88
378.576	91.88
378.802	101.88
379.027	88.88
379.253	93.88
379.478	105.88
379.704	109.88
379.929	97.88
380.155	94.88
380.38	99.88
380.606	104.88
380.831	109.88
381.057	111.88
381.282	105.88
381.507	98.88
381.733	95.88
381.958	102.88
382.184	104.88
382.409	122.88
382.634	109.88
382.86	107.88
383.085	102.88
383.31	90.88
383.535	108.88
383.761	120.88
383.986	106.88
384.211	113.88
384.436	97.88
384.662	104.88
384.887	107.88
385.112	126.88
385.337	140.88
385.562	128.88
385.787	121.88
386.013	127.88
386.238	136.88
386.463	134.88
386.688	119.88
386.913	118.88
387.138	117.88
387.363	110.88
387.588	114.88
387.813	121.88
388.038	118.88
388.263	130.88
388.488	134.88
388.713	108.88
388.938	97.88
389.163	113.88
389.387	101.88
389.612	87.88
389.837	88.88
390.062	79.88
390.287	91.88
390.512	79.88
390.736	86.88
390.961	109.88
391.186	96.88
391.411	86.88
391.636	82.88
391.86	95.88
392.085	96.88
392.31	89.88
392.534	85.88
392.759	96.88
392.984	97.88
393.208	100.88
393.433	118.88
393.658	93.88
393.882	97.88
394.107	93.88
394.331	89.88
394.556	104.88
394.78	85.88
395.005	88.88
395.229	99.88
395.454	91.88
395.678	82.88
395.903	90.88
396.127	100.88
396.352	98.88
396.576	105.88
396.801	80.88
397.025	101.88
397.249	97.88
397.474	98.88
397.698	92.88
397.922	90.88
398.147	93.88
398.371	94.88
398.595	92.88
398.82	86.88
399.044	102.88
399.268	103.88
399.492	79.88
399.717	98.88
399.941	104.88
400.165	88.88
400.389	90.88
400.613	95.88
400.837	84.88
401.062	74.88
401.286	95.88
401.51	88.88
401.734	104.88
401.958	100.88
402.182	170.88
402.406	220.88
402.63	168.88
402.854	125.88
403.078	96.88
403.302	98.88
403.526	94.88
403.75	82.88
403.974	94.88
404.198	95.88
404.422	107.88
404.645	102.88
404.869	111.88
405.093	122.88
405.317	154.88
405.541	146.88
405.765	118.88
405.988	149.88
406.212	216.88
406.436	329.88
406.66	234.88
406.883	129.88
407.107	113.88
407.331	106.88
407.555	121.88
407.778	112.88
408.002	98.88
408.226	96.88
408.449	109.88
408.673	93.88
408.896	93.88
409.12	89.88
409.344	103.88
409.567	98.88
409.791	80.88
410.014	91.88
410.238	93.88
410.461	104.88
410.685	99.88
410.908	109.88
411.132	101.88
411.355	121.88
411.578	98.88
411.802	97.88
412.025	93.88
412.249	106.88
412.472	135.88
412.695	143.88
412.919	124.88
413.142	101.88
413.365	91.88
413.589	94.88
413.812	97.88
414.035	110.88
414.258	81.88
414.482	102.88
414.705	92.88
414.928	99.88
415.151	102.88
415.374	94.88
415.597	105.88
415.821	101.88
416.044	88.88
416.267	102.88
416.49	103.88
416.713	96.88
416.936	86.88
417.159	90.88
417.382	87.88
417.605	103.88
417.828	115.88
418.051	107.88
418.274	81.88
418.497	85.88
418.72	86.88
418.943	104.88
419.166	112.88
419.389	90.88
419.611	107.88
419.834	116.88
420.057	95.88
420.28	96.88
420.503	92.88
420.726	98.88
420.948	93.88
421.171	99.88
421.394	96.88
421.617	78.88
421.839	75.88
422.062	97.88
422.285	88.88
422.507	96.88
422.73	111.88
422.953	89.88
423.175	97.88
423.398	92.88
423.621	100.88
423.843	94.88
424.066	103.88
424.288	97.88
424.511	103.88
424.733	106.88
424.956	115.88
425.178	112.88
425.401	93.88
425.623	111.88
425.846	98.88
426.068	110.88
426.291	107.88
426.513	105.88
426.735	105.88
426.958	106.88
427.18	130.88
427.402	199.88
427.625	280.88
427.847	246.88
428.069	215.88
428.292	130.88
428.514	97.88
428.736	85.88
428.958	88.88
429.181	90.88
429.403	91.88
429.625	97.88
429.847	106.88
430.069	127.88
430.292	99.88
430.514	84.88
430.736	91.88
430.958	96.88
431.18	93.88
431.402	93.88
431.624	102.88
431.846	93.88
432.068	81.88
432.29	85.88
432.512	90.88
432.734	95.88
432.956	86.88
433.178	103.88
433.4	95.88
433.622	89.88
433.844	88.88
434.066	105.88
434.287	97.88
434.509	106.88
434.731	97.88
434.953	96.88
435.175	82.88
435.397	101.88
435.618	103.88
435.84	117.88
436.062	129.88
436.284	127.88
436.505	107.88
436.727	98.88
436.949	98.88
437.17	105.88
437.392	86.88
437.614	103.88
437.835	140.88
438.057	163.88
438.278	139.88
438.5	115.88
438.721	141.88
438.943	109.88
439.165	103.88
439.386	98.88
439.608	107.88
439.829	124.88
440.05	159.88
440.272	187.88
440.493	111.88
440.715	102.88
440.936	110.88
441.158	80.88
441.379	93.88
441.6	110.88
441.822	103.88
442.043	116.88
442.264	119.88
442.486	108.88
442.707	99.88
442.928	128.88
443.149	197.88
443.371	187.88
443.592	150.88
443.813	144.88
444.034	135.88
444.255	96.88
444.476	73.88
444.698	90.88
444.919	83.88
445.14	140.88
445.361	123.88
445.582	138.88
445.803	204.88
446.024	183.88
446.245	167.88
446.466	123.88
446.687	93.88
446.908	104.88
447.129	98.88
447.35	99.88
447.571	115.88
447.792	109.88
448.013	103.88
448.234	124.88
448.455	104.88
448.675	146.88
448.896	138.88
449.117	122.88
449.338	94.88
449.559	141.88
449.779	159.88
450	100.88
450.221	91.88
450.442	81.88
450.662	116.88
450.883	142.88
451.104	140.88
451.324	125.88
451.545	97.88
451.766	99.88
451.986	90.88
452.207	96.88
452.428	106.88
452.648	109.88
452.869	135.88
453.089	133.88
453.31	157.88
453.53	111.88
453.751	91.88
453.971	121.88
454.192	150.88
454.412	94.88
454.633	98.88
454.853	90.88
455.073	82.88
455.294	97.88
455.514	119.88
455.734	98.88
455.955	93.88
456.175	85.88
456.395	83.88
456.616	100.88
456.836	86.88
457.056	90.88
457.276	92.88
457.497	97.88
457.717	94.88
457.937	84.88
458.157	98.88
458.377	110.88
458.598	135.88
458.818	225.88
459.038	247.88
459.258	161.88
459.478	109.88
459.698	86.88
459.918	97.88
460.138	90.88
460.358	87.88
460.578	97.88
460.798	92.88
461.018	108.88
461.238	89.88
461.458	93.88
461.678	91.88
461.898	76.88
462.118	91.88
462.338	86.88
462.558	86.88
462.777	88.88
462.997	96.88
463.217	105.88
463.437	99.88
463.657	94.88
463.876	100.88
464.096	94.88
464.316	98.88
464.536	114.88
464.755	106.88
464.975	136.88
465.195	283.88
465.414	277.88
465.634	113.88
465.854	89.88
466.073	81.88
466.293	93.88
466.512	85.88
466.732	94.88
466.951	96.88
467.171	98.88
467.391	111.88
467.61	161.88
467.829	211.88
468.049	513.88
468.268	747.88
468.488	208.88
468.707	96.88
468.927	108.88
469.146	98.88
469.365	97.88
469.585	105.88
469.804	114.88
470.023	108.88
470.243	108.88
470.462	124.88
470.681	164.88
470.901	122.88
471.12	105.88
471.339	112.88
471.558	127.88
471.777	141.88
471.997	273.88
472.216	1007.88
472.435	2241.88
472.654	513.88
472.873	148.88
473.092	94.88
473.311	103.88
473.53	93.88
473.749	87.88
473.968	109.88
474.187	148.88
474.406	109.88
474.625	101.88
474.844	98.88
475.063	90.88
475.282	90.88
475.501	81.88
475.72	74.88
475.939	99.88
476.158	86.88
476.377	90.88
476.596	87.88
476.814	85.88
477.033	117.88
477.252	91.88
477.471	97.88
477.69	103.88
477.908	93.88
478.127	96.88
478.346	82.88
478.564	108.88
478.783	114.88
479.002	106.88
479.22	109.88
479.439	130.88
479.658	150.88
479.876	131.88
480.095	123.88
480.313	137.88
480.532	161.88
480.751	267.88
480.969	942.88
481.188	3950.88
481.406	2233.88
481.624	334.88
481.843	143.88
482.061	109.88
482.28	95.88
482.498	101.88
482.717	92.88
482.935	99.88
483.153	85.88
483.372	93.88
483.59	85.88
483.808	104.88
484.027	91.88
484.245	92.88
484.463	93.88
484.681	90.88
484.9	95.88
485.118	78.88
485.336	105.88
485.554	108.88
485.772	96.88
485.99	110.88
486.209	112.88
486.427	109.88
486.645	123.88
486.863	139.88
487.081	112.88
487.299	108.88
487.517	106.88
487.735	100.88
487.953	93.88
488.171	93.88
488.389	105.88
488.607	97.88
488.825	102.88
489.043	102.88
489.261	94.88
489.479	87.88
489.696	103.88
489.914	71.88
490.132	92.88
490.35	95.88
490.568	105.88
490.786	91.88
491.003	99.88
491.221	97.88
491.439	103.88
491.657	101.88
491.874	101.88
492.092	91.88
492.31	105.88
492.527	107.88
492.745	113.88
492.963	90.88
493.18	99.88
493.398	94.88
493.615	93.88
493.833	88.88
494.05	89.88
494.268	102.88
494.485	90.88
494.703	90.88
494.92	98.88
495.138	99.88
495.355	99.88
495.573	95.88
495.79	91.88
496.008	90.88
496.225	87.88
496.442	102.88
496.66	104.88
496.877	87.88
497.094	101.88
497.312	95.88
497.529	106.88
497.746	101.88
497.963	94.88
498.181	98.88
498.398	104.88
498.615	122.88
498.832	104.88
499.049	86.88
499.267	87.88
499.484	83.88
499.701	95.88
499.918	80.88
500.135	87.88
500.352	94.88
500.569	97.88
500.786	93.88
501.003	104.88
501.22	109.88
501.437	95.88
501.654	98.88
501.871	118.88
502.088	104.88
502.305	103.88
502.522	82.88
502.739	86.88
502.956	88.88
503.172	94.88
503.389	119.88
503.606	123.88
503.823	108.88
504.04	101.88
504.256	97.88
504.473	74.88
504.69	100.88
504.907	104.88
505.123	95.88
505.34	105.88
505.557	94.88
505.773	88.88
505.99	96.88
506.207	96.88
506.423	91.88
506.64	92.88
506.856	90.88
507.073	93.88
507.289	106.88
507.506	117.88
507.722	150.88
507.939	155.88
508.155	100.88
508.372	98.88
508.588	102.88
508.805	99.88
509.021	111.88
509.238	106.88
509.454	106.88
509.67	115.88
509.887	120.88
510.103	152.88
510.319	279.88
510.536	1073.88
510.752	3813.88
510.968	981.88
511.184	200.88
