Data from Circ_1999_H10_HRD10591_00006.txt Node
Date: Wed Jan 03 11:23:13 EST 2024
User: Yrep
Spectrometer: HR+D1059
Trigger mode: 1
Integration Time (sec): 1.000000E-1
Scans to average: 1
Electric dark correction enabled: true
Nonlinearity correction enabled: false
Boxcar width: 0
XAxis mode: Wavelengths
Number of Pixels in Spectrum: 2048
>>>>>Begin Spectral Data<<<<<
223.165	-7.12
223.4	-7.12
223.635	-7.12
223.869	-17.12
224.104	-16.12
224.338	-15.12
224.573	-10.12
224.808	-29.12
225.042	-4.12
225.277	-9.12
225.511	4.88
225.746	6.88
225.98	5.88
226.215	2.88
226.449	4.88
226.683	15.88
226.918	35.88
227.152	30.88
227.387	26.88
227.621	23.88
227.856	41.88
228.09	45.88
228.324	49.88
228.559	49.88
228.793	45.88
229.027	57.88
229.262	68.88
229.496	84.88
229.73	100.88
229.964	93.88
230.199	72.88
230.433	76.88
230.667	76.88
230.901	78.88
231.136	86.88
231.37	90.88
231.604	81.88
231.838	79.88
232.072	86.88
232.306	76.88
232.541	60.88
232.775	66.88
233.009	76.88
233.243	84.88
233.477	80.88
233.711	81.88
233.945	77.88
234.179	87.88
234.413	83.88
234.647	86.88
234.881	78.88
235.115	80.88
235.349	76.88
235.583	86.88
235.817	72.88
236.051	81.88
236.285	76.88
236.519	80.88
236.753	79.88
236.987	76.88
237.221	100.88
237.455	87.88
237.689	92.88
237.922	78.88
238.156	80.88
238.39	79.88
238.624	81.88
238.858	73.88
239.091	76.88
239.325	82.88
239.559	81.88
239.793	87.88
240.027	94.88
240.26	72.88
240.494	78.88
240.728	89.88
240.961	72.88
241.195	77.88
241.429	75.88
241.662	83.88
241.896	81.88
242.13	85.88
242.363	61.88
242.597	73.88
242.83	83.88
243.064	68.88
243.298	74.88
243.531	81.88
243.765	73.88
243.998	64.88
244.232	82.88
244.465	72.88
244.699	84.88
244.932	73.88
245.166	101.88
245.399	89.88
245.633	78.88
245.866	68.88
246.099	73.88
246.333	71.88
246.566	87.88
246.8	90.88
247.033	80.88
247.266	96.88
247.5	72.88
247.733	68.88
247.966	95.88
248.2	85.88
248.433	86.88
248.666	80.88
248.899	77.88
249.133	92.88
249.366	105.88
249.599	98.88
249.832	91.88
250.066	84.88
250.299	70.88
250.532	85.88
250.765	89.88
250.998	81.88
251.231	82.88
251.465	90.88
251.698	79.88
251.931	80.88
252.164	75.88
252.397	78.88
252.63	86.88
252.863	90.88
253.096	73.88
253.329	84.88
253.562	98.88
253.795	92.88
254.028	89.88
254.261	84.88
254.494	79.88
254.727	83.88
254.96	82.88
255.193	84.88
255.426	91.88
255.659	78.88
255.892	91.88
256.124	91.88
256.357	88.88
256.59	87.88
256.823	62.88
257.056	86.88
257.289	100.88
257.521	84.88
257.754	79.88
257.987	86.88
258.22	85.88
258.452	89.88
258.685	92.88
258.918	82.88
259.151	77.88
259.383	98.88
259.616	89.88
259.849	95.88
260.081	89.88
260.314	84.88
260.547	90.88
260.779	87.88
261.012	93.88
261.244	113.88
261.477	110.88
261.71	106.88
261.942	139.88
262.175	129.88
262.407	97.88
262.64	81.88
262.872	87.88
263.105	83.88
263.337	80.88
263.57	92.88
263.802	98.88
264.035	79.88
264.267	97.88
264.499	76.88
264.732	78.88
264.964	91.88
265.197	87.88
265.429	80.88
265.661	91.88
265.894	78.88
266.126	94.88
266.358	95.88
266.591	94.88
266.823	70.88
267.055	87.88
267.287	90.88
267.52	88.88
267.752	89.88
267.984	95.88
268.216	97.88
268.448	88.88
268.681	84.88
268.913	99.88
269.145	84.88
269.377	87.88
269.609	78.88
269.841	96.88
270.073	82.88
270.306	93.88
270.538	96.88
270.77	86.88
271.002	88.88
271.234	90.88
271.466	88.88
271.698	80.88
271.93	75.88
272.162	85.88
272.394	85.88
272.626	74.88
272.858	80.88
273.09	89.88
273.322	100.88
273.553	93.88
273.785	76.88
274.017	89.88
274.249	85.88
274.481	89.88
274.713	79.88
274.945	101.88
275.176	92.88
275.408	89.88
275.64	124.88
275.872	119.88
276.104	93.88
276.335	105.88
276.567	114.88
276.799	161.88
277.031	171.88
277.262	181.88
277.494	133.88
277.726	97.88
277.957	105.88
278.189	87.88
278.421	78.88
278.652	91.88
278.884	94.88
279.115	80.88
279.347	89.88
279.579	105.88
279.81	138.88
280.042	174.88
280.273	242.88
280.505	159.88
280.736	94.88
280.968	86.88
281.199	97.88
281.431	92.88
281.662	98.88
281.894	104.88
282.125	117.88
282.356	136.88
282.588	177.88
282.819	138.88
283.051	101.88
283.282	87.88
283.513	110.88
283.745	89.88
283.976	98.88
284.207	73.88
284.439	102.88
284.67	89.88
284.901	81.88
285.132	90.88
285.364	87.88
285.595	88.88
285.826	91.88
286.057	101.88
286.288	82.88
286.52	74.88
286.751	82.88
286.982	100.88
287.213	82.88
287.444	100.88
287.675	92.88
287.906	98.88
288.138	90.88
288.369	83.88
288.6	99.88
288.831	106.88
289.062	85.88
289.293	101.88
289.524	89.88
289.755	88.88
289.986	87.88
290.217	89.88
290.448	93.88
290.679	99.88
290.91	90.88
291.141	90.88
291.371	92.88
291.602	77.88
291.833	90.88
292.064	96.88
292.295	83.88
292.526	90.88
292.757	95.88
292.987	102.88
293.218	93.88
293.449	100.88
293.68	84.88
293.91	97.88
294.141	93.88
294.372	82.88
294.603	106.88
294.833	92.88
295.064	102.88
295.295	94.88
295.525	108.88
295.756	115.88
295.987	145.88
296.217	182.88
296.448	154.88
296.679	97.88
296.909	90.88
297.14	87.88
297.37	89.88
297.601	97.88
297.831	111.88
298.062	101.88
298.292	93.88
298.523	102.88
298.753	95.88
298.984	81.88
299.214	99.88
299.445	87.88
299.675	92.88
299.905	95.88
300.136	97.88
300.366	81.88
300.597	88.88
300.827	101.88
301.057	100.88
301.288	113.88
301.518	113.88
301.748	117.88
301.979	104.88
302.209	105.88
302.439	94.88
302.669	109.88
302.9	96.88
303.13	92.88
303.36	122.88
303.59	134.88
303.82	162.88
304.051	99.88
304.281	103.88
304.511	82.88
304.741	95.88
304.971	84.88
305.201	96.88
305.431	93.88
305.661	97.88
305.891	86.88
306.121	96.88
306.352	114.88
306.582	105.88
306.812	122.88
307.042	108.88
307.272	159.88
307.502	169.88
307.731	167.88
307.961	116.88
308.191	109.88
308.421	95.88
308.651	103.88
308.881	108.88
309.111	86.88
309.341	74.88
309.571	102.88
309.8	113.88
310.03	109.88
310.26	101.88
310.49	116.88
310.72	119.88
310.949	121.88
311.179	122.88
311.409	101.88
311.639	96.88
311.868	106.88
312.098	115.88
312.328	98.88
312.557	119.88
312.787	125.88
313.017	127.88
313.246	100.88
313.476	103.88
313.706	113.88
313.935	110.88
314.165	107.88
314.394	142.88
314.624	107.88
314.853	112.88
315.083	86.88
315.312	94.88
315.542	107.88
315.771	81.88
316.001	94.88
316.23	84.88
316.46	95.88
316.689	100.88
316.919	99.88
317.148	100.88
317.377	111.88
317.607	104.88
317.836	104.88
318.065	97.88
318.295	91.88
318.524	92.88
318.753	98.88
318.983	110.88
319.212	122.88
319.441	126.88
319.67	120.88
319.9	90.88
320.129	84.88
320.358	94.88
320.587	104.88
320.816	108.88
321.046	119.88
321.275	104.88
321.504	98.88
321.733	97.88
321.962	101.88
322.191	98.88
322.42	128.88
322.649	121.88
322.878	121.88
323.108	142.88
323.337	148.88
323.566	166.88
323.795	187.88
324.024	234.88
324.253	442.88
324.482	928.88
324.71	1847.88
324.939	2337.88
325.168	893.88
325.397	275.88
325.626	171.88
325.855	128.88
326.084	134.88
326.313	152.88
326.542	164.88
326.77	268.88
326.999	457.88
327.228	918.88
327.457	1674.88
327.686	1350.88
327.914	525.88
328.143	485.88
328.372	618.88
328.6	348.88
328.829	208.88
329.058	197.88
329.287	228.88
329.515	186.88
329.744	244.88
329.972	449.88
330.201	885.88
330.43	1258.88
330.658	577.88
330.887	302.88
331.115	211.88
331.344	134.88
331.572	122.88
331.801	142.88
332.03	130.88
332.258	115.88
332.486	117.88
332.715	120.88
332.943	118.88
333.172	111.88
333.4	124.88
333.629	157.88
333.857	236.88
334.085	415.88
334.314	846.88
334.542	1614.88
334.771	1492.88
334.999	398.88
335.227	170.88
335.455	125.88
335.684	104.88
335.912	106.88
336.14	117.88
336.369	125.88
336.597	124.88
336.825	112.88
337.053	91.88
337.281	95.88
337.51	106.88
337.738	91.88
337.966	111.88
338.194	121.88
338.422	108.88
338.65	105.88
338.878	102.88
339.106	116.88
339.334	102.88
339.562	97.88
339.79	104.88
340.018	88.88
340.246	106.88
340.474	102.88
340.702	97.88
340.93	96.88
341.158	102.88
341.386	106.88
341.614	103.88
341.842	105.88
342.07	95.88
342.298	111.88
342.526	95.88
342.754	99.88
342.981	92.88
343.209	89.88
343.437	95.88
343.665	93.88
343.893	93.88
344.12	98.88
344.348	96.88
344.576	102.88
344.804	96.88
345.031	110.88
345.259	117.88
345.487	103.88
345.714	94.88
345.942	93.88
346.17	96.88
346.397	86.88
346.625	97.88
346.853	89.88
347.08	100.88
347.308	116.88
347.535	100.88
347.763	110.88
347.99	111.88
348.218	111.88
348.445	127.88
348.673	124.88
348.9	113.88
349.128	106.88
349.355	84.88
349.583	98.88
349.81	117.88
350.037	108.88
350.265	106.88
350.492	97.88
350.72	114.88
350.947	117.88
351.174	121.88
351.402	117.88
351.629	109.88
351.856	101.88
352.083	124.88
352.311	124.88
352.538	114.88
352.765	124.88
352.992	112.88
353.22	120.88
353.447	118.88
353.674	115.88
353.901	108.88
354.128	102.88
354.355	105.88
354.583	95.88
354.81	111.88
355.037	102.88
355.264	98.88
355.491	96.88
355.718	107.88
355.945	80.88
356.172	97.88
356.399	121.88
356.626	96.88
356.853	88.88
357.08	94.88
357.307	107.88
357.534	91.88
357.761	95.88
357.988	85.88
358.215	93.88
358.441	108.88
358.668	114.88
358.895	98.88
359.122	105.88
359.349	102.88
359.576	95.88
359.802	123.88
360.029	158.88
360.256	140.88
360.483	114.88
360.709	112.88
360.936	96.88
361.163	90.88
361.39	95.88
361.616	120.88
361.843	109.88
362.07	102.88
362.296	102.88
362.523	99.88
362.749	105.88
362.976	93.88
363.203	92.88
363.429	105.88
363.656	113.88
363.882	90.88
364.109	95.88
364.335	108.88
364.562	107.88
364.788	112.88
365.015	111.88
365.241	114.88
365.468	110.88
365.694	128.88
365.92	116.88
366.147	100.88
366.373	104.88
366.599	101.88
366.826	83.88
367.052	88.88
367.278	88.88
367.505	103.88
367.731	107.88
367.957	98.88
368.184	112.88
368.41	109.88
368.636	136.88
368.862	155.88
369.089	129.88
369.315	111.88
369.541	107.88
369.767	106.88
369.993	90.88
370.219	95.88
370.445	87.88
370.672	97.88
370.898	90.88
371.124	92.88
371.35	88.88
371.576	91.88
371.802	97.88
372.028	95.88
372.254	94.88
372.48	89.88
372.706	85.88
372.932	96.88
373.158	105.88
373.384	78.88
373.61	96.88
373.835	96.88
374.061	83.88
374.287	100.88
374.513	96.88
374.739	85.88
374.965	96.88
375.191	84.88
375.416	89.88
375.642	90.88
375.868	90.88
376.094	93.88
376.319	87.88
376.545	87.88
376.771	81.88
376.997	90.88
377.222	78.88
377.448	90.88
377.674	88.88
377.899	105.88
378.125	89.88
378.35	103.88
378.576	83.88
378.802	82.88
379.027	94.88
379.253	107.88
379.478	90.88
379.704	98.88
379.929	102.88
380.155	123.88
380.38	103.88
380.606	107.88
380.831	103.88
381.057	102.88
381.282	92.88
381.507	101.88
381.733	117.88
381.958	105.88
382.184	123.88
382.409	102.88
382.634	112.88
382.86	109.88
383.085	119.88
383.31	121.88
383.535	117.88
383.761	112.88
383.986	110.88
384.211	121.88
384.436	102.88
384.662	113.88
384.887	135.88
385.112	129.88
385.337	146.88
385.562	121.88
385.787	137.88
386.013	144.88
386.238	163.88
386.463	139.88
386.688	141.88
386.913	113.88
387.138	127.88
387.363	129.88
387.588	114.88
387.813	117.88
388.038	118.88
388.263	141.88
388.488	131.88
388.713	121.88
388.938	102.88
389.163	100.88
389.387	93.88
389.612	104.88
389.837	92.88
390.062	82.88
390.287	91.88
390.512	100.88
390.736	87.88
390.961	99.88
391.186	97.88
391.411	98.88
391.636	89.88
391.86	103.88
392.085	80.88
392.31	82.88
392.534	89.88
392.759	89.88
392.984	80.88
393.208	97.88
393.433	102.88
393.658	104.88
393.882	83.88
394.107	85.88
394.331	85.88
394.556	87.88
394.78	82.88
395.005	104.88
395.229	92.88
395.454	73.88
395.678	94.88
395.903	83.88
396.127	84.88
396.352	94.88
396.576	89.88
396.801	106.88
397.025	106.88
397.249	88.88
397.474	89.88
397.698	104.88
397.922	90.88
398.147	86.88
398.371	101.88
398.595	86.88
398.82	77.88
399.044	93.88
399.268	90.88
399.492	79.88
399.717	89.88
399.941	86.88
400.165	97.88
400.389	118.88
400.613	109.88
400.837	103.88
401.062	89.88
401.286	98.88
401.51	98.88
401.734	101.88
401.958	112.88
402.182	166.88
402.406	237.88
402.63	158.88
402.854	94.88
403.078	104.88
403.302	100.88
403.526	87.88
403.75	95.88
403.974	89.88
404.198	97.88
404.422	88.88
404.645	88.88
404.869	105.88
405.093	104.88
405.317	141.88
405.541	148.88
405.765	116.88
405.988	155.88
406.212	224.88
406.436	353.88
406.66	199.88
406.883	126.88
407.107	119.88
407.331	128.88
407.555	115.88
407.778	120.88
408.002	98.88
408.226	115.88
408.449	98.88
408.673	100.88
408.896	93.88
409.12	95.88
409.344	98.88
409.567	85.88
409.791	95.88
410.014	104.88
410.238	81.88
410.461	91.88
410.685	97.88
410.908	117.88
411.132	121.88
411.355	113.88
411.578	96.88
411.802	88.88
412.025	98.88
412.249	95.88
412.472	101.88
412.695	131.88
412.919	117.88
413.142	100.88
413.365	78.88
413.589	96.88
413.812	93.88
414.035	101.88
414.258	86.88
414.482	105.88
414.705	98.88
414.928	96.88
415.151	94.88
415.374	104.88
415.597	102.88
415.821	94.88
416.044	100.88
416.267	77.88
416.49	88.88
416.713	87.88
416.936	95.88
417.159	92.88
417.382	100.88
417.605	111.88
417.828	123.88
418.051	106.88
418.274	88.88
418.497	84.88
418.72	89.88
418.943	98.88
419.166	83.88
419.389	104.88
419.611	92.88
419.834	90.88
420.057	89.88
420.28	105.88
420.503	98.88
420.726	102.88
420.948	103.88
421.171	98.88
421.394	115.88
421.617	100.88
421.839	98.88
422.062	92.88
422.285	101.88
422.507	111.88
422.73	119.88
422.953	111.88
423.175	107.88
423.398	89.88
423.621	98.88
423.843	94.88
424.066	89.88
424.288	88.88
424.511	92.88
424.733	118.88
424.956	126.88
425.178	105.88
425.401	105.88
425.623	121.88
425.846	96.88
426.068	97.88
426.291	101.88
426.513	103.88
426.735	95.88
426.958	108.88
427.18	113.88
427.402	186.88
427.625	282.88
427.847	228.88
428.069	176.88
428.292	113.88
428.514	108.88
428.736	89.88
428.958	80.88
429.181	86.88
429.403	97.88
429.625	86.88
429.847	107.88
430.069	127.88
430.292	94.88
430.514	87.88
430.736	81.88
430.958	97.88
431.18	98.88
431.402	100.88
431.624	92.88
431.846	88.88
432.068	88.88
432.29	81.88
432.512	90.88
432.734	97.88
432.956	86.88
433.178	93.88
433.4	95.88
433.622	84.88
433.844	98.88
434.066	96.88
434.287	85.88
434.509	99.88
434.731	84.88
434.953	106.88
435.175	108.88
435.397	73.88
435.618	83.88
435.84	103.88
436.062	138.88
436.284	137.88
436.505	110.88
436.727	98.88
436.949	97.88
437.17	91.88
437.392	100.88
437.614	105.88
437.835	128.88
438.057	164.88
438.278	147.88
438.5	124.88
438.721	142.88
438.943	110.88
439.165	97.88
439.386	86.88
439.608	100.88
439.829	106.88
440.05	143.88
440.272	189.88
440.493	106.88
440.715	91.88
440.936	86.88
441.158	100.88
441.379	96.88
441.6	98.88
441.822	115.88
442.043	117.88
442.264	138.88
442.486	126.88
442.707	113.88
442.928	113.88
443.149	174.88
443.371	200.88
443.592	141.88
443.813	141.88
444.034	119.88
444.255	116.88
444.476	96.88
444.698	85.88
444.919	86.88
445.14	109.88
445.361	130.88
445.582	132.88
445.803	189.88
446.024	181.88
446.245	160.88
446.466	134.88
446.687	105.88
446.908	99.88
447.129	95.88
447.35	86.88
447.571	100.88
447.792	96.88
448.013	128.88
448.234	140.88
448.455	106.88
448.675	142.88
448.896	147.88
449.117	118.88
449.338	113.88
449.559	133.88
449.779	157.88
450	109.88
450.221	103.88
450.442	108.88
450.662	93.88
450.883	126.88
451.104	154.88
451.324	107.88
451.545	85.88
451.766	85.88
451.986	102.88
452.207	108.88
452.428	109.88
452.648	105.88
452.869	154.88
453.089	164.88
453.31	151.88
453.53	103.88
453.751	90.88
453.971	127.88
454.192	131.88
454.412	106.88
454.633	88.88
454.853	90.88
455.073	103.88
455.294	106.88
455.514	117.88
455.734	92.88
455.955	79.88
456.175	84.88
456.395	87.88
456.616	94.88
456.836	80.88
457.056	88.88
457.276	89.88
457.497	88.88
457.717	78.88
457.937	88.88
458.157	95.88
458.377	103.88
458.598	132.88
458.818	227.88
459.038	261.88
459.258	168.88
459.478	98.88
459.698	99.88
459.918	94.88
460.138	87.88
460.358	73.88
460.578	86.88
460.798	106.88
461.018	94.88
461.238	91.88
461.458	95.88
461.678	91.88
461.898	90.88
462.118	87.88
462.338	78.88
462.558	80.88
462.777	89.88
462.997	102.88
463.217	121.88
463.437	92.88
463.657	91.88
463.876	97.88
464.096	101.88
464.316	96.88
464.536	106.88
464.755	98.88
464.975	134.88
465.195	275.88
465.414	248.88
465.634	106.88
465.854	92.88
466.073	88.88
466.293	94.88
466.512	102.88
466.732	91.88
466.951	90.88
467.171	108.88
467.391	121.88
467.61	153.88
467.829	202.88
468.049	504.88
468.268	741.88
468.488	192.88
468.707	108.88
468.927	78.88
469.146	98.88
469.365	97.88
469.585	91.88
469.804	108.88
470.023	113.88
470.243	103.88
470.462	110.88
470.681	135.88
470.901	111.88
471.12	100.88
471.339	101.88
471.558	110.88
471.777	148.88
471.997	285.88
472.216	1014.88
472.435	2214.88
472.654	521.88
472.873	142.88
473.092	96.88
473.311	94.88
473.53	92.88
473.749	102.88
473.968	111.88
474.187	149.88
474.406	124.88
474.625	92.88
474.844	93.88
475.063	103.88
475.282	87.88
475.501	92.88
475.72	89.88
475.939	87.88
476.158	73.88
476.377	88.88
476.596	103.88
476.814	96.88
477.033	119.88
477.252	99.88
477.471	98.88
477.69	102.88
477.908	101.88
478.127	101.88
478.346	88.88
478.564	89.88
478.783	120.88
479.002	102.88
479.22	115.88
479.439	133.88
479.658	157.88
479.876	127.88
480.095	122.88
480.313	128.88
480.532	162.88
480.751	274.88
480.969	913.88
481.188	3918.88
481.406	2205.88
481.624	341.88
481.843	140.88
482.061	106.88
482.28	103.88
482.498	91.88
482.717	103.88
482.935	99.88
483.153	94.88
483.372	96.88
483.59	87.88
483.808	88.88
484.027	88.88
484.245	105.88
484.463	102.88
484.681	111.88
484.9	85.88
485.118	112.88
485.336	86.88
485.554	108.88
485.772	90.88
485.99	120.88
486.209	103.88
486.427	121.88
486.645	151.88
486.863	134.88
487.081	107.88
487.299	97.88
487.517	97.88
487.735	95.88
487.953	94.88
488.171	94.88
488.389	102.88
488.607	103.88
488.825	102.88
489.043	88.88
489.261	91.88
489.479	99.88
489.696	76.88
489.914	92.88
490.132	81.88
490.35	90.88
490.568	107.88
490.786	95.88
491.003	88.88
491.221	98.88
491.439	98.88
491.657	94.88
491.874	111.88
492.092	111.88
492.31	98.88
492.527	101.88
492.745	96.88
492.963	100.88
493.18	94.88
493.398	103.88
493.615	87.88
493.833	105.88
494.05	113.88
494.268	96.88
494.485	104.88
494.703	84.88
494.92	90.88
495.138	90.88
495.355	87.88
495.573	87.88
495.79	90.88
496.008	103.88
496.225	100.88
496.442	91.88
496.66	94.88
496.877	86.88
497.094	94.88
497.312	89.88
497.529	101.88
497.746	96.88
497.963	104.88
498.181	89.88
498.398	95.88
498.615	132.88
498.832	106.88
499.049	93.88
499.267	94.88
499.484	87.88
499.701	86.88
499.918	92.88
500.135	82.88
500.352	89.88
500.569	101.88
500.786	96.88
501.003	91.88
501.22	107.88
501.437	102.88
501.654	97.88
501.871	123.88
502.088	105.88
502.305	90.88
502.522	91.88
502.739	100.88
502.956	94.88
503.172	92.88
503.389	110.88
503.606	127.88
503.823	114.88
504.04	97.88
504.256	104.88
504.473	86.88
504.69	74.88
504.907	91.88
505.123	94.88
505.34	104.88
505.557	79.88
505.773	78.88
505.99	104.88
506.207	102.88
506.423	83.88
506.64	90.88
506.856	90.88
507.073	88.88
507.289	103.88
507.506	100.88
507.722	143.88
507.939	137.88
508.155	97.88
508.372	87.88
508.588	101.88
508.805	97.88
509.021	111.88
509.238	105.88
509.454	109.88
509.67	129.88
509.887	126.88
510.103	161.88
510.319	278.88
510.536	1138.88
510.752	4063.88
510.968	1056.88
511.184	207.88
511.401	132.88
511.617	100.88
