Data from Circ_1999_H10_HRD10591_00066.txt Node
Date: Wed Jan 03 11:23:25 EST 2024
User: Yrep
Spectrometer: HR+D1059
Trigger mode: 1
Integration Time (sec): 1.000000E-1
Scans to average: 1
Electric dark correction enabled: true
Nonlinearity correction enabled: false
Boxcar width: 0
XAxis mode: Wavelengths
Number of Pixels in Spectrum: 2048
>>>>>Begin Spectral Data<<<<<
223.165	-10.75
223.4	-10.75
223.635	-10.75
223.869	-14.75
224.104	-20.75
224.338	-22.75
224.573	-14.75
224.808	-12.75
225.042	-8.75
225.277	-3.75
225.511	-2.75
225.746	0.25
225.98	-0.75
226.215	16.25
226.449	7.25
226.683	20.25
226.918	28.25
227.152	40.25
227.387	22.25
227.621	29.25
227.856	34.25
228.09	55.25
228.324	53.25
228.559	47.25
228.793	59.25
229.027	62.25
229.262	76.25
229.496	84.25
229.73	104.25
229.964	111.25
230.199	86.25
230.433	89.25
230.667	85.25
230.901	75.25
231.136	82.25
231.37	68.25
231.604	86.25
231.838	85.25
232.072	79.25
232.306	86.25
232.541	82.25
232.775	65.25
233.009	84.25
233.243	84.25
233.477	82.25
233.711	84.25
233.945	72.25
234.179	84.25
234.413	78.25
234.647	81.25
234.881	91.25
235.115	90.25
235.349	91.25
235.583	78.25
235.817	88.25
236.051	79.25
236.285	79.25
236.519	84.25
236.753	69.25
236.987	85.25
237.221	87.25
237.455	103.25
237.689	79.25
237.922	81.25
238.156	82.25
238.39	81.25
238.624	86.25
238.858	84.25
239.091	87.25
239.325	89.25
239.559	103.25
239.793	80.25
240.027	79.25
240.26	86.25
240.494	85.25
240.728	74.25
240.961	82.25
241.195	76.25
241.429	86.25
241.662	75.25
241.896	91.25
242.13	93.25
242.363	84.25
242.597	70.25
242.83	76.25
243.064	78.25
243.298	78.25
243.531	90.25
243.765	82.25
243.998	92.25
244.232	85.25
244.465	86.25
244.699	84.25
244.932	74.25
245.166	88.25
245.399	85.25
245.633	85.25
245.866	91.25
246.099	83.25
246.333	71.25
246.566	86.25
246.8	69.25
247.033	83.25
247.266	87.25
247.5	91.25
247.733	89.25
247.966	73.25
248.2	82.25
248.433	72.25
248.666	88.25
248.899	95.25
249.133	98.25
249.366	117.25
249.599	109.25
249.832	94.25
250.066	89.25
250.299	101.25
250.532	76.25
250.765	81.25
250.998	95.25
251.231	87.25
251.465	103.25
251.698	97.25
251.931	80.25
252.164	89.25
252.397	93.25
252.63	66.25
252.863	90.25
253.096	87.25
253.329	75.25
253.562	70.25
253.795	103.25
254.028	87.25
254.261	87.25
254.494	103.25
254.727	95.25
254.96	83.25
255.193	85.25
255.426	78.25
255.659	92.25
255.892	113.25
256.124	112.25
256.357	94.25
256.59	93.25
256.823	84.25
257.056	90.25
257.289	91.25
257.521	99.25
257.754	82.25
257.987	88.25
258.22	96.25
258.452	112.25
258.685	107.25
258.918	88.25
259.151	86.25
259.383	109.25
259.616	74.25
259.849	100.25
260.081	106.25
260.314	98.25
260.547	86.25
260.779	106.25
261.012	130.25
261.244	132.25
261.477	125.25
261.71	139.25
261.942	176.25
262.175	199.25
262.407	117.25
262.64	96.25
262.872	83.25
263.105	90.25
263.337	82.25
263.57	87.25
263.802	88.25
264.035	86.25
264.267	98.25
264.499	84.25
264.732	83.25
264.964	93.25
265.197	86.25
265.429	88.25
265.661	81.25
265.894	81.25
266.126	98.25
266.358	84.25
266.591	86.25
266.823	77.25
267.055	81.25
267.287	95.25
267.52	89.25
267.752	85.25
267.984	93.25
268.216	92.25
268.448	89.25
268.681	92.25
268.913	88.25
269.145	72.25
269.377	60.25
269.609	89.25
269.841	89.25
270.073	89.25
270.306	104.25
270.538	94.25
270.77	92.25
271.002	95.25
271.234	95.25
271.466	119.25
271.698	104.25
271.93	85.25
272.162	98.25
272.394	89.25
272.626	97.25
272.858	95.25
273.09	91.25
273.322	82.25
273.553	72.25
273.785	93.25
274.017	87.25
274.249	106.25
274.481	92.25
274.713	106.25
274.945	98.25
275.176	115.25
275.408	114.25
275.64	135.25
275.872	166.25
276.104	127.25
276.335	120.25
276.567	160.25
276.799	216.25
277.031	261.25
277.262	292.25
277.494	210.25
277.726	126.25
277.957	93.25
278.189	116.25
278.421	97.25
278.652	104.25
278.884	90.25
279.115	105.25
279.347	106.25
279.579	124.25
279.81	183.25
280.042	313.25
280.273	416.25
280.505	268.25
280.736	125.25
280.968	97.25
281.199	109.25
281.431	97.25
281.662	98.25
281.894	101.25
282.125	123.25
282.356	175.25
282.588	238.25
282.819	170.25
283.051	104.25
283.282	107.25
283.513	104.25
283.745	94.25
283.976	95.25
284.207	83.25
284.439	98.25
284.67	104.25
284.901	85.25
285.132	88.25
285.364	85.25
285.595	89.25
285.826	95.25
286.057	105.25
286.288	89.25
286.52	100.25
286.751	91.25
286.982	96.25
287.213	86.25
287.444	88.25
287.675	96.25
287.906	99.25
288.138	94.25
288.369	106.25
288.6	107.25
288.831	92.25
289.062	114.25
289.293	90.25
289.524	92.25
289.755	82.25
289.986	94.25
290.217	90.25
290.448	91.25
290.679	110.25
290.91	101.25
291.141	99.25
291.371	72.25
291.602	100.25
291.833	90.25
292.064	89.25
292.295	103.25
292.526	105.25
292.757	87.25
292.987	93.25
293.218	87.25
293.449	80.25
293.68	77.25
293.91	101.25
294.141	101.25
294.372	100.25
294.603	97.25
294.833	94.25
295.064	97.25
295.295	98.25
295.525	108.25
295.756	114.25
295.987	174.25
296.217	241.25
296.448	189.25
296.679	123.25
296.909	91.25
297.14	101.25
297.37	86.25
297.601	97.25
297.831	84.25
298.062	98.25
298.292	105.25
298.523	91.25
298.753	87.25
298.984	94.25
299.214	105.25
299.445	93.25
299.675	90.25
299.905	105.25
300.136	98.25
300.366	102.25
300.597	102.25
300.827	112.25
301.057	129.25
301.288	136.25
301.518	98.25
301.748	106.25
301.979	113.25
302.209	112.25
302.439	117.25
302.669	88.25
302.9	106.25
303.13	125.25
303.36	123.25
303.59	180.25
303.82	204.25
304.051	127.25
304.281	95.25
304.511	95.25
304.741	104.25
304.971	89.25
305.201	104.25
305.431	85.25
305.661	86.25
305.891	111.25
306.121	115.25
306.352	133.25
306.582	140.25
306.812	128.25
307.042	171.25
307.272	213.25
307.502	258.25
307.731	228.25
307.961	168.25
308.191	109.25
308.421	106.25
308.651	106.25
308.881	93.25
309.111	123.25
309.341	103.25
309.571	128.25
309.8	111.25
310.03	128.25
310.26	134.25
310.49	129.25
310.72	129.25
310.949	167.25
311.179	134.25
311.409	100.25
311.639	119.25
311.868	121.25
312.098	115.25
312.328	122.25
312.557	140.25
312.787	157.25
313.017	131.25
313.246	100.25
313.476	109.25
313.706	104.25
313.935	114.25
314.165	141.25
314.394	139.25
314.624	120.25
314.853	126.25
315.083	94.25
315.312	104.25
315.542	97.25
315.771	116.25
316.001	108.25
316.23	94.25
316.46	105.25
316.689	89.25
316.919	110.25
317.148	114.25
317.377	110.25
317.607	107.25
317.836	121.25
318.065	92.25
318.295	90.25
318.524	108.25
318.753	104.25
318.983	108.25
319.212	102.25
319.441	133.25
319.67	142.25
319.9	110.25
320.129	92.25
320.358	111.25
320.587	112.25
320.816	137.25
321.046	116.25
321.275	109.25
321.504	113.25
321.733	114.25
321.962	113.25
322.191	132.25
322.42	142.25
322.649	163.25
322.878	151.25
323.108	156.25
323.337	186.25
323.566	218.25
323.795	235.25
324.024	310.25
324.253	664.25
324.482	1436.25
324.71	2884.25
324.939	3759.25
325.168	1379.25
325.397	414.25
325.626	239.25
325.855	188.25
326.084	157.25
326.313	186.25
326.542	216.25
326.77	341.25
326.999	666.25
327.228	1384.25
327.457	2528.25
327.686	2076.25
327.914	844.25
328.143	905.25
328.372	1232.25
328.6	625.25
328.829	290.25
329.058	308.25
329.287	306.25
329.515	276.25
329.744	412.25
329.972	842.25
330.201	1890.25
330.43	2667.25
330.658	1104.25
330.887	502.25
331.115	295.25
331.344	165.25
331.572	150.25
331.801	173.25
332.03	169.25
332.258	137.25
332.486	129.25
332.715	118.25
332.943	145.25
333.172	151.25
333.4	159.25
333.629	227.25
333.857	384.25
334.085	774.25
334.314	1737.25
334.542	3364.25
334.771	3024.25
334.999	730.25
335.227	233.25
335.455	156.25
335.684	134.25
335.912	148.25
336.14	134.25
336.369	140.25
336.597	134.25
336.825	151.25
337.053	104.25
337.281	107.25
337.51	107.25
337.738	122.25
337.966	109.25
338.194	125.25
338.422	139.25
338.65	105.25
338.878	96.25
339.106	95.25
339.334	112.25
339.562	99.25
339.79	98.25
340.018	118.25
340.246	125.25
340.474	123.25
340.702	122.25
340.93	103.25
341.158	109.25
341.386	118.25
341.614	122.25
341.842	110.25
342.07	109.25
342.298	104.25
342.526	114.25
342.754	107.25
342.981	107.25
343.209	90.25
343.437	106.25
343.665	101.25
343.893	92.25
344.12	99.25
344.348	104.25
344.576	97.25
344.804	117.25
345.031	120.25
345.259	113.25
345.487	108.25
345.714	114.25
345.942	106.25
346.17	103.25
346.397	88.25
346.625	116.25
346.853	117.25
347.08	107.25
347.308	109.25
347.535	110.25
347.763	136.25
347.99	109.25
348.218	124.25
348.445	135.25
348.673	121.25
348.9	103.25
349.128	109.25
349.355	102.25
349.583	101.25
349.81	109.25
350.037	103.25
350.265	108.25
350.492	92.25
350.72	111.25
350.947	113.25
351.174	129.25
351.402	148.25
351.629	128.25
351.856	142.25
352.083	132.25
352.311	152.25
352.538	156.25
352.765	171.25
352.992	125.25
353.22	127.25
353.447	128.25
353.674	109.25
353.901	89.25
354.128	102.25
354.355	94.25
354.583	109.25
354.81	100.25
355.037	97.25
355.264	83.25
355.491	98.25
355.718	95.25
355.945	90.25
356.172	96.25
356.399	97.25
356.626	97.25
356.853	89.25
357.08	90.25
357.307	83.25
357.534	82.25
357.761	110.25
357.988	93.25
358.215	89.25
358.441	96.25
358.668	93.25
358.895	99.25
359.122	84.25
359.349	80.25
359.576	116.25
359.802	132.25
360.029	191.25
360.256	201.25
360.483	160.25
360.709	107.25
360.936	100.25
361.163	97.25
361.39	110.25
361.616	124.25
361.843	113.25
362.07	125.25
362.296	139.25
362.523	123.25
362.749	105.25
362.976	104.25
363.203	109.25
363.429	82.25
363.656	103.25
363.882	107.25
364.109	98.25
364.335	102.25
364.562	98.25
364.788	112.25
365.015	110.25
365.241	123.25
365.468	127.25
365.694	138.25
365.92	124.25
366.147	106.25
366.373	96.25
366.599	94.25
366.826	102.25
367.052	100.25
367.278	109.25
367.505	99.25
367.731	104.25
367.957	118.25
368.184	112.25
368.41	121.25
368.636	161.25
368.862	166.25
369.089	148.25
369.315	129.25
369.541	112.25
369.767	103.25
369.993	112.25
370.219	113.25
370.445	98.25
370.672	87.25
370.898	88.25
371.124	104.25
371.35	97.25
371.576	99.25
371.802	92.25
372.028	84.25
372.254	92.25
372.48	90.25
372.706	92.25
372.932	97.25
373.158	85.25
373.384	97.25
373.61	101.25
373.835	91.25
374.061	89.25
374.287	105.25
374.513	95.25
374.739	91.25
374.965	97.25
375.191	73.25
375.416	108.25
375.642	106.25
375.868	98.25
376.094	92.25
376.319	109.25
376.545	86.25
376.771	85.25
376.997	88.25
377.222	101.25
377.448	102.25
377.674	90.25
377.899	92.25
378.125	80.25
378.35	99.25
378.576	97.25
378.802	98.25
379.027	100.25
379.253	86.25
379.478	96.25
379.704	101.25
379.929	106.25
380.155	104.25
380.38	98.25
380.606	98.25
380.831	95.25
381.057	104.25
381.282	101.25
381.507	111.25
381.733	105.25
381.958	99.25
382.184	93.25
382.409	103.25
382.634	117.25
382.86	98.25
383.085	109.25
383.31	109.25
383.535	96.25
383.761	80.25
383.986	99.25
384.211	93.25
384.436	100.25
384.662	96.25
384.887	112.25
385.112	111.25
385.337	102.25
385.562	109.25
385.787	121.25
386.013	117.25
386.238	140.25
386.463	134.25
386.688	110.25
386.913	112.25
387.138	108.25
387.363	98.25
387.588	105.25
387.813	105.25
388.038	104.25
388.263	108.25
388.488	102.25
388.713	83.25
388.938	90.25
389.163	88.25
389.387	95.25
389.612	87.25
389.837	101.25
390.062	97.25
390.287	82.25
390.512	86.25
390.736	86.25
390.961	78.25
391.186	86.25
391.411	85.25
391.636	98.25
391.86	93.25
392.085	97.25
392.31	86.25
392.534	94.25
392.759	77.25
392.984	96.25
393.208	92.25
393.433	96.25
393.658	95.25
393.882	87.25
394.107	92.25
394.331	91.25
394.556	97.25
394.78	90.25
395.005	94.25
395.229	88.25
395.454	84.25
395.678	86.25
395.903	102.25
396.127	98.25
396.352	79.25
396.576	92.25
396.801	87.25
397.025	79.25
397.249	68.25
397.474	89.25
397.698	92.25
397.922	103.25
398.147	94.25
398.371	85.25
398.595	91.25
398.82	98.25
399.044	86.25
399.268	92.25
399.492	75.25
399.717	98.25
399.941	101.25
400.165	108.25
400.389	96.25
400.613	84.25
400.837	97.25
401.062	102.25
401.286	109.25
401.51	100.25
401.734	105.25
401.958	126.25
402.182	189.25
402.406	300.25
402.63	200.25
402.854	115.25
403.078	103.25
403.302	111.25
403.526	93.25
403.75	100.25
403.974	95.25
404.198	97.25
404.422	93.25
404.645	104.25
404.869	134.25
405.093	146.25
405.317	188.25
405.541	181.25
405.765	154.25
405.988	192.25
406.212	329.25
406.436	508.25
406.66	332.25
406.883	169.25
407.107	123.25
407.331	124.25
407.555	131.25
407.778	129.25
408.002	106.25
408.226	96.25
408.449	87.25
408.673	94.25
408.896	96.25
409.12	97.25
409.344	92.25
409.567	89.25
409.791	96.25
410.014	97.25
410.238	85.25
410.461	97.25
410.685	91.25
410.908	91.25
411.132	118.25
411.355	116.25
411.578	93.25
411.802	93.25
412.025	99.25
412.249	110.25
412.472	133.25
412.695	158.25
412.919	136.25
413.142	95.25
413.365	88.25
413.589	97.25
413.812	97.25
414.035	101.25
414.258	95.25
414.482	88.25
414.705	93.25
414.928	91.25
415.151	95.25
415.374	86.25
415.597	102.25
415.821	102.25
416.044	99.25
416.267	81.25
416.49	102.25
416.713	81.25
416.936	97.25
417.159	99.25
417.382	99.25
417.605	116.25
417.828	121.25
418.051	109.25
418.274	97.25
418.497	96.25
418.72	92.25
418.943	92.25
419.166	103.25
419.389	108.25
419.611	101.25
419.834	92.25
420.057	103.25
420.28	95.25
420.503	91.25
420.726	94.25
420.948	83.25
421.171	111.25
421.394	98.25
421.617	96.25
421.839	101.25
422.062	102.25
422.285	92.25
422.507	90.25
422.73	116.25
422.953	93.25
423.175	105.25
423.398	107.25
423.621	104.25
423.843	96.25
424.066	81.25
424.288	90.25
424.511	97.25
424.733	109.25
424.956	135.25
425.178	122.25
425.401	132.25
425.623	108.25
425.846	93.25
426.068	116.25
426.291	105.25
426.513	110.25
426.735	94.25
426.958	116.25
427.18	150.25
427.402	248.25
427.625	397.25
427.847	339.25
428.069	278.25
428.292	149.25
428.514	99.25
428.736	102.25
428.958	94.25
429.181	97.25
429.403	98.25
429.625	96.25
429.847	103.25
430.069	128.25
430.292	102.25
430.514	84.25
430.736	87.25
430.958	100.25
431.18	78.25
431.402	83.25
431.624	94.25
431.846	88.25
432.068	99.25
432.29	90.25
432.512	96.25
432.734	101.25
432.956	103.25
433.178	105.25
433.4	108.25
433.622	89.25
433.844	76.25
434.066	96.25
434.287	101.25
434.509	108.25
434.731	94.25
434.953	97.25
435.175	81.25
435.397	95.25
435.618	91.25
435.84	114.25
436.062	166.25
436.284	157.25
436.505	122.25
436.727	105.25
436.949	103.25
437.17	90.25
437.392	93.25
437.614	129.25
437.835	166.25
438.057	193.25
438.278	146.25
438.5	132.25
438.721	162.25
438.943	119.25
439.165	86.25
439.386	96.25
439.608	98.25
439.829	140.25
440.05	189.25
440.272	239.25
440.493	143.25
440.715	96.25
440.936	106.25
441.158	98.25
441.379	98.25
441.6	104.25
441.822	125.25
442.043	120.25
442.264	133.25
442.486	112.25
442.707	119.25
442.928	154.25
443.149	232.25
443.371	234.25
443.592	162.25
443.813	170.25
444.034	124.25
444.255	93.25
444.476	99.25
444.698	76.25
444.919	96.25
445.14	140.25
445.361	152.25
445.582	156.25
445.803	226.25
446.024	229.25
446.245	193.25
446.466	156.25
446.687	108.25
446.908	101.25
447.129	105.25
447.35	101.25
447.571	110.25
447.792	105.25
448.013	126.25
448.234	153.25
448.455	123.25
448.675	152.25
448.896	158.25
449.117	111.25
449.338	127.25
449.559	176.25
449.779	182.25
450	122.25
450.221	96.25
450.442	94.25
450.662	121.25
450.883	178.25
451.104	184.25
451.324	106.25
451.545	106.25
451.766	86.25
451.986	97.25
452.207	100.25
452.428	107.25
452.648	125.25
452.869	163.25
453.089	186.25
453.31	214.25
453.53	133.25
453.751	128.25
453.971	157.25
454.192	199.25
454.412	125.25
454.633	111.25
454.853	90.25
455.073	99.25
455.294	114.25
455.514	127.25
455.734	114.25
455.955	89.25
456.175	92.25
456.395	89.25
456.616	84.25
456.836	79.25
457.056	92.25
457.276	88.25
457.497	85.25
457.717	99.25
457.937	102.25
458.157	100.25
458.377	126.25
458.598	170.25
458.818	332.25
459.038	365.25
459.258	186.25
459.478	114.25
459.698	89.25
459.918	93.25
460.138	98.25
460.358	99.25
460.578	104.25
460.798	93.25
461.018	102.25
461.238	96.25
461.458	79.25
461.678	78.25
461.898	82.25
462.118	87.25
462.338	98.25
462.558	76.25
462.777	102.25
462.997	118.25
463.217	138.25
463.437	94.25
463.657	98.25
463.876	103.25
464.096	110.25
464.316	134.25
464.536	123.25
464.755	109.25
464.975	196.25
465.195	395.25
465.414	389.25
465.634	128.25
465.854	108.25
466.073	108.25
466.293	97.25
466.512	92.25
466.732	89.25
466.951	110.25
467.171	127.25
467.391	143.25
467.61	220.25
467.829	347.25
468.049	1034.25
468.268	1612.25
468.488	351.25
468.707	143.25
468.927	105.25
469.146	100.25
469.365	110.25
469.585	133.25
469.804	135.25
470.023	127.25
470.243	139.25
470.462	157.25
470.681	181.25
470.901	122.25
471.12	112.25
471.339	118.25
471.558	157.25
471.777	236.25
471.997	483.25
472.216	2065.25
472.435	4729.25
472.654	1021.25
472.873	244.25
473.092	139.25
473.311	118.25
473.53	112.25
473.749	93.25
473.968	124.25
474.187	146.25
474.406	119.25
474.625	96.25
474.844	99.25
475.063	92.25
475.282	104.25
475.501	95.25
475.72	117.25
475.939	96.25
476.158	91.25
476.377	99.25
476.596	97.25
476.814	117.25
477.033	122.25
477.252	111.25
477.471	101.25
477.69	91.25
477.908	97.25
478.127	95.25
478.346	116.25
478.564	110.25
478.783	137.25
479.002	134.25
479.22	123.25
479.439	154.25
479.658	189.25
479.876	173.25
480.095	173.25
480.313	177.25
480.532	239.25
480.751	463.25
480.969	1846.25
481.188	8140.25
481.406	4481.25
481.624	602.25
481.843	190.25
482.061	146.25
482.28	121.25
482.498	108.25
482.717	111.25
482.935	95.25
483.153	102.25
483.372	93.25
483.59	101.25
483.808	98.25
484.027	94.25
484.245	102.25
484.463	104.25
484.681	112.25
484.9	95.25
485.118	94.25
485.336	105.25
485.554	105.25
485.772	103.25
485.99	118.25
486.209	126.25
486.427	131.25
486.645	149.25
486.863	172.25
487.081	133.25
487.299	106.25
487.517	113.25
487.735	103.25
487.953	104.25
488.171	115.25
488.389	108.25
488.607	108.25
488.825	103.25
489.043	107.25
489.261	105.25
489.479	84.25
489.696	98.25
489.914	95.25
490.132	102.25
490.35	107.25
490.568	110.25
490.786	102.25
491.003	88.25
491.221	96.25
491.439	118.25
491.657	105.25
491.874	108.25
492.092	85.25
492.31	112.25
492.527	96.25
492.745	98.25
492.963	101.25
493.18	95.25
493.398	100.25
493.615	101.25
493.833	112.25
494.05	97.25
494.268	90.25
494.485	104.25
494.703	92.25
494.92	100.25
495.138	102.25
495.355	87.25
495.573	87.25
495.79	92.25
496.008	96.25
496.225	111.25
496.442	90.25
496.66	97.25
496.877	93.25
497.094	84.25
497.312	101.25
497.529	102.25
497.746	104.25
497.963	95.25
498.181	89.25
498.398	116.25
498.615	136.25
498.832	108.25
499.049	99.25
499.267	92.25
499.484	92.25
499.701	94.25
499.918	93.25
500.135	107.25
500.352	109.25
500.569	119.25
500.786	96.25
501.003	90.25
501.22	89.25
501.437	108.25
501.654	115.25
501.871	166.25
502.088	104.25
502.305	95.25
502.522	98.25
502.739	104.25
502.956	80.25
503.172	107.25
503.389	113.25
503.606	180.25
503.823	133.25
504.04	99.25
504.256	101.25
504.473	81.25
504.69	102.25
504.907	96.25
505.123	105.25
505.34	84.25
505.557	90.25
505.773	99.25
505.99	103.25
506.207	104.25
506.423	101.25
506.64	71.25
506.856	101.25
507.073	104.25
507.289	100.25
507.506	129.25
507.722	184.25
507.939	180.25
508.155	113.25
508.372	112.25
508.588	99.25
508.805	107.25
509.021	125.25
509.238	113.25
509.454	108.25
509.67	116.25
509.887	141.25
