Data from Circ_1999_H10_HRD10591_00093.txt Node
Date: Wed Jan 03 11:23:31 EST 2024
User: Yrep
Spectrometer: HR+D1059
Trigger mode: 1
Integration Time (sec): 1.000000E-1
Scans to average: 1
Electric dark correction enabled: true
Nonlinearity correction enabled: false
Boxcar width: 0
XAxis mode: Wavelengths
Number of Pixels in Spectrum: 2048
>>>>>Begin Spectral Data<<<<<
223.165	-10.25
223.4	-10.25
223.635	-10.25
223.869	-19.25
224.104	-23.25
224.338	-17.25
224.573	-11.25
224.808	-8.25
225.042	-0.25
225.277	-1.25
225.511	4.75
225.746	-2.25
225.98	1.75
226.215	16.75
226.449	7.75
226.683	20.75
226.918	17.75
227.152	23.75
227.387	44.75
227.621	41.75
227.856	41.75
228.09	38.75
228.324	59.75
228.559	55.75
228.793	65.75
229.027	59.75
229.262	75.75
229.496	81.75
229.73	109.75
229.964	109.75
230.199	71.75
230.433	81.75
230.667	80.75
230.901	86.75
231.136	95.75
231.37	91.75
231.604	77.75
231.838	90.75
232.072	74.75
232.306	75.75
232.541	89.75
232.775	78.75
233.009	80.75
233.243	97.75
233.477	85.75
233.711	81.75
233.945	84.75
234.179	68.75
234.413	69.75
234.647	61.75
234.881	80.75
235.115	73.75
235.349	90.75
235.583	95.75
235.817	77.75
236.051	85.75
236.285	81.75
236.519	95.75
236.753	73.75
236.987	84.75
237.221	89.75
237.455	106.75
237.689	83.75
237.922	65.75
238.156	86.75
238.39	77.75
238.624	72.75
238.858	60.75
239.091	85.75
239.325	74.75
239.559	89.75
239.793	76.75
240.027	90.75
240.26	97.75
240.494	84.75
240.728	74.75
240.961	81.75
241.195	77.75
241.429	86.75
241.662	93.75
241.896	90.75
242.13	93.75
242.363	72.75
242.597	92.75
242.83	79.75
243.064	84.75
243.298	78.75
243.531	76.75
243.765	80.75
243.998	80.75
244.232	104.75
244.465	86.75
244.699	77.75
244.932	68.75
245.166	79.75
245.399	72.75
245.633	92.75
245.866	88.75
246.099	82.75
246.333	85.75
246.566	77.75
246.8	86.75
247.033	85.75
247.266	94.75
247.5	81.75
247.733	82.75
247.966	61.75
248.2	79.75
248.433	70.75
248.666	90.75
248.899	85.75
249.133	98.75
249.366	121.75
249.599	104.75
249.832	88.75
250.066	81.75
250.299	86.75
250.532	93.75
250.765	91.75
250.998	87.75
251.231	95.75
251.465	90.75
251.698	94.75
251.931	88.75
252.164	74.75
252.397	79.75
252.63	66.75
252.863	66.75
253.096	89.75
253.329	84.75
253.562	84.75
253.795	72.75
254.028	94.75
254.261	81.75
254.494	94.75
254.727	82.75
254.96	90.75
255.193	61.75
255.426	80.75
255.659	91.75
255.892	105.75
256.124	102.75
256.357	107.75
256.59	92.75
256.823	101.75
257.056	101.75
257.289	89.75
257.521	99.75
257.754	82.75
257.987	89.75
258.22	109.75
258.452	116.75
258.685	96.75
258.918	90.75
259.151	91.75
259.383	105.75
259.616	80.75
259.849	82.75
260.081	87.75
260.314	95.75
260.547	103.75
260.779	97.75
261.012	127.75
261.244	119.75
261.477	114.75
261.71	132.75
261.942	154.75
262.175	154.75
262.407	106.75
262.64	95.75
262.872	76.75
263.105	90.75
263.337	100.75
263.57	85.75
263.802	89.75
264.035	86.75
264.267	85.75
264.499	84.75
264.732	87.75
264.964	84.75
265.197	78.75
265.429	82.75
265.661	96.75
265.894	84.75
266.126	79.75
266.358	93.75
266.591	76.75
266.823	80.75
267.055	74.75
267.287	94.75
267.52	84.75
267.752	89.75
267.984	79.75
268.216	100.75
268.448	102.75
268.681	92.75
268.913	80.75
269.145	81.75
269.377	88.75
269.609	61.75
269.841	88.75
270.073	81.75
270.306	94.75
270.538	79.75
270.77	96.75
271.002	91.75
271.234	96.75
271.466	105.75
271.698	80.75
271.93	86.75
272.162	98.75
272.394	99.75
272.626	86.75
272.858	88.75
273.09	87.75
273.322	69.75
273.553	79.75
273.785	82.75
274.017	97.75
274.249	89.75
274.481	93.75
274.713	92.75
274.945	99.75
275.176	95.75
275.408	103.75
275.64	143.75
275.872	159.75
276.104	122.75
276.335	118.75
276.567	146.75
276.799	196.75
277.031	239.75
277.262	276.75
277.494	196.75
277.726	120.75
277.957	114.75
278.189	99.75
278.421	98.75
278.652	95.75
278.884	97.75
279.115	93.75
279.347	92.75
279.579	116.75
279.81	158.75
280.042	264.75
280.273	393.75
280.505	261.75
280.736	136.75
280.968	100.75
281.199	100.75
281.431	91.75
281.662	96.75
281.894	97.75
282.125	120.75
282.356	158.75
282.588	214.75
282.819	168.75
283.051	87.75
283.282	84.75
283.513	101.75
283.745	85.75
283.976	72.75
284.207	91.75
284.439	88.75
284.67	95.75
284.901	92.75
285.132	102.75
285.364	93.75
285.595	86.75
285.826	97.75
286.057	76.75
286.288	90.75
286.52	94.75
286.751	80.75
286.982	87.75
287.213	94.75
287.444	95.75
287.675	88.75
287.906	104.75
288.138	88.75
288.369	115.75
288.6	95.75
288.831	97.75
289.062	98.75
289.293	95.75
289.524	79.75
289.755	99.75
289.986	95.75
290.217	89.75
290.448	90.75
290.679	95.75
290.91	88.75
291.141	91.75
291.371	85.75
291.602	82.75
291.833	91.75
292.064	87.75
292.295	89.75
292.526	89.75
292.757	102.75
292.987	85.75
293.218	96.75
293.449	97.75
293.68	100.75
293.91	88.75
294.141	85.75
294.372	98.75
294.603	82.75
294.833	90.75
295.064	96.75
295.295	87.75
295.525	95.75
295.756	118.75
295.987	162.75
296.217	201.75
296.448	178.75
296.679	101.75
296.909	100.75
297.14	91.75
297.37	96.75
297.601	105.75
297.831	105.75
298.062	95.75
298.292	93.75
298.523	89.75
298.753	96.75
298.984	90.75
299.214	79.75
299.445	96.75
299.675	110.75
299.905	96.75
300.136	91.75
300.366	91.75
300.597	97.75
300.827	102.75
301.057	121.75
301.288	140.75
301.518	104.75
301.748	106.75
301.979	123.75
302.209	124.75
302.439	95.75
302.669	106.75
302.9	109.75
303.13	101.75
303.36	114.75
303.59	163.75
303.82	191.75
304.051	115.75
304.281	88.75
304.511	102.75
304.741	97.75
304.971	83.75
305.201	94.75
305.431	92.75
305.661	86.75
305.891	100.75
306.121	115.75
306.352	125.75
306.582	135.75
306.812	124.75
307.042	147.75
307.272	213.75
307.502	246.75
307.731	213.75
307.961	154.75
308.191	94.75
308.421	100.75
308.651	90.75
308.881	98.75
309.111	90.75
309.341	109.75
309.571	107.75
309.8	103.75
310.03	109.75
310.26	110.75
310.49	107.75
310.72	103.75
310.949	142.75
311.179	128.75
311.409	96.75
311.639	133.75
311.868	106.75
312.098	116.75
312.328	117.75
312.557	116.75
312.787	144.75
313.017	126.75
313.246	98.75
313.476	105.75
313.706	107.75
313.935	108.75
314.165	133.75
314.394	128.75
314.624	111.75
314.853	125.75
315.083	109.75
315.312	108.75
315.542	98.75
315.771	111.75
316.001	108.75
316.23	95.75
316.46	108.75
316.689	97.75
316.919	98.75
317.148	116.75
317.377	107.75
317.607	97.75
317.836	101.75
318.065	104.75
318.295	103.75
318.524	109.75
318.753	101.75
318.983	102.75
319.212	132.75
319.441	142.75
319.67	129.75
319.9	101.75
320.129	95.75
320.358	105.75
320.587	108.75
320.816	132.75
321.046	113.75
321.275	93.75
321.504	107.75
321.733	112.75
321.962	109.75
322.191	111.75
322.42	116.75
322.649	148.75
322.878	138.75
323.108	141.75
323.337	169.75
323.566	180.75
323.795	220.75
324.024	291.75
324.253	560.75
324.482	1199.75
324.71	2444.75
324.939	3161.75
325.168	1201.75
325.397	341.75
325.626	198.75
325.855	170.75
326.084	163.75
326.313	178.75
326.542	209.75
326.77	309.75
326.999	573.75
327.228	1200.75
327.457	2209.75
327.686	1807.75
327.914	748.75
328.143	798.75
328.372	1058.75
328.6	537.75
328.829	261.75
329.058	251.75
329.287	278.75
329.515	236.75
329.744	376.75
329.972	744.75
330.201	1612.75
330.43	2368.75
330.658	1009.75
330.887	430.75
331.115	287.75
331.344	168.75
331.572	144.75
331.801	136.75
332.03	160.75
332.258	149.75
332.486	126.75
332.715	121.75
332.943	130.75
333.172	148.75
333.4	154.75
333.629	199.75
333.857	316.75
334.085	643.75
334.314	1463.75
334.542	2893.75
334.771	2637.75
334.999	638.75
335.227	217.75
335.455	146.75
335.684	142.75
335.912	133.75
336.14	129.75
336.369	117.75
336.597	122.75
336.825	113.75
337.053	92.75
337.281	108.75
337.51	100.75
337.738	94.75
337.966	94.75
338.194	106.75
338.422	126.75
338.65	101.75
338.878	94.75
339.106	97.75
339.334	103.75
339.562	110.75
339.79	95.75
340.018	84.75
340.246	121.75
340.474	101.75
340.702	113.75
340.93	110.75
341.158	105.75
341.386	100.75
341.614	110.75
341.842	95.75
342.07	100.75
342.298	106.75
342.526	95.75
342.754	100.75
342.981	92.75
343.209	96.75
343.437	95.75
343.665	102.75
343.893	102.75
344.12	98.75
344.348	109.75
344.576	85.75
344.804	108.75
345.031	132.75
345.259	132.75
345.487	125.75
345.714	116.75
345.942	87.75
346.17	104.75
346.397	115.75
346.625	103.75
346.853	107.75
347.08	104.75
347.308	104.75
347.535	117.75
347.763	118.75
347.99	103.75
348.218	110.75
348.445	140.75
348.673	122.75
348.9	110.75
349.128	112.75
349.355	92.75
349.583	100.75
349.81	97.75
350.037	103.75
350.265	100.75
350.492	91.75
350.72	93.75
350.947	116.75
351.174	134.75
351.402	150.75
351.629	109.75
351.856	116.75
352.083	123.75
352.311	137.75
352.538	134.75
352.765	148.75
352.992	133.75
353.22	122.75
353.447	127.75
353.674	105.75
353.901	79.75
354.128	102.75
354.355	94.75
354.583	102.75
354.81	89.75
355.037	96.75
355.264	94.75
355.491	105.75
355.718	102.75
355.945	98.75
356.172	82.75
356.399	107.75
356.626	95.75
356.853	93.75
357.08	96.75
357.307	90.75
357.534	91.75
357.761	80.75
357.988	101.75
358.215	97.75
358.441	105.75
358.668	106.75
358.895	97.75
359.122	108.75
359.349	92.75
359.576	109.75
359.802	145.75
360.029	169.75
360.256	182.75
360.483	152.75
360.709	120.75
360.936	97.75
361.163	112.75
361.39	117.75
361.616	128.75
361.843	93.75
362.07	111.75
362.296	122.75
362.523	124.75
362.749	104.75
362.976	119.75
363.203	83.75
363.429	91.75
363.656	105.75
363.882	89.75
364.109	81.75
364.335	103.75
364.562	104.75
364.788	109.75
365.015	106.75
365.241	106.75
365.468	121.75
365.694	132.75
365.92	109.75
366.147	91.75
366.373	93.75
366.599	91.75
366.826	101.75
367.052	103.75
367.278	89.75
367.505	101.75
367.731	110.75
367.957	101.75
368.184	97.75
368.41	120.75
368.636	150.75
368.862	156.75
369.089	137.75
369.315	113.75
369.541	98.75
369.767	104.75
369.993	100.75
370.219	102.75
370.445	108.75
370.672	90.75
370.898	76.75
371.124	92.75
371.35	93.75
371.576	98.75
371.802	98.75
372.028	89.75
372.254	81.75
372.48	88.75
372.706	73.75
372.932	84.75
373.158	95.75
373.384	88.75
373.61	87.75
373.835	85.75
374.061	107.75
374.287	105.75
374.513	100.75
374.739	87.75
374.965	90.75
375.191	84.75
375.416	83.75
375.642	84.75
375.868	95.75
376.094	96.75
376.319	85.75
376.545	92.75
376.771	97.75
376.997	91.75
377.222	94.75
377.448	108.75
377.674	104.75
377.899	102.75
378.125	98.75
378.35	96.75
378.576	93.75
378.802	85.75
379.027	90.75
379.253	87.75
379.478	90.75
379.704	93.75
379.929	89.75
380.155	94.75
380.38	98.75
380.606	93.75
380.831	106.75
381.057	93.75
381.282	106.75
381.507	99.75
381.733	99.75
381.958	92.75
382.184	103.75
382.409	104.75
382.634	103.75
382.86	86.75
383.085	105.75
383.31	88.75
383.535	104.75
383.761	96.75
383.986	96.75
384.211	90.75
384.436	91.75
384.662	104.75
384.887	95.75
385.112	118.75
385.337	93.75
385.562	108.75
385.787	105.75
386.013	116.75
386.238	129.75
386.463	122.75
386.688	107.75
386.913	89.75
387.138	112.75
387.363	100.75
387.588	106.75
387.813	107.75
388.038	90.75
388.263	110.75
388.488	97.75
388.713	92.75
388.938	92.75
389.163	103.75
389.387	103.75
389.612	88.75
389.837	95.75
390.062	87.75
390.287	95.75
390.512	83.75
390.736	83.75
390.961	93.75
391.186	96.75
391.411	99.75
391.636	97.75
391.86	102.75
392.085	84.75
392.31	80.75
392.534	81.75
392.759	96.75
392.984	94.75
393.208	102.75
393.433	88.75
393.658	88.75
393.882	89.75
394.107	72.75
394.331	91.75
394.556	86.75
394.78	99.75
395.005	88.75
395.229	95.75
395.454	93.75
395.678	79.75
395.903	87.75
396.127	88.75
396.352	90.75
396.576	85.75
396.801	94.75
397.025	72.75
397.249	90.75
397.474	84.75
397.698	102.75
397.922	106.75
398.147	104.75
398.371	66.75
398.595	93.75
398.82	99.75
399.044	84.75
399.268	87.75
399.492	106.75
399.717	95.75
399.941	89.75
400.165	91.75
400.389	97.75
400.613	79.75
400.837	88.75
401.062	107.75
401.286	78.75
401.51	98.75
401.734	97.75
401.958	117.75
402.182	188.75
402.406	264.75
402.63	184.75
402.854	112.75
403.078	103.75
403.302	93.75
403.526	96.75
403.75	82.75
403.974	90.75
404.198	92.75
404.422	96.75
404.645	78.75
404.869	97.75
405.093	123.75
405.317	167.75
405.541	153.75
405.765	145.75
405.988	160.75
406.212	290.75
406.436	449.75
406.66	282.75
406.883	154.75
407.107	125.75
407.331	114.75
407.555	128.75
407.778	111.75
408.002	93.75
408.226	99.75
408.449	86.75
408.673	81.75
408.896	99.75
409.12	100.75
409.344	100.75
409.567	98.75
409.791	84.75
410.014	81.75
410.238	101.75
410.461	94.75
410.685	92.75
410.908	102.75
411.132	110.75
411.355	109.75
411.578	91.75
411.802	92.75
412.025	95.75
412.249	113.75
412.472	120.75
412.695	152.75
412.919	117.75
413.142	110.75
413.365	97.75
413.589	85.75
413.812	88.75
414.035	105.75
414.258	92.75
414.482	93.75
414.705	85.75
414.928	84.75
415.151	87.75
415.374	93.75
415.597	103.75
415.821	104.75
416.044	90.75
416.267	91.75
416.49	84.75
416.713	95.75
416.936	102.75
417.159	101.75
417.382	97.75
417.605	122.75
417.828	134.75
418.051	116.75
418.274	106.75
418.497	92.75
418.72	78.75
418.943	74.75
419.166	89.75
419.389	90.75
419.611	104.75
419.834	96.75
420.057	88.75
420.28	86.75
420.503	86.75
420.726	92.75
420.948	106.75
421.171	114.75
421.394	103.75
421.617	102.75
421.839	105.75
422.062	93.75
422.285	120.75
422.507	109.75
422.73	107.75
422.953	106.75
423.175	89.75
423.398	100.75
423.621	97.75
423.843	93.75
424.066	96.75
424.288	79.75
424.511	103.75
424.733	126.75
424.956	116.75
425.178	112.75
425.401	126.75
425.623	112.75
425.846	106.75
426.068	106.75
426.291	97.75
426.513	96.75
426.735	92.75
426.958	112.75
427.18	126.75
427.402	205.75
427.625	351.75
427.847	302.75
428.069	241.75
428.292	140.75
428.514	99.75
428.736	92.75
428.958	98.75
429.181	87.75
429.403	92.75
429.625	96.75
429.847	95.75
430.069	121.75
430.292	97.75
430.514	84.75
430.736	89.75
430.958	110.75
431.18	78.75
431.402	92.75
431.624	95.75
431.846	112.75
432.068	88.75
432.29	84.75
432.512	98.75
432.734	99.75
432.956	98.75
433.178	101.75
433.4	109.75
433.622	85.75
433.844	80.75
434.066	80.75
434.287	93.75
434.509	103.75
434.731	95.75
434.953	109.75
435.175	95.75
435.397	101.75
435.618	102.75
435.84	113.75
436.062	140.75
436.284	129.75
436.505	121.75
436.727	111.75
436.949	96.75
437.17	105.75
437.392	100.75
437.614	103.75
437.835	139.75
438.057	185.75
438.278	148.75
438.5	129.75
438.721	157.75
438.943	120.75
439.165	92.75
439.386	112.75
439.608	113.75
439.829	128.75
440.05	172.75
440.272	206.75
440.493	131.75
440.715	89.75
440.936	91.75
441.158	101.75
441.379	104.75
441.6	111.75
441.822	120.75
442.043	108.75
442.264	118.75
442.486	113.75
442.707	103.75
442.928	118.75
443.149	219.75
443.371	200.75
443.592	158.75
443.813	146.75
444.034	139.75
444.255	103.75
444.476	95.75
444.698	103.75
444.919	93.75
445.14	145.75
445.361	150.75
445.582	157.75
445.803	207.75
446.024	203.75
446.245	163.75
446.466	145.75
446.687	108.75
446.908	96.75
447.129	109.75
447.35	101.75
447.571	112.75
447.792	106.75
448.013	108.75
448.234	152.75
448.455	130.75
448.675	142.75
448.896	136.75
449.117	117.75
449.338	133.75
449.559	160.75
449.779	166.75
450	102.75
450.221	102.75
450.442	101.75
450.662	112.75
450.883	150.75
451.104	164.75
451.324	125.75
451.545	96.75
451.766	93.75
451.986	87.75
452.207	100.75
452.428	106.75
452.648	115.75
452.869	144.75
453.089	175.75
453.31	190.75
453.53	114.75
453.751	96.75
453.971	151.75
454.192	185.75
454.412	114.75
454.633	88.75
454.853	88.75
455.073	99.75
455.294	104.75
455.514	109.75
455.734	105.75
455.955	73.75
456.175	92.75
456.395	101.75
456.616	87.75
456.836	89.75
457.056	97.75
457.276	96.75
457.497	70.75
457.717	90.75
457.937	88.75
458.157	103.75
458.377	120.75
458.598	155.75
458.818	290.75
459.038	309.75
459.258	172.75
459.478	109.75
459.698	96.75
459.918	86.75
460.138	105.75
460.358	88.75
460.578	86.75
460.798	102.75
461.018	88.75
461.238	86.75
461.458	89.75
461.678	100.75
461.898	94.75
462.118	81.75
462.338	90.75
462.558	95.75
462.777	92.75
462.997	124.75
463.217	129.75
463.437	113.75
463.657	115.75
463.876	98.75
464.096	95.75
464.316	113.75
464.536	127.75
464.755	106.75
464.975	160.75
465.195	338.75
465.414	346.75
465.634	140.75
465.854	100.75
466.073	89.75
466.293	94.75
466.512	85.75
466.732	101.75
466.951	110.75
467.171	100.75
467.391	133.75
467.61	202.75
467.829	306.75
468.049	922.75
468.268	1448.75
468.488	334.75
468.707	134.75
468.927	98.75
469.146	105.75
469.365	106.75
469.585	105.75
469.804	126.75
470.023	121.75
470.243	114.75
470.462	128.75
470.681	188.75
470.901	125.75
471.12	104.75
471.339	114.75
471.558	133.75
471.777	202.75
471.997	457.75
472.216	1811.75
472.435	4286.75
472.654	933.75
472.873	215.75
473.092	130.75
473.311	119.75
473.53	95.75
473.749	105.75
473.968	116.75
474.187	125.75
474.406	122.75
474.625	81.75
474.844	87.75
475.063	105.75
475.282	97.75
475.501	98.75
475.72	95.75
475.939	87.75
476.158	79.75
476.377	89.75
476.596	106.75
476.814	103.75
477.033	112.75
477.252	110.75
477.471	106.75
477.69	100.75
477.908	91.75
478.127	94.75
478.346	95.75
478.564	106.75
478.783	122.75
479.002	121.75
479.22	106.75
479.439	147.75
479.658	173.75
479.876	158.75
480.095	152.75
480.313	164.75
480.532	225.75
480.751	403.75
480.969	1619.75
481.188	7176.75
481.406	3964.75
481.624	522.75
481.843	170.75
482.061	126.75
482.28	116.75
482.498	123.75
482.717	94.75
482.935	93.75
483.153	94.75
483.372	94.75
483.59	95.75
483.808	103.75
484.027	90.75
484.245	97.75
484.463	108.75
484.681	102.75
484.9	102.75
485.118	117.75
485.336	107.75
485.554	109.75
485.772	112.75
485.99	118.75
486.209	114.75
486.427	118.75
486.645	134.75
486.863	149.75
487.081	113.75
487.299	118.75
487.517	102.75
487.735	103.75
487.953	101.75
488.171	92.75
488.389	95.75
488.607	101.75
488.825	100.75
489.043	94.75
489.261	113.75
489.479	95.75
489.696	96.75
489.914	83.75
490.132	94.75
490.35	99.75
490.568	109.75
490.786	104.75
491.003	102.75
491.221	92.75
491.439	94.75
491.657	94.75
491.874	89.75
492.092	85.75
492.31	102.75
492.527	96.75
492.745	100.75
492.963	100.75
493.18	95.75
493.398	92.75
493.615	105.75
493.833	104.75
494.05	90.75
494.268	103.75
494.485	100.75
494.703	90.75
494.92	81.75
495.138	86.75
495.355	88.75
495.573	82.75
495.79	90.75
496.008	97.75
496.225	103.75
496.442	96.75
496.66	104.75
496.877	104.75
497.094	101.75
497.312	108.75
497.529	87.75
497.746	109.75
497.963	91.75
498.181	93.75
498.398	111.75
498.615	116.75
498.832	119.75
499.049	91.75
499.267	108.75
499.484	92.75
499.701	95.75
499.918	89.75
500.135	85.75
500.352	96.75
500.569	102.75
500.786	108.75
501.003	95.75
501.22	100.75
501.437	101.75
501.654	106.75
501.871	167.75
502.088	101.75
502.305	97.75
502.522	80.75
502.739	85.75
502.956	96.75
503.172	94.75
503.389	110.75
503.606	157.75
503.823	119.75
504.04	104.75
504.256	93.75
504.473	105.75
504.69	95.75
504.907	97.75
505.123	87.75
505.34	76.75
505.557	90.75
505.773	99.75
505.99	90.75
506.207	95.75
506.423	88.75
506.64	93.75
506.856	97.75
507.073	84.75
507.289	89.75
507.506	125.75
507.722	176.75
507.939	159.75
508.155	108.75
508.372	102.75
508.588	92.75
508.805	100.75
509.021	111.75
509.238	118.75
509.454	119.75
509.67	109.75
509.887	123.75
510.103	169.75
510.319	339.75
510.536	1408.75
510.752	5117.75
