Data from Circ_1999_H10_HRD10591_00003.txt Node
Date: Wed Jan 03 11:23:13 EST 2024
User: Yrep
Spectrometer: HR+D1059
Trigger mode: 1
Integration Time (sec): 1.000000E-1
Scans to average: 1
Electric dark correction enabled: true
Nonlinearity correction enabled: false
Boxcar width: 0
XAxis mode: Wavelengths
Number of Pixels in Spectrum: 2048
>>>>>Begin Spectral Data<<<<<
223.165	-19
223.4	-19
223.635	-19
223.869	-12
224.104	-17
224.338	-31
224.573	-1
224.808	-6
225.042	-7
225.277	-1
225.511	5
225.746	6
225.98	8
226.215	3
226.449	18
226.683	13
226.918	25
227.152	16
227.387	32
227.621	45
227.856	59
228.09	35
228.324	60
228.559	59
228.793	63
229.027	64
229.262	75
229.496	83
229.73	120
229.964	94
230.199	82
230.433	75
230.667	82
230.901	96
231.136	78
231.37	82
231.604	83
231.838	80
232.072	79
232.306	84
232.541	80
232.775	87
233.009	84
233.243	89
233.477	81
233.711	81
233.945	75
234.179	75
234.413	84
234.647	72
234.881	81
235.115	80
235.349	87
235.583	82
235.817	86
236.051	82
236.285	80
236.519	78
236.753	71
236.987	88
237.221	99
237.455	97
237.689	81
237.922	87
238.156	83
238.39	78
238.624	72
238.858	89
239.091	88
239.325	72
239.559	90
239.793	88
240.027	71
240.26	74
240.494	80
240.728	80
240.961	85
241.195	90
241.429	73
241.662	80
241.896	83
242.13	84
242.363	88
242.597	81
242.83	72
243.064	77
243.298	94
243.531	63
243.765	78
243.998	92
244.232	75
244.465	87
244.699	94
244.932	65
245.166	89
245.399	83
245.633	95
245.866	91
246.099	80
246.333	78
246.566	79
246.8	81
247.033	91
247.266	71
247.5	86
247.733	89
247.966	84
248.2	77
248.433	83
248.666	82
248.899	83
249.133	88
249.366	106
249.599	103
249.832	100
250.066	84
250.299	104
250.532	97
250.765	85
250.998	96
251.231	73
251.465	82
251.698	86
251.931	93
252.164	93
252.397	89
252.63	86
252.863	84
253.096	82
253.329	82
253.562	81
253.795	100
254.028	85
254.261	80
254.494	80
254.727	86
254.96	90
255.193	87
255.426	87
255.659	79
255.892	92
256.124	96
256.357	98
256.59	85
256.823	98
257.056	89
257.289	76
257.521	97
257.754	73
257.987	91
258.22	90
258.452	89
258.685	90
258.918	88
259.151	83
259.383	95
259.616	83
259.849	72
260.081	88
260.314	86
260.547	97
260.779	93
261.012	96
261.244	104
261.477	104
261.71	114
261.942	155
262.175	170
262.407	100
262.64	79
262.872	97
263.105	82
263.337	80
263.57	103
263.802	92
264.035	75
264.267	92
264.499	92
264.732	94
264.964	90
265.197	93
265.429	87
265.661	72
265.894	89
266.126	83
266.358	89
266.591	97
266.823	77
267.055	92
267.287	74
267.52	78
267.752	91
267.984	90
268.216	84
268.448	83
268.681	65
268.913	88
269.145	89
269.377	80
269.609	96
269.841	78
270.073	91
270.306	84
270.538	84
270.77	85
271.002	90
271.234	95
271.466	99
271.698	93
271.93	87
272.162	97
272.394	96
272.626	81
272.858	92
273.09	94
273.322	87
273.553	92
273.785	97
274.017	80
274.249	90
274.481	88
274.713	94
274.945	90
275.176	100
275.408	104
275.64	105
275.872	126
276.104	103
276.335	107
276.567	128
276.799	171
277.031	177
277.262	230
277.494	129
277.726	113
277.957	88
278.189	102
278.421	81
278.652	86
278.884	88
279.115	98
279.347	91
279.579	95
279.81	144
280.042	189
280.273	244
280.505	178
280.736	122
280.968	104
281.199	104
281.431	86
281.662	92
281.894	99
282.125	127
282.356	153
282.588	195
282.819	138
283.051	88
283.282	89
283.513	98
283.745	80
283.976	105
284.207	98
284.439	99
284.67	94
284.901	99
285.132	99
285.364	98
285.595	102
285.826	90
286.057	93
286.288	106
286.52	86
286.751	82
286.982	96
287.213	84
287.444	96
287.675	83
287.906	91
288.138	94
288.369	100
288.6	91
288.831	97
289.062	97
289.293	96
289.524	106
289.755	98
289.986	96
290.217	106
290.448	96
290.679	79
290.91	77
291.141	91
291.371	91
291.602	90
291.833	100
292.064	97
292.295	90
292.526	95
292.757	88
292.987	82
293.218	86
293.449	91
293.68	89
293.91	95
294.141	109
294.372	93
294.603	97
294.833	99
295.064	94
295.295	96
295.525	93
295.756	114
295.987	156
296.217	222
296.448	169
296.679	100
296.909	106
297.14	86
297.37	86
297.601	106
297.831	96
298.062	80
298.292	111
298.523	91
298.753	77
298.984	105
299.214	95
299.445	106
299.675	110
299.905	102
300.136	91
300.366	99
300.597	103
300.827	108
301.057	114
301.288	131
301.518	114
301.748	97
301.979	123
302.209	113
302.439	108
302.669	108
302.9	105
303.13	106
303.36	123
303.59	156
303.82	156
304.051	120
304.281	99
304.511	91
304.741	91
304.971	88
305.201	93
305.431	100
305.661	101
305.891	94
306.121	103
306.352	114
306.582	129
306.812	126
307.042	121
307.272	171
307.502	188
307.731	177
307.961	128
308.191	110
308.421	90
308.651	95
308.881	103
309.111	96
309.341	108
309.571	111
309.8	113
310.03	116
310.26	123
310.49	121
310.72	124
310.949	132
311.179	116
311.409	120
311.639	114
311.868	108
312.098	97
312.328	99
312.557	125
312.787	152
313.017	138
313.246	117
313.476	108
313.706	111
313.935	111
314.165	112
314.394	122
314.624	115
314.853	107
315.083	106
315.312	102
315.542	100
315.771	90
316.001	75
316.23	88
316.46	108
316.689	90
316.919	94
317.148	104
317.377	93
317.607	106
317.836	120
318.065	97
318.295	98
318.524	93
318.753	101
318.983	91
319.212	120
319.441	122
319.67	138
319.9	97
320.129	94
320.358	107
320.587	103
320.816	97
321.046	116
321.275	124
321.504	108
321.733	98
321.962	99
322.191	114
322.42	119
322.649	124
322.878	136
323.108	148
323.337	150
323.566	164
323.795	198
324.024	260
324.253	516
324.482	1060
324.71	2136
324.939	2794
325.168	1025
325.397	338
325.626	204
325.855	170
326.084	154
326.313	156
326.542	191
326.77	271
326.999	534
327.228	1043
327.457	1890
327.686	1560
327.914	589
328.143	570
328.372	709
328.6	420
328.829	223
329.058	216
329.287	239
329.515	200
329.744	253
329.972	499
330.201	978
330.43	1439
330.658	670
330.887	339
331.115	224
331.344	141
331.572	136
331.801	153
332.03	150
332.258	134
332.486	120
332.715	126
332.943	112
333.172	122
333.4	137
333.629	176
333.857	261
334.085	444
334.314	903
334.542	1770
334.771	1600
334.999	426
335.227	168
335.455	144
335.684	132
335.912	113
336.14	125
336.369	140
336.597	136
336.825	116
337.053	118
337.281	99
337.51	99
337.738	113
337.966	126
338.194	123
338.422	120
338.65	104
338.878	90
339.106	100
339.334	116
339.562	108
339.79	94
340.018	103
340.246	118
340.474	107
340.702	105
340.93	87
341.158	108
341.386	102
341.614	105
341.842	114
342.07	115
342.298	111
342.526	107
342.754	111
342.981	86
343.209	94
343.437	115
343.665	94
343.893	105
344.12	90
344.348	83
344.576	96
344.804	117
345.031	107
345.259	129
345.487	103
345.714	130
345.942	100
346.17	105
346.397	95
346.625	104
346.853	96
347.08	104
347.308	89
347.535	127
347.763	114
347.99	128
348.218	124
348.445	142
348.673	129
348.9	117
349.128	103
349.355	101
349.583	88
349.81	105
350.037	103
350.265	123
350.492	106
350.72	103
350.947	103
351.174	140
351.402	149
351.629	131
351.856	120
352.083	126
352.311	121
352.538	152
352.765	141
352.992	138
353.22	135
353.447	127
353.674	113
353.901	105
354.128	105
354.355	115
354.583	96
354.81	100
355.037	101
355.264	83
355.491	82
355.718	99
355.945	110
356.172	91
356.399	107
356.626	103
356.853	91
357.08	94
357.307	101
357.534	92
357.761	116
357.988	112
358.215	104
358.441	111
358.668	96
358.895	96
359.122	90
359.349	106
359.576	105
359.802	135
360.029	167
360.256	157
360.483	122
360.709	100
360.936	100
361.163	114
361.39	127
361.616	110
361.843	102
362.07	102
362.296	129
362.523	106
362.749	119
362.976	102
363.203	99
363.429	92
363.656	98
363.882	93
364.109	94
364.335	103
364.562	98
364.788	89
365.015	109
365.241	104
365.468	129
365.694	137
365.92	103
366.147	99
366.373	94
366.599	89
366.826	98
367.052	90
367.278	90
367.505	104
367.731	101
367.957	119
368.184	115
368.41	130
368.636	154
368.862	160
369.089	130
369.315	106
369.541	96
369.767	107
369.993	89
370.219	107
370.445	89
370.672	105
370.898	100
371.124	97
371.35	86
371.576	88
371.802	94
372.028	89
372.254	92
372.48	99
372.706	94
372.932	107
373.158	101
373.384	88
373.61	102
373.835	93
374.061	92
374.287	97
374.513	99
374.739	91
374.965	105
375.191	90
375.416	102
375.642	107
375.868	100
376.094	96
376.319	95
376.545	99
376.771	93
376.997	89
377.222	101
377.448	110
377.674	83
377.899	108
378.125	85
378.35	100
378.576	78
378.802	100
379.027	98
379.253	100
379.478	96
379.704	94
379.929	102
380.155	114
380.38	112
380.606	116
380.831	115
381.057	96
381.282	115
381.507	115
381.733	109
381.958	114
382.184	110
382.409	113
382.634	121
382.86	124
383.085	133
383.31	117
383.535	115
383.761	102
383.986	115
384.211	123
384.436	109
384.662	110
384.887	126
385.112	134
385.337	120
385.562	129
385.787	136
386.013	152
386.238	155
386.463	139
386.688	138
386.913	138
387.138	130
387.363	123
387.588	108
387.813	123
388.038	126
388.263	153
388.488	156
388.713	108
388.938	97
389.163	104
389.387	98
389.612	92
389.837	101
390.062	99
390.287	85
390.512	99
390.736	89
390.961	94
391.186	97
391.411	106
391.636	93
391.86	100
392.085	91
392.31	92
392.534	91
392.759	91
392.984	96
393.208	90
393.433	98
393.658	89
393.882	97
394.107	104
394.331	92
394.556	81
394.78	97
395.005	93
395.229	96
395.454	107
395.678	74
395.903	78
396.127	103
396.352	109
396.576	95
396.801	90
397.025	97
397.249	94
397.474	96
397.698	81
397.922	88
398.147	84
398.371	83
398.595	96
398.82	89
399.044	98
399.268	87
399.492	94
399.717	83
399.941	99
400.165	106
400.389	99
400.613	96
400.837	100
401.062	89
401.286	98
401.51	97
401.734	111
401.958	123
402.182	185
402.406	247
402.63	188
402.854	113
403.078	92
403.302	94
403.526	98
403.75	98
403.974	90
404.198	96
404.422	88
404.645	112
404.869	109
405.093	133
405.317	139
405.541	136
405.765	138
405.988	160
406.212	279
406.436	436
406.66	273
406.883	127
407.107	122
407.331	108
407.555	113
407.778	107
408.002	111
408.226	100
408.449	99
408.673	104
408.896	98
409.12	110
409.344	99
409.567	90
409.791	99
410.014	106
410.238	100
410.461	104
410.685	109
410.908	102
411.132	112
411.355	106
411.578	108
411.802	105
412.025	94
412.249	114
412.472	120
412.695	134
412.919	114
413.142	107
413.365	94
413.589	92
413.812	99
414.035	110
414.258	76
414.482	102
414.705	98
414.928	93
415.151	87
415.374	98
415.597	100
415.821	105
416.044	104
416.267	99
416.49	94
416.713	102
416.936	97
417.159	102
417.382	107
417.605	112
417.828	116
418.051	116
418.274	94
418.497	120
418.72	95
418.943	91
419.166	84
419.389	87
419.611	93
419.834	108
420.057	98
420.28	94
420.503	114
420.726	97
420.948	97
421.171	105
421.394	103
421.617	102
421.839	107
422.062	88
422.285	100
422.507	111
422.73	112
422.953	105
423.175	116
423.398	96
423.621	82
423.843	95
424.066	92
424.288	94
424.511	88
424.733	119
424.956	118
425.178	119
425.401	125
425.623	94
425.846	103
426.068	108
426.291	103
426.513	96
426.735	100
426.958	92
427.18	140
427.402	198
427.625	293
427.847	250
428.069	200
428.292	123
428.514	100
428.736	92
428.958	91
429.181	92
429.403	91
429.625	100
429.847	101
430.069	114
430.292	99
430.514	84
430.736	98
430.958	105
431.18	95
431.402	91
431.624	87
431.846	90
432.068	101
432.29	99
432.512	98
432.734	82
432.956	106
433.178	112
433.4	95
433.622	81
433.844	104
434.066	100
434.287	103
434.509	100
434.731	97
434.953	102
435.175	92
435.397	96
435.618	104
435.84	116
436.062	150
436.284	139
436.505	108
436.727	100
436.949	96
437.17	94
437.392	117
437.614	99
437.835	141
438.057	171
438.278	143
438.5	121
438.721	144
438.943	108
439.165	88
439.386	93
439.608	104
439.829	119
440.05	151
440.272	204
440.493	125
440.715	92
440.936	95
441.158	104
441.379	94
441.6	110
441.822	119
442.043	118
442.264	125
442.486	116
442.707	117
442.928	128
443.149	183
443.371	179
443.592	132
443.813	136
444.034	117
444.255	103
444.476	107
444.698	103
444.919	96
445.14	135
445.361	134
445.582	138
445.803	198
446.024	179
446.245	172
446.466	138
446.687	89
446.908	97
447.129	87
447.35	102
447.571	108
447.792	104
448.013	125
448.234	129
448.455	126
448.675	96
448.896	136
449.117	112
449.338	114
449.559	154
449.779	139
450	88
450.221	108
450.442	92
450.662	97
450.883	144
451.104	170
451.324	122
451.545	94
451.766	91
451.986	96
452.207	96
452.428	118
452.648	114
452.869	157
453.089	147
453.31	162
453.53	129
453.751	106
453.971	147
454.192	161
454.412	131
454.633	88
454.853	86
455.073	98
455.294	105
455.514	137
455.734	101
455.955	81
456.175	86
456.395	95
456.616	96
456.836	87
457.056	100
457.276	100
457.497	82
457.717	98
457.937	91
458.157	98
458.377	113
458.598	135
458.818	272
459.038	281
459.258	164
459.478	106
459.698	94
459.918	96
460.138	88
460.358	88
460.578	89
460.798	88
461.018	102
461.238	86
461.458	99
461.678	87
461.898	89
462.118	87
462.338	100
462.558	85
462.777	94
462.997	108
463.217	101
463.437	104
463.657	97
463.876	105
464.096	91
464.316	115
464.536	110
464.755	138
464.975	153
465.195	312
465.414	303
465.634	120
465.854	97
466.073	106
466.293	107
466.512	96
466.732	102
466.951	100
467.171	108
467.391	134
467.61	164
467.829	231
468.049	605
468.268	884
468.488	242
468.707	107
468.927	120
469.146	99
469.365	92
469.585	96
469.804	116
470.023	127
470.243	131
470.462	140
470.681	169
470.901	110
471.12	113
471.339	110
471.558	123
471.777	151
471.997	314
472.216	1119
472.435	2634
472.654	603
472.873	175
473.092	118
473.311	102
473.53	99
473.749	99
473.968	111
474.187	144
474.406	115
474.625	97
474.844	89
475.063	102
475.282	88
475.501	104
475.72	104
475.939	95
476.158	105
476.377	113
476.596	99
476.814	120
477.033	110
477.252	91
477.471	86
477.69	93
477.908	102
478.127	92
478.346	105
478.564	112
478.783	109
479.002	120
479.22	113
479.439	130
479.658	156
479.876	148
480.095	154
480.313	146
480.532	176
480.751	293
480.969	1040
481.188	4411
481.406	2480
481.624	369
481.843	151
482.061	111
482.28	102
482.498	103
482.717	105
482.935	95
483.153	98
483.372	94
483.59	105
483.808	100
484.027	107
484.245	108
484.463	100
484.681	107
484.9	94
485.118	116
485.336	89
485.554	113
485.772	122
485.99	120
486.209	110
486.427	119
486.645	146
486.863	153
487.081	125
487.299	97
487.517	112
487.735	120
487.953	115
488.171	106
488.389	108
488.607	96
488.825	96
489.043	98
489.261	103
489.479	101
489.696	90
489.914	102
490.132	91
490.35	97
490.568	91
490.786	80
491.003	101
491.221	90
491.439	105
491.657	107
491.874	106
492.092	105
492.31	94
492.527	107
492.745	106
492.963	102
493.18	100
493.398	89
493.615	99
493.833	108
494.05	99
494.268	97
494.485	89
494.703	103
494.92	91
495.138	92
495.355	86
495.573	95
495.79	106
496.008	96
496.225	95
496.442	96
496.66	107
496.877	102
497.094	109
497.312	87
497.529	92
497.746	107
497.963	91
498.181	100
498.398	110
498.615	124
498.832	126
499.049	87
499.267	91
499.484	99
499.701	89
499.918	93
500.135	92
500.352	109
500.569	97
500.786	107
501.003	110
501.22	99
501.437	98
501.654	111
501.871	143
502.088	106
502.305	102
502.522	95
502.739	92
502.956	95
503.172	99
503.389	126
503.606	139
503.823	118
504.04	111
504.256	103
504.473	94
504.69	88
504.907	95
505.123	91
505.34	81
505.557	99
505.773	102
505.99	95
506.207	90
506.423	98
506.64	94
506.856	91
507.073	95
507.289	107
507.506	109
507.722	158
507.939	162
508.155	121
508.372	113
508.588	110
508.805	109
509.021	104
509.238	112
509.454	115
509.67	108
509.887	129
510.103	181
510.319	315
510.536	1360
510.752	5001
510.968	1251
511.184	234
511.401	152
511.617	128
511.833	117
512.049	110
512.265	103
512.481	91
512.698	116
512.914	109
513.13	90
513.346	93
513.562	109
513.778	119
513.994	102
514.21	142
514.426	174
514.642	219
514.858	196
515.074	287
515.29	1034
515.506	3981
515.721	1331
515.937	288
516.153	184
516.369	124
516.585	126
516.801	114
517.016	102
517.232	91
517.448	99
517.664	114
517.879	110
518.095	111
518.311	120
518.527	125
518.742	92
518.958	111
519.173	104
519.389	99
519.605	110
519.82	118
520.036	131
520.251	187
520.467	170
520.682	134
520.898	145
521.113	168
521.329	214
521.544	407
521.76	1399
521.975	6573
522.19	3804
522.406	689
522.621	208
522.836	136
523.052	110
523.267	119
523.482	123
523.698	123
523.913	178
524.128	141
524.343	104
524.559	96
524.774	110
524.989	105
525.204	146
525.419	128
525.634	100
525.849	94
526.064	102
526.28	90
526.495	100
526.71	97
526.925	99
527.14	102
527.355	98
527.57	75
527.785	83
527.999	113
528.214	87
528.429	112
528.644	108
528.859	103
529.074	102
529.289	201
529.503	356
529.718	136
529.933	107
530.148	115
530.363	99
530.577	88
530.792	89
531.007	101
531.221	107
531.436	106
531.651	95
531.865	99
532.08	111
532.295	109
532.509	114
532.724	106
532.938	106
533.153	110
533.367	107
533.582	100
533.796	107
534.011	95
534.225	91
534.44	102
534.654	105
534.868	93
535.083	117
535.297	103
535.511	118
535.726	124
535.94	118
536.154	118
536.369	98
536.583	97
536.797	94
537.011	94
537.225	106
537.44	100
537.654	83
537.868	79
538.082	102
538.296	73
538.51	103
538.724	105
538.938	105
539.153	127
539.367	139
539.581	107
539.795	96
540.009	90
540.222	95
540.436	89
540.65	101
540.864	107
541.078	122
541.292	94
541.506	107
541.72	97
541.934	81
542.147	83
542.361	99
542.575	88
542.789	98
543.002	86
543.216	96
543.43	119
543.644	105
543.857	99
544.071	102
544.285	96
544.498	103
544.712	93
544.925	86
545.139	81
545.352	92
545.566	93
545.779	97
545.993	96
546.206	95
546.42	117
546.633	104
546.847	98
547.06	83
547.274	82
547.487	83
547.7	97
547.914	87
548.127	100
548.34	112
548.554	87
548.767	86
548.98	107
549.193	95
549.407	93
549.62	87
549.833	89
550.046	104
550.259	88
550.473	91
550.686	108
550.899	102
551.112	96
551.325	97
551.538	104
551.751	95
551.964	99
552.177	103
552.39	85
552.603	108
552.816	112
553.029	98
553.242	101
553.455	102
553.667	122
553.88	130
554.093	111
554.306	109
554.519	123
554.732	118
554.944	90
555.157	88
555.37	107
555.583	103
555.795	105
556.008	105
556.221	97
556.433	88
556.646	101
556.859	94
557.071	89
557.284	80
557.496	92
557.709	102
557.921	105
558.134	86
558.346	95
558.559	92
558.771	93
558.984	90
559.196	107
559.409	87
559.621	91
559.833	93
560.046	94
560.258	119
560.47	146
560.683	107
560.895	100
561.107	106
561.32	105
561.532	87
561.744	96
561.956	99
562.168	91
562.381	82
562.593	105
562.805	99
563.017	96
563.229	85
563.441	88
563.653	102
563.865	91
564.077	104
564.289	76
564.501	102
564.713	93
564.925	96
565.137	124
565.349	104
565.561	95
565.773	98
565.985	86
566.197	91
566.408	96
566.62	100
566.832	89
567.044	90
567.255	97
567.467	98
567.679	91
567.891	76
568.102	78
568.314	95
568.526	104
568.737	92
568.949	96
569.161	98
569.372	95
569.584	93
569.795	99
570.007	155
570.218	454
570.43	201
570.641	103
570.853	105
571.064	100
571.276	75
571.487	89
571.698	97
571.91	83
572.121	76
572.333	93
572.544	86
572.755	99
572.966	99
573.178	82
573.389	96
573.6	86
573.811	76
574.023	83
574.234	102
574.445	62
574.656	75
574.867	78
575.078	78
575.289	96
575.501	96
575.712	94
575.923	95
