Data from Circ_1999_H10_HRD10591_00001.txt Node
Date: Wed Jan 03 11:23:12 EST 2024
User: Yrep
Spectrometer: HR+D1059
Trigger mode: 1
Integration Time (sec): 1.000000E-1
Scans to average: 1
Electric dark correction enabled: true
Nonlinearity correction enabled: false
Boxcar width: 0
XAxis mode: Wavelengths
Number of Pixels in Spectrum: 2048
>>>>>Begin Spectral Data<<<<<
223.165	-15
223.4	-15
223.635	-15
223.869	-25
224.104	-22
224.338	-24
224.573	-8
224.808	-4
225.042	-15
225.277	-15
225.511	4
225.746	7
225.98	7
226.215	8
226.449	10
226.683	23
226.918	34
227.152	35
227.387	39
227.621	42
227.856	47
228.09	42
228.324	47
228.559	61
228.793	48
229.027	68
229.262	80
229.496	91
229.73	105
229.964	94
230.199	90
230.433	78
230.667	83
230.901	77
231.136	90
231.37	92
231.604	81
231.838	73
232.072	86
232.306	82
232.541	75
232.775	80
233.009	62
233.243	82
233.477	87
233.711	95
233.945	84
234.179	73
234.413	67
234.647	79
234.881	87
235.115	81
235.349	85
235.583	81
235.817	78
236.051	96
236.285	76
236.519	82
236.753	78
236.987	89
237.221	89
237.455	89
237.689	74
237.922	68
238.156	76
238.39	80
238.624	67
238.858	68
239.091	92
239.325	78
239.559	88
239.793	94
240.027	79
240.26	83
240.494	70
240.728	94
240.961	71
241.195	87
241.429	86
241.662	74
241.896	87
242.13	81
242.363	78
242.597	69
242.83	92
243.064	88
243.298	84
243.531	60
243.765	80
243.998	86
244.232	92
244.465	79
244.699	83
244.932	83
245.166	75
245.399	74
245.633	84
245.866	78
246.099	75
246.333	82
246.566	87
246.8	66
247.033	70
247.266	70
247.5	81
247.733	85
247.966	81
248.2	72
248.433	87
248.666	87
248.899	96
249.133	94
249.366	108
249.599	103
249.832	78
250.066	102
250.299	88
250.532	92
250.765	74
250.998	76
251.231	80
251.465	80
251.698	85
251.931	80
252.164	88
252.397	75
252.63	97
252.863	81
253.096	87
253.329	82
253.562	94
253.795	79
254.028	85
254.261	90
254.494	66
254.727	93
254.96	91
255.193	78
255.426	105
255.659	78
255.892	84
256.124	99
256.357	84
256.59	88
256.823	83
257.056	79
257.289	91
257.521	77
257.754	83
257.987	77
258.22	103
258.452	105
258.685	93
258.918	86
259.151	83
259.383	90
259.616	94
259.849	73
260.081	95
260.314	85
260.547	90
260.779	98
261.012	122
261.244	111
261.477	93
261.71	112
261.942	141
262.175	152
262.407	97
262.64	97
262.872	99
263.105	99
263.337	89
263.57	84
263.802	82
264.035	89
264.267	72
264.499	76
264.732	78
264.964	99
265.197	83
265.429	83
265.661	82
265.894	84
266.126	89
266.358	93
266.591	98
266.823	103
267.055	70
267.287	89
267.52	81
267.752	80
267.984	86
268.216	86
268.448	82
268.681	95
268.913	90
269.145	82
269.377	72
269.609	86
269.841	88
270.073	80
270.306	92
270.538	90
270.77	96
271.002	95
271.234	91
271.466	96
271.698	92
271.93	89
272.162	89
272.394	93
272.626	89
272.858	92
273.09	68
273.322	100
273.553	91
273.785	94
274.017	77
274.249	94
274.481	98
274.713	88
274.945	78
275.176	95
275.408	99
275.64	107
275.872	122
276.104	106
276.335	115
276.567	116
276.799	171
277.031	186
277.262	196
277.494	139
277.726	103
277.957	74
278.189	109
278.421	108
278.652	98
278.884	86
279.115	83
279.347	86
279.579	87
279.81	131
280.042	188
280.273	257
280.505	193
280.736	111
280.968	100
281.199	84
281.431	94
281.662	93
281.894	99
282.125	113
282.356	157
282.588	181
282.819	156
283.051	109
283.282	97
283.513	84
283.745	86
283.976	84
284.207	96
284.439	88
284.67	90
284.901	82
285.132	89
285.364	85
285.595	94
285.826	88
286.057	85
286.288	90
286.52	91
286.751	90
286.982	95
287.213	92
287.444	105
287.675	98
287.906	93
288.138	93
288.369	97
288.6	102
288.831	92
289.062	83
289.293	94
289.524	72
289.755	88
289.986	82
290.217	99
290.448	95
290.679	97
290.91	96
291.141	105
291.371	98
291.602	102
291.833	96
292.064	83
292.295	104
292.526	96
292.757	89
292.987	88
293.218	94
293.449	87
293.68	91
293.91	89
294.141	104
294.372	99
294.603	95
294.833	86
295.064	90
295.295	95
295.525	109
295.756	116
295.987	144
296.217	205
296.448	158
296.679	114
296.909	103
297.14	100
297.37	87
297.601	88
297.831	93
298.062	90
298.292	79
298.523	104
298.753	91
298.984	89
299.214	83
299.445	109
299.675	96
299.905	111
300.136	105
300.366	95
300.597	91
300.827	97
301.057	123
301.288	118
301.518	108
301.748	105
301.979	109
302.209	109
302.439	97
302.669	85
302.9	103
303.13	92
303.36	104
303.59	138
303.82	160
304.051	112
304.281	107
304.511	96
304.741	104
304.971	103
305.201	82
305.431	98
305.661	89
305.891	85
306.121	91
306.352	131
306.582	121
306.812	118
307.042	120
307.272	160
307.502	175
307.731	185
307.961	122
308.191	108
308.421	104
308.651	94
308.881	106
309.111	95
309.341	94
309.571	125
309.8	101
310.03	116
310.26	123
310.49	120
310.72	110
310.949	133
311.179	114
311.409	120
311.639	101
311.868	105
312.098	99
312.328	108
312.557	128
312.787	142
313.017	128
313.246	98
313.476	84
313.706	106
313.935	105
314.165	113
314.394	122
314.624	116
314.853	108
315.083	103
315.312	99
315.542	96
315.771	113
316.001	107
316.23	92
316.46	106
316.689	103
316.919	98
317.148	102
317.377	100
317.607	107
317.836	110
318.065	96
318.295	98
318.524	78
318.753	96
318.983	107
319.212	104
319.441	114
319.67	122
319.9	97
320.129	101
320.358	97
320.587	103
320.816	119
321.046	114
321.275	105
321.504	90
321.733	94
321.962	115
322.191	104
322.42	121
322.649	120
322.878	134
323.108	144
323.337	157
323.566	181
323.795	189
324.024	234
324.253	493
324.482	1010
324.71	1990
324.939	2571
325.168	979
325.397	308
325.626	162
325.855	149
326.084	154
326.313	156
326.542	188
326.77	269
326.999	508
327.228	1033
327.457	1811
327.686	1458
327.914	571
328.143	535
328.372	681
328.6	376
328.829	194
329.058	216
329.287	244
329.515	195
329.744	258
329.972	506
330.201	978
330.43	1373
330.658	632
330.887	325
331.115	207
331.344	138
331.572	128
331.801	142
332.03	137
332.258	125
332.486	115
332.715	112
332.943	132
333.172	124
333.4	165
333.629	171
333.857	229
334.085	454
334.314	899
334.542	1726
334.771	1525
334.999	422
335.227	176
335.455	122
335.684	123
335.912	115
336.14	123
336.369	129
336.597	136
336.825	113
337.053	113
337.281	116
337.51	106
337.738	110
337.966	95
338.194	115
338.422	124
338.65	112
338.878	102
339.106	86
339.334	91
339.562	98
339.79	90
340.018	109
340.246	97
340.474	115
340.702	111
340.93	100
341.158	98
341.386	121
341.614	116
341.842	93
342.07	101
342.298	104
342.526	105
342.754	87
342.981	91
343.209	93
343.437	93
343.665	90
343.893	101
344.12	103
344.348	88
344.576	99
344.804	95
345.031	121
345.259	128
345.487	114
345.714	100
345.942	102
346.17	95
346.397	105
346.625	97
346.853	104
347.08	104
347.308	95
347.535	121
347.763	117
347.99	99
348.218	126
348.445	131
348.673	103
348.9	100
349.128	86
349.355	98
349.583	111
349.81	90
350.037	97
350.265	91
350.492	113
350.72	114
350.947	117
351.174	128
351.402	135
351.629	123
351.856	129
352.083	131
352.311	135
352.538	139
352.765	137
352.992	124
353.22	114
353.447	114
353.674	116
353.901	105
354.128	105
354.355	107
354.583	97
354.81	104
355.037	103
355.264	94
355.491	90
355.718	98
355.945	102
356.172	90
356.399	98
356.626	106
356.853	113
357.08	102
357.307	97
357.534	78
357.761	105
357.988	101
358.215	87
358.441	120
358.668	106
358.895	89
359.122	94
359.349	111
359.576	112
359.802	127
360.029	162
360.256	159
360.483	130
360.709	107
360.936	112
361.163	103
361.39	105
361.616	105
361.843	104
362.07	111
362.296	118
362.523	126
362.749	113
362.976	97
363.203	98
363.429	94
363.656	113
363.882	82
364.109	97
364.335	109
364.562	103
364.788	100
365.015	103
365.241	105
365.468	131
365.694	122
365.92	112
366.147	101
366.373	98
366.599	85
366.826	99
367.052	83
367.278	97
367.505	97
367.731	105
367.957	98
368.184	111
368.41	110
368.636	143
368.862	140
369.089	142
369.315	125
369.541	108
369.767	95
369.993	105
370.219	110
370.445	106
370.672	73
370.898	84
371.124	101
371.35	81
371.576	87
371.802	89
372.028	91
372.254	96
372.48	91
372.706	95
372.932	84
373.158	99
373.384	91
373.61	104
373.835	99
374.061	85
374.287	98
374.513	98
374.739	97
374.965	102
375.191	96
375.416	87
375.642	103
375.868	91
376.094	108
376.319	98
376.545	103
376.771	102
376.997	100
377.222	97
377.448	101
377.674	96
377.899	97
378.125	100
378.35	93
378.576	111
378.802	97
379.027	89
379.253	115
379.478	95
379.704	92
379.929	101
380.155	103
380.38	104
380.606	106
380.831	110
381.057	105
381.282	121
381.507	104
381.733	117
381.958	113
382.184	113
382.409	115
382.634	122
382.86	129
383.085	127
383.31	114
383.535	118
383.761	108
383.986	130
384.211	113
384.436	116
384.662	137
384.887	126
385.112	121
385.337	122
385.562	124
385.787	127
386.013	146
386.238	159
386.463	140
386.688	138
386.913	122
387.138	130
387.363	111
387.588	108
387.813	103
388.038	131
388.263	145
388.488	133
388.713	101
388.938	94
389.163	93
389.387	96
389.612	90
389.837	79
390.062	97
390.287	115
390.512	100
390.736	105
390.961	97
391.186	89
391.411	95
391.636	91
391.86	96
392.085	93
392.31	74
392.534	86
392.759	97
392.984	89
393.208	110
393.433	101
393.658	108
393.882	94
394.107	105
394.331	82
394.556	86
394.78	98
395.005	88
395.229	73
395.454	84
395.678	90
395.903	89
396.127	89
396.352	97
396.576	93
396.801	92
397.025	98
397.249	100
397.474	103
397.698	110
397.922	90
398.147	97
398.371	86
398.595	76
398.82	89
399.044	87
399.268	86
399.492	98
399.717	99
399.941	91
400.165	111
400.389	97
400.613	98
400.837	99
401.062	100
401.286	89
401.51	106
401.734	102
401.958	113
402.182	180
402.406	254
402.63	179
402.854	109
403.078	109
403.302	96
403.526	97
403.75	89
403.974	97
404.198	95
404.422	100
404.645	106
404.869	107
405.093	112
405.317	153
405.541	168
405.765	113
405.988	146
406.212	276
406.436	415
406.66	262
406.883	134
407.107	118
407.331	108
407.555	113
407.778	105
408.002	102
408.226	95
408.449	91
408.673	92
408.896	87
409.12	94
409.344	99
409.567	91
409.791	97
410.014	109
410.238	92
410.461	102
410.685	100
410.908	105
411.132	112
411.355	105
411.578	88
411.802	97
412.025	99
412.249	108
412.472	108
412.695	145
412.919	100
413.142	118
413.365	90
413.589	97
413.812	107
414.035	86
414.258	95
414.482	101
414.705	113
414.928	92
415.151	100
415.374	95
415.597	95
415.821	92
416.044	81
416.267	91
416.49	84
416.713	79
416.936	96
417.159	101
417.382	113
417.605	120
417.828	117
418.051	100
418.274	107
418.497	87
418.72	80
418.943	92
419.166	90
419.389	98
419.611	102
419.834	95
420.057	96
420.28	99
420.503	90
420.726	91
420.948	97
421.171	94
421.394	96
421.617	101
421.839	99
422.062	86
422.285	107
422.507	107
422.73	117
422.953	95
423.175	102
423.398	95
423.621	83
423.843	81
424.066	97
424.288	87
424.511	94
424.733	116
424.956	140
425.178	122
425.401	115
425.623	112
425.846	109
426.068	103
426.291	101
426.513	107
426.735	99
426.958	120
427.18	134
427.402	183
427.625	293
427.847	231
428.069	179
428.292	119
428.514	99
428.736	106
428.958	101
429.181	94
429.403	86
429.625	91
429.847	100
430.069	115
430.292	113
430.514	89
430.736	94
430.958	91
431.18	92
431.402	75
431.624	87
431.846	81
432.068	96
432.29	99
432.512	92
432.734	77
432.956	100
433.178	93
433.4	107
433.622	95
433.844	95
434.066	90
434.287	96
434.509	88
434.731	106
434.953	105
435.175	109
435.397	100
435.618	107
435.84	112
436.062	134
436.284	131
436.505	104
436.727	122
436.949	95
437.17	99
437.392	94
437.614	105
437.835	128
438.057	165
438.278	150
438.5	128
438.721	144
438.943	107
439.165	99
439.386	94
439.608	99
439.829	118
440.05	152
440.272	186
440.493	118
440.715	98
440.936	99
441.158	104
441.379	98
441.6	106
441.822	115
442.043	119
442.264	131
442.486	108
442.707	106
442.928	130
443.149	179
443.371	171
443.592	134
443.813	146
444.034	123
444.255	98
444.476	97
444.698	84
444.919	83
445.14	138
445.361	129
445.582	128
445.803	188
446.024	184
446.245	156
446.466	122
446.687	101
446.908	97
447.129	85
447.35	109
447.571	95
447.792	115
448.013	111
448.234	131
448.455	112
448.675	131
448.896	147
449.117	107
449.338	109
449.559	149
449.779	150
450	104
450.221	89
450.442	100
450.662	106
450.883	136
451.104	169
451.324	128
451.545	102
451.766	94
451.986	97
452.207	103
452.428	117
452.648	115
452.869	133
453.089	158
453.31	163
453.53	100
453.751	109
453.971	133
454.192	157
454.412	118
454.633	109
454.853	89
455.073	98
455.294	107
455.514	120
455.734	98
455.955	113
456.175	81
456.395	95
456.616	89
456.836	94
457.056	78
457.276	86
457.497	94
457.717	85
457.937	98
458.157	84
458.377	90
458.598	162
458.818	263
459.038	263
459.258	179
459.478	112
459.698	88
459.918	85
460.138	104
460.358	91
460.578	102
460.798	92
461.018	101
461.238	96
461.458	93
461.678	99
461.898	90
462.118	72
462.338	84
462.558	93
462.777	92
462.997	91
463.217	119
463.437	108
463.657	89
463.876	91
464.096	96
464.316	102
464.536	116
464.755	111
464.975	130
465.195	300
465.414	287
465.634	127
465.854	112
466.073	103
466.293	90
466.512	81
466.732	82
466.951	95
467.171	104
467.391	111
467.61	165
467.829	206
468.049	553
468.268	781
468.488	216
468.707	120
468.927	99
469.146	87
469.365	100
469.585	105
469.804	107
470.023	124
470.243	113
470.462	130
470.681	158
470.901	107
471.12	112
471.339	112
471.558	115
471.777	154
471.997	290
472.216	1078
472.435	2403
472.654	566
472.873	168
473.092	103
473.311	100
473.53	107
473.749	111
473.968	112
474.187	126
474.406	113
474.625	101
474.844	105
475.063	80
475.282	97
475.501	97
475.72	96
475.939	90
476.158	96
476.377	93
476.596	107
476.814	102
477.033	107
477.252	99
477.471	99
477.69	92
477.908	91
478.127	95
478.346	104
478.564	113
478.783	105
479.002	113
479.22	117
479.439	136
479.658	142
479.876	134
480.095	117
480.313	154
480.532	168
480.751	295
480.969	982
481.188	4120
481.406	2327
481.624	360
481.843	138
482.061	117
482.28	104
482.498	95
482.717	120
482.935	92
483.153	114
483.372	113
483.59	97
483.808	100
484.027	103
484.245	105
484.463	103
484.681	103
484.9	101
485.118	97
485.336	99
485.554	103
485.772	110
485.99	111
486.209	121
486.427	107
486.645	134
486.863	158
487.081	135
487.299	115
487.517	88
487.735	91
487.953	89
488.171	89
488.389	102
488.607	107
488.825	100
489.043	99
489.261	102
489.479	101
489.696	97
489.914	94
490.132	87
490.35	95
490.568	106
490.786	91
491.003	100
491.221	111
491.439	87
491.657	111
491.874	92
492.092	91
492.31	104
492.527	104
492.745	113
492.963	104
493.18	94
493.398	101
493.615	100
493.833	92
494.05	83
494.268	95
494.485	92
494.703	97
494.92	95
495.138	72
495.355	97
495.573	99
495.79	94
496.008	107
496.225	98
496.442	98
496.66	87
496.877	83
497.094	92
497.312	104
497.529	89
497.746	104
497.963	96
498.181	109
498.398	96
498.615	109
498.832	99
499.049	100
499.267	80
499.484	100
499.701	90
499.918	85
500.135	117
500.352	108
500.569	95
500.786	103
501.003	100
501.22	87
501.437	88
501.654	112
501.871	140
502.088	111
502.305	79
502.522	93
502.739	106
502.956	106
503.172	103
503.389	114
503.606	138
503.823	103
504.04	100
504.256	89
504.473	95
504.69	80
504.907	94
505.123	89
505.34	94
505.557	91
505.773	105
505.99	80
506.207	98
506.423	93
506.64	100
506.856	110
507.073	90
507.289	96
507.506	110
507.722	146
507.939	150
508.155	98
508.372	96
508.588	103
508.805	96
509.021	95
509.238	123
509.454	116
509.67	121
509.887	124
510.103	171
510.319	287
510.536	1244
510.752	4446
510.968	1137
511.184	231
511.401	156
511.617	112
511.833	121
512.049	94
512.265	99
512.481	97
512.698	107
512.914	95
513.13	114
513.346	103
513.562	106
513.778	106
513.994	131
514.21	115
514.426	162
514.642	204
514.858	183
515.074	282
515.29	962
515.506	3401
515.721	1164
515.937	270
516.153	144
516.369	127
516.585	115
516.801	110
517.016	114
517.232	106
517.448	126
517.664	95
517.879	97
518.095	109
518.311	110
518.527	121
518.742	102
518.958	92
519.173	106
519.389	104
519.605	93
519.82	109
520.036	121
520.251	164
520.467	138
520.682	129
520.898	144
521.113	170
521.329	229
521.544	360
521.76	1243
521.975	5760
522.19	3391
522.406	649
522.621	207
522.836	129
523.052	121
523.267	109
523.482	109
523.698	122
523.913	177
524.128	142
524.343	99
524.559	90
524.774	106
524.989	96
525.204	136
525.419	120
525.634	91
525.849	102
526.064	100
526.28	100
526.495	95
526.71	92
526.925	110
527.14	102
527.355	88
527.57	97
527.785	97
527.999	89
528.214	95
528.429	98
528.644	95
528.859	101
529.074	106
529.289	177
529.503	333
529.718	142
529.933	114
530.148	95
530.363	97
530.577	96
530.792	91
531.007	107
531.221	94
531.436	83
531.651	93
531.865	84
532.08	92
532.295	96
532.509	77
532.724	105
532.938	93
533.153	87
533.367	76
533.582	96
533.796	114
534.011	87
534.225	104
534.44	98
534.654	80
534.868	89
535.083	95
535.297	95
535.511	121
535.726	110
535.94	105
536.154	99
536.369	98
536.583	78
536.797	95
537.011	80
537.225	97
537.44	88
537.654	98
537.868	85
538.082	105
538.296	92
538.51	105
538.724	99
538.938	94
539.153	102
539.367	139
539.581	118
539.795	94
540.009	85
540.222	102
540.436	88
540.65	84
540.864	96
541.078	112
541.292	100
541.506	99
541.72	93
541.934	92
542.147	99
542.361	96
542.575	86
542.789	91
543.002	88
543.216	89
543.43	113
543.644	97
543.857	97
544.071	97
544.285	112
544.498	88
544.712	96
544.925	87
545.139	106
545.352	89
545.566	86
545.779	86
545.993	90
546.206	77
546.42	80
546.633	94
546.847	103
547.06	85
547.274	99
547.487	98
547.7	119
547.914	94
548.127	84
548.34	99
548.554	92
548.767	102
548.98	79
549.193	81
549.407	82
549.62	98
549.833	85
550.046	94
550.259	92
550.473	94
550.686	98
550.899	82
551.112	104
551.325	94
551.538	97
551.751	98
551.964	95
552.177	97
552.39	103
552.603	104
552.816	99
553.029	98
553.242	88
553.455	98
553.667	146
553.88	124
554.093	93
554.306	120
554.519	118
554.732	94
554.944	93
555.157	96
555.37	86
555.583	96
555.795	94
556.008	89
556.221	92
556.433	113
556.646	102
556.859	90
557.071	97
557.284	97
557.496	60
557.709	92
557.921	89
558.134	98
558.346	101
558.559	90
558.771	97
558.984	107
559.196	93
559.409	90
559.621	86
559.833	87
560.046	99
560.258	111
560.47	138
560.683	94
560.895	86
561.107	93
561.32	99
561.532	80
561.744	78
561.956	90
562.168	89
562.381	87
562.593	84
562.805	76
563.017	99
563.229	90
563.441	91
563.653	87
563.865	84
564.077	92
564.289	111
564.501	86
564.713	95
564.925	100
565.137	108
565.349	99
565.561	94
565.773	78
565.985	101
566.197	83
566.408	91
566.62	98
566.832	84
567.044	101
567.255	97
567.467	94
567.679	92
567.891	89
568.102	92
568.314	89
568.526	97
568.737	110
568.949	96
569.161	99
569.372	74
569.584	94
569.795	97
570.007	133
570.218	392
570.43	172
570.641	95
570.853	95
571.064	98
571.276	91
571.487	91
571.698	98
571.91	89
572.121	103
572.333	101
572.544	94
572.755	108
572.966	92
573.178	96
573.389	99
573.6	98
573.811	86
574.023	95
574.234	102
574.445	100
574.656	100
574.867	90
575.078	84
575.289	95
575.501	84
575.712	95
575.923	93
576.134	90
576.345	85
576.556	99
576.767	88
576.978	98
577.188	107
