Data from Circ_1999_H10_HRD10591_00050.txt Node
Date: Wed Jan 03 11:23:22 EST 2024
User: Yrep
Spectrometer: HR+D1059
Trigger mode: 1
Integration Time (sec): 1.000000E-1
Scans to average: 1
Electric dark correction enabled: true
Nonlinearity correction enabled: false
Boxcar width: 0
XAxis mode: Wavelengths
Number of Pixels in Spectrum: 2048
>>>>>Begin Spectral Data<<<<<
223.165	-15
223.4	-15
223.635	-15
223.869	-15
224.104	-26
224.338	-11
224.573	-18
224.808	-9
225.042	-16
225.277	-15
225.511	2
225.746	16
225.98	-3
226.215	19
226.449	21
226.683	16
226.918	25
227.152	29
227.387	32
227.621	48
227.856	44
228.09	59
228.324	52
228.559	60
228.793	70
229.027	62
229.262	72
229.496	73
229.73	100
229.964	103
230.199	75
230.433	65
230.667	87
230.901	81
231.136	80
231.37	91
231.604	80
231.838	87
232.072	81
232.306	88
232.541	72
232.775	89
233.009	84
233.243	66
233.477	89
233.711	93
233.945	79
234.179	91
234.413	87
234.647	83
234.881	74
235.115	83
235.349	91
235.583	89
235.817	74
236.051	78
236.285	81
236.519	95
236.753	83
236.987	92
237.221	103
237.455	95
237.689	82
237.922	78
238.156	79
238.39	68
238.624	90
238.858	75
239.091	79
239.325	86
239.559	98
239.793	86
240.027	90
240.26	97
240.494	100
240.728	84
240.961	80
241.195	86
241.429	88
241.662	64
241.896	88
242.13	79
242.363	84
242.597	81
242.83	84
243.064	102
243.298	86
243.531	80
243.765	79
243.998	85
244.232	92
244.465	97
244.699	93
244.932	86
245.166	95
245.399	77
245.633	80
245.866	74
246.099	107
246.333	83
246.566	107
246.8	75
247.033	91
247.266	75
247.5	74
247.733	89
247.966	67
248.2	76
248.433	82
248.666	92
248.899	93
249.133	94
249.366	120
249.599	119
249.832	96
250.066	80
250.299	88
250.532	84
250.765	92
250.998	86
251.231	86
251.465	84
251.698	87
251.931	94
252.164	74
252.397	75
252.63	92
252.863	83
253.096	81
253.329	92
253.562	81
253.795	74
254.028	82
254.261	79
254.494	97
254.727	88
254.96	93
255.193	92
255.426	95
255.659	91
255.892	100
256.124	102
256.357	90
256.59	86
256.823	73
257.056	83
257.289	99
257.521	78
257.754	80
257.987	81
258.22	94
258.452	109
258.685	100
258.918	97
259.151	91
259.383	87
259.616	80
259.849	93
260.081	92
260.314	83
260.547	107
260.779	102
261.012	135
261.244	129
261.477	119
261.71	115
261.942	169
262.175	178
262.407	104
262.64	79
262.872	93
263.105	89
263.337	110
263.57	88
263.802	104
264.035	98
264.267	74
264.499	84
264.732	100
264.964	89
265.197	89
265.429	97
265.661	89
265.894	89
266.126	93
266.358	94
266.591	86
266.823	94
267.055	88
267.287	102
267.52	89
267.752	83
267.984	78
268.216	81
268.448	80
268.681	107
268.913	84
269.145	81
269.377	71
269.609	99
269.841	83
270.073	92
270.306	89
270.538	87
270.77	92
271.002	104
271.234	92
271.466	106
271.698	93
271.93	95
272.162	95
272.394	98
272.626	80
272.858	86
273.09	78
273.322	96
273.553	96
273.785	85
274.017	87
274.249	88
274.481	95
274.713	90
274.945	89
275.176	93
275.408	107
275.64	129
275.872	145
276.104	130
276.335	105
276.567	142
276.799	167
277.031	228
277.262	254
277.494	186
277.726	117
277.957	96
278.189	83
278.421	101
278.652	108
278.884	82
279.115	107
279.347	94
279.579	113
279.81	154
280.042	269
280.273	332
280.505	238
280.736	120
280.968	108
281.199	101
281.431	100
281.662	97
281.894	111
282.125	113
282.356	152
282.588	228
282.819	155
283.051	94
283.282	106
283.513	95
283.745	93
283.976	83
284.207	100
284.439	113
284.67	94
284.901	95
285.132	82
285.364	103
285.595	95
285.826	106
286.057	86
286.288	74
286.52	83
286.751	97
286.982	88
287.213	98
287.444	100
287.675	95
287.906	112
288.138	103
288.369	96
288.6	95
288.831	95
289.062	94
289.293	96
289.524	98
289.755	103
289.986	90
290.217	96
290.448	93
290.679	89
290.91	98
291.141	99
291.371	90
291.602	105
291.833	93
292.064	92
292.295	72
292.526	94
292.757	98
292.987	80
293.218	80
293.449	102
293.68	105
293.91	95
294.141	95
294.372	90
294.603	90
294.833	93
295.064	105
295.295	101
295.525	97
295.756	104
295.987	150
296.217	197
296.448	186
296.679	107
296.909	90
297.14	113
297.37	88
297.601	96
297.831	107
298.062	97
298.292	96
298.523	97
298.753	88
298.984	97
299.214	89
299.445	88
299.675	101
299.905	102
300.136	96
300.366	93
300.597	104
300.827	92
301.057	122
301.288	135
301.518	104
301.748	104
301.979	104
302.209	121
302.439	103
302.669	109
302.9	91
303.13	82
303.36	123
303.59	166
303.82	180
304.051	103
304.281	93
304.511	108
304.741	98
304.971	94
305.201	95
305.431	109
305.661	104
305.891	89
306.121	111
306.352	122
306.582	120
306.812	115
307.042	135
307.272	202
307.502	228
307.731	217
307.961	153
308.191	104
308.421	100
308.651	98
308.881	100
309.111	103
309.341	109
309.571	95
309.8	115
310.03	111
310.26	108
310.49	102
310.72	114
310.949	146
311.179	138
311.409	112
311.639	106
311.868	99
312.098	111
312.328	114
312.557	128
312.787	150
313.017	135
313.246	94
313.476	105
313.706	93
313.935	109
314.165	123
314.394	116
314.624	132
314.853	109
315.083	105
315.312	98
315.542	100
315.771	102
316.001	108
316.23	103
316.46	91
316.689	119
316.919	115
317.148	107
317.377	101
317.607	113
317.836	108
318.065	96
318.295	106
318.524	113
318.753	102
318.983	96
319.212	109
319.441	145
319.67	146
319.9	106
320.129	91
320.358	94
320.587	97
320.816	121
321.046	114
321.275	124
321.504	103
321.733	111
321.962	115
322.191	126
322.42	142
322.649	153
322.878	154
323.108	165
323.337	175
323.566	192
323.795	212
324.024	288
324.253	623
324.482	1382
324.71	2902
324.939	3758
325.168	1366
325.397	379
325.626	221
325.855	158
326.084	154
326.313	174
326.542	206
326.77	320
326.999	662
327.228	1428
327.457	2591
327.686	2100
327.914	721
328.143	751
328.372	918
328.6	538
328.829	253
329.058	255
329.287	266
329.515	233
329.744	326
329.972	682
330.201	1405
330.43	2073
330.658	878
330.887	390
331.115	263
331.344	157
331.572	132
331.801	159
332.03	148
332.258	134
332.486	127
332.715	138
332.943	148
333.172	144
333.4	153
333.629	202
333.857	298
334.085	605
334.314	1306
334.542	2560
334.771	2353
334.999	601
335.227	218
335.455	134
335.684	131
335.912	118
336.14	118
336.369	129
336.597	122
336.825	112
337.053	114
337.281	110
337.51	116
337.738	112
337.966	117
338.194	115
338.422	123
338.65	104
338.878	109
339.106	112
339.334	83
339.562	111
339.79	104
340.018	107
340.246	113
340.474	116
340.702	97
340.93	92
341.158	105
341.386	122
341.614	117
341.842	125
342.07	95
342.298	93
342.526	107
342.754	99
342.981	96
343.209	98
343.437	113
343.665	89
343.893	87
344.12	105
344.348	87
344.576	88
344.804	109
345.031	111
345.259	136
345.487	109
345.714	110
345.942	97
346.17	98
346.397	106
346.625	101
346.853	101
347.08	102
347.308	101
347.535	113
347.763	124
347.99	100
348.218	105
348.445	133
348.673	132
348.9	112
349.128	95
349.355	93
349.583	108
349.81	96
350.037	120
350.265	111
350.492	107
350.72	110
350.947	108
351.174	128
351.402	139
351.629	124
351.856	116
352.083	125
352.311	123
352.538	139
352.765	132
352.992	149
353.22	134
353.447	127
353.674	129
353.901	89
354.128	94
354.355	108
354.583	97
354.81	104
355.037	98
355.264	107
355.491	96
355.718	95
355.945	99
356.172	94
356.399	83
356.626	103
356.853	100
357.08	91
357.307	96
357.534	108
357.761	100
357.988	92
358.215	97
358.441	98
358.668	81
358.895	100
359.122	91
359.349	97
359.576	94
359.802	140
360.029	164
360.256	165
360.483	136
360.709	115
360.936	107
361.163	104
361.39	121
361.616	111
361.843	104
362.07	101
362.296	118
362.523	106
362.749	113
362.976	101
363.203	90
363.429	92
363.656	111
363.882	116
364.109	106
364.335	100
364.562	89
364.788	105
365.015	115
365.241	134
365.468	128
365.694	140
365.92	126
366.147	118
366.373	96
366.599	103
366.826	114
367.052	100
367.278	100
367.505	95
367.731	119
367.957	102
368.184	108
368.41	128
368.636	145
368.862	153
369.089	142
369.315	109
369.541	124
369.767	103
369.993	121
370.219	105
370.445	85
370.672	90
370.898	87
371.124	89
371.35	104
371.576	98
371.802	81
372.028	89
372.254	100
372.48	80
372.706	99
372.932	89
373.158	97
373.384	105
373.61	107
373.835	98
374.061	87
374.287	94
374.513	96
374.739	96
374.965	86
375.191	83
375.416	85
375.642	87
375.868	88
376.094	80
376.319	99
376.545	78
376.771	97
376.997	94
377.222	101
377.448	110
377.674	99
377.899	102
378.125	86
378.35	98
378.576	94
378.802	94
379.027	87
379.253	91
379.478	107
379.704	84
379.929	113
380.155	110
380.38	104
380.606	97
380.831	112
381.057	99
381.282	109
381.507	91
381.733	97
381.958	100
382.184	111
382.409	110
382.634	109
382.86	111
383.085	94
383.31	102
383.535	90
383.761	82
383.986	104
384.211	98
384.436	112
384.662	99
384.887	102
385.112	111
385.337	118
385.562	98
385.787	108
386.013	109
386.238	123
386.463	113
386.688	106
386.913	94
387.138	95
387.363	92
387.588	96
387.813	106
388.038	100
388.263	117
388.488	104
388.713	92
388.938	103
389.163	82
389.387	90
389.612	111
389.837	91
390.062	88
390.287	92
390.512	100
390.736	92
390.961	79
391.186	81
391.411	88
391.636	95
391.86	89
392.085	89
392.31	103
392.534	104
392.759	91
392.984	92
393.208	91
393.433	84
393.658	83
393.882	82
394.107	88
394.331	94
394.556	74
394.78	91
395.005	91
395.229	81
395.454	97
395.678	88
395.903	100
396.127	97
396.352	98
396.576	96
396.801	106
397.025	88
397.249	82
397.474	73
397.698	98
397.922	106
398.147	96
398.371	87
398.595	92
398.82	106
399.044	80
399.268	84
399.492	80
399.717	103
399.941	90
400.165	95
400.389	100
400.613	92
400.837	96
401.062	95
401.286	101
401.51	104
401.734	111
401.958	126
402.182	177
402.406	248
402.63	166
402.854	121
403.078	109
403.302	101
403.526	104
403.75	104
403.974	95
404.198	92
404.422	87
404.645	97
404.869	124
405.093	132
405.317	183
405.541	167
405.765	131
405.988	168
406.212	284
406.436	435
406.66	276
406.883	155
407.107	104
407.331	100
407.555	130
407.778	117
408.002	106
408.226	108
408.449	92
408.673	98
408.896	102
409.12	113
409.344	81
409.567	94
409.791	94
410.014	105
410.238	97
410.461	83
410.685	96
410.908	99
411.132	119
411.355	112
411.578	98
411.802	82
412.025	104
412.249	115
412.472	125
412.695	154
412.919	117
413.142	111
413.365	78
413.589	92
413.812	90
414.035	92
414.258	95
414.482	99
414.705	86
414.928	81
415.151	86
415.374	102
415.597	93
415.821	88
416.044	100
416.267	96
416.49	93
416.713	89
416.936	88
417.159	108
417.382	110
417.605	119
417.828	125
418.051	118
418.274	94
418.497	96
418.72	92
418.943	100
419.166	99
419.389	99
419.611	98
419.834	88
420.057	102
420.28	112
420.503	108
420.726	90
420.948	94
421.171	109
421.394	93
421.617	98
421.839	95
422.062	94
422.285	100
422.507	107
422.73	112
422.953	109
423.175	91
423.398	104
423.621	95
423.843	96
424.066	91
424.288	107
424.511	109
424.733	116
424.956	137
425.178	114
425.401	115
425.623	112
425.846	106
426.068	108
426.291	118
426.513	111
426.735	100
426.958	107
427.18	137
427.402	226
427.625	351
427.847	306
428.069	257
428.292	139
428.514	98
428.736	83
428.958	94
429.181	100
429.403	88
429.625	103
429.847	103
430.069	123
430.292	99
430.514	90
430.736	99
430.958	88
431.18	92
431.402	84
431.624	82
431.846	82
432.068	92
432.29	92
432.512	88
432.734	86
432.956	90
433.178	113
433.4	107
433.622	93
433.844	108
434.066	94
434.287	94
434.509	102
434.731	102
434.953	92
435.175	95
435.397	112
435.618	105
435.84	110
436.062	160
436.284	136
436.505	120
436.727	113
436.949	93
437.17	111
437.392	97
437.614	115
437.835	152
438.057	177
438.278	147
438.5	135
438.721	161
438.943	112
439.165	88
439.386	95
439.608	102
439.829	124
440.05	183
440.272	217
440.493	130
440.715	106
440.936	98
441.158	97
441.379	95
441.6	116
441.822	106
442.043	93
442.264	121
442.486	125
442.707	96
442.928	147
443.149	221
443.371	215
443.592	163
443.813	142
444.034	128
444.255	101
444.476	91
444.698	88
444.919	91
445.14	144
445.361	135
445.582	164
445.803	220
446.024	211
446.245	188
446.466	144
446.687	111
446.908	104
447.129	102
447.35	98
447.571	86
447.792	105
448.013	112
448.234	154
448.455	144
448.675	143
448.896	136
449.117	114
449.338	137
449.559	164
449.779	164
450	105
450.221	98
450.442	106
450.662	127
450.883	163
451.104	164
451.324	119
451.545	108
451.766	96
451.986	92
452.207	112
452.428	128
452.648	119
452.869	163
453.089	169
453.31	172
453.53	115
453.751	103
453.971	143
454.192	193
454.412	112
454.633	90
454.853	94
455.073	85
455.294	105
455.514	113
455.734	92
455.955	99
456.175	75
456.395	93
456.616	104
456.836	92
457.056	93
457.276	85
457.497	89
457.717	88
457.937	91
458.157	95
458.377	109
458.598	163
458.818	287
459.038	290
459.258	186
459.478	113
459.698	105
459.918	99
460.138	95
460.358	110
460.578	93
460.798	100
461.018	91
461.238	103
461.458	99
461.678	81
461.898	83
462.118	84
462.338	96
462.558	91
462.777	82
462.997	108
463.217	118
463.437	115
463.657	92
463.876	98
464.096	111
464.316	115
464.536	112
464.755	108
464.975	149
465.195	332
465.414	331
465.634	140
465.854	105
466.073	89
466.293	94
466.512	91
466.732	100
466.951	100
467.171	108
467.391	127
467.61	206
467.829	270
468.049	810
468.268	1219
468.488	291
468.707	132
468.927	118
469.146	86
469.365	97
469.585	106
469.804	136
470.023	131
470.243	115
470.462	142
470.681	164
470.901	112
471.12	109
471.339	122
471.558	122
471.777	188
471.997	386
472.216	1546
472.435	3591
472.654	790
472.873	198
473.092	110
473.311	100
473.53	105
473.749	106
473.968	128
474.187	128
474.406	118
474.625	103
474.844	96
475.063	84
475.282	89
475.501	84
475.72	94
475.939	97
476.158	97
476.377	87
476.596	104
476.814	107
477.033	130
477.252	94
477.471	100
477.69	105
477.908	101
478.127	105
478.346	93
478.564	97
478.783	109
479.002	124
479.22	116
479.439	143
479.658	175
479.876	149
480.095	139
480.313	160
480.532	187
480.751	362
480.969	1374
481.188	6152
481.406	3435
481.624	468
481.843	177
482.061	130
482.28	123
482.498	110
482.717	109
482.935	111
483.153	91
483.372	96
483.59	91
483.808	100
484.027	87
484.245	105
484.463	102
484.681	110
484.9	110
485.118	98
485.336	102
485.554	102
485.772	116
485.99	110
486.209	128
486.427	129
486.645	129
486.863	155
487.081	119
487.299	104
487.517	101
487.735	95
487.953	108
488.171	100
488.389	106
488.607	114
488.825	100
489.043	106
489.261	100
489.479	106
489.696	106
489.914	87
490.132	109
490.35	92
490.568	95
490.786	93
491.003	100
491.221	96
491.439	106
491.657	99
491.874	85
492.092	90
492.31	95
492.527	116
492.745	104
492.963	103
493.18	92
493.398	90
493.615	95
493.833	106
494.05	91
494.268	84
494.485	98
494.703	79
494.92	95
495.138	109
495.355	89
495.573	97
495.79	97
496.008	107
496.225	98
496.442	93
496.66	100
496.877	114
497.094	102
497.312	107
497.529	91
497.746	80
497.963	109
498.181	106
498.398	113
498.615	127
498.832	122
499.049	103
499.267	105
499.484	106
499.701	92
499.918	94
500.135	91
500.352	96
500.569	113
500.786	94
501.003	109
501.22	95
501.437	99
501.654	104
501.871	164
502.088	96
502.305	97
502.522	94
502.739	92
502.956	95
503.172	97
503.389	119
503.606	150
503.823	123
504.04	119
504.256	87
504.473	112
504.69	113
504.907	95
505.123	81
505.34	95
505.557	100
505.773	102
505.99	94
506.207	93
506.423	104
506.64	93
506.856	97
507.073	95
507.289	99
507.506	120
507.722	157
507.939	144
508.155	92
508.372	106
508.588	99
508.805	120
509.021	99
509.238	121
509.454	113
509.67	112
509.887	134
510.103	175
510.319	319
510.536	1298
510.752	4762
510.968	1211
511.184	220
511.401	161
511.617	118
511.833	125
512.049	100
512.265	108
512.481	110
512.698	97
512.914	92
513.13	93
513.346	110
513.562	107
513.778	108
513.994	135
514.21	139
514.426	176
514.642	236
514.858	225
515.074	323
515.29	1033
515.506	3969
515.721	1326
515.937	301
516.153	186
516.369	124
516.585	127
516.801	115
517.016	104
517.232	115
517.448	103
517.664	97
517.879	96
518.095	86
518.311	112
518.527	121
518.742	86
518.958	115
519.173	107
519.389	119
519.605	108
519.82	114
520.036	135
520.251	182
520.467	161
520.682	130
520.898	148
521.113	173
521.329	238
521.544	426
521.76	1392
521.975	6675
522.19	3885
522.406	717
522.621	212
522.836	148
523.052	123
523.267	121
523.482	113
523.698	132
523.913	178
524.128	146
524.343	118
524.559	104
524.774	96
524.989	110
525.204	148
525.419	128
525.634	102
525.849	95
526.064	103
526.28	113
526.495	90
526.71	92
526.925	100
527.14	93
527.355	79
527.57	100
527.785	94
527.999	87
528.214	91
528.429	106
528.644	97
528.859	88
529.074	132
529.289	186
529.503	383
529.718	136
529.933	100
530.148	83
530.363	98
530.577	96
530.792	98
531.007	84
531.221	96
531.436	85
531.651	103
531.865	96
532.08	94
532.295	108
532.509	109
532.724	102
532.938	97
533.153	86
533.367	102
533.582	94
533.796	95
534.011	97
534.225	98
534.44	110
534.654	90
534.868	93
535.083	111
535.297	103
535.511	126
535.726	127
535.94	109
536.154	96
536.369	95
536.583	83
536.797	94
537.011	88
537.225	95
537.44	114
537.654	97
537.868	99
538.082	99
538.296	105
538.51	106
538.724	94
538.938	106
539.153	114
539.367	154
539.581	116
539.795	97
540.009	97
540.222	104
540.436	83
540.65	97
540.864	99
541.078	123
541.292	101
541.506	80
541.72	93
541.934	86
542.147	85
542.361	89
542.575	100
542.789	93
543.002	89
543.216	116
543.43	125
543.644	107
543.857	94
544.071	97
544.285	100
544.498	97
544.712	89
544.925	88
545.139	89
545.352	85
545.566	84
545.779	86
545.993	111
546.206	102
546.42	77
546.633	115
546.847	107
547.06	99
547.274	95
547.487	87
547.7	87
547.914	80
548.127	96
548.34	94
548.554	91
548.767	99
548.98	112
549.193	97
549.407	116
549.62	101
549.833	88
550.046	91
550.259	87
550.473	82
550.686	85
550.899	90
551.112	104
551.325	95
551.538	114
551.751	104
551.964	97
552.177	88
552.39	78
552.603	102
552.816	109
553.029	81
553.242	99
553.455	128
553.667	130
553.88	130
554.093	101
554.306	127
554.519	139
554.732	122
554.944	100
555.157	89
555.37	86
555.583	86
555.795	98
556.008	109
556.221	100
556.433	109
556.646	100
556.859	99
557.071	87
557.284	95
557.496	88
557.709	96
557.921	98
558.134	95
558.346	91
558.559	100
558.771	86
558.984	86
559.196	93
559.409	94
559.621	87
559.833	91
560.046	85
560.258	118
560.47	155
560.683	122
560.895	96
561.107	94
561.32	90
561.532	98
561.744	99
561.956	99
562.168	96
562.381	103
562.593	88
562.805	99
563.017	94
563.229	91
563.441	83
563.653	90
563.865	92
564.077	98
564.289	94
564.501	102
564.713	107
564.925	105
565.137	125
565.349	104
565.561	95
565.773	88
565.985	100
566.197	84
566.408	91
566.62	83
566.832	94
567.044	92
567.255	90
567.467	100
567.679	92
567.891	95
568.102	93
568.314	86
568.526	100
568.737	94
568.949	105
569.161	80
569.372	104
569.584	95
569.795	98
570.007	167
570.218	399
570.43	172
570.641	91
570.853	100
571.064	81
571.276	97
571.487	86
571.698	90
571.91	80
572.121	88
572.333	96
572.544	94
572.755	112
572.966	84
573.178	84
573.389	101
573.6	94
573.811	96
574.023	91
574.234	97
574.445	95
574.656	94
574.867	88
575.078	74
575.289	75
575.501	103
575.712	90
575.923	97
