Data from Circ_1999_H10_HRD10591_00094.txt Node
Date: Wed Jan 03 11:23:31 EST 2024
User: Yrep
Spectrometer: HR+D1059
Trigger mode: 1
Integration Time (sec): 1.000000E-1
Scans to average: 1
Electric dark correction enabled: true
Nonlinearity correction enabled: false
Boxcar width: 0
XAxis mode: Wavelengths
Number of Pixels in Spectrum: 2048
>>>>>Begin Spectral Data<<<<<
223.165	-23.75
223.4	-23.75
223.635	-23.75
223.869	-28.75
224.104	-23.75
224.338	-8.75
224.573	-25.75
224.808	-3.75
225.042	-7.75
225.277	-2.75
225.511	-4.75
225.746	-6.75
225.98	17.25
226.215	26.25
226.449	14.25
226.683	21.25
226.918	32.25
227.152	25.25
227.387	28.25
227.621	39.25
227.856	38.25
228.09	41.25
228.324	57.25
228.559	45.25
228.793	56.25
229.027	55.25
229.262	68.25
229.496	86.25
229.73	104.25
229.964	111.25
230.199	89.25
230.433	69.25
230.667	77.25
230.901	85.25
231.136	81.25
231.37	76.25
231.604	73.25
231.838	80.25
232.072	74.25
232.306	84.25
232.541	84.25
232.775	78.25
233.009	80.25
233.243	80.25
233.477	89.25
233.711	77.25
233.945	64.25
234.179	66.25
234.413	72.25
234.647	87.25
234.881	87.25
235.115	72.25
235.349	80.25
235.583	81.25
235.817	68.25
236.051	88.25
236.285	79.25
236.519	90.25
236.753	81.25
236.987	87.25
237.221	112.25
237.455	106.25
237.689	91.25
237.922	74.25
238.156	87.25
238.39	79.25
238.624	82.25
238.858	80.25
239.091	82.25
239.325	80.25
239.559	88.25
239.793	86.25
240.027	87.25
240.26	80.25
240.494	79.25
240.728	82.25
240.961	87.25
241.195	78.25
241.429	76.25
241.662	79.25
241.896	70.25
242.13	69.25
242.363	72.25
242.597	64.25
242.83	82.25
243.064	70.25
243.298	85.25
243.531	77.25
243.765	80.25
243.998	80.25
244.232	79.25
244.465	95.25
244.699	98.25
244.932	99.25
245.166	86.25
245.399	85.25
245.633	81.25
245.866	87.25
246.099	74.25
246.333	84.25
246.566	69.25
246.8	89.25
247.033	105.25
247.266	80.25
247.5	89.25
247.733	78.25
247.966	88.25
248.2	76.25
248.433	88.25
248.666	73.25
248.899	85.25
249.133	97.25
249.366	127.25
249.599	120.25
249.832	89.25
250.066	92.25
250.299	86.25
250.532	93.25
250.765	81.25
250.998	90.25
251.231	102.25
251.465	93.25
251.698	94.25
251.931	92.25
252.164	83.25
252.397	92.25
252.63	81.25
252.863	86.25
253.096	90.25
253.329	96.25
253.562	91.25
253.795	78.25
254.028	73.25
254.261	78.25
254.494	85.25
254.727	90.25
254.96	88.25
255.193	79.25
255.426	97.25
255.659	92.25
255.892	123.25
256.124	121.25
256.357	91.25
256.59	92.25
256.823	77.25
257.056	113.25
257.289	110.25
257.521	111.25
257.754	81.25
257.987	93.25
258.22	91.25
258.452	104.25
258.685	90.25
258.918	105.25
259.151	94.25
259.383	76.25
259.616	104.25
259.849	73.25
260.081	83.25
260.314	106.25
260.547	109.25
260.779	95.25
261.012	148.25
261.244	148.25
261.477	114.25
261.71	132.25
261.942	177.25
262.175	169.25
262.407	99.25
262.64	98.25
262.872	92.25
263.105	87.25
263.337	84.25
263.57	72.25
263.802	97.25
264.035	92.25
264.267	89.25
264.499	82.25
264.732	96.25
264.964	96.25
265.197	83.25
265.429	92.25
265.661	86.25
265.894	86.25
266.126	89.25
266.358	81.25
266.591	71.25
266.823	90.25
267.055	83.25
267.287	94.25
267.52	78.25
267.752	76.25
267.984	89.25
268.216	90.25
268.448	74.25
268.681	93.25
268.913	105.25
269.145	87.25
269.377	103.25
269.609	88.25
269.841	83.25
270.073	84.25
270.306	85.25
270.538	92.25
270.77	96.25
271.002	97.25
271.234	94.25
271.466	117.25
271.698	96.25
271.93	104.25
272.162	88.25
272.394	96.25
272.626	73.25
272.858	76.25
273.09	95.25
273.322	95.25
273.553	92.25
273.785	88.25
274.017	94.25
274.249	99.25
274.481	91.25
274.713	90.25
274.945	105.25
275.176	108.25
275.408	117.25
275.64	127.25
275.872	165.25
276.104	158.25
276.335	113.25
276.567	172.25
276.799	236.25
277.031	279.25
277.262	331.25
277.494	222.25
277.726	136.25
277.957	97.25
278.189	104.25
278.421	96.25
278.652	97.25
278.884	94.25
279.115	89.25
279.347	101.25
279.579	137.25
279.81	216.25
280.042	328.25
280.273	484.25
280.505	312.25
280.736	140.25
280.968	103.25
281.199	108.25
281.431	111.25
281.662	86.25
281.894	99.25
282.125	127.25
282.356	182.25
282.588	238.25
282.819	178.25
283.051	101.25
283.282	84.25
283.513	102.25
283.745	103.25
283.976	81.25
284.207	88.25
284.439	75.25
284.67	103.25
284.901	97.25
285.132	91.25
285.364	88.25
285.595	96.25
285.826	95.25
286.057	88.25
286.288	68.25
286.52	85.25
286.751	91.25
286.982	94.25
287.213	85.25
287.444	96.25
287.675	98.25
287.906	92.25
288.138	104.25
288.369	107.25
288.6	109.25
288.831	102.25
289.062	90.25
289.293	90.25
289.524	88.25
289.755	93.25
289.986	101.25
290.217	101.25
290.448	84.25
290.679	93.25
290.91	95.25
291.141	74.25
291.371	95.25
291.602	86.25
291.833	76.25
292.064	102.25
292.295	106.25
292.526	88.25
292.757	108.25
292.987	107.25
293.218	81.25
293.449	89.25
293.68	86.25
293.91	88.25
294.141	94.25
294.372	72.25
294.603	69.25
294.833	97.25
295.064	86.25
295.295	100.25
295.525	99.25
295.756	142.25
295.987	168.25
296.217	245.25
296.448	181.25
296.679	109.25
296.909	99.25
297.14	90.25
297.37	108.25
297.601	90.25
297.831	103.25
298.062	96.25
298.292	101.25
298.523	105.25
298.753	103.25
298.984	96.25
299.214	107.25
299.445	113.25
299.675	121.25
299.905	117.25
300.136	106.25
300.366	84.25
300.597	82.25
300.827	110.25
301.057	120.25
301.288	135.25
301.518	111.25
301.748	112.25
301.979	148.25
302.209	117.25
302.439	113.25
302.669	113.25
302.9	82.25
303.13	97.25
303.36	124.25
303.59	189.25
303.82	214.25
304.051	135.25
304.281	101.25
304.511	98.25
304.741	94.25
304.971	98.25
305.201	95.25
305.431	91.25
305.661	95.25
305.891	98.25
306.121	109.25
306.352	135.25
306.582	140.25
306.812	132.25
307.042	162.25
307.272	262.25
307.502	280.25
307.731	255.25
307.961	175.25
308.191	112.25
308.421	105.25
308.651	88.25
308.881	105.25
309.111	108.25
309.341	105.25
309.571	129.25
309.8	126.25
310.03	116.25
310.26	126.25
310.49	106.25
310.72	119.25
310.949	151.25
311.179	153.25
311.409	106.25
311.639	122.25
311.868	132.25
312.098	115.25
312.328	127.25
312.557	152.25
312.787	162.25
313.017	136.25
313.246	112.25
313.476	103.25
313.706	88.25
313.935	125.25
314.165	141.25
314.394	134.25
314.624	120.25
314.853	125.25
315.083	125.25
315.312	106.25
315.542	96.25
315.771	95.25
316.001	98.25
316.23	99.25
316.46	102.25
316.689	100.25
316.919	111.25
317.148	117.25
317.377	118.25
317.607	116.25
317.836	110.25
318.065	114.25
318.295	105.25
318.524	90.25
318.753	94.25
318.983	112.25
319.212	118.25
319.441	149.25
319.67	142.25
319.9	100.25
320.129	95.25
320.358	84.25
320.587	109.25
320.816	127.25
321.046	139.25
321.275	112.25
321.504	112.25
321.733	106.25
321.962	119.25
322.191	122.25
322.42	152.25
322.649	159.25
322.878	154.25
323.108	166.25
323.337	200.25
323.566	204.25
323.795	253.25
324.024	360.25
324.253	752.25
324.482	1630.25
324.71	3417.25
324.939	4345.25
325.168	1550.25
325.397	442.25
325.626	224.25
325.855	182.25
326.084	182.25
326.313	192.25
326.542	258.25
326.77	382.25
326.999	753.25
327.228	1688.25
327.457	3035.25
327.686	2436.25
327.914	931.25
328.143	1025.25
328.372	1305.25
328.6	681.25
328.829	317.25
329.058	314.25
329.287	320.25
329.515	282.25
329.744	469.25
329.972	980.25
330.201	2110.25
330.43	2970.25
330.658	1236.25
330.887	525.25
331.115	294.25
331.344	186.25
331.572	170.25
331.801	174.25
332.03	163.25
332.258	163.25
332.486	128.25
332.715	136.25
332.943	134.25
333.172	156.25
333.4	197.25
333.629	259.25
333.857	404.25
334.085	863.25
334.314	1921.25
334.542	3765.25
334.771	3303.25
334.999	791.25
335.227	270.25
335.455	171.25
335.684	140.25
335.912	120.25
336.14	117.25
336.369	129.25
336.597	145.25
336.825	155.25
337.053	121.25
337.281	111.25
337.51	114.25
337.738	109.25
337.966	112.25
338.194	117.25
338.422	124.25
338.65	105.25
338.878	103.25
339.106	103.25
339.334	103.25
339.562	105.25
339.79	99.25
340.018	104.25
340.246	97.25
340.474	129.25
340.702	117.25
340.93	103.25
341.158	112.25
341.386	121.25
341.614	123.25
341.842	117.25
342.07	110.25
342.298	111.25
342.526	101.25
342.754	92.25
342.981	108.25
343.209	98.25
343.437	97.25
343.665	101.25
343.893	105.25
344.12	93.25
344.348	98.25
344.576	110.25
344.804	93.25
345.031	114.25
345.259	136.25
345.487	105.25
345.714	120.25
345.942	98.25
346.17	93.25
346.397	108.25
346.625	105.25
346.853	94.25
347.08	104.25
347.308	125.25
347.535	114.25
347.763	123.25
347.99	126.25
348.218	120.25
348.445	154.25
348.673	142.25
348.9	108.25
349.128	104.25
349.355	102.25
349.583	104.25
349.81	102.25
350.037	104.25
350.265	104.25
350.492	95.25
350.72	116.25
350.947	114.25
351.174	135.25
351.402	172.25
351.629	127.25
351.856	119.25
352.083	156.25
352.311	144.25
352.538	137.25
352.765	143.25
352.992	150.25
353.22	148.25
353.447	146.25
353.674	105.25
353.901	100.25
354.128	100.25
354.355	104.25
354.583	103.25
354.81	108.25
355.037	81.25
355.264	107.25
355.491	94.25
355.718	94.25
355.945	101.25
356.172	88.25
356.399	98.25
356.626	109.25
356.853	78.25
357.08	86.25
357.307	85.25
357.534	98.25
357.761	86.25
357.988	92.25
358.215	96.25
358.441	100.25
358.668	99.25
358.895	92.25
359.122	104.25
359.349	101.25
359.576	113.25
359.802	145.25
360.029	208.25
360.256	194.25
360.483	174.25
360.709	113.25
360.936	108.25
361.163	123.25
361.39	130.25
361.616	116.25
361.843	97.25
362.07	123.25
362.296	136.25
362.523	111.25
362.749	98.25
362.976	94.25
363.203	97.25
363.429	97.25
363.656	118.25
363.882	106.25
364.109	102.25
364.335	95.25
364.562	94.25
364.788	109.25
365.015	110.25
365.241	149.25
365.468	156.25
365.694	154.25
365.92	131.25
366.147	119.25
366.373	95.25
366.599	91.25
366.826	98.25
367.052	89.25
367.278	106.25
367.505	97.25
367.731	110.25
367.957	114.25
368.184	115.25
368.41	148.25
368.636	162.25
368.862	184.25
369.089	153.25
369.315	127.25
369.541	125.25
369.767	109.25
369.993	117.25
370.219	105.25
370.445	107.25
370.672	96.25
370.898	93.25
371.124	91.25
371.35	85.25
371.576	103.25
371.802	86.25
372.028	84.25
372.254	87.25
372.48	88.25
372.706	91.25
372.932	105.25
373.158	84.25
373.384	92.25
373.61	95.25
373.835	94.25
374.061	96.25
374.287	111.25
374.513	101.25
374.739	89.25
374.965	97.25
375.191	94.25
375.416	101.25
375.642	90.25
375.868	107.25
376.094	92.25
376.319	79.25
376.545	80.25
376.771	101.25
376.997	89.25
377.222	86.25
377.448	88.25
377.674	101.25
377.899	99.25
378.125	73.25
378.35	93.25
378.576	96.25
378.802	95.25
379.027	96.25
379.253	87.25
379.478	84.25
379.704	104.25
379.929	84.25
380.155	94.25
380.38	97.25
380.606	96.25
380.831	84.25
381.057	103.25
381.282	100.25
381.507	112.25
381.733	97.25
381.958	76.25
382.184	97.25
382.409	97.25
382.634	106.25
382.86	93.25
383.085	96.25
383.31	101.25
383.535	104.25
383.761	93.25
383.986	92.25
384.211	87.25
384.436	96.25
384.662	103.25
384.887	127.25
385.112	115.25
385.337	125.25
385.562	92.25
385.787	107.25
386.013	136.25
386.238	130.25
386.463	122.25
386.688	117.25
386.913	114.25
387.138	93.25
387.363	110.25
387.588	94.25
387.813	85.25
388.038	96.25
388.263	124.25
388.488	108.25
388.713	98.25
388.938	88.25
389.163	105.25
389.387	98.25
389.612	93.25
389.837	98.25
390.062	90.25
390.287	95.25
390.512	85.25
390.736	78.25
390.961	88.25
391.186	98.25
391.411	88.25
391.636	95.25
391.86	85.25
392.085	102.25
392.31	90.25
392.534	89.25
392.759	102.25
392.984	86.25
393.208	79.25
393.433	94.25
393.658	84.25
393.882	82.25
394.107	91.25
394.331	80.25
394.556	98.25
394.78	85.25
395.005	92.25
395.229	88.25
395.454	96.25
395.678	93.25
395.903	98.25
396.127	101.25
396.352	95.25
396.576	95.25
396.801	93.25
397.025	82.25
397.249	79.25
397.474	85.25
397.698	96.25
397.922	101.25
398.147	87.25
398.371	89.25
398.595	99.25
398.82	80.25
399.044	90.25
399.268	95.25
399.492	78.25
399.717	100.25
399.941	82.25
400.165	106.25
400.389	110.25
400.613	104.25
400.837	105.25
401.062	88.25
401.286	100.25
401.51	102.25
401.734	112.25
401.958	133.25
402.182	202.25
402.406	319.25
402.63	230.25
402.854	123.25
403.078	109.25
403.302	93.25
403.526	110.25
403.75	91.25
403.974	95.25
404.198	96.25
404.422	97.25
404.645	94.25
404.869	128.25
405.093	149.25
405.317	177.25
405.541	183.25
405.765	151.25
405.988	178.25
406.212	331.25
406.436	528.25
406.66	329.25
406.883	168.25
407.107	145.25
407.331	152.25
407.555	143.25
407.778	124.25
408.002	91.25
408.226	113.25
408.449	95.25
408.673	87.25
408.896	101.25
409.12	117.25
409.344	103.25
409.567	99.25
409.791	102.25
410.014	89.25
410.238	102.25
410.461	104.25
410.685	95.25
410.908	110.25
411.132	107.25
411.355	119.25
411.578	106.25
411.802	88.25
412.025	105.25
412.249	108.25
412.472	148.25
412.695	168.25
412.919	130.25
413.142	121.25
413.365	89.25
413.589	90.25
413.812	94.25
414.035	100.25
414.258	97.25
414.482	95.25
414.705	91.25
414.928	98.25
415.151	86.25
415.374	94.25
415.597	86.25
415.821	107.25
416.044	106.25
416.267	103.25
416.49	91.25
416.713	96.25
416.936	91.25
417.159	114.25
417.382	106.25
417.605	142.25
417.828	139.25
418.051	135.25
418.274	110.25
418.497	101.25
418.72	89.25
418.943	107.25
419.166	80.25
419.389	94.25
419.611	93.25
419.834	77.25
420.057	96.25
420.28	100.25
420.503	97.25
420.726	91.25
420.948	92.25
421.171	115.25
421.394	84.25
421.617	96.25
421.839	72.25
422.062	91.25
422.285	104.25
422.507	101.25
422.73	118.25
422.953	109.25
423.175	84.25
423.398	93.25
423.621	93.25
423.843	102.25
424.066	97.25
424.288	90.25
424.511	104.25
424.733	125.25
424.956	150.25
425.178	128.25
425.401	122.25
425.623	140.25
425.846	102.25
426.068	111.25
426.291	110.25
426.513	115.25
426.735	96.25
426.958	128.25
427.18	157.25
427.402	254.25
427.625	429.25
427.847	372.25
428.069	303.25
428.292	175.25
428.514	108.25
428.736	92.25
428.958	89.25
429.181	87.25
429.403	97.25
429.625	89.25
429.847	105.25
430.069	134.25
430.292	111.25
430.514	88.25
430.736	88.25
430.958	85.25
431.18	86.25
431.402	79.25
431.624	94.25
431.846	94.25
432.068	93.25
432.29	90.25
432.512	95.25
432.734	83.25
432.956	102.25
433.178	104.25
433.4	103.25
433.622	94.25
433.844	109.25
434.066	104.25
434.287	97.25
434.509	92.25
434.731	101.25
434.953	92.25
435.175	110.25
435.397	107.25
435.618	101.25
435.84	124.25
436.062	164.25
436.284	148.25
436.505	129.25
436.727	118.25
436.949	96.25
437.17	93.25
437.392	99.25
437.614	109.25
437.835	180.25
438.057	198.25
438.278	168.25
438.5	132.25
438.721	160.25
438.943	135.25
439.165	92.25
439.386	97.25
439.608	120.25
439.829	142.25
440.05	201.25
440.272	261.25
440.493	154.25
440.715	102.25
440.936	109.25
441.158	104.25
441.379	96.25
441.6	117.25
441.822	121.25
442.043	134.25
442.264	136.25
442.486	118.25
442.707	112.25
442.928	149.25
443.149	235.25
443.371	249.25
443.592	165.25
443.813	170.25
444.034	156.25
444.255	97.25
444.476	92.25
444.698	100.25
444.919	82.25
445.14	163.25
445.361	170.25
445.582	189.25
445.803	251.25
446.024	237.25
446.245	211.25
446.466	168.25
446.687	108.25
446.908	87.25
447.129	107.25
447.35	107.25
447.571	117.25
447.792	103.25
448.013	137.25
448.234	172.25
448.455	140.25
448.675	155.25
448.896	167.25
449.117	129.25
449.338	126.25
449.559	166.25
449.779	190.25
450	123.25
450.221	93.25
450.442	102.25
450.662	131.25
450.883	180.25
451.104	199.25
451.324	134.25
451.545	119.25
451.766	100.25
451.986	107.25
452.207	95.25
452.428	119.25
452.648	140.25
452.869	186.25
453.089	188.25
453.31	206.25
453.53	136.25
453.751	113.25
453.971	167.25
454.192	188.25
454.412	126.25
454.633	106.25
454.853	101.25
455.073	84.25
455.294	104.25
455.514	124.25
455.734	90.25
455.955	90.25
456.175	92.25
456.395	88.25
456.616	98.25
456.836	107.25
457.056	106.25
457.276	94.25
457.497	84.25
457.717	103.25
457.937	100.25
458.157	108.25
458.377	123.25
458.598	197.25
458.818	326.25
459.038	372.25
459.258	197.25
459.478	122.25
459.698	101.25
459.918	100.25
460.138	82.25
460.358	91.25
460.578	91.25
460.798	101.25
461.018	88.25
461.238	82.25
461.458	98.25
461.678	97.25
461.898	85.25
462.118	100.25
462.338	101.25
462.558	90.25
462.777	94.25
462.997	123.25
463.217	151.25
463.437	118.25
463.657	112.25
463.876	103.25
464.096	105.25
464.316	130.25
464.536	116.25
464.755	116.25
464.975	171.25
465.195	415.25
465.414	415.25
465.634	143.25
465.854	114.25
466.073	89.25
466.293	100.25
466.512	103.25
466.732	120.25
466.951	120.25
467.171	117.25
467.391	146.25
467.61	212.25
467.829	376.25
468.049	1182.25
468.268	1772.25
468.488	373.25
468.707	135.25
468.927	118.25
469.146	109.25
469.365	93.25
469.585	112.25
469.804	143.25
470.023	146.25
470.243	128.25
470.462	161.25
470.681	227.25
470.901	138.25
471.12	111.25
471.339	132.25
471.558	169.25
471.777	231.25
471.997	558.25
472.216	2278.25
472.435	5308.25
472.654	1101.25
472.873	251.25
473.092	140.25
473.311	109.25
473.53	116.25
473.749	118.25
473.968	116.25
474.187	171.25
474.406	131.25
474.625	114.25
474.844	96.25
475.063	103.25
475.282	100.25
475.501	93.25
475.72	106.25
475.939	91.25
476.158	80.25
476.377	108.25
476.596	114.25
476.814	102.25
477.033	110.25
477.252	112.25
477.471	96.25
477.69	105.25
477.908	116.25
478.127	114.25
478.346	100.25
478.564	106.25
478.783	125.25
479.002	125.25
479.22	130.25
479.439	166.25
479.658	190.25
479.876	163.25
480.095	174.25
480.313	189.25
480.532	261.25
480.751	515.25
480.969	2063.25
481.188	8863.25
481.406	4971.25
481.624	634.25
481.843	189.25
482.061	122.25
482.28	113.25
482.498	96.25
482.717	117.25
482.935	112.25
483.153	106.25
483.372	94.25
483.59	100.25
483.808	97.25
484.027	85.25
484.245	113.25
484.463	121.25
484.681	108.25
484.9	100.25
485.118	101.25
485.336	105.25
485.554	113.25
485.772	109.25
485.99	130.25
486.209	115.25
486.427	114.25
486.645	149.25
486.863	159.25
487.081	132.25
487.299	105.25
487.517	92.25
487.735	102.25
487.953	117.25
488.171	114.25
488.389	111.25
488.607	112.25
488.825	105.25
489.043	101.25
489.261	97.25
489.479	101.25
489.696	89.25
489.914	102.25
490.132	105.25
490.35	82.25
490.568	98.25
490.786	117.25
491.003	98.25
491.221	97.25
491.439	122.25
491.657	103.25
491.874	103.25
492.092	97.25
492.31	111.25
492.527	111.25
492.745	114.25
492.963	104.25
493.18	94.25
493.398	109.25
493.615	91.25
493.833	98.25
494.05	96.25
494.268	89.25
494.485	88.25
494.703	104.25
494.92	108.25
495.138	105.25
495.355	97.25
495.573	97.25
495.79	83.25
496.008	99.25
496.225	95.25
496.442	89.25
496.66	109.25
496.877	101.25
497.094	101.25
497.312	102.25
497.529	101.25
497.746	105.25
497.963	98.25
498.181	104.25
498.398	111.25
498.615	134.25
498.832	130.25
499.049	101.25
499.267	98.25
499.484	97.25
499.701	91.25
499.918	82.25
500.135	78.25
500.352	97.25
500.569	107.25
500.786	116.25
501.003	108.25
501.22	93.25
501.437	111.25
501.654	118.25
501.871	156.25
502.088	106.25
502.305	100.25
502.522	101.25
502.739	92.25
502.956	85.25
503.172	105.25
503.389	124.25
503.606	155.25
503.823	138.25
504.04	113.25
504.256	97.25
504.473	95.25
504.69	96.25
504.907	88.25
505.123	90.25
505.34	101.25
505.557	103.25
505.773	98.25
505.99	82.25
506.207	104.25
506.423	89.25
506.64	95.25
506.856	96.25
507.073	105.25
507.289	114.25
507.506	130.25
507.722	189.25
507.939	187.25
508.155	125.25
508.372	111.25
508.588	106.25
508.805	111.25
509.021	119.25
509.238	114.25
509.454	122.25
