Data from Circ_1999_H10_HRD10591_00008.txt Node
Date: Wed Jan 03 11:23:14 EST 2024
User: Yrep
Spectrometer: HR+D1059
Trigger mode: 1
Integration Time (sec): 1.000000E-1
Scans to average: 1
Electric dark correction enabled: true
Nonlinearity correction enabled: false
Boxcar width: 0
XAxis mode: Wavelengths
Number of Pixels in Spectrum: 2048
>>>>>Begin Spectral Data<<<<<
223.165	-17.62
223.4	-17.62
223.635	-17.62
223.869	-16.62
224.104	-25.62
224.338	-29.62
224.573	-11.62
224.808	0.38
225.042	-7.62
225.277	-6.62
225.511	0.38
225.746	-0.62
225.98	8.38
226.215	23.38
226.449	20.38
226.683	8.38
226.918	31.38
227.152	23.38
227.387	42.38
227.621	35.38
227.856	47.38
228.09	45.38
228.324	42.38
228.559	59.38
228.793	57.38
229.027	70.38
229.262	68.38
229.496	84.38
229.73	98.38
229.964	89.38
230.199	69.38
230.433	89.38
230.667	88.38
230.901	85.38
231.136	70.38
231.37	101.38
231.604	89.38
231.838	84.38
232.072	68.38
232.306	74.38
232.541	95.38
232.775	87.38
233.009	83.38
233.243	86.38
233.477	90.38
233.711	97.38
233.945	74.38
234.179	73.38
234.413	78.38
234.647	80.38
234.881	70.38
235.115	85.38
235.349	68.38
235.583	70.38
235.817	89.38
236.051	71.38
236.285	76.38
236.519	69.38
236.753	74.38
236.987	75.38
237.221	100.38
237.455	98.38
237.689	76.38
237.922	69.38
238.156	77.38
238.39	75.38
238.624	68.38
238.858	64.38
239.091	84.38
239.325	80.38
239.559	81.38
239.793	79.38
240.027	82.38
240.26	81.38
240.494	79.38
240.728	76.38
240.961	91.38
241.195	72.38
241.429	71.38
241.662	71.38
241.896	83.38
242.13	87.38
242.363	79.38
242.597	88.38
242.83	78.38
243.064	82.38
243.298	85.38
243.531	68.38
243.765	81.38
243.998	82.38
244.232	82.38
244.465	96.38
244.699	96.38
244.932	78.38
245.166	84.38
245.399	76.38
245.633	65.38
245.866	80.38
246.099	71.38
246.333	80.38
246.566	82.38
246.8	80.38
247.033	80.38
247.266	87.38
247.5	80.38
247.733	80.38
247.966	71.38
248.2	84.38
248.433	90.38
248.666	102.38
248.899	85.38
249.133	86.38
249.366	110.38
249.599	110.38
249.832	102.38
250.066	87.38
250.299	86.38
250.532	90.38
250.765	80.38
250.998	86.38
251.231	80.38
251.465	83.38
251.698	96.38
251.931	90.38
252.164	84.38
252.397	80.38
252.63	72.38
252.863	73.38
253.096	76.38
253.329	84.38
253.562	82.38
253.795	89.38
254.028	76.38
254.261	61.38
254.494	76.38
254.727	79.38
254.96	88.38
255.193	95.38
255.426	82.38
255.659	76.38
255.892	85.38
256.124	95.38
256.357	84.38
256.59	88.38
256.823	85.38
257.056	97.38
257.289	93.38
257.521	87.38
257.754	72.38
257.987	82.38
258.22	100.38
258.452	97.38
258.685	91.38
258.918	96.38
259.151	84.38
259.383	80.38
259.616	95.38
259.849	78.38
260.081	88.38
260.314	81.38
260.547	88.38
260.779	96.38
261.012	110.38
261.244	109.38
261.477	103.38
261.71	104.38
261.942	134.38
262.175	153.38
262.407	102.38
262.64	80.38
262.872	78.38
263.105	83.38
263.337	92.38
263.57	75.38
263.802	82.38
264.035	77.38
264.267	80.38
264.499	75.38
264.732	87.38
264.964	68.38
265.197	77.38
265.429	90.38
265.661	82.38
265.894	85.38
266.126	88.38
266.358	85.38
266.591	90.38
266.823	86.38
267.055	87.38
267.287	97.38
267.52	81.38
267.752	72.38
267.984	82.38
268.216	73.38
268.448	86.38
268.681	87.38
268.913	89.38
269.145	81.38
269.377	87.38
269.609	84.38
269.841	80.38
270.073	95.38
270.306	81.38
270.538	86.38
270.77	94.38
271.002	80.38
271.234	94.38
271.466	89.38
271.698	84.38
271.93	80.38
272.162	96.38
272.394	94.38
272.626	101.38
272.858	97.38
273.09	90.38
273.322	69.38
273.553	82.38
273.785	89.38
274.017	97.38
274.249	71.38
274.481	87.38
274.713	92.38
274.945	89.38
275.176	95.38
275.408	96.38
275.64	106.38
275.872	111.38
276.104	105.38
276.335	100.38
276.567	138.38
276.799	154.38
277.031	183.38
277.262	174.38
277.494	130.38
277.726	106.38
277.957	96.38
278.189	87.38
278.421	93.38
278.652	97.38
278.884	87.38
279.115	100.38
279.347	98.38
279.579	98.38
279.81	130.38
280.042	177.38
280.273	224.38
280.505	183.38
280.736	104.38
280.968	76.38
281.199	88.38
281.431	96.38
281.662	89.38
281.894	92.38
282.125	109.38
282.356	134.38
282.588	182.38
282.819	142.38
283.051	97.38
283.282	92.38
283.513	96.38
283.745	96.38
283.976	91.38
284.207	92.38
284.439	78.38
284.67	92.38
284.901	85.38
285.132	85.38
285.364	83.38
285.595	105.38
285.826	93.38
286.057	102.38
286.288	88.38
286.52	86.38
286.751	93.38
286.982	85.38
287.213	91.38
287.444	97.38
287.675	90.38
287.906	99.38
288.138	90.38
288.369	94.38
288.6	85.38
288.831	91.38
289.062	94.38
289.293	80.38
289.524	82.38
289.755	95.38
289.986	89.38
290.217	95.38
290.448	85.38
290.679	85.38
290.91	86.38
291.141	81.38
291.371	98.38
291.602	90.38
291.833	82.38
292.064	78.38
292.295	102.38
292.526	96.38
292.757	88.38
292.987	93.38
293.218	94.38
293.449	94.38
293.68	80.38
293.91	84.38
294.141	98.38
294.372	90.38
294.603	94.38
294.833	88.38
295.064	86.38
295.295	80.38
295.525	93.38
295.756	102.38
295.987	133.38
296.217	168.38
296.448	136.38
296.679	106.38
296.909	85.38
297.14	77.38
297.37	103.38
297.601	105.38
297.831	93.38
298.062	94.38
298.292	89.38
298.523	100.38
298.753	88.38
298.984	95.38
299.214	92.38
299.445	97.38
299.675	94.38
299.905	95.38
300.136	93.38
300.366	84.38
300.597	85.38
300.827	94.38
301.057	105.38
301.288	114.38
301.518	98.38
301.748	108.38
301.979	102.38
302.209	102.38
302.439	97.38
302.669	88.38
302.9	98.38
303.13	108.38
303.36	126.38
303.59	125.38
303.82	133.38
304.051	113.38
304.281	81.38
304.511	106.38
304.741	85.38
304.971	88.38
305.201	82.38
305.431	85.38
305.661	100.38
305.891	105.38
306.121	96.38
306.352	108.38
306.582	121.38
306.812	115.38
307.042	118.38
307.272	149.38
307.502	173.38
307.731	147.38
307.961	127.38
308.191	117.38
308.421	96.38
308.651	91.38
308.881	97.38
309.111	90.38
309.341	100.38
309.571	128.38
309.8	98.38
310.03	105.38
310.26	100.38
310.49	96.38
310.72	119.38
310.949	137.38
311.179	121.38
311.409	109.38
311.639	119.38
311.868	102.38
312.098	100.38
312.328	101.38
312.557	121.38
312.787	129.38
313.017	124.38
313.246	109.38
313.476	109.38
313.706	97.38
313.935	102.38
314.165	108.38
314.394	130.38
314.624	100.38
314.853	108.38
315.083	100.38
315.312	99.38
315.542	110.38
315.771	113.38
316.001	92.38
316.23	102.38
316.46	97.38
316.689	88.38
316.919	101.38
317.148	104.38
317.377	109.38
317.607	89.38
317.836	102.38
318.065	88.38
318.295	96.38
318.524	86.38
318.753	100.38
318.983	98.38
319.212	127.38
319.441	136.38
319.67	115.38
319.9	92.38
320.129	98.38
320.358	98.38
320.587	107.38
320.816	106.38
321.046	104.38
321.275	96.38
321.504	102.38
321.733	90.38
321.962	102.38
322.191	114.38
322.42	116.38
322.649	127.38
322.878	117.38
323.108	137.38
323.337	150.38
323.566	152.38
323.795	182.38
324.024	231.38
324.253	432.38
324.482	885.38
324.71	1835.38
324.939	2330.38
325.168	900.38
325.397	272.38
325.626	161.38
325.855	135.38
326.084	123.38
326.313	158.38
326.542	165.38
326.77	263.38
326.999	449.38
327.228	919.38
327.457	1714.38
327.686	1392.38
327.914	510.38
328.143	486.38
328.372	604.38
328.6	336.38
328.829	167.38
329.058	187.38
329.287	203.38
329.515	185.38
329.744	251.38
329.972	439.38
330.201	846.38
330.43	1265.38
330.658	574.38
330.887	294.38
331.115	188.38
331.344	134.38
331.572	118.38
331.801	132.38
332.03	134.38
332.258	123.38
332.486	114.38
332.715	122.38
332.943	120.38
333.172	130.38
333.4	125.38
333.629	153.38
333.857	234.38
334.085	389.38
334.314	816.38
334.542	1533.38
334.771	1414.38
334.999	396.38
335.227	182.38
335.455	123.38
335.684	120.38
335.912	122.38
336.14	113.38
336.369	123.38
336.597	126.38
336.825	108.38
337.053	93.38
337.281	110.38
337.51	98.38
337.738	95.38
337.966	107.38
338.194	113.38
338.422	101.38
338.65	107.38
338.878	94.38
339.106	93.38
339.334	114.38
339.562	91.38
339.79	105.38
340.018	101.38
340.246	101.38
340.474	121.38
340.702	101.38
340.93	111.38
341.158	104.38
341.386	108.38
341.614	99.38
341.842	97.38
342.07	107.38
342.298	101.38
342.526	74.38
342.754	93.38
342.981	81.38
343.209	83.38
343.437	109.38
343.665	77.38
343.893	86.38
344.12	81.38
344.348	96.38
344.576	94.38
344.804	108.38
345.031	108.38
345.259	122.38
345.487	107.38
345.714	120.38
345.942	108.38
346.17	102.38
346.397	69.38
346.625	98.38
346.853	111.38
347.08	100.38
347.308	97.38
347.535	105.38
347.763	117.38
347.99	110.38
348.218	112.38
348.445	115.38
348.673	99.38
348.9	93.38
349.128	101.38
349.355	93.38
349.583	97.38
349.81	89.38
350.037	98.38
350.265	102.38
350.492	113.38
350.72	97.38
350.947	108.38
351.174	109.38
351.402	132.38
351.629	120.38
351.856	116.38
352.083	111.38
352.311	112.38
352.538	126.38
352.765	121.38
352.992	119.38
353.22	125.38
353.447	104.38
353.674	104.38
353.901	102.38
354.128	108.38
354.355	94.38
354.583	105.38
354.81	105.38
355.037	85.38
355.264	95.38
355.491	93.38
355.718	90.38
355.945	93.38
356.172	92.38
356.399	96.38
356.626	92.38
356.853	94.38
357.08	95.38
357.307	90.38
357.534	102.38
357.761	104.38
357.988	87.38
358.215	97.38
358.441	91.38
358.668	102.38
358.895	104.38
359.122	91.38
359.349	94.38
359.576	112.38
359.802	126.38
360.029	150.38
360.256	166.38
360.483	111.38
360.709	99.38
360.936	93.38
361.163	105.38
361.39	105.38
361.616	117.38
361.843	109.38
362.07	104.38
362.296	110.38
362.523	106.38
362.749	97.38
362.976	100.38
363.203	92.38
363.429	92.38
363.656	103.38
363.882	94.38
364.109	97.38
364.335	105.38
364.562	97.38
364.788	102.38
365.015	100.38
365.241	104.38
365.468	124.38
365.694	127.38
365.92	121.38
366.147	84.38
366.373	92.38
366.599	91.38
366.826	87.38
367.052	110.38
367.278	86.38
367.505	79.38
367.731	100.38
367.957	95.38
368.184	92.38
368.41	103.38
368.636	154.38
368.862	148.38
369.089	123.38
369.315	98.38
369.541	100.38
369.767	106.38
369.993	111.38
370.219	85.38
370.445	92.38
370.672	94.38
370.898	81.38
371.124	88.38
371.35	91.38
371.576	89.38
371.802	94.38
372.028	99.38
372.254	95.38
372.48	66.38
372.706	84.38
372.932	88.38
373.158	85.38
373.384	91.38
373.61	85.38
373.835	89.38
374.061	92.38
374.287	102.38
374.513	96.38
374.739	95.38
374.965	94.38
375.191	94.38
375.416	96.38
375.642	91.38
375.868	108.38
376.094	96.38
376.319	87.38
376.545	93.38
376.771	93.38
376.997	91.38
377.222	98.38
377.448	110.38
377.674	93.38
377.899	92.38
378.125	94.38
378.35	95.38
378.576	97.38
378.802	95.38
379.027	105.38
379.253	104.38
379.478	84.38
379.704	97.38
379.929	111.38
380.155	106.38
380.38	99.38
380.606	125.38
380.831	100.38
381.057	97.38
381.282	92.38
381.507	111.38
381.733	117.38
381.958	93.38
382.184	118.38
382.409	108.38
382.634	107.38
382.86	105.38
383.085	117.38
383.31	127.38
383.535	113.38
383.761	97.38
383.986	110.38
384.211	91.38
384.436	104.38
384.662	115.38
384.887	132.38
385.112	127.38
385.337	112.38
385.562	129.38
385.787	125.38
386.013	139.38
386.238	151.38
386.463	132.38
386.688	121.38
386.913	113.38
387.138	126.38
387.363	119.38
387.588	112.38
387.813	102.38
388.038	110.38
388.263	144.38
388.488	132.38
388.713	81.38
388.938	96.38
389.163	81.38
389.387	87.38
389.612	93.38
389.837	97.38
390.062	93.38
390.287	93.38
390.512	107.38
390.736	92.38
390.961	103.38
391.186	97.38
391.411	98.38
391.636	87.38
391.86	82.38
392.085	83.38
392.31	76.38
392.534	98.38
392.759	98.38
392.984	92.38
393.208	108.38
393.433	107.38
393.658	98.38
393.882	90.38
394.107	81.38
394.331	100.38
394.556	95.38
394.78	95.38
395.005	85.38
395.229	72.38
395.454	96.38
395.678	93.38
395.903	83.38
396.127	107.38
396.352	96.38
396.576	101.38
396.801	94.38
397.025	88.38
397.249	95.38
397.474	103.38
397.698	80.38
397.922	87.38
398.147	94.38
398.371	97.38
398.595	83.38
398.82	95.38
399.044	86.38
399.268	95.38
399.492	90.38
399.717	88.38
399.941	87.38
400.165	89.38
400.389	94.38
400.613	94.38
400.837	102.38
401.062	97.38
401.286	99.38
401.51	100.38
401.734	97.38
401.958	112.38
402.182	147.38
402.406	218.38
402.63	154.38
402.854	102.38
403.078	92.38
403.302	92.38
403.526	95.38
403.75	96.38
403.974	93.38
404.198	90.38
404.422	93.38
404.645	92.38
404.869	104.38
405.093	119.38
405.317	124.38
405.541	122.38
405.765	118.38
405.988	138.38
406.212	236.38
406.436	356.38
406.66	218.38
406.883	127.38
407.107	114.38
407.331	97.38
407.555	98.38
407.778	101.38
408.002	88.38
408.226	94.38
408.449	77.38
408.673	92.38
408.896	106.38
409.12	100.38
409.344	108.38
409.567	110.38
409.791	111.38
410.014	98.38
410.238	107.38
410.461	84.38
410.685	92.38
410.908	109.38
411.132	120.38
411.355	113.38
411.578	105.38
411.802	94.38
412.025	106.38
412.249	117.38
412.472	103.38
412.695	126.38
412.919	107.38
413.142	99.38
413.365	97.38
413.589	81.38
413.812	85.38
414.035	102.38
414.258	94.38
414.482	101.38
414.705	104.38
414.928	95.38
415.151	91.38
415.374	85.38
415.597	100.38
415.821	74.38
416.044	107.38
416.267	104.38
416.49	85.38
416.713	79.38
416.936	80.38
417.159	98.38
417.382	95.38
417.605	99.38
417.828	115.38
418.051	106.38
418.274	75.38
418.497	91.38
418.72	81.38
418.943	85.38
419.166	98.38
419.389	88.38
419.611	82.38
419.834	91.38
420.057	89.38
420.28	102.38
420.503	90.38
420.726	95.38
420.948	94.38
421.171	117.38
421.394	97.38
421.617	85.38
421.839	95.38
422.062	83.38
422.285	91.38
422.507	110.38
422.73	113.38
422.953	103.38
423.175	96.38
423.398	86.38
423.621	87.38
423.843	98.38
424.066	90.38
424.288	93.38
424.511	87.38
424.733	89.38
424.956	118.38
425.178	107.38
425.401	120.38
425.623	114.38
425.846	102.38
426.068	90.38
426.291	101.38
426.513	98.38
426.735	105.38
426.958	106.38
427.18	112.38
427.402	198.38
427.625	246.38
427.847	201.38
428.069	181.38
428.292	114.38
428.514	96.38
428.736	88.38
428.958	73.38
429.181	92.38
429.403	94.38
429.625	103.38
429.847	101.38
430.069	113.38
430.292	100.38
430.514	88.38
430.736	86.38
430.958	92.38
431.18	83.38
431.402	78.38
431.624	94.38
431.846	94.38
432.068	85.38
432.29	98.38
432.512	94.38
432.734	82.38
432.956	101.38
433.178	110.38
433.4	106.38
433.622	107.38
433.844	102.38
434.066	105.38
434.287	78.38
434.509	87.38
434.731	117.38
434.953	84.38
435.175	91.38
435.397	107.38
435.618	98.38
435.84	110.38
436.062	127.38
436.284	118.38
436.505	96.38
436.727	113.38
436.949	105.38
437.17	93.38
437.392	90.38
437.614	100.38
437.835	149.38
438.057	165.38
438.278	129.38
438.5	112.38
438.721	143.38
438.943	97.38
439.165	90.38
439.386	101.38
439.608	102.38
439.829	107.38
440.05	129.38
440.272	169.38
440.493	88.38
440.715	89.38
440.936	86.38
441.158	82.38
441.379	89.38
441.6	106.38
441.822	109.38
442.043	114.38
442.264	119.38
442.486	107.38
442.707	100.38
442.928	134.38
443.149	169.38
443.371	171.38
443.592	117.38
443.813	110.38
444.034	106.38
444.255	93.38
444.476	79.38
444.698	82.38
444.919	88.38
445.14	141.38
445.361	127.38
445.582	132.38
445.803	181.38
446.024	166.38
446.245	152.38
446.466	115.38
446.687	105.38
446.908	102.38
447.129	98.38
447.35	103.38
447.571	91.38
447.792	94.38
448.013	107.38
448.234	116.38
448.455	117.38
448.675	138.38
448.896	125.38
449.117	96.38
449.338	120.38
449.559	151.38
449.779	142.38
450	101.38
450.221	96.38
450.442	91.38
450.662	107.38
450.883	127.38
451.104	137.38
451.324	105.38
451.545	84.38
451.766	81.38
451.986	90.38
452.207	91.38
452.428	84.38
452.648	103.38
452.869	120.38
453.089	149.38
453.31	146.38
453.53	102.38
453.751	90.38
453.971	119.38
454.192	143.38
454.412	113.38
454.633	79.38
454.853	95.38
455.073	92.38
455.294	95.38
455.514	112.38
455.734	87.38
455.955	89.38
456.175	92.38
456.395	79.38
456.616	87.38
456.836	86.38
457.056	93.38
457.276	76.38
457.497	89.38
457.717	83.38
457.937	89.38
458.157	87.38
458.377	88.38
458.598	122.38
458.818	218.38
459.038	231.38
459.258	143.38
459.478	93.38
459.698	98.38
459.918	92.38
460.138	97.38
460.358	101.38
460.578	97.38
460.798	98.38
461.018	78.38
461.238	106.38
461.458	88.38
461.678	80.38
461.898	93.38
462.118	83.38
462.338	95.38
462.558	90.38
462.777	90.38
462.997	112.38
463.217	102.38
463.437	95.38
463.657	94.38
463.876	98.38
464.096	85.38
464.316	95.38
464.536	103.38
464.755	116.38
464.975	138.38
465.195	265.38
465.414	257.38
465.634	107.38
465.854	83.38
466.073	97.38
466.293	99.38
466.512	93.38
466.732	92.38
466.951	93.38
467.171	97.38
467.391	115.38
467.61	147.38
467.829	203.38
468.049	491.38
468.268	743.38
468.488	202.38
468.707	106.38
468.927	98.38
469.146	106.38
469.365	97.38
469.585	83.38
469.804	118.38
470.023	116.38
470.243	106.38
470.462	111.38
470.681	137.38
470.901	106.38
471.12	121.38
471.339	112.38
471.558	132.38
471.777	142.38
471.997	271.38
472.216	977.38
472.435	2223.38
472.654	529.38
472.873	152.38
473.092	109.38
473.311	107.38
473.53	97.38
473.749	93.38
473.968	98.38
474.187	129.38
474.406	119.38
474.625	101.38
474.844	100.38
475.063	92.38
475.282	100.38
475.501	89.38
475.72	81.38
475.939	102.38
476.158	84.38
476.377	97.38
476.596	94.38
476.814	109.38
477.033	105.38
477.252	106.38
477.471	86.38
477.69	94.38
477.908	80.38
478.127	103.38
478.346	86.38
478.564	110.38
478.783	109.38
479.002	95.38
479.22	107.38
479.439	117.38
479.658	133.38
479.876	136.38
480.095	125.38
480.313	118.38
480.532	149.38
480.751	272.38
480.969	911.38
481.188	3790.38
481.406	2199.38
481.624	340.38
481.843	123.38
482.061	101.38
482.28	110.38
482.498	99.38
482.717	93.38
482.935	89.38
483.153	101.38
483.372	97.38
483.59	110.38
483.808	82.38
484.027	95.38
484.245	91.38
484.463	89.38
484.681	106.38
484.9	92.38
485.118	104.38
485.336	89.38
485.554	107.38
485.772	98.38
485.99	134.38
486.209	111.38
486.427	123.38
486.645	118.38
486.863	125.38
487.081	106.38
487.299	97.38
487.517	102.38
487.735	98.38
487.953	96.38
488.171	112.38
488.389	103.38
488.607	97.38
488.825	95.38
489.043	95.38
489.261	93.38
489.479	84.38
489.696	93.38
489.914	88.38
490.132	82.38
490.35	80.38
490.568	94.38
490.786	102.38
491.003	85.38
491.221	101.38
491.439	104.38
491.657	105.38
491.874	98.38
492.092	95.38
492.31	81.38
492.527	104.38
492.745	90.38
492.963	100.38
493.18	98.38
493.398	106.38
493.615	90.38
493.833	96.38
494.05	89.38
494.268	88.38
494.485	92.38
494.703	105.38
494.92	110.38
495.138	88.38
495.355	93.38
495.573	100.38
495.79	102.38
496.008	95.38
496.225	80.38
496.442	109.38
496.66	92.38
496.877	92.38
497.094	93.38
497.312	86.38
497.529	87.38
497.746	98.38
497.963	98.38
498.181	101.38
498.398	103.38
498.615	121.38
498.832	121.38
499.049	111.38
499.267	94.38
499.484	95.38
499.701	109.38
499.918	89.38
500.135	82.38
500.352	95.38
500.569	104.38
500.786	86.38
501.003	92.38
501.22	81.38
501.437	93.38
501.654	100.38
501.871	119.38
502.088	106.38
502.305	92.38
502.522	94.38
502.739	85.38
502.956	95.38
503.172	105.38
503.389	109.38
503.606	136.38
503.823	110.38
504.04	98.38
504.256	93.38
504.473	97.38
504.69	93.38
504.907	103.38
505.123	80.38
505.34	102.38
505.557	79.38
505.773	84.38
505.99	98.38
506.207	87.38
506.423	83.38
506.64	74.38
506.856	92.38
507.073	92.38
507.289	95.38
507.506	111.38
507.722	133.38
507.939	121.38
508.155	110.38
508.372	96.38
508.588	89.38
508.805	101.38
509.021	104.38
509.238	117.38
509.454	120.38
509.67	108.38
509.887	118.38
510.103	154.38
510.319	284.38
510.536	1072.38
510.752	4026.38
510.968	1041.38
511.184	200.38
511.401	129.38
511.617	116.38
511.833	121.38
