Data from Circ_1999_H10_HRD10591_00039.txt Node
Date: Wed Jan 03 11:23:20 EST 2024
User: Yrep
Spectrometer: HR+D1059
Trigger mode: 1
Integration Time (sec): 1.000000E-1
Scans to average: 1
Electric dark correction enabled: true
Nonlinearity correction enabled: false
Boxcar width: 0
XAxis mode: Wavelengths
Number of Pixels in Spectrum: 2048
>>>>>Begin Spectral Data<<<<<
223.165	-9.81
223.4	-9.81
223.635	-9.81
223.869	-12.81
224.104	-26.81
224.338	-5.81
224.573	-22.81
224.808	-11.81
225.042	-2.81
225.277	8.19
225.511	-3.81
225.746	-3.81
225.98	13.19
226.215	8.19
226.449	10.19
226.683	15.19
226.918	24.19
227.152	21.19
227.387	34.19
227.621	38.19
227.856	44.19
228.09	40.19
228.324	46.19
228.559	47.19
228.793	59.19
229.027	71.19
229.262	78.19
229.496	85.19
229.73	97.19
229.964	118.19
230.199	78.19
230.433	80.19
230.667	86.19
230.901	84.19
231.136	84.19
231.37	72.19
231.604	71.19
231.838	88.19
232.072	89.19
232.306	89.19
232.541	85.19
232.775	80.19
233.009	81.19
233.243	85.19
233.477	76.19
233.711	80.19
233.945	85.19
234.179	90.19
234.413	92.19
234.647	88.19
234.881	76.19
235.115	105.19
235.349	82.19
235.583	90.19
235.817	79.19
236.051	77.19
236.285	81.19
236.519	101.19
236.753	95.19
236.987	98.19
237.221	79.19
237.455	96.19
237.689	77.19
237.922	76.19
238.156	91.19
238.39	85.19
238.624	72.19
238.858	79.19
239.091	74.19
239.325	94.19
239.559	83.19
239.793	84.19
240.027	70.19
240.26	75.19
240.494	86.19
240.728	83.19
240.961	81.19
241.195	90.19
241.429	88.19
241.662	89.19
241.896	75.19
242.13	81.19
242.363	72.19
242.597	81.19
242.83	68.19
243.064	83.19
243.298	70.19
243.531	90.19
243.765	82.19
243.998	76.19
244.232	84.19
244.465	93.19
244.699	90.19
244.932	88.19
245.166	74.19
245.399	83.19
245.633	74.19
245.866	81.19
246.099	72.19
246.333	84.19
246.566	74.19
246.8	86.19
247.033	87.19
247.266	78.19
247.5	90.19
247.733	74.19
247.966	73.19
248.2	84.19
248.433	77.19
248.666	73.19
248.899	93.19
249.133	97.19
249.366	120.19
249.599	110.19
249.832	88.19
250.066	89.19
250.299	88.19
250.532	101.19
250.765	76.19
250.998	86.19
251.231	88.19
251.465	70.19
251.698	79.19
251.931	81.19
252.164	84.19
252.397	71.19
252.63	74.19
252.863	86.19
253.096	87.19
253.329	75.19
253.562	79.19
253.795	73.19
254.028	80.19
254.261	82.19
254.494	78.19
254.727	82.19
254.96	93.19
255.193	85.19
255.426	74.19
255.659	93.19
255.892	109.19
256.124	95.19
256.357	83.19
256.59	93.19
256.823	79.19
257.056	90.19
257.289	97.19
257.521	96.19
257.754	97.19
257.987	81.19
258.22	87.19
258.452	104.19
258.685	104.19
258.918	76.19
259.151	89.19
259.383	80.19
259.616	77.19
259.849	83.19
260.081	94.19
260.314	103.19
260.547	108.19
260.779	112.19
261.012	127.19
261.244	130.19
261.477	103.19
261.71	127.19
261.942	184.19
262.175	191.19
262.407	103.19
262.64	77.19
262.872	81.19
263.105	78.19
263.337	85.19
263.57	97.19
263.802	96.19
264.035	84.19
264.267	84.19
264.499	79.19
264.732	81.19
264.964	86.19
265.197	78.19
265.429	78.19
265.661	77.19
265.894	81.19
266.126	93.19
266.358	92.19
266.591	91.19
266.823	79.19
267.055	81.19
267.287	102.19
267.52	82.19
267.752	73.19
267.984	92.19
268.216	85.19
268.448	100.19
268.681	90.19
268.913	85.19
269.145	98.19
269.377	74.19
269.609	98.19
269.841	88.19
270.073	86.19
270.306	77.19
270.538	72.19
270.77	83.19
271.002	85.19
271.234	92.19
271.466	90.19
271.698	103.19
271.93	89.19
272.162	98.19
272.394	95.19
272.626	92.19
272.858	91.19
273.09	97.19
273.322	114.19
273.553	84.19
273.785	94.19
274.017	94.19
274.249	82.19
274.481	88.19
274.713	91.19
274.945	94.19
275.176	99.19
275.408	109.19
275.64	116.19
275.872	138.19
276.104	118.19
276.335	92.19
276.567	137.19
276.799	180.19
277.031	212.19
277.262	242.19
277.494	173.19
277.726	114.19
277.957	89.19
278.189	100.19
278.421	106.19
278.652	100.19
278.884	101.19
279.115	88.19
279.347	89.19
279.579	116.19
279.81	159.19
280.042	226.19
280.273	321.19
280.505	196.19
280.736	125.19
280.968	94.19
281.199	101.19
281.431	96.19
281.662	89.19
281.894	95.19
282.125	112.19
282.356	172.19
282.588	236.19
282.819	175.19
283.051	100.19
283.282	98.19
283.513	91.19
283.745	86.19
283.976	80.19
284.207	94.19
284.439	96.19
284.67	77.19
284.901	83.19
285.132	86.19
285.364	85.19
285.595	94.19
285.826	84.19
286.057	112.19
286.288	86.19
286.52	93.19
286.751	88.19
286.982	89.19
287.213	104.19
287.444	92.19
287.675	98.19
287.906	88.19
288.138	110.19
288.369	102.19
288.6	110.19
288.831	92.19
289.062	81.19
289.293	100.19
289.524	89.19
289.755	94.19
289.986	78.19
290.217	89.19
290.448	89.19
290.679	84.19
290.91	92.19
291.141	102.19
291.371	96.19
291.602	90.19
291.833	116.19
292.064	97.19
292.295	96.19
292.526	94.19
292.757	102.19
292.987	85.19
293.218	86.19
293.449	85.19
293.68	86.19
293.91	83.19
294.141	95.19
294.372	80.19
294.603	78.19
294.833	101.19
295.064	93.19
295.295	102.19
295.525	98.19
295.756	124.19
295.987	151.19
296.217	213.19
296.448	186.19
296.679	108.19
296.909	85.19
297.14	84.19
297.37	94.19
297.601	99.19
297.831	96.19
298.062	97.19
298.292	100.19
298.523	102.19
298.753	98.19
298.984	78.19
299.214	84.19
299.445	110.19
299.675	100.19
299.905	111.19
300.136	98.19
300.366	87.19
300.597	97.19
300.827	105.19
301.057	112.19
301.288	137.19
301.518	108.19
301.748	93.19
301.979	124.19
302.209	120.19
302.439	105.19
302.669	101.19
302.9	94.19
303.13	106.19
303.36	111.19
303.59	159.19
303.82	184.19
304.051	127.19
304.281	96.19
304.511	89.19
304.741	82.19
304.971	89.19
305.201	101.19
305.431	82.19
305.661	89.19
305.891	84.19
306.121	111.19
306.352	126.19
306.582	144.19
306.812	105.19
307.042	139.19
307.272	176.19
307.502	212.19
307.731	212.19
307.961	160.19
308.191	103.19
308.421	91.19
308.651	100.19
308.881	87.19
309.111	105.19
309.341	98.19
309.571	113.19
309.8	115.19
310.03	105.19
310.26	124.19
310.49	119.19
310.72	129.19
310.949	144.19
311.179	116.19
311.409	116.19
311.639	111.19
311.868	95.19
312.098	110.19
312.328	120.19
312.557	134.19
312.787	153.19
313.017	125.19
313.246	98.19
313.476	90.19
313.706	104.19
313.935	110.19
314.165	140.19
314.394	132.19
314.624	123.19
314.853	116.19
315.083	103.19
315.312	93.19
315.542	108.19
315.771	108.19
316.001	100.19
316.23	93.19
316.46	104.19
316.689	94.19
316.919	105.19
317.148	99.19
317.377	111.19
317.607	120.19
317.836	109.19
318.065	95.19
318.295	102.19
318.524	96.19
318.753	96.19
318.983	105.19
319.212	120.19
319.441	133.19
319.67	133.19
319.9	108.19
320.129	101.19
320.358	104.19
320.587	115.19
320.816	109.19
321.046	113.19
321.275	113.19
321.504	101.19
321.733	107.19
321.962	118.19
322.191	120.19
322.42	124.19
322.649	144.19
322.878	149.19
323.108	144.19
323.337	159.19
323.566	169.19
323.795	221.19
324.024	301.19
324.253	563.19
324.482	1233.19
324.71	2534.19
324.939	3354.19
325.168	1245.19
325.397	355.19
325.626	206.19
325.855	164.19
326.084	159.19
326.313	164.19
326.542	192.19
326.77	307.19
326.999	624.19
327.228	1235.19
327.457	2298.19
327.686	1870.19
327.914	698.19
328.143	703.19
328.372	896.19
328.6	476.19
328.829	235.19
329.058	258.19
329.287	261.19
329.515	218.19
329.744	328.19
329.972	616.19
330.201	1302.19
330.43	1928.19
330.658	825.19
330.887	392.19
331.115	260.19
331.344	162.19
331.572	141.19
331.801	161.19
332.03	152.19
332.258	121.19
332.486	121.19
332.715	101.19
332.943	134.19
333.172	137.19
333.4	153.19
333.629	203.19
333.857	277.19
334.085	553.19
334.314	1196.19
334.542	2369.19
334.771	2225.19
334.999	558.19
335.227	208.19
335.455	148.19
335.684	116.19
335.912	108.19
336.14	124.19
336.369	137.19
336.597	127.19
336.825	117.19
337.053	97.19
337.281	109.19
337.51	105.19
337.738	120.19
337.966	117.19
338.194	108.19
338.422	122.19
338.65	104.19
338.878	102.19
339.106	104.19
339.334	93.19
339.562	93.19
339.79	88.19
340.018	106.19
340.246	111.19
340.474	110.19
340.702	119.19
340.93	102.19
341.158	100.19
341.386	119.19
341.614	124.19
341.842	97.19
342.07	88.19
342.298	105.19
342.526	98.19
342.754	89.19
342.981	86.19
343.209	89.19
343.437	110.19
343.665	99.19
343.893	97.19
344.12	93.19
344.348	93.19
344.576	88.19
344.804	103.19
345.031	115.19
345.259	111.19
345.487	110.19
345.714	104.19
345.942	111.19
346.17	108.19
346.397	105.19
346.625	108.19
346.853	97.19
347.08	92.19
347.308	100.19
347.535	104.19
347.763	115.19
347.99	116.19
348.218	120.19
348.445	133.19
348.673	115.19
348.9	104.19
349.128	111.19
349.355	79.19
349.583	99.19
349.81	99.19
350.037	97.19
350.265	113.19
350.492	95.19
350.72	103.19
350.947	109.19
351.174	133.19
351.402	139.19
351.629	133.19
351.856	122.19
352.083	122.19
352.311	136.19
352.538	152.19
352.765	138.19
352.992	126.19
353.22	129.19
353.447	117.19
353.674	110.19
353.901	88.19
354.128	98.19
354.355	84.19
354.583	101.19
354.81	101.19
355.037	92.19
355.264	99.19
355.491	86.19
355.718	92.19
355.945	89.19
356.172	98.19
356.399	93.19
356.626	92.19
356.853	107.19
357.08	90.19
357.307	82.19
357.534	112.19
357.761	92.19
357.988	93.19
358.215	89.19
358.441	86.19
358.668	89.19
358.895	94.19
359.122	89.19
359.349	103.19
359.576	101.19
359.802	128.19
360.029	173.19
360.256	180.19
360.483	137.19
360.709	112.19
360.936	102.19
361.163	101.19
361.39	118.19
361.616	124.19
361.843	96.19
362.07	120.19
362.296	127.19
362.523	107.19
362.749	86.19
362.976	86.19
363.203	119.19
363.429	93.19
363.656	85.19
363.882	94.19
364.109	103.19
364.335	103.19
364.562	95.19
364.788	104.19
365.015	91.19
365.241	111.19
365.468	146.19
365.694	144.19
365.92	113.19
366.147	102.19
366.373	106.19
366.599	106.19
366.826	93.19
367.052	98.19
367.278	93.19
367.505	106.19
367.731	98.19
367.957	89.19
368.184	106.19
368.41	116.19
368.636	141.19
368.862	168.19
369.089	125.19
369.315	102.19
369.541	101.19
369.767	115.19
369.993	103.19
370.219	114.19
370.445	101.19
370.672	89.19
370.898	77.19
371.124	87.19
371.35	93.19
371.576	94.19
371.802	97.19
372.028	89.19
372.254	89.19
372.48	98.19
372.706	93.19
372.932	75.19
373.158	92.19
373.384	103.19
373.61	91.19
373.835	94.19
374.061	90.19
374.287	104.19
374.513	89.19
374.739	89.19
374.965	108.19
375.191	88.19
375.416	108.19
375.642	91.19
375.868	99.19
376.094	93.19
376.319	98.19
376.545	89.19
376.771	84.19
376.997	102.19
377.222	96.19
377.448	98.19
377.674	82.19
377.899	94.19
378.125	94.19
378.35	86.19
378.576	92.19
378.802	106.19
379.027	102.19
379.253	90.19
379.478	93.19
379.704	88.19
379.929	95.19
380.155	99.19
380.38	100.19
380.606	97.19
380.831	102.19
381.057	108.19
381.282	102.19
381.507	98.19
381.733	98.19
381.958	83.19
382.184	93.19
382.409	116.19
382.634	108.19
382.86	88.19
383.085	98.19
383.31	103.19
383.535	91.19
383.761	100.19
383.986	104.19
384.211	101.19
384.436	107.19
384.662	88.19
384.887	99.19
385.112	104.19
385.337	102.19
385.562	113.19
385.787	111.19
386.013	113.19
386.238	138.19
386.463	120.19
386.688	111.19
386.913	94.19
387.138	107.19
387.363	103.19
387.588	108.19
387.813	96.19
388.038	106.19
388.263	116.19
388.488	110.19
388.713	94.19
388.938	99.19
389.163	98.19
389.387	94.19
389.612	103.19
389.837	100.19
390.062	74.19
390.287	90.19
390.512	112.19
390.736	77.19
390.961	81.19
391.186	98.19
391.411	86.19
391.636	80.19
391.86	88.19
392.085	78.19
392.31	84.19
392.534	93.19
392.759	95.19
392.984	78.19
393.208	71.19
393.433	97.19
393.658	101.19
393.882	80.19
394.107	94.19
394.331	91.19
394.556	101.19
394.78	90.19
395.005	85.19
395.229	90.19
395.454	81.19
395.678	98.19
395.903	95.19
396.127	86.19
396.352	95.19
396.576	95.19
396.801	90.19
397.025	85.19
397.249	87.19
397.474	89.19
397.698	97.19
397.922	90.19
398.147	96.19
398.371	80.19
398.595	90.19
398.82	92.19
399.044	84.19
399.268	105.19
399.492	96.19
399.717	87.19
399.941	103.19
400.165	102.19
400.389	107.19
400.613	104.19
400.837	99.19
401.062	92.19
401.286	102.19
401.51	90.19
401.734	102.19
401.958	123.19
402.182	174.19
402.406	269.19
402.63	191.19
402.854	120.19
403.078	95.19
403.302	99.19
403.526	88.19
403.75	95.19
403.974	101.19
404.198	100.19
404.422	86.19
404.645	96.19
404.869	110.19
405.093	128.19
405.317	152.19
405.541	167.19
405.765	130.19
405.988	173.19
406.212	310.19
406.436	466.19
406.66	281.19
406.883	160.19
407.107	116.19
407.331	123.19
407.555	127.19
407.778	108.19
408.002	105.19
408.226	102.19
408.449	98.19
408.673	90.19
408.896	91.19
409.12	92.19
409.344	99.19
409.567	107.19
409.791	94.19
410.014	95.19
410.238	100.19
410.461	98.19
410.685	97.19
410.908	87.19
411.132	107.19
411.355	96.19
411.578	104.19
411.802	93.19
412.025	84.19
412.249	114.19
412.472	130.19
412.695	123.19
412.919	100.19
413.142	85.19
413.365	88.19
413.589	106.19
413.812	82.19
414.035	107.19
414.258	107.19
414.482	98.19
414.705	96.19
414.928	90.19
415.151	101.19
415.374	102.19
415.597	82.19
415.821	101.19
416.044	91.19
416.267	87.19
416.49	93.19
416.713	91.19
416.936	97.19
417.159	88.19
417.382	93.19
417.605	111.19
417.828	117.19
418.051	111.19
418.274	87.19
418.497	81.19
418.72	90.19
418.943	89.19
419.166	94.19
419.389	81.19
419.611	92.19
419.834	106.19
420.057	82.19
420.28	91.19
420.503	103.19
420.726	93.19
420.948	102.19
421.171	114.19
421.394	90.19
421.617	107.19
421.839	96.19
422.062	97.19
422.285	104.19
422.507	113.19
422.73	108.19
422.953	88.19
423.175	95.19
423.398	89.19
423.621	105.19
423.843	85.19
424.066	75.19
424.288	83.19
424.511	101.19
424.733	108.19
424.956	132.19
425.178	138.19
425.401	101.19
425.623	113.19
425.846	97.19
426.068	97.19
426.291	111.19
426.513	79.19
426.735	90.19
426.958	89.19
427.18	137.19
427.402	189.19
427.625	314.19
427.847	309.19
428.069	240.19
428.292	133.19
428.514	106.19
428.736	96.19
428.958	98.19
429.181	89.19
429.403	87.19
429.625	97.19
429.847	109.19
430.069	130.19
430.292	98.19
430.514	96.19
430.736	79.19
430.958	68.19
431.18	86.19
431.402	95.19
431.624	101.19
431.846	80.19
432.068	97.19
432.29	79.19
432.512	96.19
432.734	89.19
432.956	95.19
433.178	90.19
433.4	100.19
433.622	90.19
433.844	96.19
434.066	102.19
434.287	95.19
434.509	85.19
434.731	89.19
434.953	86.19
435.175	88.19
435.397	102.19
435.618	94.19
435.84	120.19
436.062	136.19
436.284	144.19
436.505	121.19
436.727	96.19
436.949	86.19
437.17	88.19
437.392	89.19
437.614	111.19
437.835	160.19
438.057	194.19
438.278	154.19
438.5	118.19
438.721	136.19
438.943	110.19
439.165	94.19
439.386	83.19
439.608	93.19
439.829	119.19
440.05	175.19
440.272	218.19
440.493	124.19
440.715	90.19
440.936	95.19
441.158	88.19
441.379	85.19
441.6	118.19
441.822	103.19
442.043	107.19
442.264	125.19
442.486	124.19
442.707	99.19
442.928	138.19
443.149	206.19
443.371	210.19
443.592	157.19
443.813	127.19
444.034	140.19
444.255	104.19
444.476	89.19
444.698	89.19
444.919	95.19
445.14	156.19
445.361	138.19
445.582	150.19
445.803	208.19
446.024	206.19
446.245	166.19
446.466	125.19
446.687	104.19
446.908	97.19
447.129	97.19
447.35	115.19
447.571	105.19
447.792	116.19
448.013	133.19
448.234	150.19
448.455	108.19
448.675	152.19
448.896	146.19
449.117	118.19
449.338	132.19
449.559	137.19
449.779	154.19
450	103.19
450.221	84.19
450.442	106.19
450.662	113.19
450.883	159.19
451.104	172.19
451.324	122.19
451.545	98.19
451.766	92.19
451.986	90.19
452.207	98.19
452.428	116.19
452.648	123.19
452.869	162.19
453.089	173.19
453.31	170.19
453.53	111.19
453.751	114.19
453.971	127.19
454.192	174.19
454.412	127.19
454.633	86.19
454.853	89.19
455.073	85.19
455.294	90.19
455.514	112.19
455.734	91.19
455.955	102.19
456.175	103.19
456.395	88.19
456.616	82.19
456.836	84.19
457.056	89.19
457.276	85.19
457.497	95.19
457.717	94.19
457.937	92.19
458.157	97.19
458.377	100.19
458.598	166.19
458.818	288.19
459.038	318.19
459.258	182.19
459.478	105.19
459.698	111.19
459.918	102.19
460.138	76.19
460.358	86.19
460.578	85.19
460.798	106.19
461.018	98.19
461.238	77.19
461.458	89.19
461.678	81.19
461.898	75.19
462.118	95.19
462.338	78.19
462.558	77.19
462.777	94.19
462.997	85.19
463.217	118.19
463.437	106.19
463.657	104.19
463.876	95.19
464.096	98.19
464.316	107.19
464.536	120.19
464.755	113.19
464.975	167.19
465.195	343.19
465.414	333.19
465.634	119.19
465.854	98.19
466.073	97.19
466.293	91.19
466.512	85.19
466.732	95.19
466.951	106.19
467.171	107.19
467.391	128.19
467.61	197.19
467.829	268.19
468.049	759.19
468.268	1167.19
468.488	276.19
468.707	128.19
468.927	106.19
469.146	107.19
469.365	86.19
469.585	109.19
469.804	111.19
470.023	124.19
470.243	106.19
470.462	126.19
470.681	168.19
470.901	124.19
471.12	107.19
471.339	124.19
471.558	124.19
471.777	190.19
471.997	382.19
472.216	1527.19
472.435	3461.19
472.654	762.19
472.873	192.19
473.092	132.19
473.311	105.19
473.53	91.19
473.749	94.19
473.968	101.19
474.187	144.19
474.406	132.19
474.625	105.19
474.844	93.19
475.063	85.19
475.282	88.19
475.501	98.19
475.72	103.19
475.939	91.19
476.158	95.19
476.377	107.19
476.596	100.19
476.814	98.19
477.033	120.19
477.252	107.19
477.471	96.19
477.69	97.19
477.908	112.19
478.127	102.19
478.346	105.19
478.564	89.19
478.783	107.19
479.002	123.19
479.22	121.19
479.439	162.19
479.658	159.19
479.876	145.19
480.095	148.19
480.313	161.19
480.532	194.19
480.751	351.19
480.969	1348.19
481.188	5882.19
481.406	3302.19
481.624	465.19
481.843	149.19
482.061	114.19
482.28	117.19
482.498	96.19
482.717	93.19
482.935	102.19
483.153	89.19
483.372	81.19
483.59	79.19
483.808	82.19
484.027	85.19
484.245	96.19
484.463	113.19
484.681	100.19
484.9	107.19
485.118	98.19
485.336	88.19
485.554	108.19
485.772	95.19
485.99	108.19
486.209	123.19
486.427	117.19
486.645	137.19
486.863	152.19
487.081	117.19
487.299	87.19
487.517	104.19
487.735	107.19
487.953	80.19
488.171	93.19
488.389	112.19
488.607	115.19
488.825	100.19
489.043	90.19
489.261	88.19
489.479	81.19
489.696	92.19
489.914	92.19
490.132	86.19
490.35	106.19
490.568	88.19
490.786	84.19
491.003	95.19
491.221	98.19
491.439	91.19
491.657	95.19
491.874	112.19
492.092	94.19
492.31	87.19
492.527	103.19
492.745	101.19
492.963	101.19
493.18	92.19
493.398	103.19
493.615	103.19
493.833	97.19
494.05	98.19
494.268	101.19
494.485	100.19
494.703	97.19
494.92	97.19
495.138	86.19
495.355	86.19
495.573	111.19
495.79	63.19
496.008	91.19
496.225	101.19
496.442	81.19
496.66	81.19
496.877	96.19
497.094	101.19
497.312	104.19
497.529	85.19
497.746	105.19
497.963	94.19
498.181	115.19
498.398	96.19
498.615	122.19
498.832	111.19
499.049	89.19
499.267	109.19
499.484	95.19
499.701	95.19
499.918	85.19
500.135	88.19
500.352	93.19
500.569	91.19
500.786	102.19
501.003	89.19
501.22	88.19
501.437	90.19
501.654	116.19
501.871	146.19
502.088	104.19
502.305	88.19
502.522	102.19
502.739	91.19
502.956	93.19
503.172	101.19
503.389	97.19
503.606	137.19
503.823	108.19
504.04	107.19
504.256	90.19
504.473	88.19
504.69	93.19
504.907	94.19
505.123	105.19
505.34	90.19
505.557	95.19
505.773	83.19
505.99	81.19
506.207	92.19
506.423	93.19
506.64	108.19
506.856	103.19
507.073	90.19
507.289	113.19
507.506	117.19
507.722	161.19
507.939	168.19
508.155	112.19
508.372	92.19
508.588	110.19
508.805	104.19
509.021	110.19
509.238	106.19
509.454	106.19
509.67	103.19
509.887	125.19
510.103	178.19
510.319	335.19
510.536	1453.19
510.752	5300.19
510.968	1350.19
