Data from Circ_1999_H10_HRD10591_00034.txt Node
Date: Wed Jan 03 11:23:19 EST 2024
User: Yrep
Spectrometer: HR+D1059
Trigger mode: 1
Integration Time (sec): 1.000000E-1
Scans to average: 1
Electric dark correction enabled: true
Nonlinearity correction enabled: false
Boxcar width: 0
XAxis mode: Wavelengths
Number of Pixels in Spectrum: 2048
>>>>>Begin Spectral Data<<<<<
223.165	-30.62
223.4	-30.62
223.635	-30.62
223.869	-15.62
224.104	-10.62
224.338	-13.62
224.573	-12.62
224.808	-10.62
225.042	-9.62
225.277	-10.62
225.511	-6.62
225.746	20.38
225.98	4.38
226.215	11.38
226.449	5.38
226.683	30.38
226.918	23.38
227.152	25.38
227.387	35.38
227.621	35.38
227.856	48.38
228.09	53.38
228.324	47.38
228.559	56.38
228.793	58.38
229.027	61.38
229.262	75.38
229.496	88.38
229.73	122.38
229.964	108.38
230.199	70.38
230.433	68.38
230.667	83.38
230.901	91.38
231.136	80.38
231.37	75.38
231.604	89.38
231.838	83.38
232.072	85.38
232.306	84.38
232.541	72.38
232.775	85.38
233.009	92.38
233.243	76.38
233.477	67.38
233.711	74.38
233.945	78.38
234.179	79.38
234.413	87.38
234.647	85.38
234.881	86.38
235.115	92.38
235.349	91.38
235.583	78.38
235.817	83.38
236.051	78.38
236.285	73.38
236.519	89.38
236.753	80.38
236.987	92.38
237.221	103.38
237.455	104.38
237.689	81.38
237.922	72.38
238.156	78.38
238.39	83.38
238.624	89.38
238.858	91.38
239.091	67.38
239.325	93.38
239.559	100.38
239.793	99.38
240.027	88.38
240.26	71.38
240.494	77.38
240.728	78.38
240.961	75.38
241.195	78.38
241.429	78.38
241.662	82.38
241.896	76.38
242.13	84.38
242.363	90.38
242.597	77.38
242.83	74.38
243.064	85.38
243.298	83.38
243.531	86.38
243.765	77.38
243.998	69.38
244.232	77.38
244.465	77.38
244.699	91.38
244.932	73.38
245.166	79.38
245.399	63.38
245.633	71.38
245.866	77.38
246.099	88.38
246.333	82.38
246.566	92.38
246.8	81.38
247.033	82.38
247.266	63.38
247.5	77.38
247.733	86.38
247.966	96.38
248.2	79.38
248.433	74.38
248.666	64.38
248.899	102.38
249.133	88.38
249.366	111.38
249.599	138.38
249.832	95.38
250.066	78.38
250.299	94.38
250.532	104.38
250.765	97.38
250.998	83.38
251.231	81.38
251.465	90.38
251.698	70.38
251.931	79.38
252.164	96.38
252.397	73.38
252.63	75.38
252.863	95.38
253.096	81.38
253.329	86.38
253.562	86.38
253.795	82.38
254.028	88.38
254.261	80.38
254.494	88.38
254.727	89.38
254.96	67.38
255.193	83.38
255.426	76.38
255.659	83.38
255.892	101.38
256.124	113.38
256.357	96.38
256.59	87.38
256.823	70.38
257.056	88.38
257.289	93.38
257.521	85.38
257.754	76.38
257.987	89.38
258.22	91.38
258.452	102.38
258.685	108.38
258.918	86.38
259.151	100.38
259.383	85.38
259.616	80.38
259.849	94.38
260.081	86.38
260.314	88.38
260.547	87.38
260.779	97.38
261.012	113.38
261.244	122.38
261.477	109.38
261.71	103.38
261.942	150.38
262.175	179.38
262.407	110.38
262.64	73.38
262.872	105.38
263.105	85.38
263.337	99.38
263.57	84.38
263.802	73.38
264.035	79.38
264.267	76.38
264.499	91.38
264.732	83.38
264.964	86.38
265.197	81.38
265.429	88.38
265.661	92.38
265.894	76.38
266.126	84.38
266.358	99.38
266.591	92.38
266.823	87.38
267.055	77.38
267.287	80.38
267.52	101.38
267.752	96.38
267.984	98.38
268.216	75.38
268.448	93.38
268.681	91.38
268.913	85.38
269.145	79.38
269.377	92.38
269.609	71.38
269.841	95.38
270.073	89.38
270.306	91.38
270.538	84.38
270.77	82.38
271.002	89.38
271.234	92.38
271.466	86.38
271.698	107.38
271.93	107.38
272.162	91.38
272.394	89.38
272.626	104.38
272.858	97.38
273.09	85.38
273.322	88.38
273.553	79.38
273.785	76.38
274.017	77.38
274.249	81.38
274.481	98.38
274.713	99.38
274.945	96.38
275.176	98.38
275.408	119.38
275.64	131.38
275.872	156.38
276.104	122.38
276.335	118.38
276.567	143.38
276.799	198.38
277.031	241.38
277.262	255.38
277.494	172.38
277.726	96.38
277.957	103.38
278.189	83.38
278.421	95.38
278.652	99.38
278.884	109.38
279.115	83.38
279.347	97.38
279.579	124.38
279.81	167.38
280.042	259.38
280.273	361.38
280.505	263.38
280.736	128.38
280.968	94.38
281.199	101.38
281.431	95.38
281.662	84.38
281.894	88.38
282.125	119.38
282.356	164.38
282.588	220.38
282.819	159.38
283.051	108.38
283.282	96.38
283.513	83.38
283.745	85.38
283.976	83.38
284.207	89.38
284.439	81.38
284.67	89.38
284.901	84.38
285.132	76.38
285.364	81.38
285.595	83.38
285.826	69.38
286.057	94.38
286.288	79.38
286.52	74.38
286.751	81.38
286.982	94.38
287.213	86.38
287.444	92.38
287.675	83.38
287.906	91.38
288.138	90.38
288.369	103.38
288.6	104.38
288.831	91.38
289.062	96.38
289.293	91.38
289.524	98.38
289.755	101.38
289.986	97.38
290.217	83.38
290.448	96.38
290.679	99.38
290.91	91.38
291.141	76.38
291.371	84.38
291.602	95.38
291.833	87.38
292.064	88.38
292.295	98.38
292.526	103.38
292.757	102.38
292.987	90.38
293.218	99.38
293.449	84.38
293.68	81.38
293.91	87.38
294.141	72.38
294.372	87.38
294.603	79.38
294.833	88.38
295.064	89.38
295.295	83.38
295.525	92.38
295.756	104.38
295.987	158.38
296.217	211.38
296.448	173.38
296.679	101.38
296.909	103.38
297.14	92.38
297.37	94.38
297.601	90.38
297.831	101.38
298.062	114.38
298.292	97.38
298.523	83.38
298.753	88.38
298.984	94.38
299.214	94.38
299.445	88.38
299.675	103.38
299.905	104.38
300.136	98.38
300.366	84.38
300.597	105.38
300.827	109.38
301.057	118.38
301.288	114.38
301.518	108.38
301.748	110.38
301.979	118.38
302.209	110.38
302.439	117.38
302.669	104.38
302.9	85.38
303.13	106.38
303.36	133.38
303.59	170.38
303.82	182.38
304.051	106.38
304.281	104.38
304.511	101.38
304.741	90.38
304.971	108.38
305.201	99.38
305.431	97.38
305.661	92.38
305.891	80.38
306.121	116.38
306.352	132.38
306.582	142.38
306.812	115.38
307.042	147.38
307.272	199.38
307.502	245.38
307.731	222.38
307.961	148.38
308.191	103.38
308.421	91.38
308.651	101.38
308.881	101.38
309.111	101.38
309.341	120.38
309.571	123.38
309.8	112.38
310.03	115.38
310.26	104.38
310.49	100.38
310.72	128.38
310.949	151.38
311.179	155.38
311.409	102.38
311.639	106.38
311.868	116.38
312.098	111.38
312.328	116.38
312.557	140.38
312.787	163.38
313.017	124.38
313.246	97.38
313.476	85.38
313.706	97.38
313.935	103.38
314.165	125.38
314.394	122.38
314.624	132.38
314.853	118.38
315.083	113.38
315.312	110.38
315.542	89.38
315.771	90.38
316.001	80.38
316.23	98.38
316.46	79.38
316.689	103.38
316.919	103.38
317.148	118.38
317.377	110.38
317.607	112.38
317.836	100.38
318.065	101.38
318.295	101.38
318.524	97.38
318.753	96.38
318.983	109.38
319.212	128.38
319.441	130.38
319.67	135.38
319.9	102.38
320.129	95.38
320.358	107.38
320.587	96.38
320.816	124.38
321.046	125.38
321.275	140.38
321.504	103.38
321.733	117.38
321.962	127.38
322.191	121.38
322.42	138.38
322.649	145.38
322.878	137.38
323.108	150.38
323.337	184.38
323.566	201.38
323.795	232.38
324.024	326.38
324.253	675.38
324.482	1522.38
324.71	3160.38
324.939	4165.38
325.168	1448.38
325.397	407.38
325.626	202.38
325.855	186.38
326.084	174.38
326.313	184.38
326.542	210.38
326.77	345.38
326.999	729.38
327.228	1555.38
327.457	2837.38
327.686	2283.38
327.914	777.38
328.143	837.38
328.372	1009.38
328.6	551.38
328.829	264.38
329.058	291.38
329.287	278.38
329.515	261.38
329.744	357.38
329.972	742.38
330.201	1586.38
330.43	2272.38
330.658	991.38
330.887	449.38
331.115	271.38
331.344	155.38
331.572	153.38
331.801	158.38
332.03	148.38
332.258	134.38
332.486	132.38
332.715	131.38
332.943	140.38
333.172	150.38
333.4	171.38
333.629	211.38
333.857	340.38
334.085	641.38
334.314	1433.38
334.542	2841.38
334.771	2533.38
334.999	644.38
335.227	228.38
335.455	152.38
335.684	134.38
335.912	136.38
336.14	121.38
336.369	137.38
336.597	139.38
336.825	112.38
337.053	97.38
337.281	89.38
337.51	113.38
337.738	96.38
337.966	109.38
338.194	131.38
338.422	111.38
338.65	99.38
338.878	99.38
339.106	97.38
339.334	107.38
339.562	118.38
339.79	106.38
340.018	104.38
340.246	110.38
340.474	115.38
340.702	116.38
340.93	101.38
341.158	116.38
341.386	124.38
341.614	127.38
341.842	118.38
342.07	115.38
342.298	104.38
342.526	94.38
342.754	103.38
342.981	107.38
343.209	89.38
343.437	93.38
343.665	106.38
343.893	86.38
344.12	92.38
344.348	95.38
344.576	89.38
344.804	101.38
345.031	120.38
345.259	109.38
345.487	115.38
345.714	100.38
345.942	71.38
346.17	92.38
346.397	105.38
346.625	98.38
346.853	112.38
347.08	98.38
347.308	100.38
347.535	116.38
347.763	121.38
347.99	124.38
348.218	118.38
348.445	150.38
348.673	138.38
348.9	120.38
349.128	112.38
349.355	93.38
349.583	104.38
349.81	97.38
350.037	83.38
350.265	99.38
350.492	99.38
350.72	96.38
350.947	128.38
351.174	147.38
351.402	145.38
351.629	141.38
351.856	115.38
352.083	130.38
352.311	141.38
352.538	151.38
352.765	154.38
352.992	139.38
353.22	144.38
353.447	131.38
353.674	113.38
353.901	95.38
354.128	88.38
354.355	85.38
354.583	103.38
354.81	103.38
355.037	99.38
355.264	97.38
355.491	101.38
355.718	95.38
355.945	99.38
356.172	101.38
356.399	100.38
356.626	102.38
356.853	96.38
357.08	99.38
357.307	87.38
357.534	112.38
357.761	103.38
357.988	100.38
358.215	101.38
358.441	97.38
358.668	102.38
358.895	83.38
359.122	108.38
359.349	93.38
359.576	96.38
359.802	152.38
360.029	182.38
360.256	197.38
360.483	146.38
360.709	96.38
360.936	102.38
361.163	113.38
361.39	105.38
361.616	117.38
361.843	109.38
362.07	118.38
362.296	131.38
362.523	111.38
362.749	119.38
362.976	107.38
363.203	100.38
363.429	107.38
363.656	104.38
363.882	86.38
364.109	100.38
364.335	92.38
364.562	116.38
364.788	109.38
365.015	115.38
365.241	118.38
365.468	136.38
365.694	137.38
365.92	116.38
366.147	104.38
366.373	102.38
366.599	108.38
366.826	90.38
367.052	115.38
367.278	112.38
367.505	101.38
367.731	98.38
367.957	108.38
368.184	97.38
368.41	124.38
368.636	148.38
368.862	151.38
369.089	141.38
369.315	113.38
369.541	103.38
369.767	106.38
369.993	103.38
370.219	117.38
370.445	108.38
370.672	92.38
370.898	103.38
371.124	86.38
371.35	90.38
371.576	77.38
371.802	93.38
372.028	84.38
372.254	96.38
372.48	92.38
372.706	90.38
372.932	77.38
373.158	100.38
373.384	91.38
373.61	100.38
373.835	107.38
374.061	96.38
374.287	95.38
374.513	103.38
374.739	91.38
374.965	94.38
375.191	88.38
375.416	90.38
375.642	75.38
375.868	91.38
376.094	99.38
376.319	93.38
376.545	91.38
376.771	104.38
376.997	98.38
377.222	93.38
377.448	94.38
377.674	90.38
377.899	93.38
378.125	93.38
378.35	84.38
378.576	84.38
378.802	94.38
379.027	93.38
379.253	79.38
379.478	86.38
379.704	87.38
379.929	109.38
380.155	102.38
380.38	111.38
380.606	101.38
380.831	107.38
381.057	105.38
381.282	105.38
381.507	115.38
381.733	108.38
381.958	108.38
382.184	100.38
382.409	114.38
382.634	97.38
382.86	111.38
383.085	115.38
383.31	108.38
383.535	104.38
383.761	104.38
383.986	103.38
384.211	104.38
384.436	101.38
384.662	94.38
384.887	109.38
385.112	110.38
385.337	96.38
385.562	115.38
385.787	115.38
386.013	112.38
386.238	145.38
386.463	129.38
386.688	111.38
386.913	119.38
387.138	118.38
387.363	103.38
387.588	96.38
387.813	100.38
388.038	95.38
388.263	120.38
388.488	117.38
388.713	113.38
388.938	100.38
389.163	102.38
389.387	76.38
389.612	92.38
389.837	85.38
390.062	82.38
390.287	77.38
390.512	96.38
390.736	85.38
390.961	74.38
391.186	92.38
391.411	85.38
391.636	87.38
391.86	83.38
392.085	73.38
392.31	80.38
392.534	89.38
392.759	107.38
392.984	109.38
393.208	93.38
393.433	97.38
393.658	103.38
393.882	91.38
394.107	85.38
394.331	95.38
394.556	83.38
394.78	77.38
395.005	84.38
395.229	69.38
395.454	85.38
395.678	90.38
395.903	97.38
396.127	98.38
396.352	80.38
396.576	93.38
396.801	98.38
397.025	80.38
397.249	79.38
397.474	88.38
397.698	85.38
397.922	105.38
398.147	106.38
398.371	94.38
398.595	79.38
398.82	83.38
399.044	91.38
399.268	89.38
399.492	94.38
399.717	83.38
399.941	97.38
400.165	116.38
400.389	90.38
400.613	84.38
400.837	90.38
401.062	106.38
401.286	97.38
401.51	101.38
401.734	112.38
401.958	134.38
402.182	178.38
402.406	266.38
402.63	204.38
402.854	113.38
403.078	95.38
403.302	90.38
403.526	101.38
403.75	95.38
403.974	107.38
404.198	96.38
404.422	88.38
404.645	99.38
404.869	110.38
405.093	126.38
405.317	173.38
405.541	153.38
405.765	153.38
405.988	164.38
406.212	305.38
406.436	467.38
406.66	286.38
406.883	149.38
407.107	114.38
407.331	126.38
407.555	127.38
407.778	134.38
408.002	99.38
408.226	99.38
408.449	85.38
408.673	93.38
408.896	112.38
409.12	98.38
409.344	113.38
409.567	91.38
409.791	83.38
410.014	88.38
410.238	96.38
410.461	91.38
410.685	80.38
410.908	104.38
411.132	104.38
411.355	97.38
411.578	111.38
411.802	92.38
412.025	112.38
412.249	117.38
412.472	139.38
412.695	178.38
412.919	129.38
413.142	94.38
413.365	93.38
413.589	93.38
413.812	91.38
414.035	91.38
414.258	90.38
414.482	97.38
414.705	90.38
414.928	99.38
415.151	96.38
415.374	101.38
415.597	96.38
415.821	88.38
416.044	81.38
416.267	83.38
416.49	91.38
416.713	88.38
416.936	100.38
417.159	102.38
417.382	102.38
417.605	139.38
417.828	129.38
418.051	114.38
418.274	89.38
418.497	103.38
418.72	76.38
418.943	97.38
419.166	87.38
419.389	85.38
419.611	100.38
419.834	89.38
420.057	96.38
420.28	107.38
420.503	91.38
420.726	96.38
420.948	90.38
421.171	107.38
421.394	110.38
421.617	101.38
421.839	92.38
422.062	90.38
422.285	101.38
422.507	109.38
422.73	125.38
422.953	103.38
423.175	92.38
423.398	94.38
423.621	94.38
423.843	92.38
424.066	94.38
424.288	88.38
424.511	97.38
424.733	124.38
424.956	131.38
425.178	135.38
425.401	132.38
425.623	117.38
425.846	103.38
426.068	100.38
426.291	110.38
426.513	87.38
426.735	97.38
426.958	107.38
427.18	156.38
427.402	235.38
427.625	351.38
427.847	340.38
428.069	283.38
428.292	159.38
428.514	108.38
428.736	108.38
428.958	95.38
429.181	86.38
429.403	84.38
429.625	110.38
429.847	108.38
430.069	137.38
430.292	97.38
430.514	102.38
430.736	88.38
430.958	110.38
431.18	91.38
431.402	94.38
431.624	90.38
431.846	85.38
432.068	94.38
432.29	79.38
432.512	85.38
432.734	87.38
432.956	98.38
433.178	105.38
433.4	106.38
433.622	99.38
433.844	94.38
434.066	95.38
434.287	96.38
434.509	79.38
434.731	106.38
434.953	122.38
435.175	86.38
435.397	104.38
435.618	94.38
435.84	99.38
436.062	150.38
436.284	151.38
436.505	121.38
436.727	123.38
436.949	96.38
437.17	102.38
437.392	91.38
437.614	80.38
437.835	148.38
438.057	185.38
438.278	153.38
438.5	128.38
438.721	162.38
438.943	137.38
439.165	111.38
439.386	100.38
439.608	107.38
439.829	119.38
440.05	180.38
440.272	233.38
440.493	126.38
440.715	94.38
440.936	80.38
441.158	96.38
441.379	100.38
441.6	114.38
441.822	107.38
442.043	118.38
442.264	139.38
442.486	131.38
442.707	125.38
442.928	164.38
443.149	237.38
443.371	226.38
443.592	173.38
443.813	151.38
444.034	131.38
444.255	93.38
444.476	106.38
444.698	94.38
444.919	102.38
445.14	143.38
445.361	155.38
445.582	184.38
445.803	263.38
446.024	244.38
446.245	213.38
446.466	154.38
446.687	91.38
446.908	95.38
447.129	86.38
447.35	104.38
447.571	114.38
447.792	105.38
448.013	131.38
448.234	145.38
448.455	141.38
448.675	146.38
448.896	181.38
449.117	115.38
449.338	116.38
449.559	184.38
449.779	179.38
450	119.38
450.221	105.38
450.442	117.38
450.662	123.38
450.883	182.38
451.104	197.38
451.324	109.38
451.545	90.38
451.766	92.38
451.986	92.38
452.207	101.38
452.428	96.38
452.648	126.38
452.869	167.38
453.089	171.38
453.31	186.38
453.53	112.38
453.751	102.38
453.971	157.38
454.192	175.38
454.412	105.38
454.633	91.38
454.853	81.38
455.073	85.38
455.294	108.38
455.514	120.38
455.734	110.38
455.955	79.38
456.175	93.38
456.395	88.38
456.616	97.38
456.836	94.38
457.056	94.38
457.276	73.38
457.497	82.38
457.717	91.38
457.937	85.38
458.157	82.38
458.377	114.38
458.598	164.38
458.818	306.38
459.038	342.38
459.258	195.38
459.478	116.38
459.698	85.38
459.918	95.38
460.138	87.38
460.358	92.38
460.578	87.38
460.798	96.38
461.018	100.38
461.238	86.38
461.458	88.38
461.678	87.38
461.898	90.38
462.118	99.38
462.338	87.38
462.558	89.38
462.777	89.38
462.997	112.38
463.217	125.38
463.437	104.38
463.657	104.38
463.876	100.38
464.096	112.38
464.316	112.38
464.536	116.38
464.755	113.38
464.975	166.38
465.195	361.38
465.414	361.38
465.634	140.38
465.854	92.38
466.073	105.38
466.293	107.38
466.512	79.38
466.732	83.38
466.951	115.38
467.171	100.38
467.391	118.38
467.61	194.38
467.829	301.38
468.049	849.38
468.268	1303.38
468.488	307.38
468.707	127.38
468.927	115.38
469.146	87.38
469.365	88.38
469.585	97.38
469.804	123.38
470.023	128.38
470.243	113.38
470.462	153.38
470.681	188.38
470.901	121.38
471.12	118.38
471.339	124.38
471.558	142.38
471.777	192.38
471.997	423.38
472.216	1719.38
472.435	3931.38
472.654	842.38
472.873	205.38
473.092	116.38
473.311	100.38
473.53	103.38
473.749	111.38
473.968	119.38
474.187	147.38
474.406	105.38
474.625	103.38
474.844	91.38
475.063	90.38
475.282	91.38
475.501	94.38
475.72	99.38
475.939	86.38
476.158	95.38
476.377	103.38
476.596	99.38
476.814	102.38
477.033	113.38
477.252	98.38
477.471	91.38
477.69	96.38
477.908	88.38
478.127	93.38
478.346	79.38
478.564	113.38
478.783	119.38
479.002	122.38
479.22	128.38
479.439	145.38
479.658	170.38
479.876	152.38
480.095	147.38
480.313	156.38
480.532	212.38
480.751	401.38
480.969	1554.38
481.188	6699.38
481.406	3747.38
481.624	527.38
481.843	160.38
482.061	111.38
482.28	99.38
482.498	99.38
482.717	104.38
482.935	112.38
483.153	103.38
483.372	108.38
483.59	99.38
483.808	86.38
484.027	102.38
484.245	103.38
484.463	92.38
484.681	108.38
484.9	105.38
485.118	109.38
485.336	89.38
485.554	103.38
485.772	109.38
485.99	115.38
486.209	111.38
486.427	129.38
486.645	147.38
486.863	146.38
487.081	113.38
487.299	112.38
487.517	94.38
487.735	103.38
487.953	77.38
488.171	96.38
488.389	105.38
488.607	118.38
488.825	112.38
489.043	97.38
489.261	88.38
489.479	90.38
489.696	101.38
489.914	78.38
490.132	97.38
490.35	91.38
490.568	86.38
490.786	100.38
491.003	102.38
491.221	104.38
491.439	119.38
491.657	94.38
491.874	97.38
492.092	107.38
492.31	96.38
492.527	111.38
492.745	104.38
492.963	112.38
493.18	91.38
493.398	100.38
493.615	103.38
493.833	92.38
494.05	91.38
494.268	90.38
494.485	100.38
494.703	90.38
494.92	99.38
495.138	95.38
495.355	94.38
495.573	95.38
495.79	89.38
496.008	106.38
496.225	106.38
496.442	99.38
496.66	103.38
496.877	99.38
497.094	100.38
497.312	101.38
497.529	99.38
497.746	99.38
497.963	101.38
498.181	112.38
498.398	108.38
498.615	121.38
498.832	125.38
499.049	98.38
499.267	92.38
499.484	103.38
499.701	99.38
499.918	89.38
500.135	84.38
500.352	104.38
500.569	102.38
500.786	93.38
501.003	90.38
501.22	88.38
501.437	93.38
501.654	117.38
501.871	147.38
502.088	114.38
502.305	108.38
502.522	88.38
502.739	98.38
502.956	104.38
503.172	93.38
503.389	117.38
503.606	155.38
503.823	125.38
504.04	107.38
504.256	104.38
504.473	110.38
504.69	101.38
504.907	98.38
505.123	94.38
505.34	90.38
505.557	99.38
505.773	103.38
505.99	94.38
506.207	96.38
506.423	80.38
506.64	84.38
506.856	94.38
507.073	88.38
507.289	96.38
507.506	127.38
507.722	169.38
507.939	181.38
508.155	109.38
508.372	109.38
508.588	102.38
508.805	91.38
509.021	110.38
509.238	98.38
509.454	108.38
509.67	133.38
509.887	129.38
510.103	174.38
510.319	319.38
