Data from Circ_1999_H10_HRD10591_00079.txt Node
Date: Wed Jan 03 11:23:28 EST 2024
User: Yrep
Spectrometer: HR+D1059
Trigger mode: 1
Integration Time (sec): 1.000000E-1
Scans to average: 1
Electric dark correction enabled: true
Nonlinearity correction enabled: false
Boxcar width: 0
XAxis mode: Wavelengths
Number of Pixels in Spectrum: 2048
>>>>>Begin Spectral Data<<<<<
223.165	-29.62
223.4	-29.62
223.635	-29.62
223.869	-18.62
224.104	-17.62
224.338	-6.62
224.573	-23.62
224.808	-0.62
225.042	-5.62
225.277	-3.62
225.511	-18.62
225.746	0.38
225.98	-0.62
226.215	14.38
226.449	19.38
226.683	27.38
226.918	26.38
227.152	37.38
227.387	28.38
227.621	36.38
227.856	35.38
228.09	45.38
228.324	60.38
228.559	50.38
228.793	47.38
229.027	66.38
229.262	66.38
229.496	106.38
229.73	127.38
229.964	120.38
230.199	83.38
230.433	87.38
230.667	69.38
230.901	75.38
231.136	79.38
231.37	63.38
231.604	68.38
231.838	89.38
232.072	87.38
232.306	77.38
232.541	78.38
232.775	67.38
233.009	80.38
233.243	88.38
233.477	89.38
233.711	80.38
233.945	70.38
234.179	90.38
234.413	72.38
234.647	72.38
234.881	85.38
235.115	83.38
235.349	78.38
235.583	78.38
235.817	75.38
236.051	73.38
236.285	72.38
236.519	90.38
236.753	76.38
236.987	94.38
237.221	95.38
237.455	104.38
237.689	70.38
237.922	80.38
238.156	58.38
238.39	78.38
238.624	71.38
238.858	75.38
239.091	84.38
239.325	78.38
239.559	78.38
239.793	81.38
240.027	82.38
240.26	92.38
240.494	101.38
240.728	92.38
240.961	75.38
241.195	99.38
241.429	74.38
241.662	93.38
241.896	76.38
242.13	77.38
242.363	66.38
242.597	78.38
242.83	78.38
243.064	70.38
243.298	87.38
243.531	77.38
243.765	82.38
243.998	71.38
244.232	86.38
244.465	95.38
244.699	82.38
244.932	74.38
245.166	75.38
245.399	84.38
245.633	73.38
245.866	70.38
246.099	99.38
246.333	91.38
246.566	92.38
246.8	94.38
247.033	84.38
247.266	77.38
247.5	91.38
247.733	78.38
247.966	87.38
248.2	80.38
248.433	79.38
248.666	86.38
248.899	85.38
249.133	95.38
249.366	132.38
249.599	128.38
249.832	91.38
250.066	94.38
250.299	88.38
250.532	108.38
250.765	106.38
250.998	77.38
251.231	82.38
251.465	90.38
251.698	70.38
251.931	88.38
252.164	79.38
252.397	89.38
252.63	88.38
252.863	76.38
253.096	74.38
253.329	81.38
253.562	88.38
253.795	91.38
254.028	86.38
254.261	84.38
254.494	77.38
254.727	96.38
254.96	86.38
255.193	84.38
255.426	62.38
255.659	81.38
255.892	111.38
256.124	109.38
256.357	92.38
256.59	95.38
256.823	90.38
257.056	95.38
257.289	90.38
257.521	86.38
257.754	87.38
257.987	98.38
258.22	104.38
258.452	108.38
258.685	95.38
258.918	95.38
259.151	87.38
259.383	89.38
259.616	91.38
259.849	83.38
260.081	95.38
260.314	98.38
260.547	95.38
260.779	102.38
261.012	128.38
261.244	135.38
261.477	123.38
261.71	144.38
261.942	181.38
262.175	198.38
262.407	114.38
262.64	97.38
262.872	87.38
263.105	91.38
263.337	77.38
263.57	85.38
263.802	82.38
264.035	81.38
264.267	73.38
264.499	91.38
264.732	93.38
264.964	88.38
265.197	78.38
265.429	89.38
265.661	75.38
265.894	78.38
266.126	73.38
266.358	82.38
266.591	88.38
266.823	74.38
267.055	87.38
267.287	90.38
267.52	97.38
267.752	90.38
267.984	85.38
268.216	70.38
268.448	91.38
268.681	86.38
268.913	80.38
269.145	98.38
269.377	104.38
269.609	80.38
269.841	85.38
270.073	96.38
270.306	85.38
270.538	88.38
270.77	87.38
271.002	97.38
271.234	72.38
271.466	96.38
271.698	85.38
271.93	81.38
272.162	90.38
272.394	89.38
272.626	66.38
272.858	88.38
273.09	96.38
273.322	102.38
273.553	82.38
273.785	80.38
274.017	92.38
274.249	82.38
274.481	86.38
274.713	91.38
274.945	100.38
275.176	102.38
275.408	114.38
275.64	131.38
275.872	158.38
276.104	125.38
276.335	125.38
276.567	151.38
276.799	200.38
277.031	258.38
277.262	292.38
277.494	217.38
277.726	134.38
277.957	100.38
278.189	108.38
278.421	91.38
278.652	100.38
278.884	87.38
279.115	99.38
279.347	99.38
279.579	129.38
279.81	175.38
280.042	313.38
280.273	436.38
280.505	266.38
280.736	130.38
280.968	103.38
281.199	93.38
281.431	94.38
281.662	80.38
281.894	100.38
282.125	139.38
282.356	180.38
282.588	231.38
282.819	166.38
283.051	113.38
283.282	89.38
283.513	105.38
283.745	94.38
283.976	90.38
284.207	100.38
284.439	80.38
284.67	94.38
284.901	87.38
285.132	89.38
285.364	99.38
285.595	106.38
285.826	92.38
286.057	110.38
286.288	85.38
286.52	97.38
286.751	87.38
286.982	76.38
287.213	90.38
287.444	92.38
287.675	91.38
287.906	85.38
288.138	101.38
288.369	114.38
288.6	109.38
288.831	105.38
289.062	95.38
289.293	87.38
289.524	90.38
289.755	83.38
289.986	80.38
290.217	96.38
290.448	86.38
290.679	74.38
290.91	91.38
291.141	95.38
291.371	99.38
291.602	87.38
291.833	86.38
292.064	97.38
292.295	93.38
292.526	97.38
292.757	95.38
292.987	87.38
293.218	80.38
293.449	95.38
293.68	97.38
293.91	85.38
294.141	71.38
294.372	78.38
294.603	86.38
294.833	91.38
295.064	105.38
295.295	84.38
295.525	99.38
295.756	118.38
295.987	173.38
296.217	234.38
296.448	197.38
296.679	109.38
296.909	83.38
297.14	88.38
297.37	85.38
297.601	91.38
297.831	87.38
298.062	97.38
298.292	101.38
298.523	95.38
298.753	96.38
298.984	109.38
299.214	86.38
299.445	106.38
299.675	115.38
299.905	123.38
300.136	98.38
300.366	89.38
300.597	93.38
300.827	96.38
301.057	122.38
301.288	150.38
301.518	110.38
301.748	116.38
301.979	119.38
302.209	117.38
302.439	95.38
302.669	96.38
302.9	88.38
303.13	105.38
303.36	139.38
303.59	172.38
303.82	197.38
304.051	120.38
304.281	88.38
304.511	101.38
304.741	90.38
304.971	97.38
305.201	92.38
305.431	86.38
305.661	100.38
305.891	93.38
306.121	116.38
306.352	125.38
306.582	157.38
306.812	144.38
307.042	169.38
307.272	230.38
307.502	265.38
307.731	226.38
307.961	138.38
308.191	102.38
308.421	113.38
308.651	92.38
308.881	101.38
309.111	104.38
309.341	109.38
309.571	116.38
309.8	127.38
310.03	120.38
310.26	122.38
310.49	115.38
310.72	133.38
310.949	160.38
311.179	140.38
311.409	113.38
311.639	117.38
311.868	117.38
312.098	113.38
312.328	123.38
312.557	142.38
312.787	168.38
313.017	135.38
313.246	95.38
313.476	115.38
313.706	105.38
313.935	113.38
314.165	138.38
314.394	134.38
314.624	131.38
314.853	136.38
315.083	99.38
315.312	100.38
315.542	100.38
315.771	93.38
316.001	102.38
316.23	115.38
316.46	84.38
316.689	92.38
316.919	112.38
317.148	116.38
317.377	117.38
317.607	117.38
317.836	93.38
318.065	95.38
318.295	94.38
318.524	100.38
318.753	109.38
318.983	106.38
319.212	120.38
319.441	122.38
319.67	135.38
319.9	90.38
320.129	93.38
320.358	111.38
320.587	115.38
320.816	119.38
321.046	123.38
321.275	119.38
321.504	106.38
321.733	106.38
321.962	107.38
322.191	133.38
322.42	146.38
322.649	139.38
322.878	153.38
323.108	167.38
323.337	198.38
323.566	206.38
323.795	269.38
324.024	372.38
324.253	808.38
324.482	1716.38
324.71	3725.38
324.939	4733.38
325.168	1659.38
325.397	441.38
325.626	227.38
325.855	172.38
326.084	183.38
326.313	182.38
326.542	230.38
326.77	371.38
326.999	844.38
327.228	1751.38
327.457	3283.38
327.686	2611.38
327.914	944.38
328.143	980.38
328.372	1294.38
328.6	662.38
328.829	288.38
329.058	302.38
329.287	314.38
329.515	292.38
329.744	432.38
329.972	934.38
330.201	2028.38
330.43	2917.38
330.658	1199.38
330.887	518.38
331.115	310.38
331.344	195.38
331.572	157.38
331.801	162.38
332.03	151.38
332.258	134.38
332.486	139.38
332.715	138.38
332.943	134.38
333.172	158.38
333.4	184.38
333.629	249.38
333.857	388.38
334.085	846.38
334.314	1857.38
334.542	3643.38
334.771	3210.38
334.999	782.38
335.227	275.38
335.455	176.38
335.684	150.38
335.912	120.38
336.14	100.38
336.369	119.38
336.597	155.38
336.825	128.38
337.053	117.38
337.281	108.38
337.51	98.38
337.738	100.38
337.966	119.38
338.194	132.38
338.422	124.38
338.65	106.38
338.878	99.38
339.106	96.38
339.334	107.38
339.562	124.38
339.79	93.38
340.018	93.38
340.246	98.38
340.474	118.38
340.702	105.38
340.93	91.38
341.158	105.38
341.386	128.38
341.614	122.38
341.842	92.38
342.07	108.38
342.298	109.38
342.526	98.38
342.754	86.38
342.981	100.38
343.209	76.38
343.437	97.38
343.665	102.38
343.893	92.38
344.12	98.38
344.348	88.38
344.576	105.38
344.804	104.38
345.031	155.38
345.259	129.38
345.487	131.38
345.714	121.38
345.942	102.38
346.17	108.38
346.397	106.38
346.625	119.38
346.853	107.38
347.08	106.38
347.308	109.38
347.535	136.38
347.763	131.38
347.99	128.38
348.218	125.38
348.445	144.38
348.673	139.38
348.9	125.38
349.128	100.38
349.355	97.38
349.583	109.38
349.81	103.38
350.037	86.38
350.265	104.38
350.492	87.38
350.72	95.38
350.947	123.38
351.174	135.38
351.402	143.38
351.629	118.38
351.856	125.38
352.083	134.38
352.311	131.38
352.538	160.38
352.765	151.38
352.992	145.38
353.22	147.38
353.447	123.38
353.674	110.38
353.901	80.38
354.128	95.38
354.355	90.38
354.583	95.38
354.81	106.38
355.037	100.38
355.264	87.38
355.491	87.38
355.718	94.38
355.945	87.38
356.172	89.38
356.399	77.38
356.626	89.38
356.853	86.38
357.08	84.38
357.307	82.38
357.534	104.38
357.761	105.38
357.988	95.38
358.215	85.38
358.441	95.38
358.668	104.38
358.895	94.38
359.122	86.38
359.349	103.38
359.576	100.38
359.802	158.38
360.029	190.38
360.256	197.38
360.483	150.38
360.709	106.38
360.936	110.38
361.163	114.38
361.39	117.38
361.616	134.38
361.843	106.38
362.07	103.38
362.296	140.38
362.523	126.38
362.749	117.38
362.976	100.38
363.203	111.38
363.429	104.38
363.656	92.38
363.882	98.38
364.109	100.38
364.335	105.38
364.562	101.38
364.788	104.38
365.015	107.38
365.241	123.38
365.468	142.38
365.694	158.38
365.92	136.38
366.147	110.38
366.373	97.38
366.599	102.38
366.826	116.38
367.052	92.38
367.278	110.38
367.505	120.38
367.731	99.38
367.957	105.38
368.184	100.38
368.41	120.38
368.636	140.38
368.862	166.38
369.089	153.38
369.315	124.38
369.541	97.38
369.767	100.38
369.993	99.38
370.219	100.38
370.445	94.38
370.672	83.38
370.898	83.38
371.124	94.38
371.35	97.38
371.576	101.38
371.802	98.38
372.028	92.38
372.254	86.38
372.48	95.38
372.706	84.38
372.932	93.38
373.158	76.38
373.384	80.38
373.61	92.38
373.835	92.38
374.061	91.38
374.287	89.38
374.513	89.38
374.739	72.38
374.965	91.38
375.191	96.38
375.416	92.38
375.642	90.38
375.868	83.38
376.094	86.38
376.319	95.38
376.545	77.38
376.771	94.38
376.997	90.38
377.222	98.38
377.448	94.38
377.674	84.38
377.899	92.38
378.125	84.38
378.35	93.38
378.576	102.38
378.802	95.38
379.027	86.38
379.253	94.38
379.478	99.38
379.704	90.38
379.929	85.38
380.155	72.38
380.38	83.38
380.606	95.38
380.831	87.38
381.057	100.38
381.282	103.38
381.507	91.38
381.733	95.38
381.958	91.38
382.184	95.38
382.409	98.38
382.634	106.38
382.86	99.38
383.085	78.38
383.31	86.38
383.535	106.38
383.761	82.38
383.986	104.38
384.211	87.38
384.436	102.38
384.662	94.38
384.887	89.38
385.112	105.38
385.337	111.38
385.562	90.38
385.787	113.38
386.013	109.38
386.238	139.38
386.463	124.38
386.688	100.38
386.913	108.38
387.138	94.38
387.363	92.38
387.588	101.38
387.813	95.38
388.038	108.38
388.263	104.38
388.488	105.38
388.713	93.38
388.938	93.38
389.163	105.38
389.387	95.38
389.612	95.38
389.837	106.38
390.062	84.38
390.287	103.38
390.512	89.38
390.736	73.38
390.961	79.38
391.186	80.38
391.411	96.38
391.636	97.38
391.86	100.38
392.085	106.38
392.31	93.38
392.534	94.38
392.759	95.38
392.984	82.38
393.208	87.38
393.433	90.38
393.658	101.38
393.882	78.38
394.107	89.38
394.331	84.38
394.556	90.38
394.78	91.38
395.005	87.38
395.229	81.38
395.454	77.38
395.678	77.38
395.903	101.38
396.127	96.38
396.352	87.38
396.576	84.38
396.801	98.38
397.025	104.38
397.249	92.38
397.474	90.38
397.698	90.38
397.922	95.38
398.147	93.38
398.371	108.38
398.595	86.38
398.82	89.38
399.044	95.38
399.268	89.38
399.492	88.38
399.717	86.38
399.941	99.38
400.165	103.38
400.389	103.38
400.613	90.38
400.837	79.38
401.062	98.38
401.286	90.38
401.51	109.38
401.734	106.38
401.958	138.38
402.182	204.38
402.406	293.38
402.63	212.38
402.854	118.38
403.078	102.38
403.302	103.38
403.526	89.38
403.75	98.38
403.974	95.38
404.198	96.38
404.422	97.38
404.645	87.38
404.869	112.38
405.093	145.38
405.317	184.38
405.541	170.38
405.765	166.38
405.988	190.38
406.212	337.38
406.436	500.38
406.66	308.38
406.883	160.38
407.107	134.38
407.331	132.38
407.555	138.38
407.778	114.38
408.002	116.38
408.226	106.38
408.449	83.38
408.673	96.38
408.896	94.38
409.12	108.38
409.344	97.38
409.567	98.38
409.791	95.38
410.014	83.38
410.238	76.38
410.461	84.38
410.685	89.38
410.908	106.38
411.132	102.38
411.355	108.38
411.578	106.38
411.802	87.38
412.025	98.38
412.249	115.38
412.472	125.38
412.695	169.38
412.919	124.38
413.142	94.38
413.365	86.38
413.589	95.38
413.812	85.38
414.035	87.38
414.258	94.38
414.482	88.38
414.705	92.38
414.928	82.38
415.151	85.38
415.374	89.38
415.597	97.38
415.821	86.38
416.044	96.38
416.267	94.38
416.49	92.38
416.713	89.38
416.936	86.38
417.159	79.38
417.382	121.38
417.605	123.38
417.828	139.38
418.051	104.38
418.274	96.38
418.497	77.38
418.72	78.38
418.943	81.38
419.166	93.38
419.389	88.38
419.611	101.38
419.834	94.38
420.057	109.38
420.28	102.38
420.503	99.38
420.726	90.38
420.948	100.38
421.171	125.38
421.394	95.38
421.617	91.38
421.839	98.38
422.062	84.38
422.285	90.38
422.507	101.38
422.73	121.38
422.953	92.38
423.175	92.38
423.398	99.38
423.621	99.38
423.843	86.38
424.066	83.38
424.288	104.38
424.511	104.38
424.733	119.38
424.956	141.38
425.178	140.38
425.401	124.38
425.623	106.38
425.846	94.38
426.068	117.38
426.291	103.38
426.513	94.38
426.735	98.38
426.958	95.38
427.18	150.38
427.402	249.38
427.625	435.38
427.847	363.38
428.069	329.38
428.292	163.38
428.514	104.38
428.736	89.38
428.958	85.38
429.181	94.38
429.403	87.38
429.625	93.38
429.847	110.38
430.069	116.38
430.292	108.38
430.514	92.38
430.736	93.38
430.958	90.38
431.18	75.38
431.402	78.38
431.624	78.38
431.846	87.38
432.068	94.38
432.29	89.38
432.512	70.38
432.734	88.38
432.956	106.38
433.178	112.38
433.4	101.38
433.622	95.38
433.844	100.38
434.066	98.38
434.287	106.38
434.509	84.38
434.731	104.38
434.953	85.38
435.175	85.38
435.397	103.38
435.618	95.38
435.84	123.38
436.062	155.38
436.284	153.38
436.505	124.38
436.727	121.38
436.949	105.38
437.17	106.38
437.392	94.38
437.614	114.38
437.835	171.38
438.057	203.38
438.278	148.38
438.5	132.38
438.721	151.38
438.943	112.38
439.165	96.38
439.386	94.38
439.608	106.38
439.829	117.38
440.05	200.38
440.272	255.38
440.493	140.38
440.715	98.38
440.936	92.38
441.158	91.38
441.379	103.38
441.6	101.38
441.822	126.38
442.043	105.38
442.264	152.38
442.486	145.38
442.707	132.38
442.928	161.38
443.149	255.38
443.371	262.38
443.592	176.38
443.813	161.38
444.034	149.38
444.255	91.38
444.476	100.38
444.698	96.38
444.919	99.38
445.14	145.38
445.361	167.38
445.582	178.38
445.803	264.38
446.024	258.38
446.245	223.38
446.466	172.38
446.687	112.38
446.908	87.38
447.129	87.38
447.35	90.38
447.571	96.38
447.792	110.38
448.013	124.38
448.234	147.38
448.455	135.38
448.675	152.38
448.896	158.38
449.117	119.38
449.338	121.38
449.559	152.38
449.779	162.38
450	96.38
450.221	106.38
450.442	105.38
450.662	117.38
450.883	156.38
451.104	194.38
451.324	130.38
451.545	97.38
451.766	93.38
451.986	93.38
452.207	93.38
452.428	130.38
452.648	127.38
452.869	173.38
453.089	176.38
453.31	216.38
453.53	128.38
453.751	112.38
453.971	158.38
454.192	180.38
454.412	135.38
454.633	108.38
454.853	92.38
455.073	105.38
455.294	107.38
455.514	125.38
455.734	95.38
455.955	86.38
456.175	73.38
456.395	88.38
456.616	88.38
456.836	93.38
457.056	80.38
457.276	91.38
457.497	80.38
457.717	88.38
457.937	100.38
458.157	103.38
458.377	108.38
458.598	179.38
458.818	347.38
459.038	387.38
459.258	216.38
459.478	112.38
459.698	88.38
459.918	102.38
460.138	97.38
460.358	96.38
460.578	88.38
460.798	105.38
461.018	112.38
461.238	92.38
461.458	90.38
461.678	89.38
461.898	84.38
462.118	85.38
462.338	85.38
462.558	108.38
462.777	91.38
462.997	106.38
463.217	142.38
463.437	110.38
463.657	104.38
463.876	90.38
464.096	100.38
464.316	109.38
464.536	108.38
464.755	140.38
464.975	171.38
465.195	418.38
465.414	406.38
465.634	146.38
465.854	101.38
466.073	86.38
466.293	95.38
466.512	98.38
466.732	95.38
466.951	100.38
467.171	110.38
467.391	134.38
467.61	196.38
467.829	348.38
468.049	1083.38
468.268	1607.38
468.488	341.38
468.707	132.38
468.927	113.38
469.146	96.38
469.365	86.38
469.585	119.38
469.804	132.38
470.023	147.38
470.243	125.38
470.462	174.38
470.681	200.38
470.901	118.38
471.12	121.38
471.339	120.38
471.558	150.38
471.777	219.38
471.997	538.38
472.216	2196.38
472.435	4946.38
472.654	1036.38
472.873	238.38
473.092	145.38
473.311	118.38
473.53	111.38
473.749	93.38
473.968	118.38
474.187	151.38
474.406	136.38
474.625	102.38
474.844	98.38
475.063	83.38
475.282	85.38
475.501	84.38
475.72	94.38
475.939	90.38
476.158	91.38
476.377	87.38
476.596	103.38
476.814	113.38
477.033	118.38
477.252	102.38
477.471	94.38
477.69	90.38
477.908	96.38
478.127	101.38
478.346	100.38
478.564	121.38
478.783	131.38
479.002	131.38
479.22	110.38
479.439	157.38
479.658	196.38
479.876	155.38
480.095	152.38
480.313	177.38
480.532	253.38
480.751	472.38
480.969	1913.38
481.188	8416.38
481.406	4645.38
481.624	591.38
481.843	182.38
482.061	132.38
482.28	108.38
482.498	107.38
482.717	105.38
482.935	105.38
483.153	104.38
483.372	101.38
483.59	102.38
483.808	92.38
484.027	84.38
484.245	90.38
484.463	95.38
484.681	82.38
484.9	87.38
485.118	86.38
485.336	101.38
485.554	102.38
485.772	101.38
485.99	102.38
486.209	122.38
486.427	122.38
486.645	134.38
486.863	168.38
487.081	130.38
487.299	104.38
487.517	98.38
487.735	96.38
487.953	98.38
488.171	96.38
488.389	107.38
488.607	123.38
488.825	103.38
489.043	92.38
489.261	100.38
489.479	87.38
489.696	94.38
489.914	82.38
490.132	91.38
490.35	88.38
490.568	108.38
490.786	96.38
491.003	99.38
491.221	98.38
491.439	106.38
491.657	100.38
491.874	104.38
492.092	97.38
492.31	100.38
492.527	123.38
492.745	114.38
492.963	81.38
493.18	93.38
493.398	89.38
493.615	82.38
493.833	88.38
494.05	92.38
494.268	92.38
494.485	84.38
494.703	73.38
494.92	88.38
495.138	90.38
495.355	90.38
495.573	99.38
495.79	80.38
496.008	100.38
496.225	91.38
496.442	106.38
496.66	91.38
496.877	86.38
497.094	111.38
497.312	92.38
497.529	97.38
497.746	89.38
497.963	84.38
498.181	106.38
498.398	109.38
498.615	133.38
498.832	117.38
499.049	94.38
499.267	88.38
499.484	80.38
499.701	98.38
499.918	88.38
500.135	91.38
500.352	101.38
500.569	100.38
500.786	112.38
501.003	85.38
501.22	93.38
501.437	98.38
501.654	107.38
501.871	166.38
502.088	103.38
502.305	97.38
502.522	90.38
502.739	91.38
502.956	90.38
503.172	103.38
503.389	119.38
503.606	162.38
503.823	118.38
504.04	100.38
504.256	92.38
504.473	111.38
504.69	90.38
504.907	90.38
505.123	95.38
505.34	87.38
505.557	100.38
505.773	99.38
505.99	88.38
506.207	98.38
506.423	78.38
506.64	94.38
506.856	98.38
507.073	94.38
507.289	100.38
507.506	114.38
507.722	180.38
507.939	183.38
508.155	111.38
508.372	106.38
508.588	93.38
508.805	104.38
509.021	112.38
509.238	106.38
509.454	115.38
509.67	119.38
509.887	142.38
510.103	185.38
510.319	350.38
510.536	1560.38
510.752	5743.38
