Data from Circ_1999_H10_HRD10591_00097.txt Node
Date: Wed Jan 03 11:23:32 EST 2024
User: Yrep
Spectrometer: HR+D1059
Trigger mode: 1
Integration Time (sec): 1.000000E-1
Scans to average: 1
Electric dark correction enabled: true
Nonlinearity correction enabled: false
Boxcar width: 0
XAxis mode: Wavelengths
Number of Pixels in Spectrum: 2048
>>>>>Begin Spectral Data<<<<<
223.165	-25.81
223.4	-25.81
223.635	-25.81
223.869	-19.81
224.104	-18.81
224.338	-13.81
224.573	-22.81
224.808	-3.81
225.042	-18.81
225.277	-3.81
225.511	-3.81
225.746	10.19
225.98	4.19
226.215	8.19
226.449	26.19
226.683	16.19
226.918	26.19
227.152	40.19
227.387	26.19
227.621	36.19
227.856	50.19
228.09	61.19
228.324	57.19
228.559	65.19
228.793	56.19
229.027	66.19
229.262	57.19
229.496	94.19
229.73	87.19
229.964	102.19
230.199	90.19
230.433	80.19
230.667	81.19
230.901	78.19
231.136	85.19
231.37	76.19
231.604	82.19
231.838	98.19
232.072	75.19
232.306	86.19
232.541	78.19
232.775	97.19
233.009	91.19
233.243	72.19
233.477	85.19
233.711	86.19
233.945	74.19
234.179	86.19
234.413	81.19
234.647	88.19
234.881	76.19
235.115	87.19
235.349	83.19
235.583	84.19
235.817	76.19
236.051	86.19
236.285	82.19
236.519	82.19
236.753	75.19
236.987	90.19
237.221	100.19
237.455	95.19
237.689	76.19
237.922	68.19
238.156	76.19
238.39	83.19
238.624	71.19
238.858	68.19
239.091	78.19
239.325	76.19
239.559	99.19
239.793	84.19
240.027	81.19
240.26	77.19
240.494	71.19
240.728	86.19
240.961	84.19
241.195	88.19
241.429	84.19
241.662	79.19
241.896	78.19
242.13	78.19
242.363	85.19
242.597	93.19
242.83	76.19
243.064	90.19
243.298	64.19
243.531	75.19
243.765	81.19
243.998	79.19
244.232	98.19
244.465	89.19
244.699	80.19
244.932	86.19
245.166	85.19
245.399	90.19
245.633	91.19
245.866	73.19
246.099	84.19
246.333	82.19
246.566	81.19
246.8	78.19
247.033	79.19
247.266	79.19
247.5	69.19
247.733	85.19
247.966	78.19
248.2	88.19
248.433	96.19
248.666	98.19
248.899	90.19
249.133	94.19
249.366	114.19
249.599	113.19
249.832	102.19
250.066	91.19
250.299	84.19
250.532	90.19
250.765	87.19
250.998	96.19
251.231	77.19
251.465	88.19
251.698	90.19
251.931	93.19
252.164	72.19
252.397	77.19
252.63	104.19
252.863	88.19
253.096	63.19
253.329	91.19
253.562	85.19
253.795	82.19
254.028	95.19
254.261	92.19
254.494	76.19
254.727	87.19
254.96	96.19
255.193	72.19
255.426	88.19
255.659	84.19
255.892	111.19
256.124	103.19
256.357	97.19
256.59	88.19
256.823	81.19
257.056	86.19
257.289	78.19
257.521	82.19
257.754	82.19
257.987	92.19
258.22	106.19
258.452	100.19
258.685	93.19
258.918	96.19
259.151	86.19
259.383	78.19
259.616	84.19
259.849	96.19
260.081	93.19
260.314	92.19
260.547	101.19
260.779	121.19
261.012	136.19
261.244	125.19
261.477	124.19
261.71	106.19
261.942	164.19
262.175	161.19
262.407	117.19
262.64	81.19
262.872	82.19
263.105	87.19
263.337	74.19
263.57	90.19
263.802	76.19
264.035	98.19
264.267	79.19
264.499	89.19
264.732	79.19
264.964	90.19
265.197	90.19
265.429	96.19
265.661	82.19
265.894	87.19
266.126	72.19
266.358	93.19
266.591	90.19
266.823	86.19
267.055	84.19
267.287	86.19
267.52	95.19
267.752	88.19
267.984	96.19
268.216	82.19
268.448	104.19
268.681	88.19
268.913	102.19
269.145	91.19
269.377	98.19
269.609	85.19
269.841	84.19
270.073	87.19
270.306	89.19
270.538	92.19
270.77	86.19
271.002	87.19
271.234	93.19
271.466	94.19
271.698	83.19
271.93	85.19
272.162	86.19
272.394	92.19
272.626	90.19
272.858	72.19
273.09	84.19
273.322	90.19
273.553	94.19
273.785	74.19
274.017	87.19
274.249	97.19
274.481	100.19
274.713	86.19
274.945	108.19
275.176	107.19
275.408	115.19
275.64	148.19
275.872	132.19
276.104	134.19
276.335	111.19
276.567	148.19
276.799	201.19
277.031	232.19
277.262	276.19
277.494	200.19
277.726	120.19
277.957	103.19
278.189	100.19
278.421	104.19
278.652	88.19
278.884	93.19
279.115	102.19
279.347	108.19
279.579	117.19
279.81	164.19
280.042	270.19
280.273	389.19
280.505	252.19
280.736	124.19
280.968	112.19
281.199	85.19
281.431	88.19
281.662	94.19
281.894	92.19
282.125	124.19
282.356	152.19
282.588	205.19
282.819	149.19
283.051	103.19
283.282	80.19
283.513	75.19
283.745	84.19
283.976	100.19
284.207	82.19
284.439	106.19
284.67	93.19
284.901	90.19
285.132	88.19
285.364	89.19
285.595	85.19
285.826	93.19
286.057	80.19
286.288	90.19
286.52	94.19
286.751	86.19
286.982	85.19
287.213	100.19
287.444	97.19
287.675	103.19
287.906	98.19
288.138	93.19
288.369	102.19
288.6	88.19
288.831	82.19
289.062	80.19
289.293	90.19
289.524	91.19
289.755	91.19
289.986	70.19
290.217	93.19
290.448	94.19
290.679	86.19
290.91	111.19
291.141	95.19
291.371	81.19
291.602	86.19
291.833	88.19
292.064	86.19
292.295	105.19
292.526	92.19
292.757	106.19
292.987	84.19
293.218	93.19
293.449	91.19
293.68	74.19
293.91	82.19
294.141	89.19
294.372	88.19
294.603	92.19
294.833	104.19
295.064	98.19
295.295	100.19
295.525	100.19
295.756	122.19
295.987	150.19
296.217	209.19
296.448	185.19
296.679	112.19
296.909	98.19
297.14	84.19
297.37	78.19
297.601	94.19
297.831	103.19
298.062	101.19
298.292	104.19
298.523	96.19
298.753	92.19
298.984	78.19
299.214	105.19
299.445	95.19
299.675	103.19
299.905	109.19
300.136	93.19
300.366	90.19
300.597	94.19
300.827	88.19
301.057	117.19
301.288	134.19
301.518	120.19
301.748	114.19
301.979	119.19
302.209	109.19
302.439	105.19
302.669	96.19
302.9	92.19
303.13	106.19
303.36	130.19
303.59	159.19
303.82	180.19
304.051	97.19
304.281	102.19
304.511	93.19
304.741	95.19
304.971	93.19
305.201	114.19
305.431	89.19
305.661	89.19
305.891	99.19
306.121	105.19
306.352	109.19
306.582	128.19
306.812	122.19
307.042	153.19
307.272	215.19
307.502	260.19
307.731	221.19
307.961	166.19
308.191	101.19
308.421	92.19
308.651	79.19
308.881	106.19
309.111	92.19
309.341	109.19
309.571	108.19
309.8	115.19
310.03	118.19
310.26	112.19
310.49	118.19
310.72	116.19
310.949	136.19
311.179	107.19
311.409	104.19
311.639	98.19
311.868	114.19
312.098	111.19
312.328	108.19
312.557	137.19
312.787	134.19
313.017	110.19
313.246	108.19
313.476	115.19
313.706	103.19
313.935	107.19
314.165	118.19
314.394	121.19
314.624	123.19
314.853	114.19
315.083	100.19
315.312	95.19
315.542	92.19
315.771	91.19
316.001	93.19
316.23	102.19
316.46	77.19
316.689	93.19
316.919	97.19
317.148	121.19
317.377	132.19
317.607	117.19
317.836	99.19
318.065	84.19
318.295	94.19
318.524	99.19
318.753	104.19
318.983	104.19
319.212	122.19
319.441	138.19
319.67	126.19
319.9	109.19
320.129	95.19
320.358	105.19
320.587	118.19
320.816	130.19
321.046	130.19
321.275	111.19
321.504	97.19
321.733	108.19
321.962	101.19
322.191	114.19
322.42	122.19
322.649	135.19
322.878	133.19
323.108	162.19
323.337	171.19
323.566	184.19
323.795	230.19
324.024	301.19
324.253	610.19
324.482	1311.19
324.71	2754.19
324.939	3546.19
325.168	1293.19
325.397	373.19
325.626	210.19
325.855	188.19
326.084	174.19
326.313	180.19
326.542	209.19
326.77	331.19
326.999	649.19
327.228	1352.19
327.457	2492.19
327.686	2031.19
327.914	782.19
328.143	810.19
328.372	1046.19
328.6	555.19
328.829	272.19
329.058	262.19
329.287	268.19
329.515	255.19
329.744	382.19
329.972	777.19
330.201	1660.19
330.43	2382.19
330.658	1010.19
330.887	448.19
331.115	268.19
331.344	140.19
331.572	142.19
331.801	158.19
332.03	144.19
332.258	142.19
332.486	112.19
332.715	125.19
332.943	121.19
333.172	136.19
333.4	170.19
333.629	211.19
333.857	330.19
334.085	692.19
334.314	1493.19
334.542	3029.19
334.771	2729.19
334.999	657.19
335.227	236.19
335.455	157.19
335.684	135.19
335.912	129.19
336.14	114.19
336.369	120.19
336.597	115.19
336.825	125.19
337.053	103.19
337.281	109.19
337.51	105.19
337.738	108.19
337.966	117.19
338.194	108.19
338.422	113.19
338.65	102.19
338.878	92.19
339.106	84.19
339.334	125.19
339.562	92.19
339.79	98.19
340.018	102.19
340.246	120.19
340.474	114.19
340.702	95.19
340.93	97.19
341.158	114.19
341.386	102.19
341.614	115.19
341.842	116.19
342.07	113.19
342.298	99.19
342.526	89.19
342.754	79.19
342.981	85.19
343.209	84.19
343.437	90.19
343.665	98.19
343.893	107.19
344.12	101.19
344.348	89.19
344.576	86.19
344.804	105.19
345.031	109.19
345.259	113.19
345.487	107.19
345.714	106.19
345.942	117.19
346.17	102.19
346.397	92.19
346.625	113.19
346.853	105.19
347.08	101.19
347.308	117.19
347.535	109.19
347.763	110.19
347.99	116.19
348.218	117.19
348.445	125.19
348.673	117.19
348.9	117.19
349.128	98.19
349.355	101.19
349.583	98.19
349.81	97.19
350.037	78.19
350.265	101.19
350.492	84.19
350.72	105.19
350.947	117.19
351.174	143.19
351.402	136.19
351.629	128.19
351.856	113.19
352.083	137.19
352.311	133.19
352.538	134.19
352.765	144.19
352.992	135.19
353.22	130.19
353.447	112.19
353.674	103.19
353.901	107.19
354.128	89.19
354.355	103.19
354.583	99.19
354.81	98.19
355.037	102.19
355.264	108.19
355.491	96.19
355.718	74.19
355.945	98.19
356.172	97.19
356.399	86.19
356.626	86.19
356.853	96.19
357.08	89.19
357.307	92.19
357.534	102.19
357.761	92.19
357.988	101.19
358.215	86.19
358.441	83.19
358.668	109.19
358.895	93.19
359.122	100.19
359.349	98.19
359.576	115.19
359.802	121.19
360.029	167.19
360.256	177.19
360.483	152.19
360.709	102.19
360.936	103.19
361.163	101.19
361.39	119.19
361.616	109.19
361.843	112.19
362.07	108.19
362.296	121.19
362.523	115.19
362.749	101.19
362.976	104.19
363.203	90.19
363.429	105.19
363.656	113.19
363.882	88.19
364.109	106.19
364.335	109.19
364.562	109.19
364.788	108.19
365.015	110.19
365.241	124.19
365.468	134.19
365.694	151.19
365.92	122.19
366.147	113.19
366.373	98.19
366.599	109.19
366.826	98.19
367.052	93.19
367.278	101.19
367.505	104.19
367.731	105.19
367.957	113.19
368.184	115.19
368.41	111.19
368.636	155.19
368.862	168.19
369.089	140.19
369.315	102.19
369.541	96.19
369.767	102.19
369.993	96.19
370.219	110.19
370.445	79.19
370.672	77.19
370.898	95.19
371.124	81.19
371.35	91.19
371.576	94.19
371.802	90.19
372.028	97.19
372.254	78.19
372.48	82.19
372.706	90.19
372.932	101.19
373.158	88.19
373.384	94.19
373.61	107.19
373.835	104.19
374.061	94.19
374.287	92.19
374.513	82.19
374.739	84.19
374.965	91.19
375.191	96.19
375.416	88.19
375.642	80.19
375.868	82.19
376.094	106.19
376.319	79.19
376.545	89.19
376.771	100.19
376.997	98.19
377.222	96.19
377.448	78.19
377.674	85.19
377.899	99.19
378.125	77.19
378.35	88.19
378.576	92.19
378.802	96.19
379.027	99.19
379.253	96.19
379.478	89.19
379.704	94.19
379.929	104.19
380.155	99.19
380.38	85.19
380.606	110.19
380.831	92.19
381.057	107.19
381.282	95.19
381.507	83.19
381.733	87.19
381.958	97.19
382.184	104.19
382.409	94.19
382.634	101.19
382.86	93.19
383.085	100.19
383.31	88.19
383.535	90.19
383.761	100.19
383.986	98.19
384.211	104.19
384.436	108.19
384.662	111.19
384.887	93.19
385.112	85.19
385.337	107.19
385.562	92.19
385.787	114.19
386.013	110.19
386.238	120.19
386.463	118.19
386.688	113.19
386.913	101.19
387.138	112.19
387.363	94.19
387.588	88.19
387.813	97.19
388.038	94.19
388.263	102.19
388.488	102.19
388.713	103.19
388.938	93.19
389.163	85.19
389.387	99.19
389.612	89.19
389.837	106.19
390.062	101.19
390.287	100.19
390.512	88.19
390.736	98.19
390.961	97.19
391.186	93.19
391.411	87.19
391.636	101.19
391.86	90.19
392.085	92.19
392.31	92.19
392.534	97.19
392.759	98.19
392.984	77.19
393.208	83.19
393.433	77.19
393.658	88.19
393.882	92.19
394.107	93.19
394.331	80.19
394.556	90.19
394.78	87.19
395.005	88.19
395.229	88.19
395.454	83.19
395.678	86.19
395.903	99.19
396.127	94.19
396.352	98.19
396.576	102.19
396.801	86.19
397.025	76.19
397.249	101.19
397.474	82.19
397.698	89.19
397.922	75.19
398.147	97.19
398.371	87.19
398.595	80.19
398.82	88.19
399.044	94.19
399.268	84.19
399.492	82.19
399.717	93.19
399.941	89.19
400.165	98.19
400.389	104.19
400.613	97.19
400.837	94.19
401.062	98.19
401.286	93.19
401.51	110.19
401.734	92.19
401.958	125.19
402.182	177.19
402.406	269.19
402.63	182.19
402.854	113.19
403.078	105.19
403.302	93.19
403.526	100.19
403.75	77.19
403.974	81.19
404.198	95.19
404.422	87.19
404.645	97.19
404.869	116.19
405.093	138.19
405.317	160.19
405.541	158.19
405.765	154.19
405.988	181.19
406.212	300.19
406.436	459.19
406.66	285.19
406.883	159.19
407.107	113.19
407.331	118.19
407.555	114.19
407.778	113.19
408.002	100.19
408.226	95.19
408.449	88.19
408.673	88.19
408.896	94.19
409.12	86.19
409.344	89.19
409.567	101.19
409.791	81.19
410.014	94.19
410.238	96.19
410.461	99.19
410.685	91.19
410.908	96.19
411.132	104.19
411.355	108.19
411.578	94.19
411.802	83.19
412.025	105.19
412.249	117.19
412.472	126.19
412.695	158.19
412.919	124.19
413.142	112.19
413.365	84.19
413.589	87.19
413.812	92.19
414.035	90.19
414.258	105.19
414.482	96.19
414.705	94.19
414.928	101.19
415.151	83.19
415.374	110.19
415.597	93.19
415.821	89.19
416.044	98.19
416.267	111.19
416.49	86.19
416.713	92.19
416.936	93.19
417.159	93.19
417.382	100.19
417.605	116.19
417.828	116.19
418.051	94.19
418.274	85.19
418.497	80.19
418.72	85.19
418.943	81.19
419.166	95.19
419.389	91.19
419.611	86.19
419.834	101.19
420.057	97.19
420.28	112.19
420.503	85.19
420.726	92.19
420.948	92.19
421.171	109.19
421.394	98.19
421.617	90.19
421.839	82.19
422.062	91.19
422.285	96.19
422.507	90.19
422.73	88.19
422.953	93.19
423.175	89.19
423.398	89.19
423.621	94.19
423.843	93.19
424.066	97.19
424.288	101.19
424.511	103.19
424.733	104.19
424.956	136.19
425.178	116.19
425.401	110.19
425.623	108.19
425.846	92.19
426.068	100.19
426.291	108.19
426.513	103.19
426.735	91.19
426.958	105.19
427.18	129.19
427.402	202.19
427.625	346.19
427.847	319.19
428.069	240.19
428.292	144.19
428.514	104.19
428.736	105.19
428.958	98.19
429.181	95.19
429.403	84.19
429.625	93.19
429.847	108.19
430.069	114.19
430.292	103.19
430.514	85.19
430.736	88.19
430.958	100.19
431.18	105.19
431.402	99.19
431.624	95.19
431.846	105.19
432.068	88.19
432.29	89.19
432.512	100.19
432.734	97.19
432.956	94.19
433.178	111.19
433.4	104.19
433.622	87.19
433.844	83.19
434.066	107.19
434.287	88.19
434.509	92.19
434.731	120.19
434.953	93.19
435.175	87.19
435.397	97.19
435.618	90.19
435.84	109.19
436.062	153.19
436.284	136.19
436.505	113.19
436.727	114.19
436.949	95.19
437.17	105.19
437.392	101.19
437.614	116.19
437.835	154.19
438.057	173.19
438.278	154.19
438.5	117.19
438.721	164.19
438.943	109.19
439.165	92.19
439.386	99.19
439.608	95.19
439.829	117.19
440.05	169.19
440.272	206.19
440.493	129.19
440.715	104.19
440.936	104.19
441.158	97.19
441.379	97.19
441.6	122.19
441.822	124.19
442.043	99.19
442.264	127.19
442.486	125.19
442.707	122.19
442.928	146.19
443.149	201.19
443.371	220.19
443.592	146.19
443.813	150.19
444.034	127.19
444.255	94.19
444.476	104.19
444.698	95.19
444.919	86.19
445.14	157.19
445.361	157.19
445.582	158.19
445.803	221.19
446.024	213.19
446.245	183.19
446.466	148.19
446.687	104.19
446.908	95.19
447.129	80.19
447.35	111.19
447.571	96.19
447.792	113.19
448.013	116.19
448.234	132.19
448.455	128.19
448.675	138.19
448.896	149.19
449.117	116.19
449.338	116.19
449.559	136.19
449.779	154.19
450	105.19
450.221	93.19
450.442	102.19
450.662	129.19
450.883	169.19
451.104	169.19
451.324	132.19
451.545	111.19
451.766	101.19
451.986	105.19
452.207	106.19
452.428	111.19
452.648	124.19
452.869	169.19
453.089	159.19
453.31	173.19
453.53	114.19
453.751	111.19
453.971	148.19
454.192	168.19
454.412	110.19
454.633	93.19
454.853	101.19
455.073	97.19
455.294	87.19
455.514	118.19
455.734	106.19
455.955	89.19
456.175	95.19
456.395	88.19
456.616	94.19
456.836	97.19
457.056	89.19
457.276	86.19
457.497	112.19
457.717	112.19
457.937	76.19
458.157	105.19
458.377	95.19
458.598	145.19
458.818	284.19
459.038	301.19
459.258	174.19
459.478	105.19
459.698	88.19
459.918	94.19
460.138	93.19
460.358	81.19
460.578	88.19
460.798	93.19
461.018	93.19
461.238	93.19
461.458	111.19
461.678	97.19
461.898	103.19
462.118	79.19
462.338	100.19
462.558	104.19
462.777	80.19
462.997	112.19
463.217	120.19
463.437	108.19
463.657	102.19
463.876	103.19
464.096	97.19
464.316	111.19
464.536	117.19
464.755	122.19
464.975	154.19
465.195	345.19
465.414	334.19
465.634	136.19
465.854	104.19
466.073	102.19
466.293	101.19
466.512	107.19
466.732	93.19
466.951	94.19
467.171	129.19
467.391	137.19
467.61	180.19
467.829	322.19
468.049	984.19
468.268	1448.19
468.488	335.19
468.707	121.19
468.927	108.19
469.146	104.19
469.365	114.19
469.585	101.19
469.804	124.19
470.023	122.19
470.243	108.19
470.462	165.19
470.681	175.19
470.901	113.19
471.12	112.19
471.339	112.19
471.558	157.19
471.777	204.19
471.997	467.19
472.216	1956.19
472.435	4442.19
472.654	928.19
472.873	223.19
473.092	133.19
473.311	107.19
473.53	105.19
473.749	100.19
473.968	118.19
474.187	148.19
474.406	121.19
474.625	107.19
474.844	108.19
475.063	102.19
475.282	101.19
475.501	90.19
475.72	91.19
475.939	92.19
476.158	97.19
476.377	100.19
476.596	102.19
476.814	111.19
477.033	104.19
477.252	112.19
477.471	110.19
477.69	112.19
477.908	92.19
478.127	101.19
478.346	105.19
478.564	118.19
478.783	134.19
479.002	133.19
479.22	121.19
479.439	173.19
479.658	160.19
479.876	143.19
480.095	155.19
480.313	176.19
480.532	225.19
480.751	425.19
480.969	1710.19
481.188	7504.19
481.406	4104.19
481.624	530.19
481.843	168.19
482.061	137.19
482.28	116.19
482.498	103.19
482.717	105.19
482.935	105.19
483.153	101.19
483.372	85.19
483.59	95.19
483.808	107.19
484.027	99.19
484.245	101.19
484.463	116.19
484.681	97.19
484.9	99.19
485.118	104.19
485.336	108.19
485.554	96.19
485.772	97.19
485.99	100.19
486.209	122.19
486.427	113.19
486.645	151.19
486.863	141.19
487.081	125.19
487.299	105.19
487.517	108.19
487.735	109.19
487.953	112.19
488.171	101.19
488.389	108.19
488.607	120.19
488.825	108.19
489.043	90.19
489.261	89.19
489.479	105.19
489.696	102.19
489.914	97.19
490.132	87.19
490.35	91.19
490.568	86.19
490.786	100.19
491.003	101.19
491.221	102.19
491.439	95.19
491.657	93.19
491.874	92.19
492.092	75.19
492.31	100.19
492.527	123.19
492.745	101.19
492.963	85.19
493.18	94.19
493.398	108.19
493.615	109.19
493.833	94.19
494.05	98.19
494.268	87.19
494.485	100.19
494.703	84.19
494.92	86.19
495.138	92.19
495.355	104.19
495.573	90.19
495.79	98.19
496.008	96.19
496.225	91.19
496.442	102.19
496.66	94.19
496.877	104.19
497.094	100.19
497.312	96.19
497.529	98.19
497.746	88.19
497.963	81.19
498.181	97.19
498.398	107.19
498.615	125.19
498.832	124.19
499.049	105.19
499.267	94.19
499.484	100.19
499.701	104.19
499.918	96.19
500.135	108.19
500.352	94.19
500.569	119.19
500.786	97.19
501.003	95.19
501.22	94.19
501.437	95.19
501.654	112.19
501.871	146.19
502.088	111.19
502.305	109.19
502.522	100.19
502.739	100.19
502.956	94.19
503.172	103.19
503.389	129.19
503.606	150.19
503.823	128.19
504.04	96.19
504.256	109.19
504.473	88.19
504.69	96.19
504.907	99.19
505.123	96.19
505.34	109.19
505.557	102.19
505.773	93.19
505.99	102.19
506.207	109.19
506.423	99.19
506.64	97.19
506.856	105.19
507.073	88.19
507.289	104.19
507.506	98.19
507.722	170.19
507.939	168.19
508.155	110.19
508.372	111.19
508.588	102.19
508.805	97.19
509.021	111.19
509.238	106.19
509.454	112.19
509.67	116.19
509.887	126.19
510.103	161.19
510.319	328.19
510.536	1416.19
