Data from Circ_1999_H10_HRD10591_00058.txt Node
Date: Wed Jan 03 11:23:24 EST 2024
User: Yrep
Spectrometer: HR+D1059
Trigger mode: 1
Integration Time (sec): 1.000000E-1
Scans to average: 1
Electric dark correction enabled: true
Nonlinearity correction enabled: false
Boxcar width: 0
XAxis mode: Wavelengths
Number of Pixels in Spectrum: 2048
>>>>>Begin Spectral Data<<<<<
223.165	-5
223.4	-5
223.635	-5
223.869	-8
224.104	-30
224.338	-24
224.573	-29
224.808	-15
225.042	-11
225.277	-2
225.511	-8
225.746	15
225.98	14
226.215	10
226.449	15
226.683	16
226.918	31
227.152	31
227.387	36
227.621	39
227.856	28
228.09	31
228.324	57
228.559	55
228.793	58
229.027	59
229.262	61
229.496	82
229.73	84
229.964	92
230.199	75
230.433	69
230.667	63
230.901	73
231.136	85
231.37	67
231.604	68
231.838	78
232.072	81
232.306	66
232.541	57
232.775	72
233.009	81
233.243	83
233.477	82
233.711	89
233.945	74
234.179	84
234.413	78
234.647	75
234.881	82
235.115	77
235.349	69
235.583	68
235.817	76
236.051	79
236.285	68
236.519	66
236.753	75
236.987	80
237.221	95
237.455	89
237.689	73
237.922	77
238.156	80
238.39	66
238.624	73
238.858	81
239.091	90
239.325	78
239.559	88
239.793	82
240.027	78
240.26	83
240.494	78
240.728	73
240.961	78
241.195	69
241.429	92
241.662	66
241.896	73
242.13	69
242.363	66
242.597	69
242.83	80
243.064	72
243.298	72
243.531	79
243.765	84
243.998	88
244.232	79
244.465	78
244.699	89
244.932	74
245.166	71
245.399	81
245.633	90
245.866	72
246.099	91
246.333	70
246.566	92
246.8	76
247.033	86
247.266	83
247.5	87
247.733	76
247.966	86
248.2	73
248.433	84
248.666	80
248.899	74
249.133	80
249.366	105
249.599	110
249.832	81
250.066	91
250.299	75
250.532	75
250.765	75
250.998	77
251.231	70
251.465	91
251.698	85
251.931	89
252.164	83
252.397	92
252.63	82
252.863	64
253.096	81
253.329	79
253.562	88
253.795	80
254.028	77
254.261	84
254.494	76
254.727	81
254.96	80
255.193	80
255.426	83
255.659	80
255.892	100
256.124	87
256.357	73
256.59	92
256.823	87
257.056	92
257.289	86
257.521	88
257.754	72
257.987	89
258.22	95
258.452	100
258.685	100
258.918	79
259.151	74
259.383	92
259.616	81
259.849	90
260.081	84
260.314	97
260.547	100
260.779	89
261.012	126
261.244	114
261.477	92
261.71	106
261.942	152
262.175	150
262.407	104
262.64	80
262.872	80
263.105	89
263.337	97
263.57	93
263.802	90
264.035	86
264.267	84
264.499	77
264.732	85
264.964	91
265.197	71
265.429	76
265.661	65
265.894	88
266.126	83
266.358	74
266.591	72
266.823	83
267.055	90
267.287	86
267.52	88
267.752	88
267.984	83
268.216	87
268.448	84
268.681	104
268.913	96
269.145	80
269.377	87
269.609	80
269.841	84
270.073	92
270.306	98
270.538	100
270.77	87
271.002	92
271.234	84
271.466	85
271.698	84
271.93	96
272.162	81
272.394	106
272.626	84
272.858	82
273.09	80
273.322	76
273.553	90
273.785	79
274.017	85
274.249	85
274.481	85
274.713	90
274.945	96
275.176	106
275.408	102
275.64	121
275.872	147
276.104	118
276.335	97
276.567	124
276.799	180
277.031	211
277.262	247
277.494	153
277.726	109
277.957	106
278.189	108
278.421	86
278.652	98
278.884	86
279.115	91
279.347	90
279.579	104
279.81	148
280.042	236
280.273	317
280.505	206
280.736	109
280.968	87
281.199	94
281.431	88
281.662	89
281.894	106
282.125	118
282.356	178
282.588	201
282.819	127
283.051	94
283.282	79
283.513	93
283.745	90
283.976	87
284.207	89
284.439	94
284.67	64
284.901	94
285.132	87
285.364	74
285.595	80
285.826	78
286.057	102
286.288	106
286.52	93
286.751	86
286.982	90
287.213	89
287.444	82
287.675	90
287.906	86
288.138	91
288.369	94
288.6	88
288.831	78
289.062	88
289.293	88
289.524	74
289.755	83
289.986	101
290.217	93
290.448	88
290.679	92
290.91	110
291.141	83
291.371	94
291.602	84
291.833	91
292.064	77
292.295	103
292.526	107
292.757	96
292.987	81
293.218	87
293.449	78
293.68	94
293.91	82
294.141	76
294.372	94
294.603	94
294.833	85
295.064	86
295.295	84
295.525	99
295.756	119
295.987	150
296.217	197
296.448	174
296.679	105
296.909	96
297.14	90
297.37	68
297.601	88
297.831	80
298.062	89
298.292	94
298.523	89
298.753	77
298.984	89
299.214	89
299.445	101
299.675	92
299.905	94
300.136	106
300.366	81
300.597	115
300.827	101
301.057	114
301.288	131
301.518	115
301.748	103
301.979	114
302.209	114
302.439	95
302.669	90
302.9	104
303.13	100
303.36	118
303.59	142
303.82	182
304.051	115
304.281	94
304.511	99
304.741	93
304.971	84
305.201	98
305.431	100
305.661	96
305.891	110
306.121	95
306.352	118
306.582	133
306.812	117
307.042	150
307.272	176
307.502	202
307.731	203
307.961	140
308.191	98
308.421	108
308.651	88
308.881	106
309.111	86
309.341	96
309.571	100
309.8	110
310.03	107
310.26	109
310.49	115
310.72	124
310.949	134
311.179	120
311.409	104
311.639	101
311.868	105
312.098	97
312.328	119
312.557	125
312.787	134
313.017	127
313.246	102
313.476	95
313.706	109
313.935	114
314.165	124
314.394	121
314.624	120
314.853	108
315.083	100
315.312	110
315.542	95
315.771	98
316.001	103
316.23	83
316.46	87
316.689	92
316.919	114
317.148	90
317.377	108
317.607	112
317.836	97
318.065	101
318.295	84
318.524	85
318.753	91
318.983	100
319.212	106
319.441	131
319.67	128
319.9	110
320.129	98
320.358	87
320.587	99
320.816	106
321.046	99
321.275	106
321.504	104
321.733	104
321.962	106
322.191	112
322.42	126
322.649	124
322.878	137
323.108	140
323.337	162
323.566	169
323.795	208
324.024	266
324.253	542
324.482	1124
324.71	2250
324.939	2980
325.168	1128
325.397	340
325.626	189
325.855	146
326.084	153
326.313	157
326.542	193
326.77	290
326.999	566
327.228	1117
327.457	2023
327.686	1660
327.914	658
328.143	676
328.372	880
328.6	481
328.829	221
329.058	218
329.287	249
329.515	205
329.744	306
329.972	613
330.201	1294
330.43	1886
330.658	813
330.887	377
331.115	228
331.344	144
331.572	123
331.801	154
332.03	136
332.258	126
332.486	113
332.715	110
332.943	108
333.172	133
333.4	146
333.629	190
333.857	284
334.085	537
334.314	1155
334.542	2319
334.771	2176
334.999	561
335.227	208
335.455	134
335.684	122
335.912	115
336.14	107
336.369	134
336.597	125
336.825	112
337.053	110
337.281	100
337.51	108
337.738	106
337.966	112
338.194	139
338.422	117
338.65	107
338.878	100
339.106	102
339.334	91
339.562	84
339.79	91
340.018	96
340.246	97
340.474	100
340.702	102
340.93	111
341.158	102
341.386	101
341.614	127
341.842	106
342.07	115
342.298	110
342.526	99
342.754	104
342.981	90
343.209	82
343.437	87
343.665	107
343.893	95
344.12	104
344.348	97
344.576	100
344.804	105
345.031	109
345.259	122
345.487	108
345.714	105
345.942	106
346.17	99
346.397	102
346.625	101
346.853	96
347.08	100
347.308	110
347.535	105
347.763	110
347.99	105
348.218	131
348.445	122
348.673	111
348.9	102
349.128	100
349.355	104
349.583	84
349.81	78
350.037	109
350.265	91
350.492	102
350.72	116
350.947	114
351.174	131
351.402	144
351.629	122
351.856	121
352.083	127
352.311	122
352.538	123
352.765	135
352.992	140
353.22	132
353.447	103
353.674	122
353.901	83
354.128	100
354.355	88
354.583	106
354.81	100
355.037	94
355.264	86
355.491	95
355.718	90
355.945	73
356.172	78
356.399	103
356.626	101
356.853	86
357.08	94
357.307	77
357.534	96
357.761	96
357.988	102
358.215	93
358.441	117
358.668	91
358.895	108
359.122	88
359.349	81
359.576	99
359.802	121
360.029	165
360.256	159
360.483	128
360.709	104
360.936	95
361.163	95
361.39	100
361.616	109
361.843	100
362.07	108
362.296	127
362.523	107
362.749	112
362.976	114
363.203	96
363.429	77
363.656	103
363.882	93
364.109	100
364.335	101
364.562	106
364.788	84
365.015	85
365.241	102
365.468	147
365.694	123
365.92	115
366.147	88
366.373	96
366.599	89
366.826	79
367.052	81
367.278	96
367.505	102
367.731	93
367.957	104
368.184	95
368.41	122
368.636	137
368.862	167
369.089	137
369.315	118
369.541	86
369.767	88
369.993	95
370.219	94
370.445	96
370.672	99
370.898	101
371.124	73
371.35	90
371.576	81
371.802	94
372.028	80
372.254	94
372.48	84
372.706	82
372.932	78
373.158	95
373.384	96
373.61	91
373.835	94
374.061	96
374.287	99
374.513	86
374.739	76
374.965	91
375.191	93
375.416	86
375.642	104
375.868	99
376.094	94
376.319	98
376.545	88
376.771	92
376.997	91
377.222	91
377.448	88
377.674	82
377.899	84
378.125	85
378.35	100
378.576	99
378.802	88
379.027	96
379.253	99
379.478	90
379.704	100
379.929	105
380.155	122
380.38	100
380.606	103
380.831	82
381.057	92
381.282	90
381.507	91
381.733	95
381.958	100
382.184	96
382.409	117
382.634	109
382.86	96
383.085	104
383.31	94
383.535	108
383.761	104
383.986	112
384.211	101
384.436	101
384.662	96
384.887	100
385.112	115
385.337	116
385.562	95
385.787	105
386.013	111
386.238	148
386.463	118
386.688	111
386.913	98
387.138	111
387.363	112
387.588	92
387.813	101
388.038	104
388.263	118
388.488	123
388.713	103
388.938	83
389.163	100
389.387	91
389.612	100
389.837	94
390.062	92
390.287	89
390.512	81
390.736	91
390.961	78
391.186	93
391.411	83
391.636	82
391.86	82
392.085	86
392.31	88
392.534	87
392.759	77
392.984	81
393.208	89
393.433	88
393.658	90
393.882	90
394.107	78
394.331	95
394.556	78
394.78	92
395.005	84
395.229	88
395.454	83
395.678	88
395.903	114
396.127	81
396.352	83
396.576	86
396.801	89
397.025	86
397.249	84
397.474	100
397.698	91
397.922	99
398.147	90
398.371	90
398.595	68
398.82	92
399.044	80
399.268	88
399.492	99
399.717	93
399.941	97
400.165	96
400.389	100
400.613	99
400.837	89
401.062	82
401.286	96
401.51	101
401.734	103
401.958	119
402.182	175
402.406	268
402.63	170
402.854	115
403.078	119
403.302	85
403.526	95
403.75	88
403.974	80
404.198	88
404.422	91
404.645	107
404.869	111
405.093	131
405.317	130
405.541	155
405.765	135
405.988	144
406.212	280
406.436	434
406.66	262
406.883	143
407.107	113
407.331	100
407.555	110
407.778	102
408.002	99
408.226	90
408.449	80
408.673	110
408.896	107
409.12	103
409.344	98
409.567	88
409.791	86
410.014	102
410.238	92
410.461	87
410.685	88
410.908	112
411.132	120
411.355	99
411.578	93
411.802	90
412.025	87
412.249	91
412.472	119
412.695	148
412.919	113
413.142	96
413.365	96
413.589	95
413.812	90
414.035	92
414.258	102
414.482	89
414.705	95
414.928	90
415.151	86
415.374	84
415.597	99
415.821	94
416.044	89
416.267	91
416.49	89
416.713	88
416.936	99
417.159	95
417.382	114
417.605	98
417.828	114
418.051	108
418.274	84
418.497	90
418.72	94
418.943	83
419.166	95
419.389	99
419.611	85
419.834	92
420.057	88
420.28	100
420.503	94
420.726	90
420.948	100
421.171	98
421.394	107
421.617	78
421.839	88
422.062	100
422.285	88
422.507	111
422.73	126
422.953	87
423.175	88
423.398	91
423.621	89
423.843	97
424.066	78
424.288	86
424.511	116
424.733	118
424.956	132
425.178	125
425.401	108
425.623	107
425.846	101
426.068	101
426.291	91
426.513	96
426.735	92
426.958	111
427.18	119
427.402	197
427.625	300
427.847	273
428.069	200
428.292	132
428.514	100
428.736	96
428.958	86
429.181	81
429.403	79
429.625	101
429.847	94
430.069	102
430.292	78
430.514	99
430.736	81
430.958	80
431.18	78
431.402	91
431.624	82
431.846	74
432.068	90
432.29	94
432.512	86
432.734	93
432.956	94
433.178	95
433.4	106
433.622	94
433.844	94
434.066	97
434.287	95
434.509	104
434.731	86
434.953	85
435.175	85
435.397	79
435.618	103
435.84	108
436.062	130
436.284	119
436.505	97
436.727	103
436.949	94
437.17	88
437.392	96
437.614	110
437.835	133
438.057	172
438.278	135
438.5	123
438.721	130
438.943	105
439.165	90
439.386	87
439.608	102
439.829	114
440.05	146
440.272	190
440.493	128
440.715	70
440.936	88
441.158	89
441.379	73
441.6	98
441.822	117
442.043	100
442.264	119
442.486	119
442.707	105
442.928	126
443.149	196
443.371	184
443.592	159
443.813	128
444.034	114
444.255	95
444.476	99
444.698	93
444.919	80
445.14	132
445.361	122
445.582	142
445.803	200
446.024	167
446.245	174
446.466	141
446.687	103
446.908	94
447.129	96
447.35	87
447.571	98
447.792	85
448.013	125
448.234	137
448.455	112
448.675	128
448.896	121
449.117	103
449.338	98
449.559	139
449.779	155
450	117
450.221	99
450.442	102
450.662	109
450.883	139
451.104	162
451.324	110
451.545	93
451.766	91
451.986	80
452.207	95
452.428	96
452.648	115
452.869	148
453.089	156
453.31	166
453.53	90
453.751	110
453.971	137
454.192	150
454.412	107
454.633	83
454.853	87
455.073	92
455.294	97
455.514	100
455.734	92
455.955	82
456.175	75
456.395	85
456.616	82
456.836	79
457.056	89
457.276	90
457.497	91
457.717	89
457.937	94
458.157	88
458.377	100
458.598	142
458.818	266
459.038	300
459.258	168
459.478	95
459.698	87
459.918	92
460.138	90
460.358	93
460.578	94
460.798	89
461.018	96
461.238	87
461.458	90
461.678	91
461.898	87
462.118	77
462.338	90
462.558	99
462.777	100
462.997	94
463.217	124
463.437	100
463.657	100
463.876	111
464.096	87
464.316	115
464.536	104
464.755	96
464.975	137
465.195	301
465.414	292
465.634	153
465.854	117
466.073	85
466.293	86
466.512	89
466.732	87
466.951	100
467.171	103
467.391	131
467.61	182
467.829	276
468.049	794
468.268	1221
468.488	280
468.707	138
468.927	97
469.146	92
469.365	108
469.585	102
469.804	116
470.023	113
470.243	111
470.462	127
470.681	164
470.901	133
471.12	115
471.339	130
471.558	134
471.777	179
471.997	394
472.216	1486
472.435	3544
472.654	783
472.873	206
473.092	119
473.311	97
473.53	100
473.749	104
473.968	122
474.187	149
474.406	111
474.625	96
474.844	100
475.063	88
475.282	85
475.501	90
475.72	72
475.939	79
476.158	86
476.377	89
476.596	105
476.814	107
477.033	115
477.252	95
477.471	95
477.69	98
477.908	100
478.127	112
478.346	86
478.564	105
478.783	132
479.002	127
479.22	120
479.439	141
479.658	152
479.876	131
480.095	124
480.313	165
480.532	202
480.751	350
480.969	1371
481.188	5990
481.406	3329
481.624	462
481.843	156
482.061	122
482.28	95
482.498	99
482.717	90
482.935	99
483.153	97
483.372	88
483.59	96
483.808	95
484.027	90
484.245	107
484.463	98
484.681	116
484.9	102
485.118	80
485.336	95
485.554	101
485.772	107
485.99	117
486.209	111
486.427	124
486.645	154
486.863	140
487.081	101
487.299	98
487.517	80
487.735	98
487.953	85
488.171	88
488.389	103
488.607	103
488.825	91
489.043	97
489.261	102
489.479	91
489.696	87
489.914	85
490.132	91
490.35	93
490.568	93
490.786	98
491.003	82
491.221	98
491.439	105
491.657	93
491.874	98
492.092	97
492.31	95
492.527	99
492.745	115
492.963	85
493.18	98
493.398	90
493.615	85
493.833	87
494.05	88
494.268	81
494.485	94
494.703	98
494.92	96
495.138	90
495.355	104
495.573	100
495.79	100
496.008	104
496.225	87
496.442	86
496.66	96
496.877	94
497.094	99
497.312	93
497.529	81
497.746	96
497.963	91
498.181	94
498.398	103
498.615	107
498.832	105
499.049	123
499.267	93
499.484	88
499.701	88
499.918	83
500.135	79
500.352	100
500.569	82
500.786	100
501.003	92
501.22	87
501.437	95
501.654	101
501.871	144
502.088	104
502.305	97
502.522	94
502.739	89
502.956	79
503.172	102
503.389	104
503.606	133
503.823	122
504.04	91
504.256	91
504.473	101
504.69	104
504.907	91
505.123	79
505.34	84
505.557	94
505.773	107
505.99	89
506.207	105
506.423	96
506.64	96
506.856	99
507.073	91
507.289	109
507.506	100
507.722	155
507.939	149
508.155	122
508.372	99
508.588	108
508.805	104
509.021	106
509.238	107
509.454	112
509.67	115
509.887	131
510.103	168
510.319	322
510.536	1355
510.752	5028
510.968	1275
511.184	229
511.401	152
511.617	117
511.833	116
512.049	103
512.265	117
512.481	110
512.698	103
512.914	112
513.13	96
513.346	101
513.562	96
513.778	114
513.994	95
514.21	141
514.426	175
514.642	229
514.858	194
515.074	279
515.29	1052
515.506	4104
515.721	1370
515.937	286
516.153	141
516.369	123
516.585	120
516.801	109
517.016	105
517.232	109
517.448	112
517.664	92
517.879	99
518.095	117
518.311	120
518.527	128
518.742	115
518.958	100
519.173	100
519.389	106
519.605	91
519.82	109
520.036	122
520.251	185
520.467	160
520.682	121
520.898	157
521.113	168
521.329	235
521.544	408
521.76	1351
521.975	6755
522.19	4019
522.406	741
522.621	194
522.836	132
523.052	122
523.267	103
523.482	130
523.698	123
523.913	178
524.128	149
524.343	110
524.559	106
524.774	104
524.989	100
525.204	123
525.419	125
525.634	95
525.849	96
526.064	101
526.28	98
526.495	85
526.71	91
526.925	96
527.14	86
527.355	76
527.57	94
527.785	97
527.999	93
528.214	89
528.429	117
528.644	111
528.859	86
529.074	101
529.289	189
529.503	361
529.718	132
529.933	96
530.148	82
530.363	86
530.577	82
530.792	93
531.007	99
531.221	94
531.436	82
531.651	94
531.865	102
532.08	109
532.295	94
532.509	88
532.724	87
532.938	84
533.153	107
533.367	82
533.582	87
533.796	94
534.011	99
534.225	86
534.44	95
534.654	96
534.868	86
535.083	91
535.297	90
535.511	115
535.726	123
535.94	118
536.154	98
536.369	92
536.583	100
536.797	92
537.011	89
537.225	122
537.44	86
537.654	101
537.868	90
538.082	77
538.296	95
538.51	85
538.724	94
538.938	91
539.153	101
539.367	146
539.581	109
539.795	95
540.009	90
540.222	92
540.436	95
540.65	87
540.864	95
541.078	121
541.292	95
541.506	86
541.72	101
541.934	78
542.147	89
542.361	84
542.575	98
542.789	94
543.002	98
543.216	99
543.43	120
543.644	100
543.857	107
544.071	82
544.285	85
544.498	93
544.712	103
544.925	92
545.139	99
545.352	84
545.566	80
545.779	87
545.993	81
546.206	102
546.42	85
546.633	88
546.847	95
547.06	88
547.274	87
547.487	77
547.7	92
547.914	100
548.127	87
548.34	86
548.554	101
548.767	88
548.98	90
549.193	88
549.407	89
549.62	74
549.833	97
550.046	89
550.259	87
550.473	98
550.686	101
550.899	86
551.112	84
551.325	74
551.538	115
551.751	93
551.964	89
552.177	90
552.39	95
552.603	96
552.816	92
553.029	95
553.242	100
553.455	112
553.667	137
553.88	137
554.093	110
554.306	123
554.519	134
554.732	98
554.944	88
555.157	86
555.37	94
555.583	91
555.795	96
556.008	78
556.221	91
556.433	97
556.646	95
556.859	95
557.071	82
557.284	97
557.496	93
557.709	91
557.921	93
558.134	106
558.346	79
558.559	87
558.771	73
558.984	82
559.196	85
559.409	86
559.621	100
559.833	107
560.046	108
560.258	121
560.47	150
560.683	105
560.895	82
561.107	84
561.32	91
561.532	98
561.744	78
561.956	81
562.168	84
562.381	95
562.593	92
562.805	96
563.017	110
563.229	91
563.441	91
563.653	88
563.865	95
564.077	85
564.289	107
564.501	89
564.713	86
564.925	101
565.137	118
565.349	91
565.561	82
565.773	89
565.985	90
566.197	92
566.408	79
566.62	83
566.832	85
567.044	70
567.255	83
567.467	80
567.679	84
567.891	78
568.102	99
568.314	93
568.526	94
568.737	108
568.949	100
569.161	94
569.372	87
569.584	84
569.795	96
570.007	121
570.218	438
570.43	186
570.641	105
570.853	104
571.064	101
571.276	98
571.487	93
571.698	85
571.91	78
572.121	87
572.333	91
572.544	93
572.755	79
572.966	82
573.178	88
573.389	107
573.6	105
573.811	103
574.023	85
574.234	86
574.445	93
574.656	91
574.867	91
575.078	87
575.289	86
575.501	80
575.712	94
575.923	76
576.134	100
576.345	83
576.556	86
576.767	79
576.978	105
577.188	111
577.399	91
577.61	95
577.821	111
578.032	146
578.243	463
578.454	1593
