Data from Circ_1999_H10_HRD10591_00042.txt Node
Date: Wed Jan 03 11:23:21 EST 2024
User: Yrep
Spectrometer: HR+D1059
Trigger mode: 1
Integration Time (sec): 1.000000E-1
Scans to average: 1
Electric dark correction enabled: true
Nonlinearity correction enabled: false
Boxcar width: 0
XAxis mode: Wavelengths
Number of Pixels in Spectrum: 2048
>>>>>Begin Spectral Data<<<<<
223.165	-7.69
223.4	-7.69
223.635	-7.69
223.869	-11.69
224.104	-16.69
224.338	-19.69
224.573	-30.69
224.808	-6.69
225.042	-2.69
225.277	4.31
225.511	-8.69
225.746	12.31
225.98	-4.69
226.215	4.31
226.449	20.31
226.683	26.31
226.918	11.31
227.152	30.31
227.387	34.31
227.621	43.31
227.856	45.31
228.09	35.31
228.324	37.31
228.559	55.31
228.793	42.31
229.027	59.31
229.262	86.31
229.496	89.31
229.73	112.31
229.964	97.31
230.199	68.31
230.433	76.31
230.667	74.31
230.901	92.31
231.136	62.31
231.37	76.31
231.604	87.31
231.838	74.31
232.072	72.31
232.306	79.31
232.541	82.31
232.775	87.31
233.009	71.31
233.243	81.31
233.477	92.31
233.711	67.31
233.945	73.31
234.179	78.31
234.413	79.31
234.647	80.31
234.881	74.31
235.115	75.31
235.349	85.31
235.583	72.31
235.817	72.31
236.051	75.31
236.285	80.31
236.519	76.31
236.753	87.31
236.987	71.31
237.221	96.31
237.455	100.31
237.689	72.31
237.922	77.31
238.156	75.31
238.39	60.31
238.624	70.31
238.858	68.31
239.091	74.31
239.325	88.31
239.559	90.31
239.793	88.31
240.027	85.31
240.26	83.31
240.494	97.31
240.728	72.31
240.961	74.31
241.195	80.31
241.429	87.31
241.662	81.31
241.896	80.31
242.13	81.31
242.363	84.31
242.597	65.31
242.83	80.31
243.064	69.31
243.298	68.31
243.531	65.31
243.765	76.31
243.998	82.31
244.232	84.31
244.465	76.31
244.699	76.31
244.932	79.31
245.166	82.31
245.399	63.31
245.633	82.31
245.866	77.31
246.099	76.31
246.333	88.31
246.566	89.31
246.8	82.31
247.033	87.31
247.266	83.31
247.5	64.31
247.733	91.31
247.966	84.31
248.2	88.31
248.433	82.31
248.666	85.31
248.899	91.31
249.133	95.31
249.366	99.31
249.599	120.31
249.832	91.31
250.066	65.31
250.299	91.31
250.532	88.31
250.765	82.31
250.998	87.31
251.231	88.31
251.465	71.31
251.698	85.31
251.931	91.31
252.164	83.31
252.397	58.31
252.63	86.31
252.863	89.31
253.096	74.31
253.329	73.31
253.562	87.31
253.795	78.31
254.028	82.31
254.261	82.31
254.494	83.31
254.727	95.31
254.96	86.31
255.193	85.31
255.426	74.31
255.659	86.31
255.892	90.31
256.124	106.31
256.357	82.31
256.59	95.31
256.823	83.31
257.056	98.31
257.289	75.31
257.521	83.31
257.754	91.31
257.987	95.31
258.22	98.31
258.452	105.31
258.685	95.31
258.918	103.31
259.151	72.31
259.383	84.31
259.616	85.31
259.849	93.31
260.081	89.31
260.314	86.31
260.547	88.31
260.779	110.31
261.012	105.31
261.244	111.31
261.477	92.31
261.71	113.31
261.942	158.31
262.175	161.31
262.407	91.31
262.64	93.31
262.872	87.31
263.105	94.31
263.337	83.31
263.57	89.31
263.802	81.31
264.035	77.31
264.267	77.31
264.499	80.31
264.732	86.31
264.964	75.31
265.197	85.31
265.429	82.31
265.661	70.31
265.894	90.31
266.126	91.31
266.358	84.31
266.591	72.31
266.823	81.31
267.055	80.31
267.287	81.31
267.52	86.31
267.752	84.31
267.984	90.31
268.216	72.31
268.448	95.31
268.681	90.31
268.913	85.31
269.145	73.31
269.377	92.31
269.609	82.31
269.841	82.31
270.073	91.31
270.306	75.31
270.538	95.31
270.77	81.31
271.002	73.31
271.234	97.31
271.466	100.31
271.698	87.31
271.93	101.31
272.162	79.31
272.394	109.31
272.626	75.31
272.858	90.31
273.09	87.31
273.322	80.31
273.553	92.31
273.785	90.31
274.017	87.31
274.249	87.31
274.481	96.31
274.713	98.31
274.945	88.31
275.176	72.31
275.408	106.31
275.64	136.31
275.872	119.31
276.104	112.31
276.335	108.31
276.567	125.31
276.799	184.31
277.031	202.31
277.262	232.31
277.494	172.31
277.726	105.31
277.957	98.31
278.189	92.31
278.421	95.31
278.652	89.31
278.884	97.31
279.115	87.31
279.347	85.31
279.579	96.31
279.81	145.31
280.042	217.31
280.273	310.31
280.505	205.31
280.736	119.31
280.968	88.31
281.199	99.31
281.431	77.31
281.662	84.31
281.894	87.31
282.125	117.31
282.356	168.31
282.588	226.31
282.819	158.31
283.051	103.31
283.282	76.31
283.513	93.31
283.745	89.31
283.976	99.31
284.207	94.31
284.439	101.31
284.67	88.31
284.901	90.31
285.132	69.31
285.364	95.31
285.595	103.31
285.826	82.31
286.057	95.31
286.288	85.31
286.52	88.31
286.751	97.31
286.982	80.31
287.213	80.31
287.444	102.31
287.675	84.31
287.906	101.31
288.138	102.31
288.369	101.31
288.6	91.31
288.831	108.31
289.062	96.31
289.293	97.31
289.524	91.31
289.755	80.31
289.986	88.31
290.217	84.31
290.448	87.31
290.679	80.31
290.91	81.31
291.141	80.31
291.371	80.31
291.602	79.31
291.833	92.31
292.064	94.31
292.295	91.31
292.526	87.31
292.757	99.31
292.987	88.31
293.218	86.31
293.449	96.31
293.68	93.31
293.91	91.31
294.141	93.31
294.372	90.31
294.603	102.31
294.833	84.31
295.064	83.31
295.295	96.31
295.525	112.31
295.756	125.31
295.987	155.31
296.217	218.31
296.448	196.31
296.679	103.31
296.909	95.31
297.14	98.31
297.37	98.31
297.601	93.31
297.831	92.31
298.062	91.31
298.292	96.31
298.523	97.31
298.753	83.31
298.984	95.31
299.214	81.31
299.445	97.31
299.675	109.31
299.905	112.31
300.136	101.31
300.366	101.31
300.597	81.31
300.827	110.31
301.057	125.31
301.288	127.31
301.518	102.31
301.748	100.31
301.979	129.31
302.209	106.31
302.439	94.31
302.669	93.31
302.9	93.31
303.13	108.31
303.36	118.31
303.59	147.31
303.82	172.31
304.051	121.31
304.281	115.31
304.511	109.31
304.741	98.31
304.971	81.31
305.201	98.31
305.431	97.31
305.661	96.31
305.891	109.31
306.121	110.31
306.352	131.31
306.582	144.31
306.812	117.31
307.042	134.31
307.272	173.31
307.502	204.31
307.731	198.31
307.961	132.31
308.191	97.31
308.421	93.31
308.651	104.31
308.881	92.31
309.111	102.31
309.341	98.31
309.571	104.31
309.8	117.31
310.03	125.31
310.26	120.31
310.49	112.31
310.72	120.31
310.949	150.31
311.179	127.31
311.409	88.31
311.639	111.31
311.868	114.31
312.098	96.31
312.328	109.31
312.557	127.31
312.787	134.31
313.017	141.31
313.246	107.31
313.476	108.31
313.706	101.31
313.935	123.31
314.165	129.31
314.394	141.31
314.624	104.31
314.853	110.31
315.083	115.31
315.312	114.31
315.542	88.31
315.771	96.31
316.001	101.31
316.23	100.31
316.46	98.31
316.689	94.31
316.919	99.31
317.148	97.31
317.377	102.31
317.607	97.31
317.836	109.31
318.065	98.31
318.295	86.31
318.524	93.31
318.753	102.31
318.983	96.31
319.212	116.31
319.441	129.31
319.67	132.31
319.9	98.31
320.129	95.31
320.358	106.31
320.587	119.31
320.816	119.31
321.046	125.31
321.275	97.31
321.504	97.31
321.733	103.31
321.962	112.31
322.191	120.31
322.42	107.31
322.649	150.31
322.878	136.31
323.108	150.31
323.337	166.31
323.566	179.31
323.795	201.31
324.024	280.31
324.253	528.31
324.482	1135.31
324.71	2359.31
324.939	3116.31
325.168	1175.31
325.397	340.31
325.626	208.31
325.855	166.31
326.084	148.31
326.313	170.31
326.542	190.31
326.77	309.31
326.999	574.31
327.228	1196.31
327.457	2126.31
327.686	1750.31
327.914	684.31
328.143	691.31
328.372	888.31
328.6	488.31
328.829	228.31
329.058	230.31
329.287	241.31
329.515	210.31
329.744	283.31
329.972	578.31
330.201	1260.31
330.43	1850.31
330.658	848.31
330.887	388.31
331.115	257.31
331.344	136.31
331.572	135.31
331.801	142.31
332.03	144.31
332.258	120.31
332.486	134.31
332.715	116.31
332.943	130.31
333.172	120.31
333.4	145.31
333.629	182.31
333.857	275.31
334.085	551.31
334.314	1113.31
334.542	2254.31
334.771	2141.31
334.999	541.31
335.227	217.31
335.455	136.31
335.684	131.31
335.912	119.31
336.14	101.31
336.369	122.31
336.597	137.31
336.825	122.31
337.053	106.31
337.281	112.31
337.51	103.31
337.738	102.31
337.966	112.31
338.194	122.31
338.422	117.31
338.65	88.31
338.878	113.31
339.106	94.31
339.334	101.31
339.562	103.31
339.79	98.31
340.018	88.31
340.246	94.31
340.474	120.31
340.702	105.31
340.93	97.31
341.158	108.31
341.386	119.31
341.614	110.31
341.842	103.31
342.07	98.31
342.298	101.31
342.526	98.31
342.754	84.31
342.981	87.31
343.209	92.31
343.437	98.31
343.665	96.31
343.893	82.31
344.12	96.31
344.348	98.31
344.576	99.31
344.804	97.31
345.031	125.31
345.259	120.31
345.487	95.31
345.714	110.31
345.942	97.31
346.17	96.31
346.397	97.31
346.625	96.31
346.853	98.31
347.08	99.31
347.308	109.31
347.535	105.31
347.763	125.31
347.99	114.31
348.218	119.31
348.445	121.31
348.673	119.31
348.9	119.31
349.128	108.31
349.355	81.31
349.583	91.31
349.81	100.31
350.037	113.31
350.265	114.31
350.492	95.31
350.72	118.31
350.947	106.31
351.174	124.31
351.402	138.31
351.629	124.31
351.856	114.31
352.083	117.31
352.311	140.31
352.538	157.31
352.765	134.31
352.992	134.31
353.22	133.31
353.447	119.31
353.674	115.31
353.901	113.31
354.128	95.31
354.355	105.31
354.583	100.31
354.81	108.31
355.037	105.31
355.264	95.31
355.491	102.31
355.718	91.31
355.945	88.31
356.172	87.31
356.399	93.31
356.626	98.31
356.853	101.31
357.08	88.31
357.307	114.31
357.534	92.31
357.761	87.31
357.988	98.31
358.215	102.31
358.441	94.31
358.668	79.31
358.895	102.31
359.122	63.31
359.349	95.31
359.576	100.31
359.802	136.31
360.029	173.31
360.256	163.31
360.483	132.31
360.709	97.31
360.936	92.31
361.163	97.31
361.39	112.31
361.616	109.31
361.843	117.31
362.07	122.31
362.296	115.31
362.523	103.31
362.749	122.31
362.976	96.31
363.203	93.31
363.429	96.31
363.656	98.31
363.882	97.31
364.109	97.31
364.335	105.31
364.562	104.31
364.788	111.31
365.015	117.31
365.241	130.31
365.468	138.31
365.694	164.31
365.92	133.31
366.147	114.31
366.373	99.31
366.599	89.31
366.826	109.31
367.052	95.31
367.278	101.31
367.505	103.31
367.731	108.31
367.957	96.31
368.184	104.31
368.41	131.31
368.636	151.31
368.862	146.31
369.089	144.31
369.315	114.31
369.541	107.31
369.767	110.31
369.993	104.31
370.219	116.31
370.445	99.31
370.672	106.31
370.898	87.31
371.124	89.31
371.35	106.31
371.576	84.31
371.802	81.31
372.028	84.31
372.254	93.31
372.48	101.31
372.706	81.31
372.932	103.31
373.158	84.31
373.384	98.31
373.61	86.31
373.835	92.31
374.061	89.31
374.287	82.31
374.513	113.31
374.739	94.31
374.965	82.31
375.191	103.31
375.416	97.31
375.642	90.31
375.868	98.31
376.094	98.31
376.319	102.31
376.545	95.31
376.771	89.31
376.997	76.31
377.222	93.31
377.448	97.31
377.674	86.31
377.899	97.31
378.125	98.31
378.35	80.31
378.576	95.31
378.802	88.31
379.027	98.31
379.253	93.31
379.478	94.31
379.704	81.31
379.929	102.31
380.155	102.31
380.38	89.31
380.606	89.31
380.831	105.31
381.057	95.31
381.282	98.31
381.507	105.31
381.733	84.31
381.958	105.31
382.184	111.31
382.409	89.31
382.634	101.31
382.86	93.31
383.085	94.31
383.31	106.31
383.535	100.31
383.761	110.31
383.986	101.31
384.211	115.31
384.436	104.31
384.662	94.31
384.887	105.31
385.112	113.31
385.337	98.31
385.562	97.31
385.787	106.31
386.013	124.31
386.238	130.31
386.463	115.31
386.688	128.31
386.913	100.31
387.138	104.31
387.363	113.31
387.588	104.31
387.813	89.31
388.038	115.31
388.263	124.31
388.488	106.31
388.713	99.31
388.938	107.31
389.163	102.31
389.387	91.31
389.612	99.31
389.837	84.31
390.062	102.31
390.287	100.31
390.512	80.31
390.736	87.31
390.961	92.31
391.186	90.31
391.411	92.31
391.636	88.31
391.86	88.31
392.085	85.31
392.31	95.31
392.534	88.31
392.759	88.31
392.984	92.31
393.208	105.31
393.433	98.31
393.658	82.31
393.882	91.31
394.107	76.31
394.331	87.31
394.556	102.31
394.78	100.31
395.005	108.31
395.229	71.31
395.454	103.31
395.678	95.31
395.903	84.31
396.127	98.31
396.352	86.31
396.576	91.31
396.801	88.31
397.025	88.31
397.249	97.31
397.474	86.31
397.698	90.31
397.922	101.31
398.147	86.31
398.371	103.31
398.595	86.31
398.82	87.31
399.044	88.31
399.268	84.31
399.492	78.31
399.717	102.31
399.941	98.31
400.165	90.31
400.389	95.31
400.613	98.31
400.837	94.31
401.062	88.31
401.286	97.31
401.51	116.31
401.734	108.31
401.958	136.31
402.182	188.31
402.406	292.31
402.63	203.31
402.854	116.31
403.078	83.31
403.302	104.31
403.526	88.31
403.75	96.31
403.974	101.31
404.198	90.31
404.422	113.31
404.645	98.31
404.869	92.31
405.093	126.31
405.317	156.31
405.541	148.31
405.765	134.31
405.988	184.31
406.212	296.31
406.436	465.31
406.66	292.31
406.883	149.31
407.107	123.31
407.331	109.31
407.555	112.31
407.778	101.31
408.002	100.31
408.226	84.31
408.449	85.31
408.673	90.31
408.896	102.31
409.12	105.31
409.344	97.31
409.567	94.31
409.791	95.31
410.014	103.31
410.238	97.31
410.461	84.31
410.685	97.31
410.908	92.31
411.132	102.31
411.355	105.31
411.578	84.31
411.802	92.31
412.025	95.31
412.249	100.31
412.472	111.31
412.695	142.31
412.919	103.31
413.142	96.31
413.365	91.31
413.589	92.31
413.812	87.31
414.035	106.31
414.258	112.31
414.482	95.31
414.705	96.31
414.928	96.31
415.151	100.31
415.374	88.31
415.597	80.31
415.821	94.31
416.044	105.31
416.267	91.31
416.49	85.31
416.713	78.31
416.936	108.31
417.159	92.31
417.382	101.31
417.605	118.31
417.828	130.31
418.051	97.31
418.274	69.31
418.497	103.31
418.72	87.31
418.943	89.31
419.166	88.31
419.389	92.31
419.611	98.31
419.834	96.31
420.057	96.31
420.28	102.31
420.503	94.31
420.726	94.31
420.948	90.31
421.171	94.31
421.394	94.31
421.617	97.31
421.839	95.31
422.062	85.31
422.285	82.31
422.507	109.31
422.73	106.31
422.953	110.31
423.175	103.31
423.398	86.31
423.621	98.31
423.843	78.31
424.066	88.31
424.288	91.31
424.511	103.31
424.733	97.31
424.956	113.31
425.178	111.31
425.401	116.31
425.623	113.31
425.846	100.31
426.068	94.31
426.291	106.31
426.513	89.31
426.735	105.31
426.958	104.31
427.18	149.31
427.402	210.31
427.625	303.31
427.847	280.31
428.069	195.31
428.292	129.31
428.514	110.31
428.736	91.31
428.958	89.31
429.181	81.31
429.403	94.31
429.625	97.31
429.847	96.31
430.069	111.31
430.292	92.31
430.514	98.31
430.736	91.31
430.958	88.31
431.18	81.31
431.402	97.31
431.624	80.31
431.846	98.31
432.068	101.31
432.29	95.31
432.512	96.31
432.734	99.31
432.956	98.31
433.178	113.31
433.4	92.31
433.622	96.31
433.844	91.31
434.066	96.31
434.287	99.31
434.509	96.31
434.731	104.31
434.953	82.31
435.175	96.31
435.397	84.31
435.618	87.31
435.84	126.31
436.062	128.31
436.284	125.31
436.505	108.31
436.727	110.31
436.949	90.31
437.17	88.31
437.392	89.31
437.614	116.31
437.835	156.31
438.057	185.31
438.278	136.31
438.5	115.31
438.721	131.31
438.943	108.31
439.165	103.31
439.386	104.31
439.608	106.31
439.829	105.31
440.05	156.31
440.272	200.31
440.493	115.31
440.715	114.31
440.936	102.31
441.158	90.31
441.379	82.31
441.6	99.31
441.822	103.31
442.043	106.31
442.264	136.31
442.486	121.31
442.707	118.31
442.928	136.31
443.149	185.31
443.371	217.31
443.592	152.31
443.813	133.31
444.034	140.31
444.255	94.31
444.476	97.31
444.698	104.31
444.919	93.31
445.14	126.31
445.361	122.31
445.582	149.31
445.803	189.31
446.024	189.31
446.245	174.31
446.466	127.31
446.687	97.31
446.908	100.31
447.129	96.31
447.35	96.31
447.571	99.31
447.792	109.31
448.013	121.31
448.234	144.31
448.455	124.31
448.675	143.31
448.896	139.31
449.117	108.31
449.338	103.31
449.559	137.31
449.779	151.31
450	102.31
450.221	85.31
450.442	96.31
450.662	108.31
450.883	150.31
451.104	168.31
451.324	116.31
451.545	80.31
451.766	80.31
451.986	87.31
452.207	103.31
452.428	94.31
452.648	130.31
452.869	157.31
453.089	163.31
453.31	181.31
453.53	136.31
453.751	107.31
453.971	137.31
454.192	159.31
454.412	114.31
454.633	89.31
454.853	94.31
455.073	87.31
455.294	94.31
455.514	116.31
455.734	103.31
455.955	92.31
456.175	78.31
456.395	91.31
456.616	82.31
456.836	91.31
457.056	81.31
457.276	83.31
457.497	106.31
457.717	115.31
457.937	102.31
458.157	86.31
458.377	92.31
458.598	128.31
458.818	278.31
459.038	304.31
459.258	179.31
459.478	102.31
459.698	92.31
459.918	87.31
460.138	93.31
460.358	84.31
460.578	64.31
460.798	97.31
461.018	92.31
461.238	76.31
461.458	88.31
461.678	104.31
461.898	104.31
462.118	79.31
462.338	90.31
462.558	83.31
462.777	98.31
462.997	112.31
463.217	107.31
463.437	106.31
463.657	95.31
463.876	87.31
464.096	97.31
464.316	128.31
464.536	111.31
464.755	107.31
464.975	145.31
465.195	343.31
465.414	326.31
465.634	131.31
465.854	125.31
466.073	99.31
466.293	100.31
466.512	103.31
466.732	106.31
466.951	108.31
467.171	109.31
467.391	124.31
467.61	188.31
467.829	285.31
468.049	782.31
468.268	1177.31
468.488	286.31
468.707	117.31
468.927	108.31
469.146	105.31
469.365	101.31
469.585	92.31
469.804	96.31
470.023	113.31
470.243	118.31
470.462	138.31
470.681	176.31
470.901	126.31
471.12	98.31
471.339	120.31
471.558	130.31
471.777	204.31
471.997	374.31
472.216	1472.31
472.435	3462.31
472.654	764.31
472.873	194.31
473.092	105.31
473.311	113.31
473.53	109.31
473.749	98.31
473.968	109.31
474.187	131.31
474.406	115.31
474.625	103.31
474.844	99.31
475.063	95.31
475.282	102.31
475.501	92.31
475.72	115.31
475.939	74.31
476.158	91.31
476.377	73.31
476.596	94.31
476.814	126.31
477.033	110.31
477.252	91.31
477.471	84.31
477.69	92.31
477.908	101.31
478.127	95.31
478.346	94.31
478.564	120.31
478.783	123.31
479.002	118.31
479.22	126.31
479.439	142.31
479.658	158.31
479.876	156.31
480.095	140.31
480.313	152.31
480.532	180.31
480.751	359.31
480.969	1325.31
481.188	5825.31
481.406	3323.31
481.624	456.31
481.843	162.31
482.061	122.31
482.28	121.31
482.498	119.31
482.717	96.31
482.935	107.31
483.153	89.31
483.372	90.31
483.59	104.31
483.808	107.31
484.027	101.31
484.245	106.31
484.463	106.31
484.681	96.31
484.9	104.31
485.118	93.31
485.336	96.31
485.554	95.31
485.772	102.31
485.99	116.31
486.209	136.31
486.427	122.31
486.645	145.31
486.863	154.31
487.081	132.31
487.299	96.31
487.517	96.31
487.735	104.31
487.953	104.31
488.171	108.31
488.389	122.31
488.607	106.31
488.825	97.31
489.043	96.31
489.261	92.31
489.479	87.31
489.696	87.31
489.914	86.31
490.132	105.31
490.35	97.31
490.568	82.31
490.786	101.31
491.003	97.31
491.221	96.31
491.439	98.31
491.657	109.31
491.874	87.31
492.092	89.31
492.31	87.31
492.527	106.31
492.745	113.31
492.963	101.31
493.18	92.31
493.398	91.31
493.615	107.31
493.833	97.31
494.05	83.31
494.268	95.31
494.485	91.31
494.703	88.31
494.92	98.31
495.138	90.31
495.355	94.31
495.573	90.31
495.79	95.31
496.008	86.31
496.225	105.31
496.442	91.31
496.66	91.31
496.877	100.31
497.094	88.31
497.312	90.31
497.529	85.31
497.746	89.31
497.963	103.31
498.181	112.31
498.398	103.31
498.615	117.31
498.832	110.31
499.049	97.31
499.267	96.31
499.484	96.31
499.701	92.31
499.918	92.31
500.135	103.31
500.352	88.31
500.569	113.31
500.786	100.31
501.003	86.31
501.22	83.31
501.437	101.31
501.654	109.31
501.871	134.31
502.088	98.31
502.305	104.31
502.522	88.31
502.739	92.31
502.956	101.31
503.172	95.31
503.389	125.31
503.606	146.31
503.823	124.31
504.04	103.31
504.256	88.31
504.473	89.31
504.69	95.31
504.907	102.31
505.123	94.31
505.34	97.31
505.557	91.31
505.773	120.31
505.99	98.31
506.207	100.31
506.423	85.31
506.64	92.31
506.856	105.31
507.073	102.31
507.289	102.31
507.506	105.31
507.722	164.31
507.939	159.31
508.155	107.31
508.372	119.31
508.588	108.31
508.805	101.31
509.021	103.31
509.238	108.31
509.454	110.31
509.67	117.31
509.887	143.31
510.103	185.31
510.319	332.31
510.536	1496.31
510.752	5396.31
510.968	1333.31
511.184	240.31
