Data from Circ_1999_H10_HRD10591_00047.txt Node
Date: Wed Jan 03 11:23:22 EST 2024
User: Yrep
Spectrometer: HR+D1059
Trigger mode: 1
Integration Time (sec): 1.000000E-1
Scans to average: 1
Electric dark correction enabled: true
Nonlinearity correction enabled: false
Boxcar width: 0
XAxis mode: Wavelengths
Number of Pixels in Spectrum: 2048
>>>>>Begin Spectral Data<<<<<
223.165	-19.81
223.4	-19.81
223.635	-19.81
223.869	-31.81
224.104	-25.81
224.338	-21.81
224.573	-1.81
224.808	3.19
225.042	-9.81
225.277	-12.81
225.511	3.19
225.746	7.19
225.98	13.19
226.215	-1.81
226.449	24.19
226.683	11.19
226.918	33.19
227.152	30.19
227.387	22.19
227.621	30.19
227.856	35.19
228.09	42.19
228.324	42.19
228.559	49.19
228.793	51.19
229.027	54.19
229.262	75.19
229.496	85.19
229.73	109.19
229.964	116.19
230.199	72.19
230.433	64.19
230.667	84.19
230.901	88.19
231.136	81.19
231.37	82.19
231.604	81.19
231.838	67.19
232.072	93.19
232.306	78.19
232.541	73.19
232.775	88.19
233.009	70.19
233.243	86.19
233.477	97.19
233.711	75.19
233.945	77.19
234.179	74.19
234.413	94.19
234.647	69.19
234.881	84.19
235.115	70.19
235.349	97.19
235.583	95.19
235.817	74.19
236.051	78.19
236.285	83.19
236.519	72.19
236.753	75.19
236.987	94.19
237.221	98.19
237.455	100.19
237.689	97.19
237.922	81.19
238.156	63.19
238.39	70.19
238.624	70.19
238.858	59.19
239.091	78.19
239.325	80.19
239.559	87.19
239.793	87.19
240.027	78.19
240.26	87.19
240.494	90.19
240.728	89.19
240.961	90.19
241.195	85.19
241.429	78.19
241.662	67.19
241.896	68.19
242.13	82.19
242.363	81.19
242.597	79.19
242.83	86.19
243.064	79.19
243.298	83.19
243.531	76.19
243.765	90.19
243.998	88.19
244.232	71.19
244.465	92.19
244.699	74.19
244.932	72.19
245.166	72.19
245.399	78.19
245.633	79.19
245.866	67.19
246.099	67.19
246.333	91.19
246.566	75.19
246.8	76.19
247.033	70.19
247.266	76.19
247.5	75.19
247.733	90.19
247.966	92.19
248.2	69.19
248.433	69.19
248.666	93.19
248.899	84.19
249.133	84.19
249.366	101.19
249.599	115.19
249.832	94.19
250.066	84.19
250.299	82.19
250.532	96.19
250.765	94.19
250.998	96.19
251.231	85.19
251.465	94.19
251.698	81.19
251.931	101.19
252.164	95.19
252.397	86.19
252.63	70.19
252.863	83.19
253.096	87.19
253.329	83.19
253.562	76.19
253.795	80.19
254.028	75.19
254.261	88.19
254.494	87.19
254.727	101.19
254.96	73.19
255.193	69.19
255.426	82.19
255.659	90.19
255.892	116.19
256.124	93.19
256.357	92.19
256.59	86.19
256.823	85.19
257.056	88.19
257.289	103.19
257.521	84.19
257.754	83.19
257.987	83.19
258.22	96.19
258.452	105.19
258.685	99.19
258.918	85.19
259.151	89.19
259.383	95.19
259.616	84.19
259.849	91.19
260.081	92.19
260.314	92.19
260.547	86.19
260.779	109.19
261.012	118.19
261.244	128.19
261.477	104.19
261.71	135.19
261.942	166.19
262.175	201.19
262.407	119.19
262.64	81.19
262.872	92.19
263.105	104.19
263.337	101.19
263.57	83.19
263.802	76.19
264.035	75.19
264.267	82.19
264.499	78.19
264.732	85.19
264.964	85.19
265.197	82.19
265.429	93.19
265.661	92.19
265.894	99.19
266.126	92.19
266.358	92.19
266.591	88.19
266.823	83.19
267.055	78.19
267.287	89.19
267.52	85.19
267.752	79.19
267.984	78.19
268.216	80.19
268.448	87.19
268.681	94.19
268.913	90.19
269.145	94.19
269.377	91.19
269.609	61.19
269.841	68.19
270.073	86.19
270.306	86.19
270.538	75.19
270.77	80.19
271.002	86.19
271.234	90.19
271.466	99.19
271.698	87.19
271.93	95.19
272.162	89.19
272.394	80.19
272.626	75.19
272.858	85.19
273.09	88.19
273.322	92.19
273.553	86.19
273.785	83.19
274.017	101.19
274.249	90.19
274.481	90.19
274.713	90.19
274.945	100.19
275.176	102.19
275.408	108.19
275.64	122.19
275.872	142.19
276.104	123.19
276.335	121.19
276.567	138.19
276.799	203.19
277.031	230.19
277.262	272.19
277.494	179.19
277.726	106.19
277.957	88.19
278.189	100.19
278.421	109.19
278.652	95.19
278.884	67.19
279.115	99.19
279.347	94.19
279.579	122.19
279.81	160.19
280.042	278.19
280.273	377.19
280.505	250.19
280.736	140.19
280.968	90.19
281.199	87.19
281.431	86.19
281.662	91.19
281.894	108.19
282.125	119.19
282.356	163.19
282.588	224.19
282.819	159.19
283.051	91.19
283.282	102.19
283.513	83.19
283.745	88.19
283.976	88.19
284.207	83.19
284.439	87.19
284.67	88.19
284.901	80.19
285.132	87.19
285.364	82.19
285.595	90.19
285.826	80.19
286.057	86.19
286.288	84.19
286.52	77.19
286.751	79.19
286.982	83.19
287.213	86.19
287.444	108.19
287.675	101.19
287.906	105.19
288.138	82.19
288.369	119.19
288.6	104.19
288.831	94.19
289.062	93.19
289.293	87.19
289.524	86.19
289.755	95.19
289.986	110.19
290.217	101.19
290.448	97.19
290.679	105.19
290.91	95.19
291.141	103.19
291.371	99.19
291.602	102.19
291.833	86.19
292.064	101.19
292.295	85.19
292.526	99.19
292.757	93.19
292.987	88.19
293.218	96.19
293.449	75.19
293.68	83.19
293.91	94.19
294.141	88.19
294.372	107.19
294.603	96.19
294.833	102.19
295.064	86.19
295.295	106.19
295.525	106.19
295.756	118.19
295.987	154.19
296.217	215.19
296.448	176.19
296.679	117.19
296.909	90.19
297.14	93.19
297.37	88.19
297.601	96.19
297.831	83.19
298.062	91.19
298.292	94.19
298.523	87.19
298.753	94.19
298.984	72.19
299.214	85.19
299.445	106.19
299.675	100.19
299.905	109.19
300.136	98.19
300.366	99.19
300.597	85.19
300.827	120.19
301.057	123.19
301.288	140.19
301.518	115.19
301.748	105.19
301.979	107.19
302.209	101.19
302.439	104.19
302.669	115.19
302.9	99.19
303.13	90.19
303.36	113.19
303.59	164.19
303.82	194.19
304.051	116.19
304.281	99.19
304.511	77.19
304.741	99.19
304.971	83.19
305.201	101.19
305.431	83.19
305.661	95.19
305.891	101.19
306.121	123.19
306.352	112.19
306.582	132.19
306.812	129.19
307.042	160.19
307.272	206.19
307.502	224.19
307.731	200.19
307.961	170.19
308.191	118.19
308.421	94.19
308.651	96.19
308.881	119.19
309.111	99.19
309.341	103.19
309.571	115.19
309.8	95.19
310.03	119.19
310.26	109.19
310.49	115.19
310.72	136.19
310.949	159.19
311.179	137.19
311.409	96.19
311.639	121.19
311.868	105.19
312.098	120.19
312.328	116.19
312.557	149.19
312.787	168.19
313.017	150.19
313.246	101.19
313.476	96.19
313.706	96.19
313.935	119.19
314.165	128.19
314.394	142.19
314.624	111.19
314.853	115.19
315.083	113.19
315.312	97.19
315.542	88.19
315.771	96.19
316.001	91.19
316.23	90.19
316.46	109.19
316.689	106.19
316.919	115.19
317.148	128.19
317.377	106.19
317.607	118.19
317.836	103.19
318.065	103.19
318.295	97.19
318.524	96.19
318.753	88.19
318.983	106.19
319.212	110.19
319.441	149.19
319.67	134.19
319.9	91.19
320.129	90.19
320.358	102.19
320.587	111.19
320.816	122.19
321.046	113.19
321.275	106.19
321.504	100.19
321.733	98.19
321.962	120.19
322.191	116.19
322.42	141.19
322.649	138.19
322.878	135.19
323.108	159.19
323.337	167.19
323.566	187.19
323.795	235.19
324.024	285.19
324.253	591.19
324.482	1278.19
324.71	2586.19
324.939	3384.19
325.168	1261.19
325.397	353.19
325.626	214.19
325.855	164.19
326.084	164.19
326.313	167.19
326.542	206.19
326.77	297.19
326.999	601.19
327.228	1187.19
327.457	2278.19
327.686	1882.19
327.914	759.19
328.143	823.19
328.372	1051.19
328.6	566.19
328.829	276.19
329.058	297.19
329.287	304.19
329.515	242.19
329.744	360.19
329.972	740.19
330.201	1576.19
330.43	2347.19
330.658	1023.19
330.887	458.19
331.115	266.19
331.344	174.19
331.572	140.19
331.801	162.19
332.03	169.19
332.258	156.19
332.486	127.19
332.715	119.19
332.943	123.19
333.172	140.19
333.4	172.19
333.629	213.19
333.857	332.19
334.085	652.19
334.314	1406.19
334.542	2898.19
334.771	2620.19
334.999	643.19
335.227	235.19
335.455	156.19
335.684	154.19
335.912	117.19
336.14	130.19
336.369	117.19
336.597	132.19
336.825	121.19
337.053	94.19
337.281	96.19
337.51	109.19
337.738	111.19
337.966	112.19
338.194	119.19
338.422	119.19
338.65	104.19
338.878	101.19
339.106	90.19
339.334	101.19
339.562	103.19
339.79	103.19
340.018	95.19
340.246	111.19
340.474	112.19
340.702	110.19
340.93	96.19
341.158	93.19
341.386	119.19
341.614	120.19
341.842	115.19
342.07	107.19
342.298	105.19
342.526	110.19
342.754	93.19
342.981	94.19
343.209	94.19
343.437	100.19
343.665	88.19
343.893	92.19
344.12	95.19
344.348	92.19
344.576	85.19
344.804	107.19
345.031	121.19
345.259	109.19
345.487	111.19
345.714	98.19
345.942	109.19
346.17	98.19
346.397	88.19
346.625	99.19
346.853	97.19
347.08	89.19
347.308	105.19
347.535	116.19
347.763	124.19
347.99	112.19
348.218	127.19
348.445	164.19
348.673	123.19
348.9	122.19
349.128	109.19
349.355	81.19
349.583	94.19
349.81	119.19
350.037	98.19
350.265	111.19
350.492	109.19
350.72	94.19
350.947	124.19
351.174	145.19
351.402	142.19
351.629	127.19
351.856	135.19
352.083	123.19
352.311	136.19
352.538	152.19
352.765	156.19
352.992	135.19
353.22	153.19
353.447	115.19
353.674	96.19
353.901	109.19
354.128	94.19
354.355	92.19
354.583	100.19
354.81	99.19
355.037	77.19
355.264	98.19
355.491	77.19
355.718	94.19
355.945	99.19
356.172	89.19
356.399	89.19
356.626	90.19
356.853	94.19
357.08	105.19
357.307	95.19
357.534	89.19
357.761	77.19
357.988	91.19
358.215	101.19
358.441	91.19
358.668	90.19
358.895	96.19
359.122	79.19
359.349	89.19
359.576	111.19
359.802	142.19
360.029	204.19
360.256	195.19
360.483	137.19
360.709	80.19
360.936	110.19
361.163	134.19
361.39	120.19
361.616	120.19
361.843	107.19
362.07	102.19
362.296	126.19
362.523	108.19
362.749	106.19
362.976	119.19
363.203	100.19
363.429	86.19
363.656	104.19
363.882	95.19
364.109	102.19
364.335	102.19
364.562	100.19
364.788	100.19
365.015	111.19
365.241	115.19
365.468	149.19
365.694	139.19
365.92	125.19
366.147	111.19
366.373	102.19
366.599	95.19
366.826	92.19
367.052	106.19
367.278	103.19
367.505	116.19
367.731	127.19
367.957	104.19
368.184	110.19
368.41	126.19
368.636	163.19
368.862	182.19
369.089	147.19
369.315	114.19
369.541	108.19
369.767	101.19
369.993	104.19
370.219	109.19
370.445	80.19
370.672	80.19
370.898	97.19
371.124	99.19
371.35	89.19
371.576	90.19
371.802	71.19
372.028	97.19
372.254	80.19
372.48	91.19
372.706	82.19
372.932	80.19
373.158	72.19
373.384	88.19
373.61	100.19
373.835	86.19
374.061	105.19
374.287	110.19
374.513	100.19
374.739	90.19
374.965	105.19
375.191	85.19
375.416	94.19
375.642	86.19
375.868	91.19
376.094	109.19
376.319	100.19
376.545	84.19
376.771	93.19
376.997	96.19
377.222	87.19
377.448	94.19
377.674	84.19
377.899	87.19
378.125	96.19
378.35	92.19
378.576	91.19
378.802	86.19
379.027	86.19
379.253	93.19
379.478	88.19
379.704	91.19
379.929	94.19
380.155	108.19
380.38	93.19
380.606	104.19
380.831	107.19
381.057	105.19
381.282	96.19
381.507	106.19
381.733	95.19
381.958	101.19
382.184	101.19
382.409	105.19
382.634	115.19
382.86	103.19
383.085	91.19
383.31	90.19
383.535	113.19
383.761	99.19
383.986	87.19
384.211	94.19
384.436	103.19
384.662	101.19
384.887	89.19
385.112	99.19
385.337	103.19
385.562	94.19
385.787	107.19
386.013	116.19
386.238	131.19
386.463	128.19
386.688	101.19
386.913	95.19
387.138	100.19
387.363	97.19
387.588	96.19
387.813	105.19
388.038	101.19
388.263	117.19
388.488	85.19
388.713	101.19
388.938	103.19
389.163	103.19
389.387	84.19
389.612	80.19
389.837	91.19
390.062	98.19
390.287	80.19
390.512	89.19
390.736	95.19
390.961	91.19
391.186	85.19
391.411	91.19
391.636	88.19
391.86	81.19
392.085	83.19
392.31	90.19
392.534	89.19
392.759	88.19
392.984	82.19
393.208	79.19
393.433	100.19
393.658	87.19
393.882	80.19
394.107	82.19
394.331	87.19
394.556	66.19
394.78	90.19
395.005	77.19
395.229	80.19
395.454	92.19
395.678	89.19
395.903	95.19
396.127	94.19
396.352	91.19
396.576	82.19
396.801	74.19
397.025	95.19
397.249	92.19
397.474	91.19
397.698	78.19
397.922	94.19
398.147	90.19
398.371	79.19
398.595	86.19
398.82	95.19
399.044	98.19
399.268	92.19
399.492	91.19
399.717	103.19
399.941	92.19
400.165	100.19
400.389	97.19
400.613	87.19
400.837	100.19
401.062	84.19
401.286	106.19
401.51	108.19
401.734	96.19
401.958	104.19
402.182	205.19
402.406	298.19
402.63	206.19
402.854	117.19
403.078	94.19
403.302	82.19
403.526	94.19
403.75	100.19
403.974	94.19
404.198	96.19
404.422	91.19
404.645	86.19
404.869	108.19
405.093	138.19
405.317	173.19
405.541	154.19
405.765	139.19
405.988	174.19
406.212	308.19
406.436	536.19
406.66	319.19
406.883	135.19
407.107	119.19
407.331	119.19
407.555	117.19
407.778	119.19
408.002	108.19
408.226	90.19
408.449	91.19
408.673	96.19
408.896	108.19
409.12	92.19
409.344	92.19
409.567	100.19
409.791	86.19
410.014	97.19
410.238	78.19
410.461	87.19
410.685	105.19
410.908	102.19
411.132	114.19
411.355	104.19
411.578	96.19
411.802	88.19
412.025	90.19
412.249	112.19
412.472	132.19
412.695	156.19
412.919	120.19
413.142	99.19
413.365	90.19
413.589	102.19
413.812	89.19
414.035	92.19
414.258	102.19
414.482	81.19
414.705	78.19
414.928	84.19
415.151	92.19
415.374	90.19
415.597	87.19
415.821	98.19
416.044	93.19
416.267	109.19
416.49	86.19
416.713	88.19
416.936	101.19
417.159	94.19
417.382	103.19
417.605	131.19
417.828	131.19
418.051	93.19
418.274	94.19
418.497	83.19
418.72	95.19
418.943	101.19
419.166	82.19
419.389	84.19
419.611	94.19
419.834	99.19
420.057	107.19
420.28	102.19
420.503	91.19
420.726	114.19
420.948	95.19
421.171	110.19
421.394	98.19
421.617	96.19
421.839	104.19
422.062	92.19
422.285	96.19
422.507	100.19
422.73	106.19
422.953	105.19
423.175	108.19
423.398	81.19
423.621	95.19
423.843	81.19
424.066	86.19
424.288	103.19
424.511	105.19
424.733	100.19
424.956	130.19
425.178	142.19
425.401	117.19
425.623	117.19
425.846	116.19
426.068	101.19
426.291	95.19
426.513	92.19
426.735	107.19
426.958	110.19
427.18	136.19
427.402	226.19
427.625	363.19
427.847	315.19
428.069	234.19
428.292	158.19
428.514	122.19
428.736	102.19
428.958	90.19
429.181	89.19
429.403	103.19
429.625	93.19
429.847	98.19
430.069	109.19
430.292	101.19
430.514	92.19
430.736	91.19
430.958	83.19
431.18	82.19
431.402	81.19
431.624	78.19
431.846	88.19
432.068	94.19
432.29	90.19
432.512	83.19
432.734	92.19
432.956	96.19
433.178	92.19
433.4	112.19
433.622	81.19
433.844	90.19
434.066	88.19
434.287	108.19
434.509	100.19
434.731	101.19
434.953	90.19
435.175	106.19
435.397	87.19
435.618	116.19
435.84	118.19
436.062	131.19
436.284	127.19
436.505	109.19
436.727	105.19
436.949	87.19
437.17	97.19
437.392	88.19
437.614	94.19
437.835	148.19
438.057	199.19
438.278	152.19
438.5	115.19
438.721	136.19
438.943	100.19
439.165	93.19
439.386	97.19
439.608	114.19
439.829	111.19
440.05	170.19
440.272	218.19
440.493	132.19
440.715	94.19
440.936	93.19
441.158	84.19
441.379	102.19
441.6	99.19
441.822	105.19
442.043	111.19
442.264	137.19
442.486	127.19
442.707	107.19
442.928	145.19
443.149	215.19
443.371	223.19
443.592	167.19
443.813	150.19
444.034	128.19
444.255	110.19
444.476	95.19
444.698	96.19
444.919	91.19
445.14	131.19
445.361	121.19
445.582	154.19
445.803	222.19
446.024	203.19
446.245	183.19
446.466	151.19
446.687	95.19
446.908	90.19
447.129	95.19
447.35	114.19
447.571	107.19
447.792	109.19
448.013	123.19
448.234	155.19
448.455	113.19
448.675	171.19
448.896	150.19
449.117	109.19
449.338	102.19
449.559	169.19
449.779	157.19
450	95.19
450.221	85.19
450.442	118.19
450.662	120.19
450.883	169.19
451.104	190.19
451.324	136.19
451.545	90.19
451.766	90.19
451.986	94.19
452.207	108.19
452.428	100.19
452.648	120.19
452.869	163.19
453.089	175.19
453.31	185.19
453.53	131.19
453.751	116.19
453.971	154.19
454.192	177.19
454.412	132.19
454.633	84.19
454.853	81.19
455.073	97.19
455.294	99.19
455.514	120.19
455.734	103.19
455.955	88.19
456.175	87.19
456.395	82.19
456.616	89.19
456.836	97.19
457.056	89.19
457.276	101.19
457.497	93.19
457.717	99.19
457.937	98.19
458.157	90.19
458.377	111.19
458.598	154.19
458.818	329.19
459.038	357.19
459.258	195.19
459.478	110.19
459.698	89.19
459.918	86.19
460.138	80.19
460.358	78.19
460.578	100.19
460.798	88.19
461.018	101.19
461.238	88.19
461.458	97.19
461.678	88.19
461.898	92.19
462.118	95.19
462.338	86.19
462.558	96.19
462.777	88.19
462.997	102.19
463.217	109.19
463.437	112.19
463.657	98.19
463.876	87.19
464.096	87.19
464.316	119.19
464.536	133.19
464.755	106.19
464.975	183.19
465.195	383.19
465.414	365.19
465.634	130.19
465.854	109.19
466.073	82.19
466.293	102.19
466.512	85.19
466.732	96.19
466.951	105.19
467.171	118.19
467.391	143.19
467.61	192.19
467.829	318.19
468.049	868.19
468.268	1337.19
468.488	312.19
468.707	125.19
468.927	101.19
469.146	90.19
469.365	96.19
469.585	94.19
469.804	122.19
470.023	137.19
470.243	115.19
470.462	153.19
470.681	185.19
470.901	130.19
471.12	120.19
471.339	125.19
471.558	150.19
471.777	188.19
471.997	419.19
472.216	1715.19
472.435	4125.19
472.654	872.19
472.873	206.19
473.092	117.19
473.311	109.19
473.53	93.19
473.749	101.19
473.968	103.19
474.187	150.19
474.406	115.19
474.625	90.19
474.844	101.19
475.063	89.19
475.282	95.19
475.501	87.19
475.72	106.19
475.939	100.19
476.158	99.19
476.377	102.19
476.596	108.19
476.814	118.19
477.033	134.19
477.252	99.19
477.471	105.19
477.69	100.19
477.908	99.19
478.127	109.19
478.346	90.19
478.564	104.19
478.783	125.19
479.002	121.19
479.22	126.19
479.439	167.19
479.658	179.19
479.876	150.19
480.095	149.19
480.313	175.19
480.532	211.19
480.751	381.19
480.969	1554.19
481.188	6816.19
481.406	3846.19
481.624	522.19
481.843	169.19
482.061	116.19
482.28	112.19
482.498	101.19
482.717	102.19
482.935	88.19
483.153	94.19
483.372	108.19
483.59	96.19
483.808	89.19
484.027	94.19
484.245	93.19
484.463	104.19
484.681	111.19
484.9	97.19
485.118	103.19
485.336	87.19
485.554	114.19
485.772	94.19
485.99	117.19
486.209	126.19
486.427	133.19
486.645	162.19
486.863	155.19
487.081	118.19
487.299	111.19
487.517	97.19
487.735	92.19
487.953	93.19
488.171	102.19
488.389	110.19
488.607	109.19
488.825	87.19
489.043	88.19
489.261	84.19
489.479	88.19
489.696	97.19
489.914	99.19
490.132	101.19
490.35	112.19
490.568	101.19
490.786	93.19
491.003	96.19
491.221	98.19
491.439	111.19
491.657	92.19
491.874	104.19
492.092	103.19
492.31	93.19
492.527	104.19
492.745	100.19
492.963	100.19
493.18	84.19
493.398	94.19
493.615	95.19
493.833	113.19
494.05	91.19
494.268	108.19
494.485	107.19
494.703	85.19
494.92	90.19
495.138	94.19
495.355	93.19
495.573	96.19
495.79	92.19
496.008	91.19
496.225	92.19
496.442	92.19
496.66	93.19
496.877	97.19
497.094	94.19
497.312	89.19
497.529	104.19
497.746	83.19
497.963	103.19
498.181	106.19
498.398	114.19
498.615	118.19
498.832	109.19
499.049	90.19
499.267	94.19
499.484	87.19
499.701	92.19
499.918	90.19
500.135	97.19
500.352	89.19
500.569	99.19
500.786	109.19
501.003	91.19
501.22	86.19
501.437	90.19
501.654	127.19
501.871	179.19
502.088	109.19
502.305	103.19
502.522	84.19
502.739	98.19
502.956	82.19
503.172	106.19
503.389	104.19
503.606	155.19
503.823	127.19
504.04	96.19
504.256	104.19
504.473	98.19
504.69	83.19
504.907	93.19
505.123	100.19
505.34	91.19
505.557	102.19
505.773	101.19
505.99	92.19
506.207	101.19
506.423	96.19
506.64	95.19
506.856	100.19
507.073	117.19
507.289	97.19
507.506	114.19
507.722	183.19
507.939	184.19
508.155	113.19
508.372	88.19
508.588	102.19
508.805	99.19
509.021	106.19
509.238	103.19
509.454	100.19
509.67	123.19
509.887	130.19
510.103	187.19
510.319	324.19
510.536	1470.19
510.752	5507.19
