Data from Circ_1999_H10_HRD10591_00035.txt Node
Date: Wed Jan 03 11:23:19 EST 2024
User: Yrep
Spectrometer: HR+D1059
Trigger mode: 1
Integration Time (sec): 1.000000E-1
Scans to average: 1
Electric dark correction enabled: true
Nonlinearity correction enabled: false
Boxcar width: 0
XAxis mode: Wavelengths
Number of Pixels in Spectrum: 2048
>>>>>Begin Spectral Data<<<<<
223.165	-10.81
223.4	-10.81
223.635	-10.81
223.869	-19.81
224.104	-25.81
224.338	-6.81
224.573	-18.81
224.808	-15.81
225.042	-4.81
225.277	-10.81
225.511	5.19
225.746	2.19
225.98	-0.81
226.215	9.19
226.449	22.19
226.683	24.19
226.918	28.19
227.152	23.19
227.387	35.19
227.621	36.19
227.856	42.19
228.09	39.19
228.324	47.19
228.559	58.19
228.793	54.19
229.027	64.19
229.262	58.19
229.496	89.19
229.73	100.19
229.964	88.19
230.199	80.19
230.433	67.19
230.667	85.19
230.901	78.19
231.136	76.19
231.37	62.19
231.604	94.19
231.838	83.19
232.072	66.19
232.306	74.19
232.541	75.19
232.775	72.19
233.009	78.19
233.243	91.19
233.477	72.19
233.711	80.19
233.945	93.19
234.179	88.19
234.413	81.19
234.647	74.19
234.881	85.19
235.115	71.19
235.349	77.19
235.583	71.19
235.817	75.19
236.051	75.19
236.285	80.19
236.519	91.19
236.753	83.19
236.987	85.19
237.221	93.19
237.455	90.19
237.689	89.19
237.922	88.19
238.156	74.19
238.39	62.19
238.624	69.19
238.858	82.19
239.091	64.19
239.325	90.19
239.559	81.19
239.793	97.19
240.027	78.19
240.26	81.19
240.494	79.19
240.728	78.19
240.961	81.19
241.195	72.19
241.429	88.19
241.662	77.19
241.896	65.19
242.13	63.19
242.363	78.19
242.597	75.19
242.83	76.19
243.064	81.19
243.298	83.19
243.531	80.19
243.765	79.19
243.998	88.19
244.232	89.19
244.465	104.19
244.699	82.19
244.932	88.19
245.166	80.19
245.399	81.19
245.633	85.19
245.866	81.19
246.099	76.19
246.333	75.19
246.566	95.19
246.8	77.19
247.033	93.19
247.266	83.19
247.5	74.19
247.733	65.19
247.966	75.19
248.2	79.19
248.433	76.19
248.666	88.19
248.899	93.19
249.133	84.19
249.366	122.19
249.599	117.19
249.832	107.19
250.066	81.19
250.299	82.19
250.532	79.19
250.765	76.19
250.998	93.19
251.231	76.19
251.465	79.19
251.698	94.19
251.931	77.19
252.164	76.19
252.397	79.19
252.63	68.19
252.863	82.19
253.096	80.19
253.329	84.19
253.562	85.19
253.795	86.19
254.028	83.19
254.261	84.19
254.494	89.19
254.727	94.19
254.96	96.19
255.193	93.19
255.426	84.19
255.659	90.19
255.892	91.19
256.124	103.19
256.357	87.19
256.59	87.19
256.823	88.19
257.056	93.19
257.289	80.19
257.521	87.19
257.754	75.19
257.987	78.19
258.22	117.19
258.452	94.19
258.685	97.19
258.918	87.19
259.151	80.19
259.383	82.19
259.616	85.19
259.849	92.19
260.081	79.19
260.314	86.19
260.547	67.19
260.779	108.19
261.012	113.19
261.244	120.19
261.477	100.19
261.71	117.19
261.942	167.19
262.175	188.19
262.407	105.19
262.64	97.19
262.872	78.19
263.105	101.19
263.337	85.19
263.57	102.19
263.802	98.19
264.035	88.19
264.267	89.19
264.499	92.19
264.732	73.19
264.964	69.19
265.197	77.19
265.429	92.19
265.661	78.19
265.894	90.19
266.126	78.19
266.358	89.19
266.591	75.19
266.823	79.19
267.055	96.19
267.287	88.19
267.52	80.19
267.752	96.19
267.984	79.19
268.216	90.19
268.448	95.19
268.681	85.19
268.913	87.19
269.145	69.19
269.377	77.19
269.609	88.19
269.841	103.19
270.073	93.19
270.306	88.19
270.538	83.19
270.77	76.19
271.002	88.19
271.234	100.19
271.466	90.19
271.698	83.19
271.93	84.19
272.162	89.19
272.394	88.19
272.626	97.19
272.858	92.19
273.09	77.19
273.322	91.19
273.553	95.19
273.785	86.19
274.017	95.19
274.249	97.19
274.481	83.19
274.713	93.19
274.945	100.19
275.176	87.19
275.408	98.19
275.64	120.19
275.872	133.19
276.104	130.19
276.335	119.19
276.567	137.19
276.799	190.19
277.031	220.19
277.262	253.19
277.494	165.19
277.726	112.19
277.957	89.19
278.189	87.19
278.421	89.19
278.652	91.19
278.884	86.19
279.115	79.19
279.347	77.19
279.579	108.19
279.81	158.19
280.042	255.19
280.273	346.19
280.505	232.19
280.736	120.19
280.968	95.19
281.199	98.19
281.431	91.19
281.662	100.19
281.894	97.19
282.125	111.19
282.356	166.19
282.588	198.19
282.819	152.19
283.051	93.19
283.282	91.19
283.513	77.19
283.745	97.19
283.976	86.19
284.207	76.19
284.439	80.19
284.67	80.19
284.901	86.19
285.132	83.19
285.364	101.19
285.595	80.19
285.826	84.19
286.057	91.19
286.288	84.19
286.52	91.19
286.751	84.19
286.982	84.19
287.213	77.19
287.444	95.19
287.675	101.19
287.906	92.19
288.138	105.19
288.369	93.19
288.6	104.19
288.831	71.19
289.062	87.19
289.293	90.19
289.524	83.19
289.755	86.19
289.986	90.19
290.217	93.19
290.448	96.19
290.679	84.19
290.91	79.19
291.141	98.19
291.371	93.19
291.602	74.19
291.833	88.19
292.064	93.19
292.295	88.19
292.526	91.19
292.757	87.19
292.987	92.19
293.218	92.19
293.449	89.19
293.68	92.19
293.91	85.19
294.141	96.19
294.372	83.19
294.603	97.19
294.833	90.19
295.064	92.19
295.295	95.19
295.525	97.19
295.756	116.19
295.987	146.19
296.217	216.19
296.448	184.19
296.679	112.19
296.909	95.19
297.14	95.19
297.37	104.19
297.601	92.19
297.831	104.19
298.062	109.19
298.292	103.19
298.523	81.19
298.753	86.19
298.984	88.19
299.214	91.19
299.445	105.19
299.675	110.19
299.905	116.19
300.136	94.19
300.366	95.19
300.597	103.19
300.827	101.19
301.057	117.19
301.288	127.19
301.518	110.19
301.748	111.19
301.979	132.19
302.209	110.19
302.439	97.19
302.669	104.19
302.9	91.19
303.13	103.19
303.36	108.19
303.59	172.19
303.82	193.19
304.051	119.19
304.281	99.19
304.511	75.19
304.741	87.19
304.971	90.19
305.201	79.19
305.431	100.19
305.661	98.19
305.891	94.19
306.121	120.19
306.352	142.19
306.582	139.19
306.812	116.19
307.042	126.19
307.272	180.19
307.502	223.19
307.731	199.19
307.961	147.19
308.191	106.19
308.421	100.19
308.651	96.19
308.881	94.19
309.111	109.19
309.341	108.19
309.571	111.19
309.8	112.19
310.03	117.19
310.26	101.19
310.49	101.19
310.72	119.19
310.949	144.19
311.179	131.19
311.409	111.19
311.639	106.19
311.868	101.19
312.098	98.19
312.328	105.19
312.557	126.19
312.787	135.19
313.017	106.19
313.246	105.19
313.476	105.19
313.706	108.19
313.935	127.19
314.165	121.19
314.394	131.19
314.624	125.19
314.853	117.19
315.083	93.19
315.312	86.19
315.542	80.19
315.771	82.19
316.001	85.19
316.23	93.19
316.46	98.19
316.689	94.19
316.919	108.19
317.148	105.19
317.377	106.19
317.607	108.19
317.836	111.19
318.065	91.19
318.295	109.19
318.524	86.19
318.753	109.19
318.983	110.19
319.212	125.19
319.441	139.19
319.67	129.19
319.9	101.19
320.129	106.19
320.358	95.19
320.587	113.19
320.816	105.19
321.046	113.19
321.275	109.19
321.504	103.19
321.733	102.19
321.962	97.19
322.191	109.19
322.42	119.19
322.649	138.19
322.878	140.19
323.108	140.19
323.337	153.19
323.566	181.19
323.795	206.19
324.024	285.19
324.253	543.19
324.482	1204.19
324.71	2385.19
324.939	3207.19
325.168	1185.19
325.397	353.19
325.626	192.19
325.855	151.19
326.084	146.19
326.313	164.19
326.542	198.19
326.77	303.19
326.999	588.19
327.228	1181.19
327.457	2233.19
327.686	1822.19
327.914	695.19
328.143	720.19
328.372	969.19
328.6	521.19
328.829	232.19
329.058	247.19
329.287	280.19
329.515	239.19
329.744	327.19
329.972	665.19
330.201	1395.19
330.43	2049.19
330.658	904.19
330.887	415.19
331.115	269.19
331.344	145.19
331.572	126.19
331.801	160.19
332.03	161.19
332.258	136.19
332.486	121.19
332.715	117.19
332.943	119.19
333.172	136.19
333.4	159.19
333.629	196.19
333.857	315.19
334.085	571.19
334.314	1252.19
334.542	2505.19
334.771	2335.19
334.999	576.19
335.227	223.19
335.455	140.19
335.684	131.19
335.912	119.19
336.14	117.19
336.369	127.19
336.597	133.19
336.825	143.19
337.053	111.19
337.281	96.19
337.51	93.19
337.738	103.19
337.966	104.19
338.194	123.19
338.422	123.19
338.65	103.19
338.878	96.19
339.106	92.19
339.334	107.19
339.562	107.19
339.79	99.19
340.018	95.19
340.246	103.19
340.474	103.19
340.702	103.19
340.93	111.19
341.158	97.19
341.386	109.19
341.614	119.19
341.842	110.19
342.07	103.19
342.298	103.19
342.526	99.19
342.754	99.19
342.981	98.19
343.209	91.19
343.437	85.19
343.665	89.19
343.893	93.19
344.12	104.19
344.348	94.19
344.576	93.19
344.804	82.19
345.031	118.19
345.259	123.19
345.487	97.19
345.714	103.19
345.942	109.19
346.17	100.19
346.397	102.19
346.625	103.19
346.853	111.19
347.08	108.19
347.308	118.19
347.535	115.19
347.763	134.19
347.99	105.19
348.218	111.19
348.445	140.19
348.673	126.19
348.9	99.19
349.128	104.19
349.355	92.19
349.583	96.19
349.81	102.19
350.037	113.19
350.265	102.19
350.492	101.19
350.72	103.19
350.947	134.19
351.174	130.19
351.402	134.19
351.629	111.19
351.856	106.19
352.083	128.19
352.311	126.19
352.538	140.19
352.765	142.19
352.992	120.19
353.22	135.19
353.447	117.19
353.674	109.19
353.901	89.19
354.128	91.19
354.355	104.19
354.583	89.19
354.81	108.19
355.037	105.19
355.264	104.19
355.491	108.19
355.718	90.19
355.945	94.19
356.172	90.19
356.399	86.19
356.626	96.19
356.853	93.19
357.08	90.19
357.307	105.19
357.534	83.19
357.761	86.19
357.988	104.19
358.215	90.19
358.441	94.19
358.668	86.19
358.895	110.19
359.122	94.19
359.349	100.19
359.576	97.19
359.802	126.19
360.029	175.19
360.256	181.19
360.483	143.19
360.709	106.19
360.936	103.19
361.163	112.19
361.39	116.19
361.616	125.19
361.843	108.19
362.07	112.19
362.296	119.19
362.523	114.19
362.749	107.19
362.976	95.19
363.203	95.19
363.429	103.19
363.656	105.19
363.882	105.19
364.109	97.19
364.335	100.19
364.562	102.19
364.788	99.19
365.015	91.19
365.241	116.19
365.468	121.19
365.694	135.19
365.92	113.19
366.147	94.19
366.373	85.19
366.599	102.19
366.826	94.19
367.052	100.19
367.278	104.19
367.505	108.19
367.731	121.19
367.957	109.19
368.184	97.19
368.41	108.19
368.636	158.19
368.862	173.19
369.089	137.19
369.315	107.19
369.541	95.19
369.767	111.19
369.993	94.19
370.219	100.19
370.445	95.19
370.672	77.19
370.898	95.19
371.124	91.19
371.35	85.19
371.576	75.19
371.802	85.19
372.028	90.19
372.254	84.19
372.48	83.19
372.706	86.19
372.932	72.19
373.158	84.19
373.384	97.19
373.61	103.19
373.835	92.19
374.061	85.19
374.287	96.19
374.513	100.19
374.739	87.19
374.965	93.19
375.191	79.19
375.416	97.19
375.642	87.19
375.868	87.19
376.094	96.19
376.319	90.19
376.545	95.19
376.771	95.19
376.997	105.19
377.222	93.19
377.448	83.19
377.674	98.19
377.899	80.19
378.125	95.19
378.35	88.19
378.576	83.19
378.802	81.19
379.027	96.19
379.253	88.19
379.478	76.19
379.704	96.19
379.929	96.19
380.155	103.19
380.38	100.19
380.606	100.19
380.831	94.19
381.057	103.19
381.282	100.19
381.507	96.19
381.733	103.19
381.958	104.19
382.184	115.19
382.409	90.19
382.634	111.19
382.86	103.19
383.085	102.19
383.31	91.19
383.535	101.19
383.761	88.19
383.986	96.19
384.211	108.19
384.436	114.19
384.662	103.19
384.887	119.19
385.112	104.19
385.337	93.19
385.562	101.19
385.787	97.19
386.013	135.19
386.238	134.19
386.463	131.19
386.688	103.19
386.913	103.19
387.138	93.19
387.363	101.19
387.588	96.19
387.813	92.19
388.038	98.19
388.263	117.19
388.488	117.19
388.713	89.19
388.938	95.19
389.163	95.19
389.387	96.19
389.612	100.19
389.837	89.19
390.062	98.19
390.287	99.19
390.512	95.19
390.736	93.19
390.961	97.19
391.186	93.19
391.411	91.19
391.636	83.19
391.86	91.19
392.085	94.19
392.31	103.19
392.534	99.19
392.759	94.19
392.984	87.19
393.208	77.19
393.433	80.19
393.658	94.19
393.882	87.19
394.107	87.19
394.331	79.19
394.556	88.19
394.78	94.19
395.005	81.19
395.229	93.19
395.454	80.19
395.678	81.19
395.903	100.19
396.127	95.19
396.352	103.19
396.576	101.19
396.801	98.19
397.025	83.19
397.249	87.19
397.474	82.19
397.698	91.19
397.922	102.19
398.147	91.19
398.371	93.19
398.595	99.19
398.82	81.19
399.044	88.19
399.268	75.19
399.492	97.19
399.717	91.19
399.941	97.19
400.165	92.19
400.389	91.19
400.613	97.19
400.837	88.19
401.062	91.19
401.286	92.19
401.51	100.19
401.734	89.19
401.958	124.19
402.182	170.19
402.406	284.19
402.63	199.19
402.854	131.19
403.078	91.19
403.302	98.19
403.526	94.19
403.75	104.19
403.974	112.19
404.198	94.19
404.422	92.19
404.645	101.19
404.869	107.19
405.093	125.19
405.317	162.19
405.541	175.19
405.765	134.19
405.988	140.19
406.212	292.19
406.436	475.19
406.66	291.19
406.883	156.19
407.107	124.19
407.331	124.19
407.555	123.19
407.778	114.19
408.002	100.19
408.226	99.19
408.449	88.19
408.673	92.19
408.896	103.19
409.12	96.19
409.344	82.19
409.567	86.19
409.791	100.19
410.014	85.19
410.238	94.19
410.461	89.19
410.685	89.19
410.908	85.19
411.132	101.19
411.355	116.19
411.578	98.19
411.802	78.19
412.025	84.19
412.249	89.19
412.472	120.19
412.695	139.19
412.919	121.19
413.142	94.19
413.365	88.19
413.589	77.19
413.812	98.19
414.035	97.19
414.258	98.19
414.482	89.19
414.705	85.19
414.928	96.19
415.151	86.19
415.374	88.19
415.597	93.19
415.821	95.19
416.044	80.19
416.267	89.19
416.49	84.19
416.713	91.19
416.936	88.19
417.159	91.19
417.382	99.19
417.605	113.19
417.828	131.19
418.051	103.19
418.274	86.19
418.497	92.19
418.72	86.19
418.943	97.19
419.166	78.19
419.389	111.19
419.611	83.19
419.834	92.19
420.057	88.19
420.28	102.19
420.503	107.19
420.726	88.19
420.948	100.19
421.171	119.19
421.394	108.19
421.617	75.19
421.839	95.19
422.062	91.19
422.285	92.19
422.507	95.19
422.73	114.19
422.953	83.19
423.175	90.19
423.398	78.19
423.621	84.19
423.843	85.19
424.066	96.19
424.288	93.19
424.511	110.19
424.733	102.19
424.956	124.19
425.178	116.19
425.401	109.19
425.623	112.19
425.846	108.19
426.068	117.19
426.291	95.19
426.513	93.19
426.735	112.19
426.958	97.19
427.18	123.19
427.402	206.19
427.625	331.19
427.847	292.19
428.069	203.19
428.292	131.19
428.514	112.19
428.736	91.19
428.958	87.19
429.181	100.19
429.403	92.19
429.625	88.19
429.847	100.19
430.069	101.19
430.292	101.19
430.514	93.19
430.736	83.19
430.958	74.19
431.18	77.19
431.402	81.19
431.624	79.19
431.846	93.19
432.068	93.19
432.29	91.19
432.512	81.19
432.734	93.19
432.956	88.19
433.178	92.19
433.4	101.19
433.622	101.19
433.844	93.19
434.066	93.19
434.287	109.19
434.509	101.19
434.731	83.19
434.953	92.19
435.175	68.19
435.397	91.19
435.618	109.19
435.84	110.19
436.062	134.19
436.284	135.19
436.505	125.19
436.727	105.19
436.949	92.19
437.17	93.19
437.392	98.19
437.614	98.19
437.835	148.19
438.057	181.19
438.278	149.19
438.5	131.19
438.721	142.19
438.943	114.19
439.165	85.19
439.386	83.19
439.608	107.19
439.829	124.19
440.05	157.19
440.272	208.19
440.493	133.19
440.715	85.19
440.936	109.19
441.158	102.19
441.379	110.19
441.6	102.19
441.822	108.19
442.043	103.19
442.264	118.19
442.486	135.19
442.707	110.19
442.928	158.19
443.149	227.19
443.371	212.19
443.592	148.19
443.813	145.19
444.034	116.19
444.255	83.19
444.476	89.19
444.698	94.19
444.919	92.19
445.14	143.19
445.361	149.19
445.582	153.19
445.803	206.19
446.024	200.19
446.245	161.19
446.466	133.19
446.687	99.19
446.908	95.19
447.129	97.19
447.35	96.19
447.571	106.19
447.792	89.19
448.013	118.19
448.234	147.19
448.455	134.19
448.675	119.19
448.896	147.19
449.117	102.19
449.338	91.19
449.559	141.19
449.779	157.19
450	109.19
450.221	100.19
450.442	91.19
450.662	116.19
450.883	155.19
451.104	185.19
451.324	124.19
451.545	103.19
451.766	85.19
451.986	85.19
452.207	103.19
452.428	99.19
452.648	112.19
452.869	151.19
453.089	142.19
453.31	180.19
453.53	123.19
453.751	106.19
453.971	146.19
454.192	186.19
454.412	120.19
454.633	103.19
454.853	82.19
455.073	101.19
455.294	96.19
455.514	120.19
455.734	87.19
455.955	89.19
456.175	87.19
456.395	88.19
456.616	88.19
456.836	78.19
457.056	73.19
457.276	87.19
457.497	97.19
457.717	87.19
457.937	108.19
458.157	87.19
458.377	103.19
458.598	160.19
458.818	282.19
459.038	325.19
459.258	195.19
459.478	123.19
459.698	93.19
459.918	91.19
460.138	91.19
460.358	84.19
460.578	99.19
460.798	109.19
461.018	107.19
461.238	93.19
461.458	85.19
461.678	91.19
461.898	90.19
462.118	95.19
462.338	96.19
462.558	79.19
462.777	91.19
462.997	102.19
463.217	107.19
463.437	110.19
463.657	97.19
463.876	98.19
464.096	101.19
464.316	91.19
464.536	135.19
464.755	125.19
464.975	155.19
465.195	348.19
465.414	357.19
465.634	126.19
465.854	94.19
466.073	92.19
466.293	89.19
466.512	76.19
466.732	101.19
466.951	103.19
467.171	96.19
467.391	118.19
467.61	188.19
467.829	283.19
468.049	801.19
468.268	1215.19
468.488	303.19
468.707	117.19
468.927	97.19
469.146	101.19
469.365	103.19
469.585	95.19
469.804	131.19
470.023	128.19
470.243	111.19
470.462	143.19
470.681	185.19
470.901	109.19
471.12	112.19
471.339	111.19
471.558	150.19
471.777	166.19
471.997	406.19
472.216	1552.19
472.435	3694.19
472.654	799.19
472.873	201.19
473.092	115.19
473.311	121.19
473.53	97.19
473.749	102.19
473.968	101.19
474.187	139.19
474.406	111.19
474.625	101.19
474.844	106.19
475.063	85.19
475.282	88.19
475.501	89.19
475.72	99.19
475.939	93.19
476.158	73.19
476.377	100.19
476.596	105.19
476.814	109.19
477.033	106.19
477.252	103.19
477.471	94.19
477.69	84.19
477.908	109.19
478.127	100.19
478.346	109.19
478.564	118.19
478.783	124.19
479.002	120.19
479.22	129.19
479.439	144.19
479.658	173.19
479.876	156.19
480.095	140.19
480.313	160.19
480.532	202.19
480.751	353.19
480.969	1406.19
481.188	6133.19
481.406	3496.19
481.624	490.19
481.843	161.19
482.061	120.19
482.28	105.19
482.498	116.19
482.717	100.19
482.935	102.19
483.153	95.19
483.372	83.19
483.59	93.19
483.808	81.19
484.027	90.19
484.245	109.19
484.463	91.19
484.681	98.19
484.9	93.19
485.118	107.19
485.336	97.19
485.554	104.19
485.772	110.19
485.99	108.19
486.209	105.19
486.427	134.19
486.645	149.19
486.863	172.19
487.081	123.19
487.299	111.19
487.517	104.19
487.735	99.19
487.953	103.19
488.171	98.19
488.389	96.19
488.607	135.19
488.825	104.19
489.043	78.19
489.261	99.19
489.479	83.19
489.696	106.19
489.914	97.19
490.132	89.19
490.35	89.19
490.568	89.19
490.786	93.19
491.003	89.19
491.221	98.19
491.439	95.19
491.657	92.19
491.874	82.19
492.092	89.19
492.31	98.19
492.527	101.19
492.745	93.19
492.963	96.19
493.18	93.19
493.398	105.19
493.615	89.19
493.833	115.19
494.05	116.19
494.268	79.19
494.485	99.19
494.703	100.19
494.92	94.19
495.138	76.19
495.355	93.19
495.573	105.19
495.79	93.19
496.008	95.19
496.225	92.19
496.442	97.19
496.66	92.19
496.877	87.19
497.094	88.19
497.312	89.19
497.529	89.19
497.746	87.19
497.963	98.19
498.181	100.19
498.398	103.19
498.615	121.19
498.832	113.19
499.049	106.19
499.267	85.19
499.484	81.19
499.701	96.19
499.918	97.19
500.135	97.19
500.352	86.19
500.569	100.19
500.786	96.19
501.003	85.19
501.22	96.19
501.437	94.19
501.654	116.19
501.871	162.19
502.088	111.19
502.305	94.19
502.522	92.19
502.739	104.19
502.956	92.19
503.172	103.19
503.389	116.19
503.606	142.19
503.823	125.19
504.04	117.19
504.256	91.19
504.473	79.19
504.69	93.19
504.907	113.19
505.123	95.19
505.34	94.19
505.557	102.19
505.773	98.19
505.99	95.19
506.207	99.19
506.423	96.19
506.64	91.19
506.856	75.19
507.073	104.19
507.289	88.19
507.506	115.19
507.722	158.19
507.939	173.19
508.155	102.19
508.372	101.19
508.588	94.19
508.805	89.19
509.021	108.19
509.238	99.19
509.454	108.19
509.67	110.19
509.887	126.19
510.103	169.19
510.319	310.19
510.536	1372.19
510.752	5125.19
510.968	1300.19
511.184	215.19
511.401	159.19
