Data from Circ_1999_H10_HRD10591_00038.txt Node
Date: Wed Jan 03 11:23:20 EST 2024
User: Yrep
Spectrometer: HR+D1059
Trigger mode: 1
Integration Time (sec): 1.000000E-1
Scans to average: 1
Electric dark correction enabled: true
Nonlinearity correction enabled: false
Boxcar width: 0
XAxis mode: Wavelengths
Number of Pixels in Spectrum: 2048
>>>>>Begin Spectral Data<<<<<
223.165	-13.31
223.4	-13.31
223.635	-13.31
223.869	-7.31
224.104	-14.31
224.338	-12.31
224.573	-17.31
224.808	-5.31
225.042	-8.31
225.277	-3.31
225.511	-6.31
225.746	9.69
225.98	-6.31
226.215	8.69
226.449	1.69
226.683	20.69
226.918	32.69
227.152	20.69
227.387	29.69
227.621	33.69
227.856	43.69
228.09	48.69
228.324	55.69
228.559	51.69
228.793	63.69
229.027	59.69
229.262	68.69
229.496	63.69
229.73	91.69
229.964	86.69
230.199	87.69
230.433	57.69
230.667	85.69
230.901	94.69
231.136	74.69
231.37	66.69
231.604	85.69
231.838	86.69
232.072	77.69
232.306	78.69
232.541	85.69
232.775	82.69
233.009	76.69
233.243	79.69
233.477	76.69
233.711	70.69
233.945	94.69
234.179	65.69
234.413	84.69
234.647	92.69
234.881	85.69
235.115	82.69
235.349	75.69
235.583	91.69
235.817	82.69
236.051	71.69
236.285	80.69
236.519	84.69
236.753	84.69
236.987	89.69
237.221	77.69
237.455	82.69
237.689	69.69
237.922	90.69
238.156	90.69
238.39	61.69
238.624	82.69
238.858	77.69
239.091	87.69
239.325	89.69
239.559	68.69
239.793	79.69
240.027	69.69
240.26	86.69
240.494	66.69
240.728	85.69
240.961	82.69
241.195	68.69
241.429	82.69
241.662	72.69
241.896	80.69
242.13	81.69
242.363	76.69
242.597	60.69
242.83	78.69
243.064	71.69
243.298	70.69
243.531	82.69
243.765	72.69
243.998	84.69
244.232	75.69
244.465	91.69
244.699	77.69
244.932	76.69
245.166	70.69
245.399	85.69
245.633	87.69
245.866	88.69
246.099	76.69
246.333	62.69
246.566	90.69
246.8	71.69
247.033	67.69
247.266	63.69
247.5	70.69
247.733	70.69
247.966	67.69
248.2	86.69
248.433	99.69
248.666	86.69
248.899	93.69
249.133	87.69
249.366	97.69
249.599	91.69
249.832	87.69
250.066	87.69
250.299	70.69
250.532	90.69
250.765	96.69
250.998	83.69
251.231	78.69
251.465	75.69
251.698	78.69
251.931	93.69
252.164	80.69
252.397	89.69
252.63	86.69
252.863	82.69
253.096	60.69
253.329	90.69
253.562	89.69
253.795	87.69
254.028	81.69
254.261	74.69
254.494	84.69
254.727	73.69
254.96	81.69
255.193	82.69
255.426	80.69
255.659	87.69
255.892	85.69
256.124	83.69
256.357	84.69
256.59	72.69
256.823	72.69
257.056	87.69
257.289	94.69
257.521	80.69
257.754	73.69
257.987	82.69
258.22	89.69
258.452	98.69
258.685	91.69
258.918	87.69
259.151	84.69
259.383	99.69
259.616	85.69
259.849	78.69
260.081	73.69
260.314	92.69
260.547	102.69
260.779	99.69
261.012	116.69
261.244	103.69
261.477	96.69
261.71	99.69
261.942	149.69
262.175	152.69
262.407	96.69
262.64	91.69
262.872	90.69
263.105	74.69
263.337	88.69
263.57	73.69
263.802	80.69
264.035	75.69
264.267	83.69
264.499	82.69
264.732	77.69
264.964	79.69
265.197	74.69
265.429	71.69
265.661	90.69
265.894	70.69
266.126	84.69
266.358	87.69
266.591	91.69
266.823	77.69
267.055	95.69
267.287	68.69
267.52	86.69
267.752	79.69
267.984	89.69
268.216	96.69
268.448	98.69
268.681	62.69
268.913	86.69
269.145	85.69
269.377	74.69
269.609	87.69
269.841	100.69
270.073	82.69
270.306	91.69
270.538	82.69
270.77	84.69
271.002	85.69
271.234	91.69
271.466	103.69
271.698	90.69
271.93	83.69
272.162	82.69
272.394	101.69
272.626	78.69
272.858	91.69
273.09	85.69
273.322	87.69
273.553	87.69
273.785	93.69
274.017	103.69
274.249	80.69
274.481	78.69
274.713	84.69
274.945	89.69
275.176	101.69
275.408	107.69
275.64	114.69
275.872	130.69
276.104	105.69
276.335	106.69
276.567	118.69
276.799	171.69
277.031	186.69
277.262	202.69
277.494	160.69
277.726	98.69
277.957	89.69
278.189	94.69
278.421	78.69
278.652	98.69
278.884	90.69
279.115	91.69
279.347	100.69
279.579	99.69
279.81	124.69
280.042	195.69
280.273	274.69
280.505	186.69
280.736	131.69
280.968	106.69
281.199	93.69
281.431	87.69
281.662	80.69
281.894	97.69
282.125	108.69
282.356	138.69
282.588	178.69
282.819	151.69
283.051	85.69
283.282	91.69
283.513	93.69
283.745	76.69
283.976	85.69
284.207	85.69
284.439	75.69
284.67	96.69
284.901	79.69
285.132	88.69
285.364	99.69
285.595	79.69
285.826	78.69
286.057	76.69
286.288	92.69
286.52	86.69
286.751	98.69
286.982	77.69
287.213	84.69
287.444	92.69
287.675	83.69
287.906	103.69
288.138	91.69
288.369	88.69
288.6	98.69
288.831	96.69
289.062	88.69
289.293	87.69
289.524	86.69
289.755	90.69
289.986	80.69
290.217	96.69
290.448	90.69
290.679	81.69
290.91	81.69
291.141	87.69
291.371	77.69
291.602	92.69
291.833	89.69
292.064	100.69
292.295	98.69
292.526	95.69
292.757	82.69
292.987	92.69
293.218	96.69
293.449	92.69
293.68	98.69
293.91	88.69
294.141	98.69
294.372	93.69
294.603	108.69
294.833	95.69
295.064	96.69
295.295	98.69
295.525	99.69
295.756	108.69
295.987	155.69
296.217	181.69
296.448	156.69
296.679	99.69
296.909	102.69
297.14	93.69
297.37	101.69
297.601	92.69
297.831	103.69
298.062	89.69
298.292	79.69
298.523	101.69
298.753	86.69
298.984	91.69
299.214	91.69
299.445	99.69
299.675	91.69
299.905	105.69
300.136	100.69
300.366	96.69
300.597	98.69
300.827	99.69
301.057	115.69
301.288	119.69
301.518	110.69
301.748	95.69
301.979	117.69
302.209	105.69
302.439	98.69
302.669	90.69
302.9	95.69
303.13	100.69
303.36	109.69
303.59	155.69
303.82	163.69
304.051	121.69
304.281	85.69
304.511	93.69
304.741	76.69
304.971	114.69
305.201	77.69
305.431	97.69
305.661	89.69
305.891	87.69
306.121	108.69
306.352	117.69
306.582	134.69
306.812	102.69
307.042	133.69
307.272	185.69
307.502	177.69
307.731	183.69
307.961	133.69
308.191	107.69
308.421	92.69
308.651	75.69
308.881	84.69
309.111	103.69
309.341	101.69
309.571	106.69
309.8	103.69
310.03	116.69
310.26	111.69
310.49	97.69
310.72	120.69
310.949	118.69
311.179	110.69
311.409	95.69
311.639	106.69
311.868	113.69
312.098	96.69
312.328	94.69
312.557	124.69
312.787	133.69
313.017	121.69
313.246	100.69
313.476	99.69
313.706	102.69
313.935	102.69
314.165	100.69
314.394	129.69
314.624	100.69
314.853	111.69
315.083	94.69
315.312	96.69
315.542	87.69
315.771	92.69
316.001	98.69
316.23	93.69
316.46	92.69
316.689	90.69
316.919	107.69
317.148	94.69
317.377	106.69
317.607	120.69
317.836	86.69
318.065	95.69
318.295	89.69
318.524	74.69
318.753	106.69
318.983	110.69
319.212	110.69
319.441	115.69
319.67	130.69
319.9	104.69
320.129	91.69
320.358	106.69
320.587	103.69
320.816	91.69
321.046	111.69
321.275	100.69
321.504	94.69
321.733	111.69
321.962	108.69
322.191	107.69
322.42	107.69
322.649	127.69
322.878	143.69
323.108	144.69
323.337	147.69
323.566	145.69
323.795	196.69
324.024	252.69
324.253	478.69
324.482	1026.69
324.71	2080.69
324.939	2806.69
325.168	1056.69
325.397	325.69
325.626	176.69
325.855	142.69
326.084	153.69
326.313	146.69
326.542	176.69
326.77	270.69
326.999	535.69
327.228	1089.69
327.457	1950.69
327.686	1612.69
327.914	575.69
328.143	578.69
328.372	729.69
328.6	410.69
328.829	201.69
329.058	201.69
329.287	228.69
329.515	189.69
329.744	270.69
329.972	503.69
330.201	1075.69
330.43	1557.69
330.658	710.69
330.887	341.69
331.115	224.69
331.344	134.69
331.572	132.69
331.801	140.69
332.03	132.69
332.258	119.69
332.486	109.69
332.715	126.69
332.943	138.69
333.172	124.69
333.4	152.69
333.629	174.69
333.857	244.69
334.085	473.69
334.314	954.69
334.542	1909.69
334.771	1779.69
334.999	455.69
335.227	193.69
335.455	120.69
335.684	118.69
335.912	116.69
336.14	95.69
336.369	101.69
336.597	123.69
336.825	114.69
337.053	97.69
337.281	96.69
337.51	114.69
337.738	114.69
337.966	99.69
338.194	115.69
338.422	103.69
338.65	99.69
338.878	84.69
339.106	101.69
339.334	92.69
339.562	94.69
339.79	105.69
340.018	109.69
340.246	103.69
340.474	96.69
340.702	90.69
340.93	102.69
341.158	109.69
341.386	107.69
341.614	118.69
341.842	101.69
342.07	88.69
342.298	96.69
342.526	96.69
342.754	85.69
342.981	83.69
343.209	88.69
343.437	115.69
343.665	94.69
343.893	80.69
344.12	101.69
344.348	94.69
344.576	99.69
344.804	101.69
345.031	103.69
345.259	101.69
345.487	102.69
345.714	105.69
345.942	76.69
346.17	94.69
346.397	99.69
346.625	76.69
346.853	96.69
347.08	87.69
347.308	108.69
347.535	110.69
347.763	116.69
347.99	114.69
348.218	139.69
348.445	123.69
348.673	115.69
348.9	102.69
349.128	116.69
349.355	92.69
349.583	94.69
349.81	85.69
350.037	101.69
350.265	90.69
350.492	98.69
350.72	100.69
350.947	124.69
351.174	120.69
351.402	120.69
351.629	124.69
351.856	122.69
352.083	115.69
352.311	123.69
352.538	133.69
352.765	127.69
352.992	147.69
353.22	117.69
353.447	98.69
353.674	102.69
353.901	85.69
354.128	82.69
354.355	86.69
354.583	89.69
354.81	102.69
355.037	90.69
355.264	104.69
355.491	98.69
355.718	107.69
355.945	91.69
356.172	94.69
356.399	102.69
356.626	86.69
356.853	100.69
357.08	92.69
357.307	104.69
357.534	98.69
357.761	96.69
357.988	88.69
358.215	78.69
358.441	96.69
358.668	101.69
358.895	93.69
359.122	95.69
359.349	93.69
359.576	97.69
359.802	123.69
360.029	150.69
360.256	156.69
360.483	121.69
360.709	99.69
360.936	91.69
361.163	82.69
361.39	90.69
361.616	109.69
361.843	103.69
362.07	96.69
362.296	88.69
362.523	91.69
362.749	100.69
362.976	97.69
363.203	94.69
363.429	90.69
363.656	96.69
363.882	85.69
364.109	90.69
364.335	97.69
364.562	94.69
364.788	91.69
365.015	101.69
365.241	106.69
365.468	119.69
365.694	127.69
365.92	102.69
366.147	105.69
366.373	92.69
366.599	90.69
366.826	80.69
367.052	90.69
367.278	96.69
367.505	100.69
367.731	80.69
367.957	74.69
368.184	93.69
368.41	103.69
368.636	141.69
368.862	148.69
369.089	140.69
369.315	105.69
369.541	96.69
369.767	91.69
369.993	104.69
370.219	100.69
370.445	87.69
370.672	99.69
370.898	85.69
371.124	84.69
371.35	95.69
371.576	90.69
371.802	85.69
372.028	82.69
372.254	99.69
372.48	84.69
372.706	81.69
372.932	85.69
373.158	88.69
373.384	93.69
373.61	92.69
373.835	81.69
374.061	90.69
374.287	108.69
374.513	80.69
374.739	87.69
374.965	77.69
375.191	80.69
375.416	88.69
375.642	94.69
375.868	91.69
376.094	78.69
376.319	82.69
376.545	96.69
376.771	79.69
376.997	80.69
377.222	91.69
377.448	90.69
377.674	71.69
377.899	90.69
378.125	85.69
378.35	90.69
378.576	97.69
378.802	100.69
379.027	93.69
379.253	100.69
379.478	88.69
379.704	85.69
379.929	101.69
380.155	104.69
380.38	106.69
380.606	103.69
380.831	95.69
381.057	93.69
381.282	99.69
381.507	98.69
381.733	91.69
381.958	101.69
382.184	92.69
382.409	107.69
382.634	101.69
382.86	97.69
383.085	101.69
383.31	103.69
383.535	92.69
383.761	108.69
383.986	96.69
384.211	102.69
384.436	96.69
384.662	87.69
384.887	86.69
385.112	101.69
385.337	105.69
385.562	102.69
385.787	104.69
386.013	111.69
386.238	134.69
386.463	100.69
386.688	112.69
386.913	104.69
387.138	102.69
387.363	108.69
387.588	93.69
387.813	112.69
388.038	98.69
388.263	102.69
388.488	123.69
388.713	90.69
388.938	100.69
389.163	89.69
389.387	85.69
389.612	95.69
389.837	83.69
390.062	87.69
390.287	85.69
390.512	89.69
390.736	90.69
390.961	91.69
391.186	85.69
391.411	84.69
391.636	91.69
391.86	77.69
392.085	89.69
392.31	92.69
392.534	79.69
392.759	88.69
392.984	93.69
393.208	102.69
393.433	106.69
393.658	104.69
393.882	76.69
394.107	90.69
394.331	82.69
394.556	79.69
394.78	92.69
395.005	94.69
395.229	73.69
395.454	83.69
395.678	87.69
395.903	78.69
396.127	90.69
396.352	87.69
396.576	95.69
396.801	83.69
397.025	86.69
397.249	92.69
397.474	79.69
397.698	96.69
397.922	77.69
398.147	98.69
398.371	85.69
398.595	108.69
398.82	81.69
399.044	98.69
399.268	93.69
399.492	79.69
399.717	78.69
399.941	94.69
400.165	93.69
400.389	95.69
400.613	80.69
400.837	92.69
401.062	97.69
401.286	86.69
401.51	88.69
401.734	93.69
401.958	102.69
402.182	147.69
402.406	227.69
402.63	172.69
402.854	112.69
403.078	94.69
403.302	83.69
403.526	74.69
403.75	88.69
403.974	82.69
404.198	83.69
404.422	89.69
404.645	88.69
404.869	82.69
405.093	115.69
405.317	135.69
405.541	131.69
405.765	118.69
405.988	153.69
406.212	240.69
406.436	386.69
406.66	251.69
406.883	140.69
407.107	110.69
407.331	100.69
407.555	108.69
407.778	124.69
408.002	102.69
408.226	97.69
408.449	84.69
408.673	108.69
408.896	84.69
409.12	95.69
409.344	65.69
409.567	90.69
409.791	90.69
410.014	91.69
410.238	92.69
410.461	100.69
410.685	97.69
410.908	92.69
411.132	107.69
411.355	103.69
411.578	84.69
411.802	75.69
412.025	87.69
412.249	97.69
412.472	102.69
412.695	120.69
412.919	98.69
413.142	83.69
413.365	81.69
413.589	88.69
413.812	91.69
414.035	82.69
414.258	106.69
414.482	91.69
414.705	91.69
414.928	79.69
415.151	96.69
415.374	86.69
415.597	98.69
415.821	92.69
416.044	81.69
416.267	93.69
416.49	85.69
416.713	80.69
416.936	91.69
417.159	103.69
417.382	83.69
417.605	89.69
417.828	114.69
418.051	100.69
418.274	87.69
418.497	71.69
418.72	71.69
418.943	79.69
419.166	87.69
419.389	88.69
419.611	101.69
419.834	98.69
420.057	92.69
420.28	90.69
420.503	76.69
420.726	91.69
420.948	100.69
421.171	92.69
421.394	89.69
421.617	80.69
421.839	94.69
422.062	111.69
422.285	96.69
422.507	96.69
422.73	109.69
422.953	94.69
423.175	79.69
423.398	91.69
423.621	86.69
423.843	87.69
424.066	96.69
424.288	111.69
424.511	95.69
424.733	100.69
424.956	116.69
425.178	93.69
425.401	109.69
425.623	108.69
425.846	98.69
426.068	79.69
426.291	103.69
426.513	85.69
426.735	94.69
426.958	94.69
427.18	108.69
427.402	184.69
427.625	278.69
427.847	253.69
428.069	206.69
428.292	126.69
428.514	99.69
428.736	92.69
428.958	100.69
429.181	90.69
429.403	91.69
429.625	78.69
429.847	86.69
430.069	96.69
430.292	100.69
430.514	77.69
430.736	84.69
430.958	85.69
431.18	88.69
431.402	82.69
431.624	92.69
431.846	81.69
432.068	78.69
432.29	78.69
432.512	89.69
432.734	94.69
432.956	97.69
433.178	88.69
433.4	87.69
433.622	87.69
433.844	80.69
434.066	109.69
434.287	89.69
434.509	100.69
434.731	83.69
434.953	103.69
435.175	102.69
435.397	104.69
435.618	89.69
435.84	107.69
436.062	118.69
436.284	105.69
436.505	108.69
436.727	99.69
436.949	91.69
437.17	88.69
437.392	89.69
437.614	104.69
437.835	130.69
438.057	170.69
438.278	122.69
438.5	106.69
438.721	133.69
438.943	108.69
439.165	94.69
439.386	97.69
439.608	102.69
439.829	110.69
440.05	151.69
440.272	175.69
440.493	109.69
440.715	98.69
440.936	89.69
441.158	96.69
441.379	106.69
441.6	95.69
441.822	101.69
442.043	106.69
442.264	130.69
442.486	116.69
442.707	92.69
442.928	128.69
443.149	153.69
443.371	178.69
443.592	120.69
443.813	117.69
444.034	116.69
444.255	82.69
444.476	75.69
444.698	90.69
444.919	94.69
445.14	125.69
445.361	138.69
445.582	130.69
445.803	173.69
446.024	167.69
446.245	151.69
446.466	123.69
446.687	97.69
446.908	73.69
447.129	90.69
447.35	102.69
447.571	108.69
447.792	115.69
448.013	116.69
448.234	130.69
448.455	108.69
448.675	134.69
448.896	128.69
449.117	118.69
449.338	104.69
449.559	133.69
449.779	135.69
450	120.69
450.221	89.69
450.442	105.69
450.662	117.69
450.883	134.69
451.104	166.69
451.324	106.69
451.545	100.69
451.766	90.69
451.986	83.69
452.207	92.69
452.428	107.69
452.648	112.69
452.869	147.69
453.089	146.69
453.31	148.69
453.53	88.69
453.751	93.69
453.971	139.69
454.192	134.69
454.412	95.69
454.633	93.69
454.853	82.69
455.073	90.69
455.294	99.69
455.514	106.69
455.734	82.69
455.955	92.69
456.175	69.69
456.395	82.69
456.616	100.69
456.836	87.69
457.056	85.69
457.276	83.69
457.497	71.69
457.717	88.69
457.937	77.69
458.157	102.69
458.377	115.69
458.598	146.69
458.818	233.69
459.038	243.69
459.258	150.69
459.478	109.69
459.698	99.69
459.918	94.69
460.138	82.69
460.358	78.69
460.578	90.69
460.798	91.69
461.018	97.69
461.238	81.69
461.458	100.69
461.678	93.69
461.898	86.69
462.118	103.69
462.338	82.69
462.558	87.69
462.777	79.69
462.997	95.69
463.217	126.69
463.437	76.69
463.657	85.69
463.876	96.69
464.096	92.69
464.316	103.69
464.536	104.69
464.755	110.69
464.975	135.69
465.195	282.69
465.414	284.69
465.634	106.69
465.854	102.69
466.073	99.69
466.293	94.69
466.512	87.69
466.732	96.69
466.951	88.69
467.171	92.69
467.391	110.69
467.61	161.69
467.829	232.69
468.049	638.69
468.268	1022.69
468.488	255.69
468.707	120.69
468.927	104.69
469.146	87.69
469.365	80.69
469.585	98.69
469.804	108.69
470.023	102.69
470.243	107.69
470.462	128.69
470.681	164.69
470.901	102.69
471.12	81.69
471.339	105.69
471.558	121.69
471.777	154.69
471.997	332.69
472.216	1243.69
472.435	2888.69
472.654	660.69
472.873	187.69
473.092	120.69
473.311	90.69
473.53	83.69
473.749	92.69
473.968	99.69
474.187	123.69
474.406	116.69
474.625	107.69
474.844	75.69
475.063	92.69
475.282	92.69
475.501	93.69
475.72	96.69
475.939	96.69
476.158	103.69
476.377	94.69
476.596	99.69
476.814	103.69
477.033	95.69
477.252	107.69
477.471	95.69
477.69	95.69
477.908	96.69
478.127	100.69
478.346	107.69
478.564	95.69
478.783	109.69
479.002	106.69
479.22	93.69
479.439	132.69
479.658	147.69
479.876	131.69
480.095	116.69
480.313	137.69
480.532	158.69
480.751	309.69
480.969	1081.69
481.188	4878.69
481.406	2855.69
481.624	406.69
481.843	139.69
482.061	114.69
482.28	93.69
482.498	94.69
482.717	88.69
482.935	98.69
483.153	86.69
483.372	98.69
483.59	91.69
483.808	93.69
484.027	96.69
484.245	96.69
484.463	89.69
484.681	107.69
484.9	92.69
485.118	99.69
485.336	99.69
485.554	97.69
485.772	108.69
485.99	111.69
486.209	114.69
486.427	107.69
486.645	117.69
486.863	147.69
487.081	124.69
487.299	99.69
487.517	95.69
487.735	104.69
487.953	110.69
488.171	91.69
488.389	98.69
488.607	107.69
488.825	93.69
489.043	97.69
489.261	104.69
489.479	98.69
489.696	85.69
489.914	103.69
490.132	102.69
490.35	94.69
490.568	90.69
490.786	83.69
491.003	92.69
491.221	95.69
491.439	94.69
491.657	94.69
491.874	85.69
492.092	93.69
492.31	91.69
492.527	107.69
492.745	82.69
492.963	95.69
493.18	91.69
493.398	85.69
493.615	92.69
493.833	80.69
494.05	77.69
494.268	98.69
494.485	90.69
494.703	87.69
494.92	96.69
495.138	72.69
495.355	91.69
495.573	92.69
495.79	95.69
496.008	92.69
496.225	77.69
496.442	88.69
496.66	95.69
496.877	85.69
497.094	89.69
497.312	86.69
497.529	82.69
497.746	87.69
497.963	93.69
498.181	93.69
498.398	104.69
498.615	124.69
498.832	107.69
499.049	72.69
499.267	82.69
499.484	86.69
499.701	84.69
499.918	86.69
500.135	96.69
500.352	108.69
500.569	89.69
500.786	103.69
501.003	79.69
501.22	93.69
501.437	95.69
501.654	98.69
501.871	125.69
502.088	92.69
502.305	91.69
502.522	76.69
502.739	98.69
502.956	93.69
503.172	95.69
503.389	113.69
503.606	111.69
503.823	108.69
504.04	87.69
504.256	92.69
504.473	93.69
504.69	98.69
504.907	111.69
505.123	103.69
505.34	95.69
505.557	98.69
505.773	82.69
505.99	94.69
506.207	90.69
506.423	91.69
506.64	95.69
506.856	91.69
507.073	92.69
507.289	98.69
507.506	96.69
507.722	142.69
507.939	172.69
508.155	119.69
508.372	103.69
508.588	102.69
508.805	101.69
509.021	92.69
509.238	104.69
509.454	111.69
509.67	95.69
509.887	131.69
510.103	153.69
510.319	279.69
510.536	1184.69
510.752	4409.69
510.968	1168.69
511.184	236.69
511.401	128.69
511.617	109.69
511.833	112.69
512.049	101.69
512.265	99.69
512.481	80.69
512.698	90.69
512.914	100.69
