Data from Circ_1999_H10_HRD10591_00026.txt Node
Date: Wed Jan 03 11:23:17 EST 2024
User: Yrep
Spectrometer: HR+D1059
Trigger mode: 1
Integration Time (sec): 1.000000E-1
Scans to average: 1
Electric dark correction enabled: true
Nonlinearity correction enabled: false
Boxcar width: 0
XAxis mode: Wavelengths
Number of Pixels in Spectrum: 2048
>>>>>Begin Spectral Data<<<<<
223.165	-23.06
223.4	-23.06
223.635	-23.06
223.869	-8.06
224.104	-7.06
224.338	-21.06
224.573	-14.06
224.808	-17.06
225.042	-8.06
225.277	-1.06
225.511	-21.06
225.746	-9.06
225.98	5.94
226.215	5.94
226.449	30.94
226.683	29.94
226.918	26.94
227.152	29.94
227.387	22.94
227.621	39.94
227.856	56.94
228.09	56.94
228.324	59.94
228.559	69.94
228.793	69.94
229.027	60.94
229.262	72.94
229.496	75.94
229.73	103.94
229.964	90.94
230.199	85.94
230.433	87.94
230.667	91.94
230.901	96.94
231.136	85.94
231.37	76.94
231.604	74.94
231.838	80.94
232.072	91.94
232.306	80.94
232.541	80.94
232.775	83.94
233.009	75.94
233.243	73.94
233.477	79.94
233.711	90.94
233.945	86.94
234.179	71.94
234.413	79.94
234.647	73.94
234.881	79.94
235.115	82.94
235.349	91.94
235.583	77.94
235.817	75.94
236.051	81.94
236.285	85.94
236.519	87.94
236.753	81.94
236.987	82.94
237.221	92.94
237.455	94.94
237.689	83.94
237.922	74.94
238.156	88.94
238.39	83.94
238.624	80.94
238.858	79.94
239.091	61.94
239.325	93.94
239.559	80.94
239.793	84.94
240.027	76.94
240.26	91.94
240.494	79.94
240.728	78.94
240.961	75.94
241.195	85.94
241.429	92.94
241.662	85.94
241.896	74.94
242.13	77.94
242.363	81.94
242.597	78.94
242.83	67.94
243.064	89.94
243.298	78.94
243.531	89.94
243.765	89.94
243.998	76.94
244.232	82.94
244.465	104.94
244.699	94.94
244.932	93.94
245.166	95.94
245.399	95.94
245.633	75.94
245.866	83.94
246.099	83.94
246.333	70.94
246.566	77.94
246.8	79.94
247.033	85.94
247.266	93.94
247.5	86.94
247.733	74.94
247.966	76.94
248.2	86.94
248.433	78.94
248.666	82.94
248.899	79.94
249.133	99.94
249.366	105.94
249.599	111.94
249.832	81.94
250.066	89.94
250.299	82.94
250.532	78.94
250.765	92.94
250.998	85.94
251.231	94.94
251.465	82.94
251.698	77.94
251.931	75.94
252.164	89.94
252.397	83.94
252.63	89.94
252.863	98.94
253.096	93.94
253.329	73.94
253.562	84.94
253.795	81.94
254.028	87.94
254.261	72.94
254.494	89.94
254.727	81.94
254.96	86.94
255.193	73.94
255.426	83.94
255.659	81.94
255.892	98.94
256.124	97.94
256.357	91.94
256.59	103.94
256.823	81.94
257.056	86.94
257.289	95.94
257.521	94.94
257.754	79.94
257.987	85.94
258.22	75.94
258.452	96.94
258.685	109.94
258.918	83.94
259.151	81.94
259.383	104.94
259.616	97.94
259.849	79.94
260.081	74.94
260.314	80.94
260.547	82.94
260.779	94.94
261.012	112.94
261.244	110.94
261.477	100.94
261.71	109.94
261.942	150.94
262.175	165.94
262.407	117.94
262.64	94.94
262.872	92.94
263.105	103.94
263.337	89.94
263.57	86.94
263.802	88.94
264.035	75.94
264.267	83.94
264.499	83.94
264.732	83.94
264.964	93.94
265.197	73.94
265.429	94.94
265.661	90.94
265.894	81.94
266.126	84.94
266.358	78.94
266.591	91.94
266.823	92.94
267.055	96.94
267.287	79.94
267.52	91.94
267.752	82.94
267.984	91.94
268.216	85.94
268.448	78.94
268.681	87.94
268.913	99.94
269.145	99.94
269.377	91.94
269.609	90.94
269.841	73.94
270.073	89.94
270.306	88.94
270.538	96.94
270.77	90.94
271.002	87.94
271.234	91.94
271.466	98.94
271.698	89.94
271.93	96.94
272.162	91.94
272.394	89.94
272.626	105.94
272.858	88.94
273.09	87.94
273.322	91.94
273.553	109.94
273.785	98.94
274.017	84.94
274.249	101.94
274.481	99.94
274.713	102.94
274.945	85.94
275.176	88.94
275.408	111.94
275.64	112.94
275.872	121.94
276.104	121.94
276.335	122.94
276.567	125.94
276.799	161.94
277.031	191.94
277.262	199.94
277.494	154.94
277.726	123.94
277.957	92.94
278.189	82.94
278.421	94.94
278.652	88.94
278.884	94.94
279.115	93.94
279.347	102.94
279.579	118.94
279.81	135.94
280.042	194.94
280.273	271.94
280.505	185.94
280.736	115.94
280.968	87.94
281.199	105.94
281.431	91.94
281.662	98.94
281.894	114.94
282.125	122.94
282.356	155.94
282.588	215.94
282.819	160.94
283.051	98.94
283.282	91.94
283.513	87.94
283.745	100.94
283.976	83.94
284.207	93.94
284.439	77.94
284.67	95.94
284.901	95.94
285.132	90.94
285.364	81.94
285.595	71.94
285.826	98.94
286.057	88.94
286.288	83.94
286.52	90.94
286.751	93.94
286.982	85.94
287.213	94.94
287.444	85.94
287.675	90.94
287.906	97.94
288.138	107.94
288.369	112.94
288.6	112.94
288.831	89.94
289.062	97.94
289.293	86.94
289.524	77.94
289.755	93.94
289.986	96.94
290.217	78.94
290.448	92.94
290.679	85.94
290.91	76.94
291.141	90.94
291.371	92.94
291.602	75.94
291.833	101.94
292.064	98.94
292.295	94.94
292.526	94.94
292.757	101.94
292.987	89.94
293.218	86.94
293.449	99.94
293.68	85.94
293.91	98.94
294.141	99.94
294.372	95.94
294.603	86.94
294.833	87.94
295.064	110.94
295.295	96.94
295.525	106.94
295.756	120.94
295.987	154.94
296.217	190.94
296.448	171.94
296.679	83.94
296.909	88.94
297.14	102.94
297.37	107.94
297.601	96.94
297.831	98.94
298.062	99.94
298.292	85.94
298.523	73.94
298.753	97.94
298.984	98.94
299.214	91.94
299.445	101.94
299.675	109.94
299.905	113.94
300.136	101.94
300.366	103.94
300.597	95.94
300.827	101.94
301.057	119.94
301.288	136.94
301.518	113.94
301.748	94.94
301.979	115.94
302.209	109.94
302.439	99.94
302.669	93.94
302.9	89.94
303.13	101.94
303.36	123.94
303.59	152.94
303.82	167.94
304.051	105.94
304.281	96.94
304.511	92.94
304.741	112.94
304.971	93.94
305.201	99.94
305.431	87.94
305.661	82.94
305.891	114.94
306.121	109.94
306.352	118.94
306.582	134.94
306.812	112.94
307.042	126.94
307.272	178.94
307.502	201.94
307.731	202.94
307.961	135.94
308.191	108.94
308.421	96.94
308.651	106.94
308.881	112.94
309.111	107.94
309.341	121.94
309.571	103.94
309.8	112.94
310.03	120.94
310.26	117.94
310.49	99.94
310.72	121.94
310.949	122.94
311.179	111.94
311.409	117.94
311.639	116.94
311.868	116.94
312.098	105.94
312.328	114.94
312.557	121.94
312.787	147.94
313.017	124.94
313.246	111.94
313.476	106.94
313.706	104.94
313.935	103.94
314.165	130.94
314.394	122.94
314.624	105.94
314.853	117.94
315.083	111.94
315.312	101.94
315.542	108.94
315.771	96.94
316.001	101.94
316.23	90.94
316.46	101.94
316.689	81.94
316.919	96.94
317.148	102.94
317.377	110.94
317.607	112.94
317.836	101.94
318.065	91.94
318.295	116.94
318.524	97.94
318.753	103.94
318.983	103.94
319.212	113.94
319.441	131.94
319.67	133.94
319.9	111.94
320.129	97.94
320.358	101.94
320.587	121.94
320.816	99.94
321.046	122.94
321.275	101.94
321.504	104.94
321.733	107.94
321.962	118.94
322.191	112.94
322.42	125.94
322.649	126.94
322.878	110.94
323.108	143.94
323.337	170.94
323.566	178.94
323.795	193.94
324.024	286.94
324.253	517.94
324.482	1046.94
324.71	2129.94
324.939	2797.94
325.168	1075.94
325.397	321.94
325.626	183.94
325.855	165.94
326.084	154.94
326.313	150.94
326.542	182.94
326.77	271.94
326.999	506.94
327.228	1031.94
327.457	1874.94
327.686	1560.94
327.914	589.94
328.143	592.94
328.372	753.94
328.6	409.94
328.829	216.94
329.058	218.94
329.287	233.94
329.515	196.94
329.744	291.94
329.972	526.94
330.201	1059.94
330.43	1575.94
330.658	705.94
330.887	350.94
331.115	215.94
331.344	149.94
331.572	144.94
331.801	133.94
332.03	133.94
332.258	129.94
332.486	114.94
332.715	122.94
332.943	117.94
333.172	138.94
333.4	144.94
333.629	182.94
333.857	267.94
334.085	463.94
334.314	971.94
334.542	1922.94
334.771	1805.94
334.999	466.94
335.227	183.94
335.455	126.94
335.684	122.94
335.912	111.94
336.14	120.94
336.369	110.94
336.597	121.94
336.825	127.94
337.053	98.94
337.281	110.94
337.51	95.94
337.738	116.94
337.966	112.94
338.194	119.94
338.422	106.94
338.65	97.94
338.878	105.94
339.106	110.94
339.334	109.94
339.562	97.94
339.79	110.94
340.018	112.94
340.246	109.94
340.474	98.94
340.702	107.94
340.93	99.94
341.158	94.94
341.386	115.94
341.614	106.94
341.842	118.94
342.07	107.94
342.298	107.94
342.526	86.94
342.754	93.94
342.981	107.94
343.209	97.94
343.437	95.94
343.665	95.94
343.893	98.94
344.12	105.94
344.348	95.94
344.576	84.94
344.804	97.94
345.031	120.94
345.259	108.94
345.487	118.94
345.714	107.94
345.942	82.94
346.17	108.94
346.397	106.94
346.625	111.94
346.853	96.94
347.08	102.94
347.308	99.94
347.535	102.94
347.763	113.94
347.99	114.94
348.218	118.94
348.445	133.94
348.673	117.94
348.9	110.94
349.128	103.94
349.355	87.94
349.583	106.94
349.81	108.94
350.037	91.94
350.265	93.94
350.492	114.94
350.72	110.94
350.947	120.94
351.174	153.94
351.402	141.94
351.629	110.94
351.856	109.94
352.083	115.94
352.311	133.94
352.538	147.94
352.765	132.94
352.992	135.94
353.22	152.94
353.447	124.94
353.674	125.94
353.901	106.94
354.128	106.94
354.355	91.94
354.583	98.94
354.81	107.94
355.037	96.94
355.264	110.94
355.491	102.94
355.718	90.94
355.945	95.94
356.172	82.94
356.399	89.94
356.626	100.94
356.853	100.94
357.08	101.94
357.307	103.94
357.534	107.94
357.761	97.94
357.988	97.94
358.215	104.94
358.441	74.94
358.668	104.94
358.895	83.94
359.122	77.94
359.349	105.94
359.576	102.94
359.802	130.94
360.029	185.94
360.256	162.94
360.483	130.94
360.709	109.94
360.936	101.94
361.163	111.94
361.39	108.94
361.616	101.94
361.843	92.94
362.07	93.94
362.296	115.94
362.523	101.94
362.749	94.94
362.976	102.94
363.203	88.94
363.429	94.94
363.656	103.94
363.882	97.94
364.109	106.94
364.335	107.94
364.562	96.94
364.788	96.94
365.015	102.94
365.241	122.94
365.468	139.94
365.694	122.94
365.92	122.94
366.147	104.94
366.373	102.94
366.599	88.94
366.826	95.94
367.052	91.94
367.278	99.94
367.505	89.94
367.731	103.94
367.957	105.94
368.184	117.94
368.41	117.94
368.636	147.94
368.862	154.94
369.089	137.94
369.315	121.94
369.541	98.94
369.767	94.94
369.993	85.94
370.219	95.94
370.445	96.94
370.672	91.94
370.898	82.94
371.124	114.94
371.35	91.94
371.576	89.94
371.802	90.94
372.028	91.94
372.254	94.94
372.48	88.94
372.706	89.94
372.932	104.94
373.158	89.94
373.384	109.94
373.61	102.94
373.835	103.94
374.061	96.94
374.287	107.94
374.513	100.94
374.739	91.94
374.965	83.94
375.191	98.94
375.416	87.94
375.642	93.94
375.868	87.94
376.094	86.94
376.319	101.94
376.545	85.94
376.771	79.94
376.997	91.94
377.222	92.94
377.448	97.94
377.674	87.94
377.899	87.94
378.125	92.94
378.35	92.94
378.576	82.94
378.802	90.94
379.027	96.94
379.253	100.94
379.478	98.94
379.704	104.94
379.929	98.94
380.155	110.94
380.38	119.94
380.606	85.94
380.831	87.94
381.057	94.94
381.282	101.94
381.507	118.94
381.733	107.94
381.958	95.94
382.184	110.94
382.409	96.94
382.634	117.94
382.86	114.94
383.085	103.94
383.31	94.94
383.535	118.94
383.761	117.94
383.986	106.94
384.211	106.94
384.436	107.94
384.662	110.94
384.887	129.94
385.112	126.94
385.337	127.94
385.562	117.94
385.787	114.94
386.013	126.94
386.238	133.94
386.463	116.94
386.688	117.94
386.913	99.94
387.138	110.94
387.363	103.94
387.588	104.94
387.813	105.94
388.038	109.94
388.263	129.94
388.488	106.94
388.713	99.94
388.938	110.94
389.163	85.94
389.387	95.94
389.612	88.94
389.837	90.94
390.062	85.94
390.287	97.94
390.512	91.94
390.736	87.94
390.961	86.94
391.186	85.94
391.411	92.94
391.636	90.94
391.86	88.94
392.085	93.94
392.31	80.94
392.534	79.94
392.759	83.94
392.984	95.94
393.208	97.94
393.433	83.94
393.658	82.94
393.882	92.94
394.107	89.94
394.331	85.94
394.556	75.94
394.78	94.94
395.005	93.94
395.229	97.94
395.454	88.94
395.678	80.94
395.903	99.94
396.127	94.94
396.352	87.94
396.576	92.94
396.801	95.94
397.025	103.94
397.249	95.94
397.474	93.94
397.698	89.94
397.922	94.94
398.147	88.94
398.371	93.94
398.595	97.94
398.82	94.94
399.044	81.94
399.268	100.94
399.492	95.94
399.717	94.94
399.941	102.94
400.165	95.94
400.389	96.94
400.613	87.94
400.837	85.94
401.062	93.94
401.286	96.94
401.51	110.94
401.734	103.94
401.958	120.94
402.182	173.94
402.406	241.94
402.63	178.94
402.854	119.94
403.078	93.94
403.302	100.94
403.526	104.94
403.75	89.94
403.974	96.94
404.198	106.94
404.422	114.94
404.645	96.94
404.869	120.94
405.093	125.94
405.317	136.94
405.541	151.94
405.765	138.94
405.988	172.94
406.212	273.94
406.436	405.94
406.66	239.94
406.883	140.94
407.107	105.94
407.331	109.94
407.555	110.94
407.778	103.94
408.002	94.94
408.226	82.94
408.449	99.94
408.673	100.94
408.896	94.94
409.12	99.94
409.344	91.94
409.567	94.94
409.791	82.94
410.014	83.94
410.238	89.94
410.461	113.94
410.685	95.94
410.908	98.94
411.132	110.94
411.355	98.94
411.578	90.94
411.802	87.94
412.025	91.94
412.249	108.94
412.472	125.94
412.695	135.94
412.919	104.94
413.142	96.94
413.365	75.94
413.589	79.94
413.812	78.94
414.035	103.94
414.258	107.94
414.482	91.94
414.705	93.94
414.928	94.94
415.151	91.94
415.374	96.94
415.597	86.94
415.821	89.94
416.044	92.94
416.267	104.94
416.49	99.94
416.713	73.94
416.936	99.94
417.159	87.94
417.382	90.94
417.605	123.94
417.828	119.94
418.051	117.94
418.274	100.94
418.497	91.94
418.72	88.94
418.943	100.94
419.166	91.94
419.389	81.94
419.611	96.94
419.834	89.94
420.057	106.94
420.28	88.94
420.503	83.94
420.726	89.94
420.948	98.94
421.171	100.94
421.394	85.94
421.617	86.94
421.839	81.94
422.062	111.94
422.285	103.94
422.507	91.94
422.73	113.94
422.953	87.94
423.175	84.94
423.398	103.94
423.621	95.94
423.843	102.94
424.066	96.94
424.288	107.94
424.511	96.94
424.733	105.94
424.956	125.94
425.178	117.94
425.401	117.94
425.623	117.94
425.846	98.94
426.068	108.94
426.291	104.94
426.513	98.94
426.735	91.94
426.958	114.94
427.18	121.94
427.402	186.94
427.625	301.94
427.847	251.94
428.069	191.94
428.292	115.94
428.514	110.94
428.736	90.94
428.958	90.94
429.181	99.94
429.403	85.94
429.625	69.94
429.847	99.94
430.069	111.94
430.292	104.94
430.514	87.94
430.736	80.94
430.958	83.94
431.18	77.94
431.402	84.94
431.624	91.94
431.846	85.94
432.068	87.94
432.29	80.94
432.512	94.94
432.734	82.94
432.956	77.94
433.178	107.94
433.4	101.94
433.622	96.94
433.844	102.94
434.066	94.94
434.287	101.94
434.509	76.94
434.731	92.94
434.953	98.94
435.175	100.94
435.397	105.94
435.618	89.94
435.84	105.94
436.062	135.94
436.284	116.94
436.505	99.94
436.727	95.94
436.949	93.94
437.17	92.94
437.392	86.94
437.614	111.94
437.835	141.94
438.057	171.94
438.278	134.94
438.5	126.94
438.721	123.94
438.943	111.94
439.165	82.94
439.386	83.94
439.608	110.94
439.829	113.94
440.05	158.94
440.272	184.94
440.493	108.94
440.715	100.94
440.936	98.94
441.158	97.94
441.379	96.94
441.6	110.94
441.822	112.94
442.043	115.94
442.264	119.94
442.486	109.94
442.707	120.94
442.928	135.94
443.149	165.94
443.371	179.94
443.592	146.94
443.813	135.94
444.034	125.94
444.255	95.94
444.476	62.94
444.698	95.94
444.919	91.94
445.14	124.94
445.361	124.94
445.582	147.94
445.803	193.94
446.024	173.94
446.245	171.94
446.466	127.94
446.687	96.94
446.908	95.94
447.129	92.94
447.35	105.94
447.571	112.94
447.792	106.94
448.013	118.94
448.234	126.94
448.455	121.94
448.675	135.94
448.896	132.94
449.117	111.94
449.338	118.94
449.559	134.94
449.779	141.94
450	112.94
450.221	93.94
450.442	84.94
450.662	101.94
450.883	141.94
451.104	155.94
451.324	102.94
451.545	102.94
451.766	90.94
451.986	98.94
452.207	97.94
452.428	89.94
452.648	118.94
452.869	152.94
453.089	136.94
453.31	160.94
453.53	102.94
453.751	98.94
453.971	138.94
454.192	164.94
454.412	115.94
454.633	99.94
454.853	98.94
455.073	92.94
455.294	94.94
455.514	119.94
455.734	104.94
455.955	93.94
456.175	96.94
456.395	84.94
456.616	69.94
456.836	96.94
457.056	93.94
457.276	89.94
457.497	93.94
457.717	84.94
457.937	77.94
458.157	99.94
458.377	94.94
458.598	145.94
458.818	255.94
459.038	271.94
459.258	159.94
459.478	95.94
459.698	88.94
459.918	89.94
460.138	88.94
460.358	98.94
460.578	77.94
460.798	89.94
461.018	96.94
461.238	85.94
461.458	105.94
461.678	87.94
461.898	91.94
462.118	87.94
462.338	84.94
462.558	92.94
462.777	82.94
462.997	91.94
463.217	117.94
463.437	99.94
463.657	86.94
463.876	97.94
464.096	97.94
464.316	102.94
464.536	98.94
464.755	93.94
464.975	147.94
465.195	294.94
465.414	294.94
465.634	116.94
465.854	85.94
466.073	80.94
466.293	101.94
466.512	98.94
466.732	87.94
466.951	105.94
467.171	111.94
467.391	124.94
467.61	150.94
467.829	235.94
468.049	628.94
468.268	949.94
468.488	238.94
468.707	109.94
468.927	113.94
469.146	88.94
469.365	93.94
469.585	87.94
469.804	98.94
470.023	124.94
470.243	126.94
470.462	136.94
470.681	159.94
470.901	112.94
471.12	99.94
471.339	110.94
471.558	120.94
471.777	162.94
471.997	310.94
472.216	1261.94
472.435	2815.94
472.654	637.94
472.873	161.94
473.092	114.94
473.311	98.94
473.53	88.94
473.749	90.94
473.968	102.94
474.187	125.94
474.406	115.94
474.625	92.94
474.844	93.94
475.063	100.94
475.282	97.94
475.501	69.94
475.72	91.94
475.939	109.94
476.158	93.94
476.377	85.94
476.596	104.94
476.814	115.94
477.033	128.94
477.252	89.94
477.471	110.94
477.69	109.94
477.908	94.94
478.127	106.94
478.346	103.94
478.564	87.94
478.783	121.94
479.002	121.94
479.22	111.94
479.439	119.94
479.658	161.94
479.876	133.94
480.095	130.94
480.313	138.94
480.532	181.94
480.751	286.94
480.969	1152.94
481.188	4871.94
481.406	2717.94
481.624	396.94
481.843	150.94
482.061	128.94
482.28	99.94
482.498	101.94
482.717	91.94
482.935	98.94
483.153	98.94
483.372	91.94
483.59	103.94
483.808	106.94
484.027	103.94
484.245	105.94
484.463	103.94
484.681	95.94
484.9	104.94
485.118	103.94
485.336	89.94
485.554	114.94
485.772	103.94
485.99	103.94
486.209	112.94
486.427	117.94
486.645	137.94
486.863	126.94
487.081	133.94
487.299	107.94
487.517	113.94
487.735	105.94
487.953	102.94
488.171	109.94
488.389	109.94
488.607	102.94
488.825	105.94
489.043	94.94
489.261	95.94
489.479	81.94
489.696	104.94
489.914	96.94
490.132	90.94
490.35	88.94
490.568	85.94
490.786	94.94
491.003	97.94
491.221	87.94
491.439	121.94
491.657	97.94
491.874	84.94
492.092	94.94
492.31	96.94
492.527	110.94
492.745	109.94
492.963	111.94
493.18	103.94
493.398	99.94
493.615	112.94
493.833	98.94
494.05	108.94
494.268	106.94
494.485	104.94
494.703	86.94
494.92	91.94
495.138	88.94
495.355	86.94
495.573	96.94
495.79	89.94
496.008	97.94
496.225	85.94
496.442	94.94
496.66	96.94
496.877	89.94
497.094	96.94
497.312	98.94
497.529	96.94
497.746	94.94
497.963	91.94
498.181	84.94
498.398	100.94
498.615	126.94
498.832	119.94
499.049	94.94
499.267	96.94
499.484	94.94
499.701	95.94
499.918	95.94
500.135	86.94
500.352	79.94
500.569	98.94
500.786	105.94
501.003	93.94
501.22	91.94
501.437	102.94
501.654	98.94
501.871	137.94
502.088	106.94
502.305	98.94
502.522	98.94
502.739	94.94
502.956	81.94
503.172	90.94
503.389	119.94
503.606	142.94
503.823	119.94
504.04	93.94
504.256	102.94
504.473	108.94
504.69	91.94
504.907	102.94
505.123	94.94
505.34	94.94
505.557	95.94
505.773	92.94
505.99	89.94
506.207	100.94
506.423	83.94
506.64	99.94
506.856	87.94
507.073	85.94
507.289	83.94
507.506	116.94
507.722	155.94
507.939	160.94
508.155	118.94
508.372	112.94
508.588	93.94
508.805	105.94
509.021	114.94
509.238	115.94
509.454	109.94
509.67	107.94
509.887	130.94
510.103	181.94
510.319	325.94
510.536	1328.94
510.752	4872.94
510.968	1234.94
511.184	209.94
