Data from Circ_1999_H10_HRD10591_00067.txt Node
Date: Wed Jan 03 11:23:26 EST 2024
User: Yrep
Spectrometer: HR+D1059
Trigger mode: 1
Integration Time (sec): 1.000000E-1
Scans to average: 1
Electric dark correction enabled: true
Nonlinearity correction enabled: false
Boxcar width: 0
XAxis mode: Wavelengths
Number of Pixels in Spectrum: 2048
>>>>>Begin Spectral Data<<<<<
223.165	-15
223.4	-15
223.635	-15
223.869	-15
224.104	-17
224.338	-18
224.573	-26
224.808	-11
225.042	0
225.277	-4
225.511	6
225.746	-5
225.98	-10
226.215	25
226.449	26
226.683	20
226.918	16
227.152	28
227.387	50
227.621	42
227.856	45
228.09	49
228.324	41
228.559	44
228.793	50
229.027	69
229.262	80
229.496	86
229.73	87
229.964	91
230.199	77
230.433	95
230.667	87
230.901	62
231.136	78
231.37	92
231.604	75
231.838	74
232.072	72
232.306	75
232.541	78
232.775	75
233.009	76
233.243	91
233.477	71
233.711	83
233.945	81
234.179	86
234.413	80
234.647	82
234.881	84
235.115	69
235.349	79
235.583	78
235.817	78
236.051	83
236.285	74
236.519	88
236.753	85
236.987	80
237.221	84
237.455	85
237.689	86
237.922	98
238.156	73
238.39	70
238.624	69
238.858	74
239.091	82
239.325	82
239.559	95
239.793	77
240.027	94
240.26	78
240.494	87
240.728	84
240.961	72
241.195	76
241.429	80
241.662	76
241.896	92
242.13	77
242.363	74
242.597	68
242.83	69
243.064	64
243.298	57
243.531	81
243.765	100
243.998	85
244.232	90
244.465	83
244.699	71
244.932	81
245.166	83
245.399	80
245.633	82
245.866	80
246.099	86
246.333	70
246.566	74
246.8	77
247.033	82
247.266	95
247.5	81
247.733	81
247.966	64
248.2	70
248.433	85
248.666	79
248.899	80
249.133	91
249.366	107
249.599	114
249.832	84
250.066	90
250.299	98
250.532	97
250.765	88
250.998	83
251.231	73
251.465	82
251.698	102
251.931	76
252.164	88
252.397	88
252.63	84
252.863	73
253.096	93
253.329	72
253.562	71
253.795	83
254.028	88
254.261	89
254.494	86
254.727	80
254.96	82
255.193	82
255.426	76
255.659	79
255.892	97
256.124	106
256.357	99
256.59	78
256.823	102
257.056	101
257.289	94
257.521	97
257.754	88
257.987	87
258.22	93
258.452	97
258.685	95
258.918	88
259.151	89
259.383	84
259.616	90
259.849	80
260.081	101
260.314	89
260.547	92
260.779	111
261.012	111
261.244	104
261.477	109
261.71	108
261.942	147
262.175	168
262.407	94
262.64	86
262.872	92
263.105	80
263.337	73
263.57	90
263.802	84
264.035	91
264.267	82
264.499	92
264.732	91
264.964	73
265.197	90
265.429	89
265.661	87
265.894	83
266.126	78
266.358	90
266.591	98
266.823	84
267.055	66
267.287	84
267.52	91
267.752	84
267.984	78
268.216	70
268.448	99
268.681	81
268.913	86
269.145	85
269.377	87
269.609	84
269.841	99
270.073	90
270.306	77
270.538	88
270.77	88
271.002	88
271.234	95
271.466	94
271.698	94
271.93	94
272.162	88
272.394	91
272.626	95
272.858	86
273.09	81
273.322	79
273.553	88
273.785	91
274.017	90
274.249	88
274.481	88
274.713	80
274.945	88
275.176	92
275.408	117
275.64	101
275.872	132
276.104	102
276.335	120
276.567	130
276.799	166
277.031	194
277.262	248
277.494	187
277.726	125
277.957	98
278.189	89
278.421	95
278.652	93
278.884	102
279.115	89
279.347	101
279.579	121
279.81	144
280.042	242
280.273	338
280.505	219
280.736	113
280.968	92
281.199	100
281.431	97
281.662	102
281.894	96
282.125	112
282.356	157
282.588	220
282.819	139
283.051	97
283.282	89
283.513	97
283.745	104
283.976	96
284.207	85
284.439	99
284.67	94
284.901	97
285.132	88
285.364	88
285.595	101
285.826	87
286.057	98
286.288	91
286.52	85
286.751	82
286.982	99
287.213	82
287.444	90
287.675	85
287.906	96
288.138	93
288.369	114
288.6	94
288.831	84
289.062	88
289.293	85
289.524	84
289.755	77
289.986	88
290.217	96
290.448	83
290.679	86
290.91	90
291.141	89
291.371	94
291.602	84
291.833	86
292.064	84
292.295	99
292.526	97
292.757	105
292.987	81
293.218	89
293.449	85
293.68	68
293.91	83
294.141	82
294.372	93
294.603	87
294.833	88
295.064	82
295.295	95
295.525	89
295.756	112
295.987	145
296.217	205
296.448	178
296.679	116
296.909	101
297.14	101
297.37	97
297.601	84
297.831	94
298.062	103
298.292	107
298.523	101
298.753	87
298.984	98
299.214	77
299.445	97
299.675	91
299.905	107
300.136	96
300.366	96
300.597	105
300.827	93
301.057	110
301.288	133
301.518	105
301.748	110
301.979	124
302.209	109
302.439	105
302.669	101
302.9	92
303.13	89
303.36	102
303.59	144
303.82	163
304.051	120
304.281	95
304.511	91
304.741	92
304.971	90
305.201	95
305.431	98
305.661	93
305.891	88
306.121	113
306.352	114
306.582	135
306.812	121
307.042	136
307.272	197
307.502	212
307.731	199
307.961	141
308.191	110
308.421	92
308.651	94
308.881	94
309.111	103
309.341	89
309.571	113
309.8	123
310.03	114
310.26	119
310.49	112
310.72	113
310.949	150
311.179	112
311.409	112
311.639	112
311.868	125
312.098	111
312.328	116
312.557	126
312.787	162
313.017	127
313.246	95
313.476	107
313.706	115
313.935	106
314.165	110
314.394	125
314.624	106
314.853	120
315.083	107
315.312	100
315.542	102
315.771	97
316.001	88
316.23	99
316.46	94
316.689	98
316.919	105
317.148	120
317.377	93
317.607	81
317.836	109
318.065	110
318.295	77
318.524	97
318.753	94
318.983	84
319.212	110
319.441	130
319.67	140
319.9	96
320.129	94
320.358	103
320.587	103
320.816	126
321.046	117
321.275	124
321.504	108
321.733	110
321.962	118
322.191	132
322.42	125
322.649	149
322.878	135
323.108	134
323.337	167
323.566	167
323.795	203
324.024	271
324.253	550
324.482	1186
324.71	2504
324.939	3252
325.168	1190
325.397	351
325.626	204
325.855	148
326.084	172
326.313	165
326.542	196
326.77	321
326.999	586
327.228	1247
327.457	2262
327.686	1808
327.914	692
328.143	739
328.372	968
328.6	484
328.829	224
329.058	219
329.287	238
329.515	233
329.744	344
329.972	688
330.201	1438
330.43	2059
330.658	895
330.887	389
331.115	246
331.344	125
331.572	148
331.801	159
332.03	129
332.258	140
332.486	121
332.715	137
332.943	122
333.172	152
333.4	166
333.629	205
333.857	310
334.085	609
334.314	1321
334.542	2588
334.771	2351
334.999	571
335.227	223
335.455	132
335.684	117
335.912	122
336.14	129
336.369	109
336.597	120
336.825	128
337.053	105
337.281	103
337.51	90
337.738	108
337.966	109
338.194	110
338.422	114
338.65	102
338.878	103
339.106	94
339.334	99
339.562	90
339.79	109
340.018	92
340.246	103
340.474	120
340.702	117
340.93	105
341.158	101
341.386	108
341.614	111
341.842	120
342.07	98
342.298	93
342.526	88
342.754	94
342.981	83
343.209	95
343.437	96
343.665	88
343.893	79
344.12	110
344.348	97
344.576	94
344.804	95
345.031	119
345.259	114
345.487	107
345.714	103
345.942	98
346.17	89
346.397	99
346.625	106
346.853	98
347.08	91
347.308	90
347.535	110
347.763	114
347.99	113
348.218	136
348.445	136
348.673	120
348.9	115
349.128	104
349.355	82
349.583	85
349.81	97
350.037	111
350.265	103
350.492	97
350.72	102
350.947	106
351.174	127
351.402	152
351.629	122
351.856	117
352.083	118
352.311	123
352.538	117
352.765	130
352.992	134
353.22	138
353.447	113
353.674	114
353.901	106
354.128	108
354.355	104
354.583	113
354.81	111
355.037	97
355.264	96
355.491	98
355.718	96
355.945	93
356.172	97
356.399	90
356.626	93
356.853	96
357.08	88
357.307	104
357.534	84
357.761	88
357.988	108
358.215	93
358.441	92
358.668	94
358.895	88
359.122	98
359.349	94
359.576	102
359.802	125
360.029	184
360.256	177
360.483	131
360.709	97
360.936	110
361.163	109
361.39	113
361.616	113
361.843	99
362.07	108
362.296	116
362.523	103
362.749	103
362.976	97
363.203	88
363.429	83
363.656	87
363.882	88
364.109	110
364.335	111
364.562	88
364.788	96
365.015	115
365.241	117
365.468	147
365.694	138
365.92	125
366.147	106
366.373	98
366.599	93
366.826	90
367.052	101
367.278	94
367.505	104
367.731	108
367.957	97
368.184	102
368.41	125
368.636	130
368.862	150
369.089	136
369.315	114
369.541	108
369.767	102
369.993	110
370.219	98
370.445	90
370.672	83
370.898	87
371.124	99
371.35	84
371.576	92
371.802	82
372.028	71
372.254	87
372.48	96
372.706	96
372.932	72
373.158	85
373.384	80
373.61	114
373.835	108
374.061	103
374.287	87
374.513	101
374.739	101
374.965	103
375.191	92
375.416	88
375.642	81
375.868	96
376.094	89
376.319	106
376.545	85
376.771	92
376.997	79
377.222	101
377.448	109
377.674	84
377.899	93
378.125	105
378.35	92
378.576	96
378.802	103
379.027	96
379.253	105
379.478	82
379.704	88
379.929	89
380.155	93
380.38	88
380.606	98
380.831	110
381.057	101
381.282	100
381.507	107
381.733	101
381.958	89
382.184	105
382.409	94
382.634	98
382.86	91
383.085	110
383.31	107
383.535	96
383.761	110
383.986	92
384.211	108
384.436	96
384.662	101
384.887	97
385.112	88
385.337	111
385.562	114
385.787	119
386.013	126
386.238	133
386.463	122
386.688	103
386.913	104
387.138	102
387.363	106
387.588	108
387.813	100
388.038	116
388.263	120
388.488	106
388.713	101
388.938	102
389.163	97
389.387	88
389.612	85
389.837	90
390.062	98
390.287	86
390.512	65
390.736	80
390.961	93
391.186	99
391.411	77
391.636	105
391.86	85
392.085	94
392.31	86
392.534	88
392.759	87
392.984	89
393.208	91
393.433	83
393.658	87
393.882	97
394.107	84
394.331	94
394.556	87
394.78	78
395.005	94
395.229	96
395.454	79
395.678	72
395.903	98
396.127	82
396.352	84
396.576	102
396.801	85
397.025	100
397.249	88
397.474	106
397.698	81
397.922	92
398.147	92
398.371	91
398.595	76
398.82	81
399.044	95
399.268	106
399.492	91
399.717	88
399.941	87
400.165	93
400.389	84
400.613	79
400.837	93
401.062	100
401.286	101
401.51	105
401.734	103
401.958	119
402.182	176
402.406	265
402.63	182
402.854	112
403.078	100
403.302	94
403.526	87
403.75	85
403.974	92
404.198	91
404.422	80
404.645	96
404.869	111
405.093	134
405.317	161
405.541	151
405.765	135
405.988	166
406.212	271
406.436	434
406.66	261
406.883	133
407.107	118
407.331	114
407.555	117
407.778	127
408.002	105
408.226	99
408.449	91
408.673	99
408.896	92
409.12	105
409.344	85
409.567	89
409.791	94
410.014	101
410.238	89
410.461	93
410.685	98
410.908	104
411.132	116
411.355	98
411.578	96
411.802	100
412.025	94
412.249	94
412.472	104
412.695	156
412.919	122
413.142	105
413.365	87
413.589	90
413.812	88
414.035	104
414.258	99
414.482	111
414.705	92
414.928	92
415.151	94
415.374	97
415.597	97
415.821	95
416.044	91
416.267	96
416.49	92
416.713	103
416.936	92
417.159	103
417.382	106
417.605	123
417.828	126
418.051	109
418.274	98
418.497	105
418.72	91
418.943	93
419.166	106
419.389	89
419.611	83
419.834	105
420.057	103
420.28	113
420.503	97
420.726	87
420.948	94
421.171	106
421.394	115
421.617	84
421.839	103
422.062	92
422.285	102
422.507	104
422.73	118
422.953	88
423.175	108
423.398	92
423.621	92
423.843	93
424.066	85
424.288	98
424.511	93
424.733	122
424.956	127
425.178	116
425.401	107
425.623	125
425.846	111
426.068	115
426.291	106
426.513	89
426.735	114
426.958	106
427.18	131
427.402	219
427.625	339
427.847	266
428.069	235
428.292	138
428.514	115
428.736	84
428.958	92
429.181	88
429.403	86
429.625	97
429.847	113
430.069	122
430.292	100
430.514	104
430.736	92
430.958	80
431.18	80
431.402	91
431.624	78
431.846	93
432.068	79
432.29	92
432.512	105
432.734	90
432.956	86
433.178	93
433.4	106
433.622	90
433.844	90
434.066	98
434.287	92
434.509	100
434.731	93
434.953	84
435.175	95
435.397	93
435.618	96
435.84	114
436.062	145
436.284	120
436.505	122
436.727	117
436.949	98
437.17	96
437.392	90
437.614	100
437.835	156
438.057	174
438.278	146
438.5	127
438.721	150
438.943	118
439.165	98
439.386	87
439.608	87
439.829	126
440.05	166
440.272	205
440.493	115
440.715	93
440.936	88
441.158	90
441.379	97
441.6	112
441.822	110
442.043	107
442.264	145
442.486	126
442.707	107
442.928	145
443.149	202
443.371	214
443.592	134
443.813	150
444.034	150
444.255	118
444.476	100
444.698	77
444.919	100
445.14	126
445.361	147
445.582	161
445.803	228
446.024	184
446.245	185
446.466	137
446.687	101
446.908	93
447.129	89
447.35	96
447.571	103
447.792	104
448.013	112
448.234	131
448.455	115
448.675	128
448.896	137
449.117	111
449.338	101
449.559	164
449.779	149
450	115
450.221	113
450.442	102
450.662	118
450.883	140
451.104	181
451.324	122
451.545	101
451.766	98
451.986	89
452.207	101
452.428	95
452.648	113
452.869	153
453.089	169
453.31	169
453.53	104
453.751	113
453.971	146
454.192	167
454.412	117
454.633	95
454.853	80
455.073	90
455.294	112
455.514	114
455.734	104
455.955	105
456.175	103
456.395	93
456.616	95
456.836	83
457.056	87
457.276	95
457.497	96
457.717	89
457.937	96
458.157	95
458.377	90
458.598	132
458.818	250
459.038	268
459.258	154
459.478	113
459.698	89
459.918	85
460.138	94
460.358	78
460.578	94
460.798	110
461.018	86
461.238	95
461.458	97
461.678	90
461.898	94
462.118	85
462.338	84
462.558	78
462.777	91
462.997	98
463.217	133
463.437	113
463.657	105
463.876	108
464.096	98
464.316	119
464.536	118
464.755	118
464.975	146
465.195	323
465.414	317
465.634	130
465.854	94
466.073	96
466.293	97
466.512	100
466.732	97
466.951	93
467.171	121
467.391	115
467.61	182
467.829	271
468.049	823
468.268	1249
468.488	278
468.707	128
468.927	105
469.146	101
469.365	105
469.585	97
469.804	130
470.023	136
470.243	114
470.462	121
470.681	176
470.901	111
471.12	115
471.339	119
471.558	137
471.777	191
471.997	408
472.216	1633
472.435	3739
472.654	826
472.873	202
473.092	111
473.311	103
473.53	98
473.749	88
473.968	135
474.187	135
474.406	121
474.625	98
474.844	91
475.063	95
475.282	106
475.501	85
475.72	88
475.939	85
476.158	95
476.377	93
476.596	105
476.814	103
477.033	112
477.252	108
477.471	104
477.69	102
477.908	101
478.127	103
478.346	91
478.564	108
478.783	110
479.002	106
479.22	113
479.439	158
479.658	148
479.876	129
480.095	134
480.313	150
480.532	219
480.751	387
480.969	1484
481.188	6460
481.406	3581
481.624	485
481.843	174
482.061	112
482.28	104
482.498	102
482.717	103
482.935	98
483.153	96
483.372	98
483.59	89
483.808	101
484.027	97
484.245	107
484.463	116
484.681	103
484.9	92
485.118	107
485.336	99
485.554	108
485.772	106
485.99	119
486.209	107
486.427	117
486.645	126
486.863	151
487.081	118
487.299	92
487.517	97
487.735	111
487.953	109
488.171	110
488.389	107
488.607	116
488.825	91
489.043	104
489.261	97
489.479	92
489.696	87
489.914	88
490.132	89
490.35	90
490.568	92
490.786	93
491.003	105
491.221	92
491.439	101
491.657	97
491.874	95
492.092	88
492.31	93
492.527	102
492.745	105
492.963	91
493.18	86
493.398	89
493.615	100
493.833	86
494.05	98
494.268	101
494.485	92
494.703	103
494.92	97
495.138	87
495.355	96
495.573	101
495.79	85
496.008	93
496.225	79
496.442	97
496.66	104
496.877	93
497.094	106
497.312	96
497.529	93
497.746	94
497.963	106
498.181	106
498.398	94
498.615	103
498.832	108
499.049	104
499.267	103
499.484	98
499.701	100
499.918	92
500.135	105
500.352	109
500.569	86
500.786	92
501.003	105
501.22	94
501.437	78
501.654	121
501.871	156
502.088	105
502.305	106
502.522	93
502.739	88
502.956	97
503.172	104
503.389	115
503.606	148
503.823	121
504.04	100
504.256	90
504.473	94
504.69	97
504.907	87
505.123	119
505.34	89
505.557	102
505.773	93
505.99	84
506.207	81
506.423	96
506.64	91
506.856	102
507.073	97
507.289	109
507.506	109
507.722	157
507.939	150
508.155	112
508.372	109
508.588	102
508.805	109
509.021	103
509.238	111
509.454	85
509.67	107
509.887	123
510.103	169
510.319	320
510.536	1322
510.752	4812
510.968	1198
511.184	235
511.401	156
511.617	124
511.833	111
512.049	119
512.265	81
512.481	88
512.698	110
512.914	106
513.13	105
513.346	104
513.562	101
513.778	114
513.994	127
514.21	144
514.426	168
514.642	210
514.858	183
515.074	310
515.29	1050
515.506	3893
515.721	1320
515.937	272
516.153	170
516.369	128
516.585	111
516.801	124
517.016	122
517.232	108
517.448	95
517.664	111
517.879	102
518.095	97
518.311	116
518.527	113
518.742	93
518.958	95
519.173	109
519.389	106
519.605	110
519.82	95
520.036	112
520.251	191
520.467	146
520.682	135
520.898	132
521.113	164
521.329	218
521.544	401
521.76	1400
521.975	6501
522.19	3750
522.406	692
522.621	209
522.836	126
523.052	122
523.267	119
523.482	120
523.698	127
523.913	181
524.128	149
524.343	96
524.559	96
524.774	97
524.989	110
525.204	125
525.419	117
525.634	112
525.849	95
526.064	91
526.28	80
526.495	86
526.71	106
526.925	105
527.14	93
527.355	95
527.57	85
527.785	81
527.999	86
528.214	96
528.429	93
528.644	106
528.859	89
529.074	103
529.289	186
529.503	378
529.718	148
529.933	108
530.148	100
530.363	93
530.577	103
530.792	96
531.007	94
531.221	88
531.436	81
531.651	91
531.865	94
532.08	86
532.295	92
532.509	94
532.724	79
532.938	91
533.153	82
533.367	92
533.582	109
533.796	88
534.011	95
534.225	87
534.44	90
534.654	93
534.868	89
535.083	99
535.297	105
535.511	120
535.726	139
535.94	112
536.154	101
536.369	111
536.583	96
536.797	80
537.011	100
537.225	94
537.44	101
537.654	93
537.868	97
538.082	100
538.296	90
538.51	81
538.724	80
538.938	103
539.153	122
539.367	133
539.581	116
539.795	100
540.009	108
540.222	109
540.436	102
540.65	96
540.864	109
541.078	105
541.292	102
541.506	94
541.72	89
541.934	78
542.147	95
542.361	103
542.575	85
542.789	81
543.002	84
543.216	110
543.43	108
543.644	94
543.857	109
544.071	89
544.285	94
544.498	98
544.712	94
544.925	112
545.139	87
545.352	92
545.566	99
545.779	89
545.993	95
546.206	93
546.42	88
546.633	104
546.847	92
547.06	85
547.274	92
547.487	91
547.7	93
547.914	81
548.127	101
548.34	83
548.554	88
548.767	93
548.98	98
549.193	94
549.407	83
549.62	90
549.833	89
550.046	96
550.259	88
550.473	88
550.686	101
550.899	94
551.112	101
551.325	95
551.538	110
551.751	100
551.964	99
552.177	84
552.39	80
552.603	90
552.816	103
553.029	97
553.242	106
553.455	104
553.667	144
553.88	130
554.093	112
554.306	132
554.519	128
554.732	92
554.944	78
555.157	94
555.37	88
555.583	87
555.795	100
556.008	97
556.221	97
556.433	102
556.646	102
556.859	93
557.071	107
557.284	99
557.496	91
557.709	94
557.921	82
558.134	94
558.346	92
558.559	93
558.771	90
558.984	86
559.196	100
559.409	92
559.621	92
559.833	81
560.046	94
560.258	119
560.47	147
560.683	102
560.895	92
561.107	86
561.32	92
561.532	89
561.744	91
561.956	100
562.168	87
562.381	80
562.593	93
562.805	95
563.017	90
563.229	80
563.441	104
563.653	96
563.865	76
564.077	95
564.289	96
564.501	91
564.713	102
564.925	99
565.137	151
565.349	82
565.561	91
565.773	80
565.985	89
566.197	82
566.408	87
566.62	80
566.832	93
567.044	79
567.255	88
567.467	92
567.679	77
567.891	87
568.102	95
568.314	97
568.526	86
568.737	89
568.949	98
569.161	106
569.372	80
569.584	78
569.795	107
570.007	134
570.218	394
570.43	185
570.641	106
570.853	102
571.064	100
571.276	83
571.487	85
571.698	77
571.91	94
572.121	89
572.333	103
572.544	92
572.755	93
572.966	80
573.178	92
573.389	102
573.6	102
573.811	96
574.023	96
574.234	95
574.445	92
574.656	87
574.867	90
575.078	81
575.289	91
575.501	90
575.712	93
575.923	85
576.134	100
576.345	88
576.556	95
576.767	88
576.978	108
577.188	101
