Data from Circ_1999_H10_HRD10591_00024.txt Node
Date: Wed Jan 03 11:23:17 EST 2024
User: Yrep
Spectrometer: HR+D1059
Trigger mode: 1
Integration Time (sec): 1.000000E-1
Scans to average: 1
Electric dark correction enabled: true
Nonlinearity correction enabled: false
Boxcar width: 0
XAxis mode: Wavelengths
Number of Pixels in Spectrum: 2048
>>>>>Begin Spectral Data<<<<<
223.165	-21
223.4	-21
223.635	-21
223.869	-23
224.104	-24
224.338	-6
224.573	-14
224.808	-20
225.042	-15
225.277	4
225.511	-14
225.746	10
225.98	12
226.215	5
226.449	21
226.683	20
226.918	40
227.152	25
227.387	29
227.621	43
227.856	60
228.09	40
228.324	60
228.559	56
228.793	54
229.027	54
229.262	54
229.496	64
229.73	94
229.964	100
230.199	85
230.433	85
230.667	65
230.901	81
231.136	69
231.37	73
231.604	78
231.838	75
232.072	70
232.306	84
232.541	72
232.775	65
233.009	93
233.243	88
233.477	79
233.711	85
233.945	89
234.179	93
234.413	75
234.647	80
234.881	80
235.115	73
235.349	78
235.583	77
235.817	85
236.051	81
236.285	79
236.519	79
236.753	84
236.987	90
237.221	91
237.455	97
237.689	80
237.922	82
238.156	80
238.39	65
238.624	89
238.858	76
239.091	70
239.325	89
239.559	95
239.793	58
240.027	82
240.26	79
240.494	72
240.728	91
240.961	79
241.195	92
241.429	65
241.662	72
241.896	79
242.13	65
242.363	94
242.597	84
242.83	86
243.064	78
243.298	77
243.531	68
243.765	74
243.998	85
244.232	100
244.465	104
244.699	87
244.932	87
245.166	91
245.399	78
245.633	79
245.866	73
246.099	93
246.333	76
246.566	87
246.8	70
247.033	78
247.266	73
247.5	61
247.733	79
247.966	84
248.2	80
248.433	72
248.666	78
248.899	78
249.133	80
249.366	105
249.599	105
249.832	78
250.066	78
250.299	84
250.532	82
250.765	77
250.998	80
251.231	80
251.465	82
251.698	87
251.931	92
252.164	74
252.397	75
252.63	96
252.863	85
253.096	83
253.329	93
253.562	84
253.795	82
254.028	77
254.261	80
254.494	72
254.727	80
254.96	84
255.193	79
255.426	85
255.659	78
255.892	95
256.124	85
256.357	87
256.59	89
256.823	84
257.056	91
257.289	89
257.521	87
257.754	71
257.987	93
258.22	100
258.452	102
258.685	92
258.918	88
259.151	75
259.383	78
259.616	74
259.849	86
260.081	71
260.314	91
260.547	88
260.779	89
261.012	108
261.244	97
261.477	108
261.71	115
261.942	142
262.175	153
262.407	107
262.64	82
262.872	94
263.105	85
263.337	103
263.57	77
263.802	98
264.035	100
264.267	87
264.499	74
264.732	96
264.964	79
265.197	88
265.429	74
265.661	83
265.894	86
266.126	120
266.358	89
266.591	84
266.823	89
267.055	87
267.287	95
267.52	86
267.752	76
267.984	88
268.216	81
268.448	91
268.681	91
268.913	72
269.145	84
269.377	93
269.609	99
269.841	95
270.073	92
270.306	86
270.538	83
270.77	92
271.002	94
271.234	94
271.466	90
271.698	85
271.93	78
272.162	83
272.394	81
272.626	95
272.858	78
273.09	76
273.322	84
273.553	88
273.785	97
274.017	86
274.249	84
274.481	92
274.713	84
274.945	104
275.176	102
275.408	104
275.64	112
275.872	123
276.104	102
276.335	105
276.567	137
276.799	171
277.031	210
277.262	205
277.494	148
277.726	96
277.957	107
278.189	100
278.421	92
278.652	88
278.884	88
279.115	95
279.347	98
279.579	106
279.81	148
280.042	209
280.273	291
280.505	180
280.736	122
280.968	89
281.199	93
281.431	79
281.662	91
281.894	95
282.125	113
282.356	172
282.588	207
282.819	162
283.051	105
283.282	86
283.513	101
283.745	96
283.976	81
284.207	70
284.439	89
284.67	104
284.901	92
285.132	78
285.364	81
285.595	82
285.826	88
286.057	86
286.288	86
286.52	92
286.751	92
286.982	93
287.213	82
287.444	86
287.675	85
287.906	109
288.138	84
288.369	100
288.6	99
288.831	91
289.062	90
289.293	101
289.524	86
289.755	83
289.986	89
290.217	79
290.448	92
290.679	85
290.91	100
291.141	93
291.371	88
291.602	93
291.833	88
292.064	90
292.295	83
292.526	97
292.757	88
292.987	86
293.218	92
293.449	84
293.68	88
293.91	94
294.141	100
294.372	85
294.603	96
294.833	97
295.064	88
295.295	89
295.525	97
295.756	116
295.987	140
296.217	181
296.448	158
296.679	103
296.909	74
297.14	86
297.37	89
297.601	88
297.831	86
298.062	91
298.292	89
298.523	89
298.753	101
298.984	115
299.214	92
299.445	99
299.675	81
299.905	111
300.136	95
300.366	84
300.597	106
300.827	93
301.057	111
301.288	129
301.518	106
301.748	108
301.979	111
302.209	107
302.439	105
302.669	88
302.9	77
303.13	106
303.36	130
303.59	156
303.82	156
304.051	115
304.281	87
304.511	90
304.741	88
304.971	95
305.201	106
305.431	101
305.661	89
305.891	100
306.121	98
306.352	114
306.582	121
306.812	110
307.042	129
307.272	166
307.502	186
307.731	190
307.961	131
308.191	100
308.421	80
308.651	101
308.881	89
309.111	98
309.341	110
309.571	122
309.8	101
310.03	119
310.26	128
310.49	123
310.72	110
310.949	139
311.179	121
311.409	106
311.639	106
311.868	107
312.098	107
312.328	109
312.557	122
312.787	157
313.017	125
313.246	114
313.476	108
313.706	92
313.935	118
314.165	116
314.394	119
314.624	115
314.853	125
315.083	104
315.312	106
315.542	104
315.771	94
316.001	85
316.23	107
316.46	98
316.689	105
316.919	86
317.148	118
317.377	102
317.607	108
317.836	87
318.065	108
318.295	90
318.524	86
318.753	92
318.983	111
319.212	124
319.441	135
319.67	133
319.9	106
320.129	105
320.358	96
320.587	101
320.816	123
321.046	131
321.275	97
321.504	103
321.733	99
321.962	117
322.191	116
322.42	123
322.649	135
322.878	129
323.108	134
323.337	152
323.566	179
323.795	201
324.024	273
324.253	541
324.482	1179
324.71	2336
324.939	3038
325.168	1128
325.397	318
325.626	182
325.855	163
326.084	153
326.313	150
326.542	187
326.77	296
326.999	583
327.228	1166
327.457	2144
327.686	1742
327.914	653
328.143	605
328.372	741
328.6	408
328.829	210
329.058	210
329.287	240
329.515	190
329.744	302
329.972	557
330.201	1094
330.43	1604
330.658	726
330.887	337
331.115	226
331.344	136
331.572	130
331.801	136
332.03	137
332.258	110
332.486	109
332.715	105
332.943	112
333.172	138
333.4	145
333.629	171
333.857	280
334.085	464
334.314	1001
334.542	2018
334.771	1855
334.999	486
335.227	201
335.455	145
335.684	134
335.912	126
336.14	111
336.369	126
336.597	128
336.825	106
337.053	89
337.281	103
337.51	116
337.738	87
337.966	112
338.194	109
338.422	102
338.65	89
338.878	108
339.106	96
339.334	104
339.562	101
339.79	107
340.018	94
340.246	105
340.474	104
340.702	95
340.93	95
341.158	107
341.386	118
341.614	118
341.842	95
342.07	109
342.298	100
342.526	100
342.754	98
342.981	97
343.209	91
343.437	89
343.665	102
343.893	88
344.12	111
344.348	111
344.576	89
344.804	106
345.031	123
345.259	114
345.487	110
345.714	93
345.942	100
346.17	92
346.397	105
346.625	102
346.853	93
347.08	103
347.308	116
347.535	112
347.763	130
347.99	112
348.218	123
348.445	128
348.673	118
348.9	92
349.128	105
349.355	88
349.583	102
349.81	96
350.037	105
350.265	87
350.492	96
350.72	100
350.947	106
351.174	114
351.402	125
351.629	121
351.856	110
352.083	117
352.311	118
352.538	135
352.765	140
352.992	136
353.22	130
353.447	116
353.674	125
353.901	94
354.128	98
354.355	85
354.583	96
354.81	91
355.037	105
355.264	102
355.491	99
355.718	96
355.945	87
356.172	83
356.399	85
356.626	93
356.853	89
357.08	93
357.307	87
357.534	80
357.761	103
357.988	91
358.215	100
358.441	84
358.668	112
358.895	98
359.122	102
359.349	109
359.576	117
359.802	126
360.029	161
360.256	175
360.483	137
360.709	105
360.936	105
361.163	106
361.39	108
361.616	112
361.843	95
362.07	114
362.296	113
362.523	100
362.749	116
362.976	99
363.203	89
363.429	98
363.656	90
363.882	108
364.109	97
364.335	99
364.562	105
364.788	108
365.015	101
365.241	105
365.468	128
365.694	131
365.92	120
366.147	101
366.373	105
366.599	107
366.826	104
367.052	95
367.278	94
367.505	100
367.731	104
367.957	117
368.184	95
368.41	115
368.636	135
368.862	154
369.089	160
369.315	105
369.541	91
369.767	102
369.993	116
370.219	111
370.445	94
370.672	98
370.898	103
371.124	97
371.35	95
371.576	77
371.802	91
372.028	85
372.254	99
372.48	99
372.706	105
372.932	97
373.158	92
373.384	92
373.61	91
373.835	102
374.061	97
374.287	105
374.513	105
374.739	76
374.965	89
375.191	97
375.416	96
375.642	96
375.868	98
376.094	98
376.319	85
376.545	99
376.771	97
376.997	85
377.222	86
377.448	95
377.674	75
377.899	93
378.125	93
378.35	83
378.576	89
378.802	77
379.027	97
379.253	90
379.478	93
379.704	102
379.929	109
380.155	93
380.38	102
380.606	94
380.831	100
381.057	92
381.282	94
381.507	91
381.733	93
381.958	102
382.184	109
382.409	105
382.634	102
382.86	112
383.085	98
383.31	96
383.535	107
383.761	110
383.986	84
384.211	105
384.436	109
384.662	111
384.887	102
385.112	126
385.337	105
385.562	104
385.787	101
386.013	132
386.238	119
386.463	131
386.688	122
386.913	112
387.138	118
387.363	116
387.588	102
387.813	100
388.038	107
388.263	136
388.488	120
388.713	113
388.938	92
389.163	105
389.387	86
389.612	93
389.837	86
390.062	95
390.287	77
390.512	87
390.736	88
390.961	98
391.186	97
391.411	80
391.636	79
391.86	87
392.085	83
392.31	92
392.534	93
392.759	93
392.984	84
393.208	95
393.433	86
393.658	84
393.882	87
394.107	93
394.331	96
394.556	85
394.78	100
395.005	97
395.229	80
395.454	86
395.678	90
395.903	98
396.127	89
396.352	87
396.576	95
396.801	83
397.025	72
397.249	86
397.474	75
397.698	87
397.922	90
398.147	90
398.371	88
398.595	88
398.82	85
399.044	79
399.268	84
399.492	89
399.717	95
399.941	90
400.165	98
400.389	101
400.613	93
400.837	92
401.062	84
401.286	99
401.51	92
401.734	104
401.958	109
402.182	176
402.406	256
402.63	163
402.854	124
403.078	101
403.302	81
403.526	86
403.75	102
403.974	90
404.198	89
404.422	103
404.645	98
404.869	106
405.093	104
405.317	135
405.541	151
405.765	146
405.988	139
406.212	266
406.436	414
406.66	242
406.883	129
407.107	94
407.331	90
407.555	108
407.778	94
408.002	89
408.226	94
408.449	87
408.673	105
408.896	98
409.12	95
409.344	88
409.567	89
409.791	96
410.014	94
410.238	83
410.461	91
410.685	90
410.908	80
411.132	105
411.355	93
411.578	90
411.802	98
412.025	85
412.249	102
412.472	104
412.695	139
412.919	127
413.142	102
413.365	81
413.589	92
413.812	87
414.035	84
414.258	91
414.482	96
414.705	93
414.928	98
415.151	87
415.374	100
415.597	95
415.821	88
416.044	99
416.267	90
416.49	98
416.713	97
416.936	93
417.159	86
417.382	104
417.605	118
417.828	129
418.051	105
418.274	94
418.497	88
418.72	99
418.943	101
419.166	82
419.389	99
419.611	94
419.834	92
420.057	80
420.28	109
420.503	91
420.726	88
420.948	87
421.171	99
421.394	96
421.617	91
421.839	79
422.062	80
422.285	95
422.507	97
422.73	103
422.953	100
423.175	91
423.398	97
423.621	90
423.843	108
424.066	76
424.288	93
424.511	114
424.733	110
424.956	119
425.178	117
425.401	116
425.623	111
425.846	97
426.068	113
426.291	100
426.513	96
426.735	92
426.958	100
427.18	142
427.402	186
427.625	318
427.847	257
428.069	204
428.292	129
428.514	117
428.736	98
428.958	78
429.181	90
429.403	74
429.625	110
429.847	94
430.069	117
430.292	100
430.514	90
430.736	74
430.958	92
431.18	89
431.402	98
431.624	97
431.846	94
432.068	80
432.29	74
432.512	101
432.734	86
432.956	92
433.178	109
433.4	95
433.622	86
433.844	103
434.066	108
434.287	101
434.509	90
434.731	89
434.953	87
435.175	96
435.397	100
435.618	98
435.84	113
436.062	131
436.284	126
436.505	113
436.727	102
436.949	95
437.17	99
437.392	94
437.614	114
437.835	144
438.057	158
438.278	139
438.5	121
438.721	136
438.943	110
439.165	85
439.386	108
439.608	104
439.829	116
440.05	157
440.272	190
440.493	130
440.715	106
440.936	87
441.158	80
441.379	99
441.6	106
441.822	116
442.043	108
442.264	117
442.486	132
442.707	100
442.928	127
443.149	196
443.371	194
443.592	147
443.813	127
444.034	118
444.255	86
444.476	85
444.698	89
444.919	97
445.14	116
445.361	127
445.582	152
445.803	192
446.024	183
446.245	183
446.466	128
446.687	108
446.908	92
447.129	95
447.35	113
447.571	90
447.792	101
448.013	116
448.234	154
448.455	109
448.675	138
448.896	137
449.117	104
449.338	115
449.559	156
449.779	166
450	98
450.221	102
450.442	85
450.662	111
450.883	159
451.104	176
451.324	114
451.545	76
451.766	88
451.986	88
452.207	84
452.428	90
452.648	114
452.869	138
453.089	151
453.31	173
453.53	114
453.751	107
453.971	128
454.192	154
454.412	107
454.633	108
454.853	87
455.073	91
455.294	101
455.514	104
455.734	98
455.955	102
456.175	84
456.395	92
456.616	89
456.836	74
457.056	79
457.276	81
457.497	90
457.717	97
457.937	96
458.157	91
458.377	118
458.598	132
458.818	254
459.038	287
459.258	177
459.478	109
459.698	97
459.918	91
460.138	96
460.358	88
460.578	92
460.798	116
461.018	88
461.238	87
461.458	97
461.678	98
461.898	86
462.118	96
462.338	84
462.558	89
462.777	102
462.997	104
463.217	113
463.437	92
463.657	77
463.876	88
464.096	104
464.316	96
464.536	117
464.755	112
464.975	162
465.195	301
465.414	297
465.634	128
465.854	103
466.073	88
466.293	92
466.512	89
466.732	87
466.951	105
467.171	94
467.391	123
467.61	148
467.829	223
468.049	677
468.268	990
468.488	251
468.707	113
468.927	80
469.146	94
469.365	86
469.585	101
469.804	125
470.023	108
470.243	116
470.462	139
470.681	158
470.901	105
471.12	112
471.339	111
471.558	127
471.777	156
471.997	329
472.216	1224
472.435	2920
472.654	662
472.873	180
473.092	108
473.311	96
473.53	104
473.749	97
473.968	119
474.187	146
474.406	116
474.625	92
474.844	93
475.063	87
475.282	97
475.501	90
475.72	112
475.939	94
476.158	96
476.377	85
476.596	101
476.814	110
477.033	127
477.252	110
477.471	97
477.69	95
477.908	91
478.127	90
478.346	100
478.564	105
478.783	115
479.002	108
479.22	125
479.439	133
479.658	148
479.876	135
480.095	118
480.313	150
480.532	168
480.751	314
480.969	1143
481.188	4844
481.406	2785
481.624	404
481.843	141
482.061	113
482.28	118
482.498	115
482.717	104
482.935	93
483.153	91
483.372	114
483.59	93
483.808	86
484.027	99
484.245	107
484.463	96
484.681	105
484.9	109
485.118	101
485.336	102
485.554	110
485.772	118
485.99	129
486.209	125
486.427	124
486.645	135
486.863	144
487.081	129
487.299	111
487.517	105
487.735	108
487.953	100
488.171	76
488.389	99
488.607	113
488.825	104
489.043	85
489.261	95
489.479	93
489.696	91
489.914	76
490.132	72
490.35	90
490.568	88
490.786	101
491.003	90
491.221	104
491.439	96
491.657	100
491.874	102
492.092	94
492.31	99
492.527	106
492.745	102
492.963	102
493.18	91
493.398	114
493.615	103
493.833	97
494.05	96
494.268	98
494.485	103
494.703	93
494.92	109
495.138	104
495.355	92
495.573	84
495.79	91
496.008	87
496.225	88
496.442	89
496.66	103
496.877	86
497.094	88
497.312	93
497.529	92
497.746	90
497.963	88
498.181	95
498.398	113
498.615	114
498.832	113
499.049	113
499.267	108
499.484	89
499.701	89
499.918	94
500.135	85
500.352	103
500.569	94
500.786	96
501.003	103
501.22	88
501.437	96
501.654	110
501.871	150
502.088	100
502.305	89
502.522	100
502.739	88
502.956	83
503.172	107
503.389	103
503.606	127
503.823	109
504.04	109
504.256	97
504.473	76
504.69	93
504.907	85
505.123	91
505.34	80
505.557	93
505.773	92
505.99	86
506.207	86
506.423	104
506.64	92
506.856	86
507.073	101
507.289	102
507.506	121
507.722	148
507.939	158
508.155	115
508.372	104
508.588	103
508.805	94
509.021	101
509.238	104
509.454	106
509.67	117
509.887	143
510.103	164
510.319	284
510.536	1248
510.752	4452
510.968	1132
511.184	219
511.401	143
511.617	128
511.833	127
512.049	114
512.265	104
512.481	98
512.698	116
512.914	93
513.13	104
513.346	106
513.562	104
513.778	115
513.994	114
514.21	141
514.426	176
514.642	222
514.858	187
515.074	281
515.29	962
515.506	3648
515.721	1229
515.937	267
516.153	172
516.369	130
516.585	100
516.801	109
517.016	111
517.232	89
517.448	102
517.664	105
517.879	110
518.095	97
518.311	101
518.527	116
518.742	109
518.958	96
519.173	108
519.389	98
519.605	111
519.82	119
520.036	138
520.251	178
520.467	153
520.682	127
520.898	144
521.113	155
521.329	224
521.544	382
521.76	1264
521.975	6052
522.19	3580
522.406	668
522.621	199
522.836	132
523.052	105
523.267	107
523.482	97
523.698	119
523.913	170
524.128	119
524.343	95
524.559	104
524.774	92
524.989	106
525.204	141
525.419	111
525.634	97
525.849	89
526.064	88
526.28	77
526.495	99
526.71	82
526.925	94
527.14	96
527.355	108
527.57	88
527.785	92
527.999	91
528.214	96
528.429	91
528.644	105
528.859	105
529.074	101
529.289	199
529.503	354
529.718	127
529.933	97
530.148	102
530.363	91
530.577	97
530.792	97
531.007	103
531.221	89
531.436	93
531.651	96
531.865	74
532.08	87
532.295	89
532.509	106
532.724	97
532.938	91
533.153	100
533.367	93
533.582	92
533.796	100
534.011	98
534.225	95
534.44	100
534.654	104
534.868	89
535.083	87
535.297	102
535.511	122
535.726	129
535.94	125
536.154	111
536.369	100
536.583	92
536.797	86
537.011	101
537.225	88
537.44	93
537.654	74
537.868	90
538.082	93
538.296	95
538.51	95
538.724	95
538.938	76
539.153	105
539.367	133
539.581	102
539.795	103
540.009	85
540.222	91
540.436	90
540.65	91
540.864	102
541.078	109
541.292	98
541.506	103
541.72	105
541.934	98
542.147	72
542.361	89
542.575	101
542.789	80
543.002	96
543.216	90
543.43	122
543.644	104
543.857	98
544.071	87
544.285	95
544.498	88
544.712	77
544.925	83
545.139	87
545.352	105
545.566	99
545.779	89
545.993	80
546.206	84
546.42	90
546.633	77
546.847	91
547.06	90
547.274	95
547.487	100
547.7	88
547.914	74
548.127	87
548.34	88
548.554	84
548.767	84
548.98	91
549.193	88
549.407	93
549.62	84
549.833	95
550.046	89
550.259	101
550.473	103
550.686	106
550.899	96
551.112	97
551.325	95
551.538	102
551.751	72
551.964	88
552.177	95
552.39	80
552.603	87
552.816	82
553.029	93
553.242	89
553.455	112
553.667	146
553.88	141
554.093	90
554.306	111
554.519	121
554.732	100
554.944	107
555.157	93
555.37	103
555.583	107
555.795	90
556.008	74
556.221	89
556.433	89
556.646	89
556.859	90
557.071	103
557.284	97
557.496	86
557.709	90
557.921	91
558.134	92
558.346	87
558.559	82
558.771	86
558.984	86
559.196	95
559.409	109
559.621	81
559.833	96
560.046	86
560.258	116
560.47	133
560.683	112
560.895	96
561.107	101
561.32	91
561.532	100
561.744	94
561.956	92
562.168	89
562.381	80
562.593	103
562.805	91
563.017	98
563.229	109
563.441	102
563.653	93
563.865	95
564.077	92
564.289	101
564.501	100
564.713	85
564.925	93
565.137	113
565.349	99
565.561	89
565.773	90
565.985	85
566.197	84
566.408	101
566.62	82
566.832	94
567.044	88
567.255	87
567.467	102
567.679	74
567.891	91
568.102	88
568.314	96
568.526	96
568.737	89
568.949	106
569.161	102
569.372	88
569.584	93
569.795	106
570.007	133
570.218	386
570.43	185
570.641	97
570.853	105
571.064	87
571.276	92
571.487	92
571.698	86
571.91	93
572.121	92
572.333	89
572.544	66
572.755	102
572.966	100
573.178	86
573.389	93
573.6	95
573.811	94
574.023	88
574.234	84
574.445	85
574.656	88
574.867	89
575.078	90
575.289	81
575.501	93
575.712	88
575.923	87
576.134	92
576.345	96
576.556	79
576.767	96
576.978	104
577.188	88
577.399	103
577.61	92
