Data from Circ_1999_H10_HRD10591_00069.txt Node
Date: Wed Jan 03 11:23:26 EST 2024
User: Yrep
Spectrometer: HR+D1059
Trigger mode: 1
Integration Time (sec): 1.000000E-1
Scans to average: 1
Electric dark correction enabled: true
Nonlinearity correction enabled: false
Boxcar width: 0
XAxis mode: Wavelengths
Number of Pixels in Spectrum: 2048
>>>>>Begin Spectral Data<<<<<
223.165	-4.81
223.4	-4.81
223.635	-4.81
223.869	-20.81
224.104	-27.81
224.338	-9.81
224.573	-19.81
224.808	-28.81
225.042	-11.81
225.277	1.19
225.511	-15.81
225.746	5.19
225.98	8.19
226.215	4.19
226.449	25.19
226.683	31.19
226.918	40.19
227.152	24.19
227.387	48.19
227.621	35.19
227.856	71.19
228.09	52.19
228.324	55.19
228.559	67.19
228.793	73.19
229.027	54.19
229.262	71.19
229.496	82.19
229.73	119.19
229.964	101.19
230.199	79.19
230.433	84.19
230.667	82.19
230.901	63.19
231.136	82.19
231.37	77.19
231.604	98.19
231.838	77.19
232.072	92.19
232.306	84.19
232.541	82.19
232.775	90.19
233.009	85.19
233.243	94.19
233.477	81.19
233.711	81.19
233.945	76.19
234.179	90.19
234.413	97.19
234.647	72.19
234.881	91.19
235.115	80.19
235.349	79.19
235.583	80.19
235.817	84.19
236.051	94.19
236.285	78.19
236.519	95.19
236.753	91.19
236.987	86.19
237.221	91.19
237.455	91.19
237.689	86.19
237.922	70.19
238.156	82.19
238.39	81.19
238.624	75.19
238.858	73.19
239.091	83.19
239.325	79.19
239.559	88.19
239.793	88.19
240.027	84.19
240.26	75.19
240.494	83.19
240.728	85.19
240.961	82.19
241.195	88.19
241.429	77.19
241.662	76.19
241.896	81.19
242.13	92.19
242.363	86.19
242.597	78.19
242.83	100.19
243.064	88.19
243.298	86.19
243.531	87.19
243.765	84.19
243.998	90.19
244.232	97.19
244.465	93.19
244.699	93.19
244.932	85.19
245.166	75.19
245.399	76.19
245.633	82.19
245.866	74.19
246.099	85.19
246.333	88.19
246.566	79.19
246.8	84.19
247.033	74.19
247.266	80.19
247.5	89.19
247.733	77.19
247.966	101.19
248.2	85.19
248.433	82.19
248.666	85.19
248.899	88.19
249.133	94.19
249.366	96.19
249.599	117.19
249.832	105.19
250.066	79.19
250.299	98.19
250.532	93.19
250.765	87.19
250.998	93.19
251.231	74.19
251.465	69.19
251.698	77.19
251.931	92.19
252.164	74.19
252.397	95.19
252.63	96.19
252.863	85.19
253.096	94.19
253.329	87.19
253.562	82.19
253.795	84.19
254.028	97.19
254.261	87.19
254.494	82.19
254.727	101.19
254.96	88.19
255.193	82.19
255.426	88.19
255.659	78.19
255.892	99.19
256.124	107.19
256.357	96.19
256.59	88.19
256.823	100.19
257.056	90.19
257.289	105.19
257.521	89.19
257.754	84.19
257.987	106.19
258.22	96.19
258.452	81.19
258.685	107.19
258.918	97.19
259.151	96.19
259.383	94.19
259.616	91.19
259.849	85.19
260.081	99.19
260.314	95.19
260.547	93.19
260.779	98.19
261.012	122.19
261.244	117.19
261.477	111.19
261.71	121.19
261.942	151.19
262.175	186.19
262.407	100.19
262.64	95.19
262.872	95.19
263.105	91.19
263.337	88.19
263.57	88.19
263.802	76.19
264.035	84.19
264.267	66.19
264.499	91.19
264.732	95.19
264.964	93.19
265.197	89.19
265.429	78.19
265.661	77.19
265.894	70.19
266.126	87.19
266.358	83.19
266.591	87.19
266.823	81.19
267.055	75.19
267.287	80.19
267.52	105.19
267.752	84.19
267.984	87.19
268.216	88.19
268.448	95.19
268.681	89.19
268.913	102.19
269.145	98.19
269.377	89.19
269.609	85.19
269.841	80.19
270.073	81.19
270.306	88.19
270.538	88.19
270.77	90.19
271.002	90.19
271.234	92.19
271.466	103.19
271.698	90.19
271.93	104.19
272.162	88.19
272.394	97.19
272.626	93.19
272.858	83.19
273.09	90.19
273.322	86.19
273.553	96.19
273.785	93.19
274.017	91.19
274.249	87.19
274.481	95.19
274.713	101.19
274.945	106.19
275.176	108.19
275.408	113.19
275.64	120.19
275.872	154.19
276.104	120.19
276.335	110.19
276.567	156.19
276.799	183.19
277.031	224.19
277.262	227.19
277.494	177.19
277.726	94.19
277.957	106.19
278.189	98.19
278.421	99.19
278.652	100.19
278.884	92.19
279.115	100.19
279.347	95.19
279.579	116.19
279.81	145.19
280.042	225.19
280.273	353.19
280.505	240.19
280.736	120.19
280.968	95.19
281.199	94.19
281.431	92.19
281.662	106.19
281.894	96.19
282.125	108.19
282.356	175.19
282.588	223.19
282.819	161.19
283.051	98.19
283.282	83.19
283.513	92.19
283.745	101.19
283.976	80.19
284.207	92.19
284.439	93.19
284.67	90.19
284.901	97.19
285.132	99.19
285.364	100.19
285.595	89.19
285.826	99.19
286.057	84.19
286.288	82.19
286.52	96.19
286.751	86.19
286.982	88.19
287.213	93.19
287.444	98.19
287.675	98.19
287.906	91.19
288.138	87.19
288.369	106.19
288.6	110.19
288.831	109.19
289.062	96.19
289.293	101.19
289.524	89.19
289.755	104.19
289.986	102.19
290.217	96.19
290.448	94.19
290.679	88.19
290.91	92.19
291.141	91.19
291.371	101.19
291.602	95.19
291.833	93.19
292.064	105.19
292.295	104.19
292.526	89.19
292.757	106.19
292.987	82.19
293.218	97.19
293.449	96.19
293.68	100.19
293.91	78.19
294.141	107.19
294.372	81.19
294.603	105.19
294.833	82.19
295.064	89.19
295.295	105.19
295.525	91.19
295.756	122.19
295.987	162.19
296.217	223.19
296.448	185.19
296.679	107.19
296.909	94.19
297.14	100.19
297.37	109.19
297.601	93.19
297.831	89.19
298.062	98.19
298.292	113.19
298.523	95.19
298.753	99.19
298.984	93.19
299.214	104.19
299.445	110.19
299.675	105.19
299.905	104.19
300.136	83.19
300.366	97.19
300.597	99.19
300.827	95.19
301.057	130.19
301.288	131.19
301.518	120.19
301.748	108.19
301.979	127.19
302.209	92.19
302.439	106.19
302.669	89.19
302.9	93.19
303.13	107.19
303.36	136.19
303.59	160.19
303.82	179.19
304.051	122.19
304.281	97.19
304.511	91.19
304.741	91.19
304.971	88.19
305.201	87.19
305.431	96.19
305.661	110.19
305.891	97.19
306.121	130.19
306.352	115.19
306.582	129.19
306.812	135.19
307.042	142.19
307.272	214.19
307.502	237.19
307.731	216.19
307.961	150.19
308.191	99.19
308.421	91.19
308.651	110.19
308.881	120.19
309.111	101.19
309.341	115.19
309.571	116.19
309.8	113.19
310.03	113.19
310.26	125.19
310.49	108.19
310.72	132.19
310.949	146.19
311.179	132.19
311.409	120.19
311.639	122.19
311.868	128.19
312.098	90.19
312.328	119.19
312.557	138.19
312.787	153.19
313.017	125.19
313.246	121.19
313.476	102.19
313.706	102.19
313.935	112.19
314.165	120.19
314.394	131.19
314.624	107.19
314.853	121.19
315.083	103.19
315.312	86.19
315.542	109.19
315.771	94.19
316.001	95.19
316.23	101.19
316.46	92.19
316.689	109.19
316.919	122.19
317.148	107.19
317.377	122.19
317.607	101.19
317.836	96.19
318.065	89.19
318.295	106.19
318.524	110.19
318.753	107.19
318.983	91.19
319.212	124.19
319.441	132.19
319.67	124.19
319.9	112.19
320.129	107.19
320.358	101.19
320.587	115.19
320.816	115.19
321.046	114.19
321.275	125.19
321.504	111.19
321.733	111.19
321.962	114.19
322.191	109.19
322.42	118.19
322.649	121.19
322.878	128.19
323.108	149.19
323.337	158.19
323.566	188.19
323.795	209.19
324.024	277.19
324.253	537.19
324.482	1125.19
324.71	2285.19
324.939	3007.19
325.168	1163.19
325.397	335.19
325.626	207.19
325.855	154.19
326.084	141.19
326.313	175.19
326.542	208.19
326.77	288.19
326.999	558.19
327.228	1133.19
327.457	2031.19
327.686	1681.19
327.914	668.19
328.143	737.19
328.372	953.19
328.6	521.19
328.829	240.19
329.058	247.19
329.287	269.19
329.515	220.19
329.744	331.19
329.972	695.19
330.201	1397.19
330.43	2068.19
330.658	885.19
330.887	384.19
331.115	264.19
331.344	151.19
331.572	149.19
331.801	158.19
332.03	148.19
332.258	125.19
332.486	145.19
332.715	120.19
332.943	111.19
333.172	145.19
333.4	167.19
333.629	201.19
333.857	306.19
334.085	584.19
334.314	1267.19
334.542	2468.19
334.771	2299.19
334.999	581.19
335.227	220.19
335.455	147.19
335.684	129.19
335.912	107.19
336.14	127.19
336.369	123.19
336.597	118.19
336.825	136.19
337.053	104.19
337.281	108.19
337.51	102.19
337.738	106.19
337.966	110.19
338.194	119.19
338.422	108.19
338.65	95.19
338.878	113.19
339.106	105.19
339.334	109.19
339.562	96.19
339.79	100.19
340.018	84.19
340.246	117.19
340.474	121.19
340.702	99.19
340.93	94.19
341.158	105.19
341.386	113.19
341.614	116.19
341.842	102.19
342.07	107.19
342.298	111.19
342.526	99.19
342.754	96.19
342.981	87.19
343.209	94.19
343.437	99.19
343.665	96.19
343.893	89.19
344.12	97.19
344.348	100.19
344.576	110.19
344.804	107.19
345.031	128.19
345.259	121.19
345.487	107.19
345.714	109.19
345.942	89.19
346.17	93.19
346.397	112.19
346.625	108.19
346.853	113.19
347.08	101.19
347.308	112.19
347.535	112.19
347.763	118.19
347.99	116.19
348.218	120.19
348.445	126.19
348.673	119.19
348.9	125.19
349.128	107.19
349.355	107.19
349.583	95.19
349.81	103.19
350.037	109.19
350.265	106.19
350.492	116.19
350.72	121.19
350.947	120.19
351.174	148.19
351.402	154.19
351.629	133.19
351.856	124.19
352.083	121.19
352.311	120.19
352.538	134.19
352.765	152.19
352.992	143.19
353.22	155.19
353.447	118.19
353.674	98.19
353.901	88.19
354.128	102.19
354.355	110.19
354.583	97.19
354.81	103.19
355.037	91.19
355.264	103.19
355.491	100.19
355.718	107.19
355.945	95.19
356.172	100.19
356.399	114.19
356.626	101.19
356.853	87.19
357.08	97.19
357.307	99.19
357.534	102.19
357.761	109.19
357.988	81.19
358.215	96.19
358.441	99.19
358.668	102.19
358.895	96.19
359.122	87.19
359.349	104.19
359.576	126.19
359.802	131.19
360.029	171.19
360.256	167.19
360.483	133.19
360.709	106.19
360.936	92.19
361.163	108.19
361.39	106.19
361.616	120.19
361.843	112.19
362.07	122.19
362.296	123.19
362.523	108.19
362.749	106.19
362.976	110.19
363.203	100.19
363.429	87.19
363.656	92.19
363.882	104.19
364.109	104.19
364.335	104.19
364.562	105.19
364.788	107.19
365.015	101.19
365.241	127.19
365.468	139.19
365.694	140.19
365.92	122.19
366.147	116.19
366.373	112.19
366.599	107.19
366.826	106.19
367.052	95.19
367.278	118.19
367.505	92.19
367.731	107.19
367.957	105.19
368.184	104.19
368.41	117.19
368.636	135.19
368.862	144.19
369.089	132.19
369.315	126.19
369.541	110.19
369.767	95.19
369.993	100.19
370.219	97.19
370.445	100.19
370.672	92.19
370.898	99.19
371.124	97.19
371.35	107.19
371.576	91.19
371.802	87.19
372.028	92.19
372.254	101.19
372.48	100.19
372.706	88.19
372.932	102.19
373.158	82.19
373.384	95.19
373.61	84.19
373.835	93.19
374.061	97.19
374.287	90.19
374.513	95.19
374.739	86.19
374.965	94.19
375.191	96.19
375.416	91.19
375.642	91.19
375.868	91.19
376.094	97.19
376.319	93.19
376.545	101.19
376.771	97.19
376.997	95.19
377.222	91.19
377.448	83.19
377.674	105.19
377.899	97.19
378.125	87.19
378.35	112.19
378.576	104.19
378.802	104.19
379.027	97.19
379.253	117.19
379.478	101.19
379.704	90.19
379.929	101.19
380.155	96.19
380.38	104.19
380.606	102.19
380.831	105.19
381.057	102.19
381.282	89.19
381.507	91.19
381.733	104.19
381.958	95.19
382.184	107.19
382.409	112.19
382.634	113.19
382.86	105.19
383.085	113.19
383.31	110.19
383.535	111.19
383.761	96.19
383.986	104.19
384.211	108.19
384.436	99.19
384.662	84.19
384.887	103.19
385.112	107.19
385.337	84.19
385.562	81.19
385.787	109.19
386.013	125.19
386.238	129.19
386.463	121.19
386.688	111.19
386.913	100.19
387.138	109.19
387.363	114.19
387.588	91.19
387.813	115.19
388.038	108.19
388.263	105.19
388.488	122.19
388.713	95.19
388.938	109.19
389.163	95.19
389.387	105.19
389.612	89.19
389.837	91.19
390.062	102.19
390.287	99.19
390.512	82.19
390.736	83.19
390.961	101.19
391.186	92.19
391.411	90.19
391.636	84.19
391.86	82.19
392.085	93.19
392.31	89.19
392.534	108.19
392.759	100.19
392.984	81.19
393.208	100.19
393.433	86.19
393.658	86.19
393.882	80.19
394.107	85.19
394.331	82.19
394.556	92.19
394.78	88.19
395.005	105.19
395.229	93.19
395.454	102.19
395.678	88.19
395.903	106.19
396.127	100.19
396.352	89.19
396.576	96.19
396.801	100.19
397.025	96.19
397.249	95.19
397.474	96.19
397.698	88.19
397.922	83.19
398.147	93.19
398.371	92.19
398.595	76.19
398.82	92.19
399.044	81.19
399.268	71.19
399.492	99.19
399.717	100.19
399.941	98.19
400.165	122.19
400.389	109.19
400.613	93.19
400.837	100.19
401.062	101.19
401.286	97.19
401.51	98.19
401.734	105.19
401.958	119.19
402.182	184.19
402.406	280.19
402.63	196.19
402.854	116.19
403.078	109.19
403.302	98.19
403.526	89.19
403.75	90.19
403.974	95.19
404.198	104.19
404.422	94.19
404.645	95.19
404.869	112.19
405.093	122.19
405.317	153.19
405.541	153.19
405.765	139.19
405.988	174.19
406.212	313.19
406.436	455.19
406.66	294.19
406.883	157.19
407.107	130.19
407.331	119.19
407.555	125.19
407.778	108.19
408.002	97.19
408.226	110.19
408.449	96.19
408.673	97.19
408.896	102.19
409.12	102.19
409.344	94.19
409.567	99.19
409.791	100.19
410.014	92.19
410.238	100.19
410.461	99.19
410.685	102.19
410.908	109.19
411.132	100.19
411.355	108.19
411.578	99.19
411.802	92.19
412.025	98.19
412.249	99.19
412.472	111.19
412.695	124.19
412.919	112.19
413.142	85.19
413.365	90.19
413.589	99.19
413.812	94.19
414.035	89.19
414.258	93.19
414.482	95.19
414.705	91.19
414.928	91.19
415.151	96.19
415.374	99.19
415.597	90.19
415.821	92.19
416.044	97.19
416.267	97.19
416.49	96.19
416.713	91.19
416.936	89.19
417.159	101.19
417.382	84.19
417.605	108.19
417.828	133.19
418.051	116.19
418.274	97.19
418.497	95.19
418.72	81.19
418.943	87.19
419.166	85.19
419.389	95.19
419.611	91.19
419.834	84.19
420.057	94.19
420.28	111.19
420.503	81.19
420.726	108.19
420.948	98.19
421.171	108.19
421.394	114.19
421.617	96.19
421.839	93.19
422.062	81.19
422.285	103.19
422.507	114.19
422.73	109.19
422.953	111.19
423.175	84.19
423.398	100.19
423.621	92.19
423.843	93.19
424.066	95.19
424.288	105.19
424.511	101.19
424.733	97.19
424.956	144.19
425.178	128.19
425.401	116.19
425.623	123.19
425.846	97.19
426.068	115.19
426.291	95.19
426.513	95.19
426.735	103.19
426.958	101.19
427.18	127.19
427.402	214.19
427.625	316.19
427.847	265.19
428.069	219.19
428.292	143.19
428.514	92.19
428.736	84.19
428.958	94.19
429.181	101.19
429.403	89.19
429.625	100.19
429.847	123.19
430.069	110.19
430.292	105.19
430.514	75.19
430.736	93.19
430.958	80.19
431.18	101.19
431.402	103.19
431.624	93.19
431.846	91.19
432.068	89.19
432.29	80.19
432.512	99.19
432.734	99.19
432.956	91.19
433.178	109.19
433.4	110.19
433.622	97.19
433.844	101.19
434.066	96.19
434.287	111.19
434.509	105.19
434.731	93.19
434.953	89.19
435.175	94.19
435.397	108.19
435.618	92.19
435.84	104.19
436.062	128.19
436.284	126.19
436.505	112.19
436.727	98.19
436.949	97.19
437.17	112.19
437.392	89.19
437.614	106.19
437.835	139.19
438.057	172.19
438.278	140.19
438.5	119.19
438.721	143.19
438.943	104.19
439.165	96.19
439.386	86.19
439.608	104.19
439.829	112.19
440.05	155.19
440.272	205.19
440.493	118.19
440.715	98.19
440.936	86.19
441.158	81.19
441.379	96.19
441.6	123.19
441.822	113.19
442.043	116.19
442.264	135.19
442.486	107.19
442.707	129.19
442.928	130.19
443.149	190.19
443.371	190.19
443.592	166.19
443.813	127.19
444.034	114.19
444.255	98.19
444.476	97.19
444.698	93.19
444.919	87.19
445.14	141.19
445.361	133.19
445.582	147.19
445.803	191.19
446.024	190.19
446.245	180.19
446.466	126.19
446.687	105.19
446.908	101.19
447.129	95.19
447.35	98.19
447.571	116.19
447.792	106.19
448.013	121.19
448.234	136.19
448.455	119.19
448.675	132.19
448.896	150.19
449.117	122.19
449.338	110.19
449.559	142.19
449.779	135.19
450	101.19
450.221	108.19
450.442	108.19
450.662	115.19
450.883	143.19
451.104	176.19
451.324	137.19
451.545	115.19
451.766	101.19
451.986	84.19
452.207	93.19
452.428	93.19
452.648	132.19
452.869	168.19
453.089	158.19
453.31	191.19
453.53	135.19
453.751	106.19
453.971	136.19
454.192	165.19
454.412	123.19
454.633	102.19
454.853	93.19
455.073	113.19
455.294	96.19
455.514	115.19
455.734	91.19
455.955	109.19
456.175	89.19
456.395	96.19
456.616	87.19
456.836	95.19
457.056	92.19
457.276	82.19
457.497	69.19
457.717	81.19
457.937	92.19
458.157	113.19
458.377	101.19
458.598	144.19
458.818	280.19
459.038	312.19
459.258	178.19
459.478	91.19
459.698	102.19
459.918	107.19
460.138	85.19
460.358	95.19
460.578	91.19
460.798	92.19
461.018	101.19
461.238	96.19
461.458	95.19
461.678	92.19
461.898	96.19
462.118	95.19
462.338	94.19
462.558	91.19
462.777	102.19
462.997	123.19
463.217	115.19
463.437	116.19
463.657	86.19
463.876	96.19
464.096	88.19
464.316	120.19
464.536	119.19
464.755	121.19
464.975	154.19
465.195	340.19
465.414	314.19
465.634	130.19
465.854	102.19
466.073	93.19
466.293	101.19
466.512	88.19
466.732	93.19
466.951	96.19
467.171	106.19
467.391	138.19
467.61	182.19
467.829	283.19
468.049	846.19
468.268	1269.19
468.488	281.19
468.707	127.19
468.927	98.19
469.146	93.19
469.365	110.19
469.585	118.19
469.804	113.19
470.023	138.19
470.243	125.19
470.462	137.19
470.681	183.19
470.901	117.19
471.12	108.19
471.339	115.19
471.558	154.19
471.777	187.19
471.997	423.19
472.216	1642.19
472.435	3783.19
472.654	822.19
472.873	215.19
473.092	140.19
473.311	109.19
473.53	105.19
473.749	108.19
473.968	114.19
474.187	129.19
474.406	99.19
474.625	106.19
474.844	75.19
475.063	96.19
475.282	97.19
475.501	90.19
475.72	115.19
475.939	99.19
476.158	97.19
476.377	94.19
476.596	95.19
476.814	105.19
477.033	124.19
477.252	106.19
477.471	113.19
477.69	98.19
477.908	99.19
478.127	99.19
478.346	95.19
478.564	101.19
478.783	119.19
479.002	138.19
479.22	121.19
479.439	147.19
479.658	171.19
479.876	158.19
480.095	135.19
480.313	169.19
480.532	216.19
480.751	397.19
480.969	1445.19
481.188	6533.19
481.406	3566.19
481.624	498.19
481.843	161.19
482.061	126.19
482.28	112.19
482.498	109.19
482.717	92.19
482.935	99.19
483.153	105.19
483.372	94.19
483.59	89.19
483.808	105.19
484.027	99.19
484.245	100.19
484.463	105.19
484.681	94.19
484.9	101.19
485.118	103.19
485.336	97.19
485.554	100.19
485.772	117.19
485.99	129.19
486.209	117.19
486.427	96.19
486.645	143.19
486.863	151.19
487.081	127.19
487.299	122.19
487.517	119.19
487.735	99.19
487.953	97.19
488.171	107.19
488.389	105.19
488.607	126.19
488.825	106.19
489.043	82.19
489.261	97.19
489.479	106.19
489.696	91.19
489.914	90.19
490.132	91.19
490.35	87.19
490.568	99.19
490.786	99.19
491.003	100.19
491.221	105.19
491.439	89.19
491.657	86.19
491.874	98.19
492.092	95.19
492.31	106.19
492.527	119.19
492.745	109.19
492.963	98.19
493.18	92.19
493.398	98.19
493.615	99.19
493.833	107.19
494.05	100.19
494.268	96.19
494.485	100.19
494.703	103.19
494.92	92.19
495.138	89.19
495.355	104.19
495.573	95.19
495.79	100.19
496.008	106.19
496.225	103.19
496.442	94.19
496.66	105.19
496.877	110.19
497.094	111.19
497.312	102.19
497.529	95.19
497.746	107.19
497.963	86.19
498.181	90.19
498.398	112.19
498.615	131.19
498.832	123.19
499.049	106.19
499.267	98.19
499.484	89.19
499.701	92.19
499.918	92.19
500.135	90.19
500.352	90.19
500.569	93.19
500.786	109.19
501.003	101.19
501.22	104.19
501.437	110.19
501.654	120.19
501.871	160.19
502.088	127.19
502.305	92.19
502.522	86.19
502.739	104.19
502.956	89.19
503.172	95.19
503.389	122.19
503.606	144.19
503.823	119.19
504.04	90.19
504.256	89.19
504.473	106.19
504.69	95.19
504.907	102.19
505.123	97.19
505.34	101.19
505.557	94.19
505.773	108.19
505.99	105.19
506.207	108.19
506.423	107.19
506.64	105.19
506.856	99.19
507.073	98.19
507.289	100.19
507.506	99.19
507.722	170.19
507.939	152.19
508.155	103.19
508.372	88.19
508.588	107.19
508.805	99.19
509.021	111.19
509.238	106.19
509.454	119.19
509.67	132.19
509.887	137.19
510.103	164.19
