Data from Circ_1999_H10_HRD10591_00016.txt Node
Date: Wed Jan 03 11:23:15 EST 2024
User: Yrep
Spectrometer: HR+D1059
Trigger mode: 1
Integration Time (sec): 1.000000E-1
Scans to average: 1
Electric dark correction enabled: true
Nonlinearity correction enabled: false
Boxcar width: 0
XAxis mode: Wavelengths
Number of Pixels in Spectrum: 2048
>>>>>Begin Spectral Data<<<<<
223.165	-16.38
223.4	-16.38
223.635	-16.38
223.869	-9.38
224.104	-30.38
224.338	-13.38
224.573	-9.38
224.808	-17.38
225.042	-9.38
225.277	-1.38
225.511	0.62
225.746	0.62
225.98	24.62
226.215	13.62
226.449	25.62
226.683	3.62
226.918	18.62
227.152	19.62
227.387	34.62
227.621	50.62
227.856	48.62
228.09	56.62
228.324	61.62
228.559	65.62
228.793	53.62
229.027	58.62
229.262	58.62
229.496	89.62
229.73	106.62
229.964	103.62
230.199	82.62
230.433	84.62
230.667	71.62
230.901	89.62
231.136	89.62
231.37	89.62
231.604	81.62
231.838	75.62
232.072	78.62
232.306	81.62
232.541	102.62
232.775	93.62
233.009	72.62
233.243	79.62
233.477	82.62
233.711	69.62
233.945	75.62
234.179	75.62
234.413	87.62
234.647	91.62
234.881	75.62
235.115	73.62
235.349	66.62
235.583	69.62
235.817	95.62
236.051	101.62
236.285	85.62
236.519	83.62
236.753	82.62
236.987	78.62
237.221	88.62
237.455	95.62
237.689	91.62
237.922	77.62
238.156	90.62
238.39	65.62
238.624	88.62
238.858	74.62
239.091	92.62
239.325	80.62
239.559	88.62
239.793	81.62
240.027	93.62
240.26	73.62
240.494	89.62
240.728	84.62
240.961	78.62
241.195	62.62
241.429	87.62
241.662	89.62
241.896	81.62
242.13	76.62
242.363	86.62
242.597	73.62
242.83	77.62
243.064	87.62
243.298	63.62
243.531	59.62
243.765	65.62
243.998	78.62
244.232	81.62
244.465	105.62
244.699	101.62
244.932	80.62
245.166	78.62
245.399	86.62
245.633	81.62
245.866	78.62
246.099	93.62
246.333	85.62
246.566	83.62
246.8	73.62
247.033	80.62
247.266	80.62
247.5	82.62
247.733	76.62
247.966	84.62
248.2	78.62
248.433	79.62
248.666	85.62
248.899	88.62
249.133	94.62
249.366	120.62
249.599	109.62
249.832	88.62
250.066	78.62
250.299	85.62
250.532	85.62
250.765	96.62
250.998	91.62
251.231	96.62
251.465	97.62
251.698	86.62
251.931	97.62
252.164	94.62
252.397	78.62
252.63	83.62
252.863	92.62
253.096	85.62
253.329	80.62
253.562	88.62
253.795	91.62
254.028	82.62
254.261	95.62
254.494	71.62
254.727	99.62
254.96	80.62
255.193	78.62
255.426	67.62
255.659	89.62
255.892	85.62
256.124	97.62
256.357	86.62
256.59	93.62
256.823	87.62
257.056	89.62
257.289	80.62
257.521	96.62
257.754	79.62
257.987	97.62
258.22	94.62
258.452	94.62
258.685	102.62
258.918	112.62
259.151	83.62
259.383	73.62
259.616	89.62
259.849	93.62
260.081	89.62
260.314	81.62
260.547	94.62
260.779	103.62
261.012	105.62
261.244	103.62
261.477	95.62
261.71	120.62
261.942	146.62
262.175	157.62
262.407	105.62
262.64	73.62
262.872	91.62
263.105	76.62
263.337	87.62
263.57	86.62
263.802	96.62
264.035	83.62
264.267	83.62
264.499	75.62
264.732	77.62
264.964	83.62
265.197	75.62
265.429	75.62
265.661	90.62
265.894	63.62
266.126	85.62
266.358	81.62
266.591	90.62
266.823	89.62
267.055	94.62
267.287	83.62
267.52	75.62
267.752	92.62
267.984	85.62
268.216	90.62
268.448	99.62
268.681	88.62
268.913	95.62
269.145	96.62
269.377	82.62
269.609	79.62
269.841	94.62
270.073	82.62
270.306	88.62
270.538	95.62
270.77	89.62
271.002	83.62
271.234	85.62
271.466	90.62
271.698	103.62
271.93	89.62
272.162	92.62
272.394	80.62
272.626	84.62
272.858	85.62
273.09	73.62
273.322	92.62
273.553	82.62
273.785	80.62
274.017	93.62
274.249	83.62
274.481	102.62
274.713	91.62
274.945	93.62
275.176	101.62
275.408	121.62
275.64	113.62
275.872	127.62
276.104	109.62
276.335	106.62
276.567	130.62
276.799	169.62
277.031	204.62
277.262	220.62
277.494	158.62
277.726	113.62
277.957	114.62
278.189	88.62
278.421	86.62
278.652	89.62
278.884	102.62
279.115	93.62
279.347	101.62
279.579	95.62
279.81	134.62
280.042	226.62
280.273	289.62
280.505	199.62
280.736	117.62
280.968	104.62
281.199	101.62
281.431	101.62
281.662	100.62
281.894	97.62
282.125	109.62
282.356	151.62
282.588	199.62
282.819	155.62
283.051	100.62
283.282	100.62
283.513	94.62
283.745	93.62
283.976	87.62
284.207	95.62
284.439	97.62
284.67	87.62
284.901	98.62
285.132	82.62
285.364	85.62
285.595	85.62
285.826	93.62
286.057	103.62
286.288	88.62
286.52	87.62
286.751	91.62
286.982	84.62
287.213	82.62
287.444	89.62
287.675	101.62
287.906	92.62
288.138	98.62
288.369	102.62
288.6	97.62
288.831	93.62
289.062	91.62
289.293	100.62
289.524	113.62
289.755	92.62
289.986	92.62
290.217	90.62
290.448	99.62
290.679	92.62
290.91	87.62
291.141	104.62
291.371	96.62
291.602	94.62
291.833	99.62
292.064	93.62
292.295	97.62
292.526	93.62
292.757	91.62
292.987	87.62
293.218	93.62
293.449	94.62
293.68	83.62
293.91	82.62
294.141	97.62
294.372	75.62
294.603	88.62
294.833	82.62
295.064	90.62
295.295	101.62
295.525	99.62
295.756	97.62
295.987	143.62
296.217	175.62
296.448	169.62
296.679	112.62
296.909	113.62
297.14	91.62
297.37	90.62
297.601	106.62
297.831	94.62
298.062	91.62
298.292	93.62
298.523	85.62
298.753	93.62
298.984	86.62
299.214	92.62
299.445	110.62
299.675	91.62
299.905	109.62
300.136	101.62
300.366	96.62
300.597	100.62
300.827	117.62
301.057	129.62
301.288	118.62
301.518	106.62
301.748	110.62
301.979	107.62
302.209	102.62
302.439	106.62
302.669	106.62
302.9	92.62
303.13	120.62
303.36	116.62
303.59	139.62
303.82	157.62
304.051	118.62
304.281	107.62
304.511	94.62
304.741	104.62
304.971	92.62
305.201	100.62
305.431	78.62
305.661	97.62
305.891	82.62
306.121	106.62
306.352	120.62
306.582	112.62
306.812	117.62
307.042	135.62
307.272	152.62
307.502	206.62
307.731	183.62
307.961	134.62
308.191	97.62
308.421	85.62
308.651	95.62
308.881	117.62
309.111	107.62
309.341	107.62
309.571	121.62
309.8	121.62
310.03	121.62
310.26	134.62
310.49	119.62
310.72	112.62
310.949	147.62
311.179	137.62
311.409	112.62
311.639	111.62
311.868	112.62
312.098	110.62
312.328	118.62
312.557	127.62
312.787	150.62
313.017	134.62
313.246	107.62
313.476	111.62
313.706	112.62
313.935	101.62
314.165	114.62
314.394	129.62
314.624	129.62
314.853	111.62
315.083	112.62
315.312	87.62
315.542	107.62
315.771	93.62
316.001	110.62
316.23	95.62
316.46	102.62
316.689	103.62
316.919	102.62
317.148	106.62
317.377	96.62
317.607	99.62
317.836	103.62
318.065	107.62
318.295	89.62
318.524	99.62
318.753	95.62
318.983	106.62
319.212	105.62
319.441	115.62
319.67	123.62
319.9	94.62
320.129	95.62
320.358	111.62
320.587	120.62
320.816	122.62
321.046	140.62
321.275	110.62
321.504	103.62
321.733	99.62
321.962	95.62
322.191	110.62
322.42	125.62
322.649	139.62
322.878	137.62
323.108	146.62
323.337	165.62
323.566	172.62
323.795	195.62
324.024	286.62
324.253	537.62
324.482	1130.62
324.71	2325.62
324.939	3025.62
325.168	1132.62
325.397	323.62
325.626	191.62
325.855	159.62
326.084	163.62
326.313	159.62
326.542	191.62
326.77	289.62
326.999	549.62
327.228	1195.62
327.457	2118.62
327.686	1725.62
327.914	630.62
328.143	660.62
328.372	817.62
328.6	431.62
328.829	233.62
329.058	247.62
329.287	245.62
329.515	223.62
329.744	295.62
329.972	580.62
330.201	1204.62
330.43	1708.62
330.658	762.62
330.887	365.62
331.115	231.62
331.344	145.62
331.572	138.62
331.801	148.62
332.03	142.62
332.258	115.62
332.486	126.62
332.715	119.62
332.943	132.62
333.172	139.62
333.4	159.62
333.629	203.62
333.857	269.62
334.085	510.62
334.314	1122.62
334.542	2156.62
334.771	1957.62
334.999	509.62
335.227	186.62
335.455	141.62
335.684	130.62
335.912	124.62
336.14	113.62
336.369	118.62
336.597	145.62
336.825	120.62
337.053	113.62
337.281	112.62
337.51	106.62
337.738	103.62
337.966	104.62
338.194	122.62
338.422	115.62
338.65	103.62
338.878	100.62
339.106	97.62
339.334	114.62
339.562	95.62
339.79	89.62
340.018	95.62
340.246	99.62
340.474	102.62
340.702	113.62
340.93	110.62
341.158	99.62
341.386	106.62
341.614	122.62
341.842	108.62
342.07	101.62
342.298	98.62
342.526	90.62
342.754	94.62
342.981	99.62
343.209	89.62
343.437	112.62
343.665	92.62
343.893	107.62
344.12	89.62
344.348	98.62
344.576	102.62
344.804	104.62
345.031	102.62
345.259	118.62
345.487	116.62
345.714	113.62
345.942	105.62
346.17	96.62
346.397	104.62
346.625	114.62
346.853	95.62
347.08	98.62
347.308	109.62
347.535	112.62
347.763	120.62
347.99	95.62
348.218	100.62
348.445	128.62
348.673	112.62
348.9	98.62
349.128	89.62
349.355	97.62
349.583	93.62
349.81	100.62
350.037	105.62
350.265	119.62
350.492	90.62
350.72	99.62
350.947	94.62
351.174	121.62
351.402	140.62
351.629	125.62
351.856	98.62
352.083	117.62
352.311	134.62
352.538	128.62
352.765	133.62
352.992	117.62
353.22	128.62
353.447	112.62
353.674	127.62
353.901	117.62
354.128	91.62
354.355	103.62
354.583	103.62
354.81	95.62
355.037	90.62
355.264	101.62
355.491	85.62
355.718	100.62
355.945	107.62
356.172	103.62
356.399	93.62
356.626	96.62
356.853	94.62
357.08	99.62
357.307	95.62
357.534	91.62
357.761	99.62
357.988	99.62
358.215	98.62
358.441	98.62
358.668	106.62
358.895	108.62
359.122	108.62
359.349	105.62
359.576	103.62
359.802	130.62
360.029	177.62
360.256	170.62
360.483	129.62
360.709	99.62
360.936	114.62
361.163	105.62
361.39	109.62
361.616	108.62
361.843	95.62
362.07	119.62
362.296	125.62
362.523	112.62
362.749	103.62
362.976	106.62
363.203	100.62
363.429	102.62
363.656	90.62
363.882	91.62
364.109	86.62
364.335	102.62
364.562	92.62
364.788	98.62
365.015	113.62
365.241	111.62
365.468	108.62
365.694	125.62
365.92	124.62
366.147	105.62
366.373	104.62
366.599	96.62
366.826	107.62
367.052	103.62
367.278	102.62
367.505	104.62
367.731	95.62
367.957	105.62
368.184	106.62
368.41	123.62
368.636	143.62
368.862	151.62
369.089	121.62
369.315	103.62
369.541	112.62
369.767	111.62
369.993	110.62
370.219	108.62
370.445	84.62
370.672	97.62
370.898	82.62
371.124	85.62
371.35	87.62
371.576	78.62
371.802	91.62
372.028	96.62
372.254	95.62
372.48	90.62
372.706	82.62
372.932	76.62
373.158	95.62
373.384	93.62
373.61	92.62
373.835	109.62
374.061	98.62
374.287	99.62
374.513	103.62
374.739	87.62
374.965	97.62
375.191	102.62
375.416	80.62
375.642	82.62
375.868	86.62
376.094	90.62
376.319	94.62
376.545	103.62
376.771	87.62
376.997	103.62
377.222	103.62
377.448	96.62
377.674	89.62
377.899	91.62
378.125	104.62
378.35	99.62
378.576	80.62
378.802	94.62
379.027	102.62
379.253	96.62
379.478	96.62
379.704	87.62
379.929	99.62
380.155	102.62
380.38	105.62
380.606	93.62
380.831	112.62
381.057	111.62
381.282	102.62
381.507	95.62
381.733	109.62
381.958	103.62
382.184	121.62
382.409	112.62
382.634	115.62
382.86	102.62
383.085	100.62
383.31	103.62
383.535	105.62
383.761	116.62
383.986	98.62
384.211	96.62
384.436	115.62
384.662	118.62
384.887	107.62
385.112	119.62
385.337	119.62
385.562	127.62
385.787	112.62
386.013	150.62
386.238	133.62
386.463	113.62
386.688	125.62
386.913	108.62
387.138	127.62
387.363	105.62
387.588	109.62
387.813	95.62
388.038	118.62
388.263	126.62
388.488	115.62
388.713	117.62
388.938	102.62
389.163	94.62
389.387	100.62
389.612	101.62
389.837	93.62
390.062	99.62
390.287	76.62
390.512	97.62
390.736	95.62
390.961	93.62
391.186	102.62
391.411	100.62
391.636	98.62
391.86	79.62
392.085	91.62
392.31	84.62
392.534	88.62
392.759	87.62
392.984	93.62
393.208	96.62
393.433	96.62
393.658	107.62
393.882	86.62
394.107	86.62
394.331	94.62
394.556	109.62
394.78	90.62
395.005	95.62
395.229	99.62
395.454	94.62
395.678	95.62
395.903	83.62
396.127	82.62
396.352	86.62
396.576	101.62
396.801	98.62
397.025	97.62
397.249	81.62
397.474	91.62
397.698	101.62
397.922	96.62
398.147	80.62
398.371	89.62
398.595	94.62
398.82	95.62
399.044	97.62
399.268	92.62
399.492	97.62
399.717	91.62
399.941	87.62
400.165	93.62
400.389	97.62
400.613	90.62
400.837	99.62
401.062	88.62
401.286	98.62
401.51	103.62
401.734	107.62
401.958	121.62
402.182	159.62
402.406	238.62
402.63	173.62
402.854	127.62
403.078	101.62
403.302	98.62
403.526	89.62
403.75	94.62
403.974	94.62
404.198	93.62
404.422	108.62
404.645	96.62
404.869	109.62
405.093	124.62
405.317	149.62
405.541	155.62
405.765	138.62
405.988	162.62
406.212	251.62
406.436	392.62
406.66	229.62
406.883	133.62
407.107	89.62
407.331	114.62
407.555	114.62
407.778	112.62
408.002	103.62
408.226	101.62
408.449	110.62
408.673	83.62
408.896	105.62
409.12	118.62
409.344	110.62
409.567	87.62
409.791	112.62
410.014	88.62
410.238	91.62
410.461	95.62
410.685	98.62
410.908	101.62
411.132	111.62
411.355	105.62
411.578	106.62
411.802	98.62
412.025	95.62
412.249	110.62
412.472	127.62
412.695	142.62
412.919	124.62
413.142	103.62
413.365	93.62
413.589	98.62
413.812	84.62
414.035	99.62
414.258	90.62
414.482	91.62
414.705	103.62
414.928	102.62
415.151	84.62
415.374	98.62
415.597	104.62
415.821	95.62
416.044	102.62
416.267	105.62
416.49	93.62
416.713	85.62
416.936	80.62
417.159	88.62
417.382	103.62
417.605	94.62
417.828	113.62
418.051	113.62
418.274	111.62
418.497	80.62
418.72	74.62
418.943	78.62
419.166	98.62
419.389	83.62
419.611	104.62
419.834	98.62
420.057	104.62
420.28	120.62
420.503	98.62
420.726	83.62
420.948	91.62
421.171	109.62
421.394	94.62
421.617	98.62
421.839	92.62
422.062	99.62
422.285	99.62
422.507	110.62
422.73	117.62
422.953	105.62
423.175	101.62
423.398	98.62
423.621	89.62
423.843	96.62
424.066	90.62
424.288	85.62
424.511	102.62
424.733	106.62
424.956	144.62
425.178	110.62
425.401	123.62
425.623	126.62
425.846	120.62
426.068	111.62
426.291	101.62
426.513	99.62
426.735	100.62
426.958	105.62
427.18	130.62
427.402	207.62
427.625	314.62
427.847	280.62
428.069	233.62
428.292	134.62
428.514	106.62
428.736	95.62
428.958	101.62
429.181	101.62
429.403	73.62
429.625	89.62
429.847	114.62
430.069	132.62
430.292	103.62
430.514	93.62
430.736	99.62
430.958	82.62
431.18	83.62
431.402	100.62
431.624	85.62
431.846	77.62
432.068	78.62
432.29	88.62
432.512	90.62
432.734	95.62
432.956	93.62
433.178	112.62
433.4	102.62
433.622	111.62
433.844	106.62
434.066	103.62
434.287	85.62
434.509	103.62
434.731	95.62
434.953	94.62
435.175	97.62
435.397	107.62
435.618	98.62
435.84	117.62
436.062	153.62
436.284	130.62
436.505	115.62
436.727	105.62
436.949	104.62
437.17	86.62
437.392	96.62
437.614	107.62
437.835	136.62
438.057	173.62
438.278	126.62
438.5	120.62
438.721	157.62
438.943	124.62
439.165	105.62
439.386	91.62
439.608	104.62
439.829	137.62
440.05	178.62
440.272	199.62
440.493	122.62
440.715	102.62
440.936	95.62
441.158	103.62
441.379	103.62
441.6	103.62
441.822	115.62
442.043	127.62
442.264	133.62
442.486	113.62
442.707	103.62
442.928	134.62
443.149	184.62
443.371	196.62
443.592	134.62
443.813	151.62
444.034	138.62
444.255	111.62
444.476	91.62
444.698	104.62
444.919	92.62
445.14	133.62
445.361	149.62
445.582	152.62
445.803	213.62
446.024	194.62
446.245	188.62
446.466	128.62
446.687	104.62
446.908	103.62
447.129	113.62
447.35	96.62
447.571	103.62
447.792	103.62
448.013	117.62
448.234	118.62
448.455	115.62
448.675	151.62
448.896	129.62
449.117	111.62
449.338	122.62
449.559	186.62
449.779	175.62
450	95.62
450.221	106.62
450.442	101.62
450.662	115.62
450.883	149.62
451.104	159.62
451.324	111.62
451.545	88.62
451.766	85.62
451.986	104.62
452.207	105.62
452.428	100.62
452.648	116.62
452.869	151.62
453.089	142.62
453.31	153.62
453.53	118.62
453.751	107.62
453.971	141.62
454.192	169.62
454.412	117.62
454.633	96.62
454.853	93.62
455.073	94.62
455.294	113.62
455.514	124.62
455.734	95.62
455.955	83.62
456.175	95.62
456.395	84.62
456.616	87.62
456.836	89.62
457.056	83.62
457.276	87.62
457.497	98.62
457.717	74.62
457.937	92.62
458.157	101.62
458.377	99.62
458.598	152.62
458.818	256.62
459.038	281.62
459.258	174.62
459.478	97.62
459.698	94.62
459.918	83.62
460.138	84.62
460.358	95.62
460.578	100.62
460.798	101.62
461.018	98.62
461.238	82.62
461.458	99.62
461.678	91.62
461.898	89.62
462.118	101.62
462.338	88.62
462.558	98.62
462.777	89.62
462.997	94.62
463.217	115.62
463.437	96.62
463.657	92.62
463.876	91.62
464.096	107.62
464.316	113.62
464.536	106.62
464.755	113.62
464.975	141.62
465.195	297.62
465.414	295.62
465.634	119.62
465.854	92.62
466.073	110.62
466.293	92.62
466.512	93.62
466.732	93.62
466.951	96.62
467.171	97.62
467.391	124.62
467.61	163.62
467.829	257.62
468.049	663.62
468.268	959.62
468.488	246.62
468.707	120.62
468.927	108.62
469.146	91.62
469.365	95.62
469.585	129.62
469.804	118.62
470.023	125.62
470.243	130.62
470.462	149.62
470.681	157.62
470.901	115.62
471.12	105.62
471.339	99.62
471.558	129.62
471.777	159.62
471.997	333.62
472.216	1262.62
472.435	2871.62
472.654	661.62
472.873	176.62
473.092	116.62
473.311	103.62
473.53	96.62
473.749	106.62
473.968	111.62
474.187	142.62
474.406	127.62
474.625	96.62
474.844	86.62
475.063	85.62
475.282	91.62
475.501	92.62
475.72	98.62
475.939	102.62
476.158	86.62
476.377	92.62
476.596	97.62
476.814	108.62
477.033	115.62
477.252	107.62
477.471	96.62
477.69	87.62
477.908	103.62
478.127	99.62
478.346	93.62
478.564	92.62
478.783	109.62
479.002	104.62
479.22	115.62
479.439	130.62
479.658	146.62
479.876	135.62
480.095	129.62
480.313	153.62
480.532	183.62
480.751	331.62
480.969	1141.62
481.188	4898.62
481.406	2757.62
481.624	391.62
481.843	145.62
482.061	116.62
482.28	119.62
482.498	90.62
482.717	116.62
482.935	96.62
483.153	101.62
483.372	117.62
483.59	94.62
483.808	99.62
484.027	96.62
484.245	102.62
484.463	106.62
484.681	98.62
484.9	83.62
485.118	97.62
485.336	113.62
485.554	106.62
485.772	107.62
485.99	110.62
486.209	122.62
486.427	126.62
486.645	124.62
486.863	164.62
487.081	137.62
487.299	116.62
487.517	95.62
487.735	88.62
487.953	92.62
488.171	98.62
488.389	98.62
488.607	104.62
488.825	83.62
489.043	99.62
489.261	93.62
489.479	94.62
489.696	99.62
489.914	89.62
490.132	100.62
490.35	85.62
490.568	95.62
490.786	104.62
491.003	93.62
491.221	94.62
491.439	106.62
491.657	84.62
491.874	88.62
492.092	95.62
492.31	98.62
492.527	117.62
492.745	105.62
492.963	97.62
493.18	97.62
493.398	102.62
493.615	91.62
493.833	88.62
494.05	102.62
494.268	96.62
494.485	102.62
494.703	91.62
494.92	104.62
495.138	80.62
495.355	101.62
495.573	98.62
495.79	105.62
496.008	97.62
496.225	102.62
496.442	103.62
496.66	102.62
496.877	101.62
497.094	97.62
497.312	82.62
497.529	98.62
497.746	88.62
497.963	94.62
498.181	101.62
498.398	99.62
498.615	134.62
498.832	130.62
499.049	85.62
499.267	87.62
499.484	99.62
499.701	103.62
499.918	96.62
500.135	89.62
500.352	99.62
500.569	106.62
500.786	112.62
501.003	91.62
501.22	89.62
501.437	102.62
501.654	112.62
501.871	136.62
502.088	98.62
502.305	98.62
502.522	90.62
502.739	94.62
502.956	87.62
503.172	108.62
503.389	109.62
503.606	130.62
503.823	104.62
504.04	103.62
504.256	94.62
504.473	98.62
504.69	100.62
504.907	105.62
505.123	89.62
505.34	105.62
505.557	85.62
505.773	97.62
505.99	107.62
506.207	89.62
506.423	109.62
506.64	92.62
506.856	86.62
507.073	93.62
507.289	103.62
507.506	124.62
507.722	148.62
507.939	160.62
508.155	106.62
508.372	102.62
508.588	102.62
508.805	116.62
509.021	100.62
509.238	112.62
509.454	115.62
509.67	114.62
509.887	129.62
510.103	157.62
510.319	261.62
510.536	1089.62
