Data from Circ_1999_H10_HRD10591_00099.txt Node
Date: Wed Jan 03 11:23:32 EST 2024
User: Yrep
Spectrometer: HR+D1059
Trigger mode: 1
Integration Time (sec): 1.000000E-1
Scans to average: 1
Electric dark correction enabled: true
Nonlinearity correction enabled: false
Boxcar width: 0
XAxis mode: Wavelengths
Number of Pixels in Spectrum: 2048
>>>>>Begin Spectral Data<<<<<
223.165	-8
223.4	-8
223.635	-8
223.869	-26
224.104	-23
224.338	-26
224.573	-24
224.808	-22
225.042	-2
225.277	-9
225.511	-7
225.746	-4
225.98	23
226.215	17
226.449	15
226.683	21
226.918	29
227.152	46
227.387	24
227.621	30
227.856	37
228.09	40
228.324	47
228.559	52
228.793	61
229.027	72
229.262	82
229.496	93
229.73	111
229.964	104
230.199	84
230.433	75
230.667	81
230.901	70
231.136	73
231.37	87
231.604	80
231.838	74
232.072	75
232.306	87
232.541	80
232.775	75
233.009	88
233.243	76
233.477	71
233.711	75
233.945	69
234.179	77
234.413	79
234.647	63
234.881	79
235.115	77
235.349	74
235.583	76
235.817	75
236.051	88
236.285	67
236.519	75
236.753	79
236.987	88
237.221	103
237.455	101
237.689	92
237.922	77
238.156	85
238.39	96
238.624	68
238.858	77
239.091	65
239.325	94
239.559	77
239.793	77
240.027	84
240.26	77
240.494	80
240.728	79
240.961	83
241.195	77
241.429	79
241.662	70
241.896	62
242.13	85
242.363	63
242.597	73
242.83	83
243.064	72
243.298	70
243.531	75
243.765	71
243.998	70
244.232	79
244.465	92
244.699	92
244.932	82
245.166	80
245.399	69
245.633	85
245.866	73
246.099	75
246.333	93
246.566	90
246.8	81
247.033	79
247.266	79
247.5	74
247.733	72
247.966	81
248.2	101
248.433	89
248.666	79
248.899	79
249.133	100
249.366	116
249.599	97
249.832	87
250.066	73
250.299	91
250.532	95
250.765	97
250.998	76
251.231	81
251.465	84
251.698	97
251.931	107
252.164	87
252.397	84
252.63	96
252.863	88
253.096	92
253.329	92
253.562	85
253.795	81
254.028	81
254.261	88
254.494	80
254.727	80
254.96	89
255.193	91
255.426	79
255.659	98
255.892	100
256.124	111
256.357	80
256.59	79
256.823	88
257.056	89
257.289	106
257.521	106
257.754	95
257.987	94
258.22	103
258.452	102
258.685	116
258.918	91
259.151	82
259.383	85
259.616	83
259.849	78
260.081	72
260.314	93
260.547	80
260.779	109
261.012	122
261.244	139
261.477	107
261.71	118
261.942	180
262.175	183
262.407	101
262.64	94
262.872	95
263.105	90
263.337	103
263.57	79
263.802	98
264.035	92
264.267	93
264.499	85
264.732	86
264.964	95
265.197	94
265.429	82
265.661	82
265.894	73
266.126	71
266.358	79
266.591	73
266.823	89
267.055	85
267.287	80
267.52	93
267.752	94
267.984	93
268.216	88
268.448	92
268.681	93
268.913	79
269.145	95
269.377	87
269.609	80
269.841	79
270.073	90
270.306	97
270.538	95
270.77	84
271.002	91
271.234	103
271.466	115
271.698	87
271.93	88
272.162	86
272.394	101
272.626	87
272.858	88
273.09	88
273.322	101
273.553	91
273.785	80
274.017	100
274.249	97
274.481	89
274.713	106
274.945	91
275.176	96
275.408	99
275.64	127
275.872	150
276.104	115
276.335	113
276.567	145
276.799	213
277.031	236
277.262	297
277.494	197
277.726	115
277.957	107
278.189	91
278.421	92
278.652	96
278.884	104
279.115	91
279.347	114
279.579	127
279.81	160
280.042	293
280.273	399
280.505	254
280.736	115
280.968	104
281.199	99
281.431	105
281.662	97
281.894	100
282.125	111
282.356	179
282.588	225
282.819	172
283.051	115
283.282	89
283.513	85
283.745	88
283.976	95
284.207	92
284.439	78
284.67	93
284.901	100
285.132	86
285.364	95
285.595	83
285.826	108
286.057	80
286.288	81
286.52	74
286.751	92
286.982	85
287.213	83
287.444	87
287.675	98
287.906	87
288.138	92
288.369	95
288.6	100
288.831	90
289.062	90
289.293	95
289.524	105
289.755	94
289.986	83
290.217	96
290.448	89
290.679	87
290.91	106
291.141	79
291.371	89
291.602	88
291.833	112
292.064	99
292.295	89
292.526	94
292.757	103
292.987	100
293.218	90
293.449	92
293.68	109
293.91	85
294.141	83
294.372	86
294.603	100
294.833	91
295.064	83
295.295	106
295.525	96
295.756	112
295.987	139
296.217	224
296.448	207
296.679	96
296.909	80
297.14	94
297.37	96
297.601	87
297.831	92
298.062	115
298.292	105
298.523	102
298.753	87
298.984	101
299.214	104
299.445	91
299.675	110
299.905	124
300.136	89
300.366	83
300.597	108
300.827	91
301.057	124
301.288	145
301.518	110
301.748	105
301.979	132
302.209	110
302.439	90
302.669	102
302.9	100
303.13	110
303.36	131
303.59	176
303.82	189
304.051	110
304.281	106
304.511	80
304.741	94
304.971	94
305.201	97
305.431	95
305.661	107
305.891	95
306.121	97
306.352	133
306.582	148
306.812	124
307.042	166
307.272	228
307.502	263
307.731	227
307.961	164
308.191	107
308.421	98
308.651	91
308.881	94
309.111	94
309.341	102
309.571	116
309.8	111
310.03	115
310.26	105
310.49	97
310.72	118
310.949	150
311.179	133
311.409	101
311.639	109
311.868	112
312.098	89
312.328	104
312.557	117
312.787	154
313.017	132
313.246	117
313.476	109
313.706	113
313.935	106
314.165	110
314.394	123
314.624	114
314.853	110
315.083	102
315.312	89
315.542	83
315.771	100
316.001	99
316.23	101
316.46	92
316.689	85
316.919	115
317.148	118
317.377	98
317.607	103
317.836	96
318.065	96
318.295	112
318.524	90
318.753	98
318.983	120
319.212	136
319.441	139
319.67	137
319.9	90
320.129	96
320.358	103
320.587	110
320.816	116
321.046	120
321.275	120
321.504	109
321.733	125
321.962	110
322.191	118
322.42	138
322.649	161
322.878	135
323.108	149
323.337	172
323.566	201
323.795	244
324.024	323
324.253	651
324.482	1364
324.71	2778
324.939	3537
325.168	1292
325.397	392
325.626	206
325.855	169
326.084	151
326.313	165
326.542	211
326.77	332
326.999	660
327.228	1385
327.457	2560
327.686	2064
327.914	801
328.143	876
328.372	1109
328.6	591
328.829	269
329.058	268
329.287	288
329.515	255
329.744	387
329.972	825
330.201	1763
330.43	2547
330.658	1060
330.887	438
331.115	263
331.344	152
331.572	142
331.801	164
332.03	167
332.258	137
332.486	121
332.715	120
332.943	138
333.172	159
333.4	161
333.629	217
333.857	336
334.085	737
334.314	1619
334.542	3155
334.771	2806
334.999	700
335.227	238
335.455	151
335.684	135
335.912	120
336.14	114
336.369	136
336.597	141
336.825	120
337.053	109
337.281	101
337.51	110
337.738	111
337.966	122
338.194	109
338.422	119
338.65	93
338.878	92
339.106	94
339.334	100
339.562	92
339.79	85
340.018	104
340.246	116
340.474	119
340.702	97
340.93	98
341.158	103
341.386	108
341.614	128
341.842	116
342.07	101
342.298	94
342.526	100
342.754	81
342.981	85
343.209	96
343.437	99
343.665	83
343.893	90
344.12	93
344.348	104
344.576	81
344.804	88
345.031	119
345.259	125
345.487	109
345.714	98
345.942	106
346.17	105
346.397	102
346.625	103
346.853	111
347.08	115
347.308	107
347.535	128
347.763	131
347.99	117
348.218	124
348.445	145
348.673	127
348.9	111
349.128	116
349.355	101
349.583	111
349.81	103
350.037	109
350.265	92
350.492	93
350.72	116
350.947	115
351.174	127
351.402	154
351.629	120
351.856	126
352.083	129
352.311	137
352.538	126
352.765	149
352.992	140
353.22	145
353.447	131
353.674	111
353.901	91
354.128	107
354.355	112
354.583	103
354.81	95
355.037	100
355.264	97
355.491	94
355.718	98
355.945	84
356.172	79
356.399	113
356.626	83
356.853	91
357.08	84
357.307	112
357.534	88
357.761	92
357.988	100
358.215	94
358.441	80
358.668	98
358.895	89
359.122	100
359.349	86
359.576	113
359.802	139
360.029	173
360.256	163
360.483	142
360.709	103
360.936	90
361.163	123
361.39	112
361.616	116
361.843	112
362.07	120
362.296	118
362.523	109
362.749	102
362.976	106
363.203	93
363.429	91
363.656	93
363.882	79
364.109	108
364.335	85
364.562	101
364.788	104
365.015	105
365.241	129
365.468	143
365.694	128
365.92	131
366.147	103
366.373	99
366.599	106
366.826	100
367.052	81
367.278	96
367.505	89
367.731	109
367.957	106
368.184	114
368.41	128
368.636	147
368.862	167
369.089	155
369.315	109
369.541	107
369.767	100
369.993	97
370.219	94
370.445	87
370.672	84
370.898	84
371.124	103
371.35	95
371.576	83
371.802	88
372.028	92
372.254	94
372.48	102
372.706	79
372.932	94
373.158	93
373.384	87
373.61	92
373.835	81
374.061	76
374.287	109
374.513	91
374.739	111
374.965	110
375.191	100
375.416	72
375.642	105
375.868	97
376.094	92
376.319	87
376.545	93
376.771	91
376.997	84
377.222	105
377.448	92
377.674	75
377.899	91
378.125	95
378.35	78
378.576	92
378.802	97
379.027	91
379.253	84
379.478	89
379.704	73
379.929	82
380.155	104
380.38	86
380.606	96
380.831	90
381.057	116
381.282	101
381.507	99
381.733	99
381.958	103
382.184	94
382.409	101
382.634	106
382.86	95
383.085	99
383.31	88
383.535	97
383.761	87
383.986	91
384.211	96
384.436	100
384.662	103
384.887	94
385.112	98
385.337	95
385.562	103
385.787	109
386.013	108
386.238	122
386.463	124
386.688	108
386.913	95
387.138	89
387.363	90
387.588	103
387.813	88
388.038	105
388.263	111
388.488	91
388.713	95
388.938	107
389.163	89
389.387	86
389.612	75
389.837	93
390.062	107
390.287	98
390.512	91
390.736	91
390.961	77
391.186	94
391.411	81
391.636	91
391.86	92
392.085	93
392.31	102
392.534	87
392.759	79
392.984	98
393.208	84
393.433	81
393.658	80
393.882	93
394.107	89
394.331	85
394.556	90
394.78	85
395.005	91
395.229	90
395.454	92
395.678	93
395.903	85
396.127	90
396.352	101
396.576	98
396.801	100
397.025	88
397.249	83
397.474	87
397.698	90
397.922	95
398.147	85
398.371	90
398.595	78
398.82	108
399.044	100
399.268	98
399.492	92
399.717	91
399.941	93
400.165	93
400.389	114
400.613	78
400.837	89
401.062	87
401.286	90
401.51	92
401.734	108
401.958	135
402.182	190
402.406	290
402.63	196
402.854	121
403.078	104
403.302	81
403.526	79
403.75	89
403.974	95
404.198	91
404.422	100
404.645	96
404.869	115
405.093	146
405.317	168
405.541	183
405.765	138
405.988	177
406.212	310
406.436	470
406.66	309
406.883	145
407.107	128
407.331	123
407.555	136
407.778	114
408.002	113
408.226	103
408.449	96
408.673	94
408.896	96
409.12	109
409.344	95
409.567	97
409.791	79
410.014	80
410.238	105
410.461	79
410.685	88
410.908	100
411.132	110
411.355	103
411.578	103
411.802	86
412.025	109
412.249	94
412.472	129
412.695	172
412.919	107
413.142	92
413.365	97
413.589	92
413.812	87
414.035	88
414.258	95
414.482	91
414.705	95
414.928	87
415.151	91
415.374	83
415.597	95
415.821	89
416.044	103
416.267	99
416.49	80
416.713	89
416.936	88
417.159	104
417.382	95
417.605	125
417.828	136
418.051	116
418.274	90
418.497	95
418.72	89
418.943	92
419.166	77
419.389	87
419.611	89
419.834	113
420.057	88
420.28	112
420.503	78
420.726	89
420.948	119
421.171	110
421.394	95
421.617	78
421.839	90
422.062	84
422.285	89
422.507	101
422.73	120
422.953	104
423.175	93
423.398	96
423.621	89
423.843	80
424.066	91
424.288	95
424.511	100
424.733	107
424.956	137
425.178	115
425.401	110
425.623	101
425.846	102
426.068	98
426.291	116
426.513	102
426.735	106
426.958	93
427.18	149
427.402	233
427.625	350
427.847	316
428.069	258
428.292	161
428.514	116
428.736	80
428.958	97
429.181	93
429.403	89
429.625	94
429.847	99
430.069	118
430.292	108
430.514	88
430.736	87
430.958	109
431.18	78
431.402	80
431.624	80
431.846	103
432.068	101
432.29	88
432.512	83
432.734	95
432.956	76
433.178	106
433.4	98
433.622	85
433.844	105
434.066	99
434.287	92
434.509	94
434.731	96
434.953	94
435.175	98
435.397	87
435.618	94
435.84	122
436.062	151
436.284	133
436.505	113
436.727	112
436.949	77
437.17	80
437.392	97
437.614	114
437.835	157
438.057	187
438.278	156
438.5	135
438.721	154
438.943	133
439.165	93
439.386	88
439.608	97
439.829	157
440.05	175
440.272	208
440.493	131
440.715	94
440.936	88
441.158	102
441.379	86
441.6	106
441.822	102
442.043	113
442.264	133
442.486	121
442.707	119
442.928	165
443.149	202
443.371	210
443.592	153
443.813	149
444.034	147
444.255	105
444.476	102
444.698	79
444.919	103
445.14	136
445.361	151
445.582	154
445.803	247
446.024	222
446.245	192
446.466	146
446.687	85
446.908	95
447.129	95
447.35	107
447.571	107
447.792	100
448.013	121
448.234	149
448.455	125
448.675	145
448.896	144
449.117	93
449.338	116
449.559	164
449.779	163
450	119
450.221	95
450.442	83
450.662	108
450.883	164
451.104	181
451.324	131
451.545	96
451.766	89
451.986	95
452.207	89
452.428	112
452.648	115
452.869	144
453.089	157
453.31	188
453.53	128
453.751	120
453.971	133
454.192	165
454.412	118
454.633	97
454.853	102
455.073	95
455.294	113
455.514	108
455.734	89
455.955	88
456.175	83
456.395	89
456.616	76
456.836	95
457.056	88
457.276	78
457.497	87
457.717	88
457.937	95
458.157	107
458.377	111
458.598	155
458.818	284
459.038	327
459.258	179
459.478	107
459.698	86
459.918	81
460.138	84
460.358	95
460.578	85
460.798	112
461.018	79
461.238	90
461.458	96
461.678	102
461.898	84
462.118	81
462.338	87
462.558	93
462.777	92
462.997	107
463.217	145
463.437	125
463.657	97
463.876	84
464.096	97
464.316	110
464.536	120
464.755	121
464.975	157
465.195	347
465.414	369
465.634	129
465.854	95
466.073	102
466.293	101
466.512	96
466.732	109
466.951	109
467.171	103
467.391	127
467.61	196
467.829	334
468.049	1058
468.268	1575
468.488	365
468.707	146
468.927	101
469.146	78
469.365	93
469.585	103
469.804	126
470.023	145
470.243	135
470.462	145
470.681	177
470.901	106
471.12	111
471.339	119
471.558	137
471.777	216
471.997	493
472.216	2052
472.435	4608
472.654	953
472.873	221
473.092	126
473.311	112
473.53	95
473.749	98
473.968	124
474.187	149
474.406	133
474.625	103
474.844	103
475.063	102
475.282	84
475.501	100
475.72	94
475.939	84
476.158	95
476.377	84
476.596	87
476.814	113
477.033	118
477.252	98
477.471	112
477.69	113
477.908	101
478.127	104
478.346	108
478.564	106
478.783	135
479.002	126
479.22	136
479.439	155
479.658	175
479.876	157
480.095	139
480.313	183
480.532	236
480.751	443
480.969	1798
481.188	7814
481.406	4348
481.624	572
481.843	179
482.061	135
482.28	109
482.498	116
482.717	96
482.935	107
483.153	105
483.372	109
483.59	94
483.808	92
484.027	107
484.245	99
484.463	96
484.681	102
484.9	111
485.118	114
485.336	105
485.554	104
485.772	104
485.99	117
486.209	113
486.427	118
486.645	141
486.863	140
487.081	124
487.299	104
487.517	101
487.735	95
487.953	91
488.171	97
488.389	111
488.607	110
488.825	100
489.043	99
489.261	103
489.479	86
489.696	100
489.914	97
490.132	95
490.35	95
490.568	79
490.786	95
491.003	97
491.221	111
491.439	99
491.657	103
491.874	92
492.092	90
492.31	111
492.527	111
492.745	103
492.963	104
493.18	90
493.398	89
493.615	99
493.833	90
494.05	104
494.268	103
494.485	95
494.703	83
494.92	81
495.138	93
495.355	93
495.573	93
495.79	94
496.008	105
496.225	92
496.442	84
496.66	104
496.877	85
497.094	101
497.312	92
497.529	90
497.746	94
497.963	105
498.181	102
498.398	105
498.615	125
498.832	126
499.049	105
499.267	89
499.484	111
499.701	83
499.918	89
500.135	93
500.352	105
500.569	104
500.786	104
501.003	105
501.22	93
501.437	99
501.654	120
501.871	168
502.088	107
502.305	95
502.522	86
502.739	81
502.956	114
503.172	116
503.389	113
503.606	154
503.823	117
504.04	103
504.256	93
504.473	101
504.69	92
504.907	97
505.123	95
505.34	97
505.557	90
505.773	104
505.99	92
506.207	93
506.423	80
506.64	96
506.856	103
507.073	105
507.289	102
507.506	118
507.722	163
507.939	178
508.155	132
508.372	105
508.588	110
508.805	107
509.021	106
509.238	117
509.454	108
509.67	116
509.887	137
510.103	188
510.319	349
510.536	1522
510.752	5516
510.968	1382
511.184	238
511.401	152
511.617	131
511.833	143
512.049	112
512.265	101
512.481	106
512.698	102
512.914	87
513.13	99
513.346	107
513.562	115
513.778	128
513.994	132
514.21	145
514.426	182
514.642	262
514.858	221
515.074	341
515.29	1236
515.506	4574
515.721	1505
515.937	316
516.153	188
516.369	131
516.585	123
516.801	120
517.016	126
517.232	108
517.448	110
517.664	113
517.879	116
518.095	99
518.311	114
518.527	131
518.742	104
518.958	107
519.173	101
519.389	106
519.605	112
519.82	132
520.036	133
520.251	174
520.467	180
520.682	152
520.898	161
521.113	193
521.329	243
521.544	494
521.76	1624
521.975	7715
522.19	4425
522.406	795
522.621	222
522.836	153
523.052	114
523.267	110
523.482	110
523.698	142
523.913	183
524.128	138
524.343	101
524.559	105
524.774	110
524.989	115
525.204	138
525.419	121
525.634	121
525.849	105
526.064	81
526.28	89
526.495	83
526.71	91
526.925	89
527.14	93
527.355	93
527.57	95
527.785	86
527.999	100
528.214	84
528.429	103
528.644	92
528.859	101
529.074	114
529.289	184
529.503	430
529.718	164
529.933	87
530.148	85
530.363	78
530.577	89
530.792	80
531.007	99
531.221	107
531.436	90
531.651	92
531.865	102
532.08	102
532.295	96
532.509	101
532.724	96
532.938	97
533.153	93
533.367	113
533.582	103
533.796	90
534.011	90
534.225	100
534.44	95
534.654	104
534.868	91
535.083	92
535.297	97
535.511	104
535.726	141
535.94	119
536.154	105
536.369	92
536.583	95
536.797	88
537.011	106
537.225	98
537.44	93
537.654	94
537.868	96
538.082	109
538.296	98
538.51	91
538.724	91
538.938	97
539.153	123
539.367	145
539.581	115
539.795	101
540.009	103
540.222	101
540.436	79
540.65	91
540.864	100
541.078	101
541.292	111
541.506	82
541.72	90
541.934	89
542.147	106
542.361	78
542.575	76
542.789	94
543.002	95
543.216	105
543.43	125
543.644	102
543.857	95
544.071	98
544.285	96
544.498	99
544.712	100
544.925	91
545.139	83
545.352	94
545.566	86
545.779	61
545.993	97
546.206	94
546.42	86
546.633	104
546.847	89
547.06	94
547.274	100
547.487	89
547.7	86
547.914	86
548.127	97
548.34	97
548.554	92
548.767	97
548.98	99
549.193	94
549.407	83
549.62	101
549.833	93
550.046	97
550.259	88
550.473	99
550.686	105
550.899	84
551.112	88
551.325	98
551.538	111
551.751	102
551.964	82
552.177	83
552.39	100
552.603	85
552.816	95
553.029	92
553.242	110
553.455	106
553.667	146
553.88	138
554.093	118
554.306	137
554.519	131
554.732	112
554.944	103
555.157	100
555.37	85
555.583	101
555.795	108
556.008	83
556.221	87
556.433	76
556.646	96
556.859	94
557.071	102
557.284	90
557.496	100
557.709	95
557.921	87
558.134	81
558.346	83
558.559	91
558.771	104
558.984	91
559.196	102
559.409	99
559.621	81
559.833	97
560.046	94
560.258	136
560.47	191
560.683	120
560.895	103
561.107	102
561.32	96
561.532	94
561.744	89
561.956	103
562.168	98
562.381	93
562.593	84
562.805	99
563.017	88
563.229	89
563.441	90
563.653	83
563.865	64
564.077	96
564.289	92
564.501	91
564.713	101
564.925	117
565.137	123
565.349	92
565.561	101
565.773	93
565.985	105
566.197	92
566.408	81
566.62	81
566.832	88
567.044	97
567.255	83
567.467	73
567.679	79
567.891	75
568.102	93
568.314	92
568.526	88
568.737	91
568.949	87
569.161	101
569.372	79
569.584	83
569.795	109
570.007	145
570.218	464
570.43	207
570.641	95
570.853	92
571.064	89
571.276	107
571.487	89
571.698	89
571.91	85
572.121	92
572.333	77
572.544	89
572.755	94
572.966	88
573.178	96
573.389	101
573.6	108
573.811	80
574.023	76
574.234	84
574.445	89
574.656	84
574.867	79
575.078	95
575.289	86
575.501	89
575.712	96
575.923	89
576.134	93
576.345	92
576.556	84
